Data from Fe(NO3)3@0.0125M.TitratingCurve.Agarose3%dH2O.NegLispCup.LampEnergy10.LIBS07252019_HRD10591_17-01-13-336.txt Node
Date: Thu Jul 25 17:01:13 EDT 2019
User: cochatt
Spectrometer: HR+D1059
Trigger mode: 1
Integration Time (sec): 1.000000E-1
Scans to average: 1
Electric dark correction enabled: true
Nonlinearity correction enabled: false
Boxcar width: 0
XAxis mode: Wavelengths
Number of Pixels in Spectrum: 2048
>>>>>Begin Spectral Data<<<<<
223.165	-15.5
223.4	-15.5
223.635	-15.5
223.869	-34.5
224.104	-13.5
224.338	-16.5
224.573	-6.5
224.808	-18.5
225.042	-6.5
225.277	-0.5
225.511	-12.5
225.746	7.5
225.98	11.5
226.215	6.5
226.449	18.5
226.683	16.5
226.918	31.5
227.152	32.5
227.387	43.5
227.621	43.5
227.856	45.5
228.09	19.5
228.324	33.5
228.559	45.5
228.793	47.5
229.027	79.5
229.262	74.5
229.496	71.5
229.73	88.5
229.964	88.5
230.199	96.5
230.433	94.5
230.667	85.5
230.901	83.5
231.136	113.5
231.37	104.5
231.604	112.5
231.838	93.5
232.072	104.5
232.306	98.5
232.541	94.5
232.775	93.5
233.009	118.5
233.243	92.5
233.477	112.5
233.711	97.5
233.945	101.5
234.179	106.5
234.413	109.5
234.647	111.5
234.881	105.5
235.115	109.5
235.349	110.5
235.583	113.5
235.817	112.5
236.051	105.5
236.285	98.5
236.519	92.5
236.753	96.5
236.987	100.5
237.221	94.5
237.455	107.5
237.689	111.5
237.922	99.5
238.156	100.5
238.39	101.5
238.624	111.5
238.858	117.5
239.091	99.5
239.325	129.5
239.559	116.5
239.793	104.5
240.027	113.5
240.26	101.5
240.494	97.5
240.728	113.5
240.961	125.5
241.195	125.5
241.429	110.5
241.662	113.5
241.896	115.5
242.13	119.5
242.363	108.5
242.597	118.5
242.83	115.5
243.064	127.5
243.298	112.5
243.531	129.5
243.765	115.5
243.998	125.5
244.232	113.5
244.465	126.5
244.699	114.5
244.932	134.5
245.166	122.5
245.399	136.5
245.633	104.5
245.866	126.5
246.099	135.5
246.333	137.5
246.566	146.5
246.8	135.5
247.033	145.5
247.266	139.5
247.5	140.5
247.733	110.5
247.966	136.5
248.2	132.5
248.433	134.5
248.666	149.5
248.899	135.5
249.133	136.5
249.366	126.5
249.599	137.5
249.832	153.5
250.066	154.5
250.299	139.5
250.532	137.5
250.765	129.5
250.998	138.5
251.231	154.5
251.465	135.5
251.698	150.5
251.931	139.5
252.164	148.5
252.397	141.5
252.63	159.5
252.863	149.5
253.096	154.5
253.329	143.5
253.562	149.5
253.795	151.5
254.028	146.5
254.261	137.5
254.494	146.5
254.727	151.5
254.96	127.5
255.193	163.5
255.426	142.5
255.659	149.5
255.892	163.5
256.124	150.5
256.357	134.5
256.59	162.5
256.823	149.5
257.056	157.5
257.289	162.5
257.521	174.5
257.754	163.5
257.987	153.5
258.22	153.5
258.452	158.5
258.685	178.5
258.918	177.5
259.151	152.5
259.383	169.5
259.616	170.5
259.849	166.5
260.081	176.5
260.314	166.5
260.547	173.5
260.779	179.5
261.012	165.5
261.244	188.5
261.477	171.5
261.71	175.5
261.942	168.5
262.175	168.5
262.407	168.5
262.64	183.5
262.872	187.5
263.105	166.5
263.337	178.5
263.57	173.5
263.802	182.5
264.035	175.5
264.267	165.5
264.499	169.5
264.732	169.5
264.964	165.5
265.197	174.5
265.429	187.5
265.661	165.5
265.894	196.5
266.126	185.5
266.358	182.5
266.591	197.5
266.823	178.5
267.055	181.5
267.287	184.5
267.52	185.5
267.752	201.5
267.984	179.5
268.216	181.5
268.448	193.5
268.681	173.5
268.913	195.5
269.145	199.5
269.377	179.5
269.609	192.5
269.841	196.5
270.073	173.5
270.306	169.5
270.538	187.5
270.77	179.5
271.002	195.5
271.234	205.5
271.466	180.5
271.698	192.5
271.93	198.5
272.162	182.5
272.394	203.5
272.626	193.5
272.858	205.5
273.09	190.5
273.322	196.5
273.553	210.5
273.785	208.5
274.017	217.5
274.249	218.5
274.481	223.5
274.713	213.5
274.945	219.5
275.176	227.5
275.408	222.5
275.64	224.5
275.872	203.5
276.104	209.5
276.335	206.5
276.567	229.5
276.799	209.5
277.031	216.5
277.262	210.5
277.494	226.5
277.726	205.5
277.957	205.5
278.189	216.5
278.421	225.5
278.652	222.5
278.884	216.5
279.115	218.5
279.347	234.5
279.579	213.5
279.81	230.5
280.042	227.5
280.273	234.5
280.505	232.5
280.736	221.5
280.968	229.5
281.199	225.5
281.431	216.5
281.662	218.5
281.894	225.5
282.125	225.5
282.356	250.5
282.588	225.5
282.819	240.5
283.051	220.5
283.282	244.5
283.513	225.5
283.745	239.5
283.976	229.5
284.207	255.5
284.439	248.5
284.67	246.5
284.901	250.5
285.132	233.5
285.364	221.5
285.595	238.5
285.826	241.5
286.057	248.5
286.288	241.5
286.52	245.5
286.751	235.5
286.982	253.5
287.213	238.5
287.444	242.5
287.675	251.5
287.906	262.5
288.138	255.5
288.369	252.5
288.6	265.5
288.831	257.5
289.062	271.5
289.293	261.5
289.524	255.5
289.755	253.5
289.986	236.5
290.217	268.5
290.448	261.5
290.679	229.5
290.91	239.5
291.141	262.5
291.371	279.5
291.602	244.5
291.833	240.5
292.064	235.5
292.295	232.5
292.526	254.5
292.757	271.5
292.987	254.5
293.218	248.5
293.449	246.5
293.68	261.5
293.91	245.5
294.141	257.5
294.372	256.5
294.603	250.5
294.833	270.5
295.064	255.5
295.295	265.5
295.525	262.5
295.756	262.5
295.987	254.5
296.217	268.5
296.448	271.5
296.679	282.5
296.909	272.5
297.14	273.5
297.37	283.5
297.601	282.5
297.831	262.5
298.062	277.5
298.292	282.5
298.523	286.5
298.753	289.5
298.984	270.5
299.214	292.5
299.445	295.5
299.675	297.5
299.905	272.5
300.136	281.5
300.366	282.5
300.597	285.5
300.827	287.5
301.057	287.5
301.288	297.5
301.518	283.5
301.748	280.5
301.979	290.5
302.209	291.5
302.439	304.5
302.669	313.5
302.9	304.5
303.13	289.5
303.36	298.5
303.59	315.5
303.82	295.5
304.051	287.5
304.281	294.5
304.511	311.5
304.741	292.5
304.971	302.5
305.201	308.5
305.431	297.5
305.661	306.5
305.891	303.5
306.121	284.5
306.352	301.5
306.582	310.5
306.812	295.5
307.042	317.5
307.272	296.5
307.502	286.5
307.731	278.5
307.961	286.5
308.191	292.5
308.421	287.5
308.651	322.5
308.881	304.5
309.111	307.5
309.341	305.5
309.571	302.5
309.8	303.5
310.03	299.5
310.26	325.5
310.49	303.5
310.72	307.5
310.949	312.5
311.179	303.5
311.409	313.5
311.639	308.5
311.868	295.5
312.098	306.5
312.328	308.5
312.557	331.5
312.787	314.5
313.017	315.5
313.246	288.5
313.476	311.5
313.706	315.5
313.935	332.5
314.165	344.5
314.394	333.5
314.624	321.5
314.853	311.5
315.083	293.5
315.312	328.5
315.542	335.5
315.771	305.5
316.001	325.5
316.23	341.5
316.46	330.5
316.689	333.5
316.919	319.5
317.148	320.5
317.377	347.5
317.607	326.5
317.836	326.5
318.065	330.5
318.295	347.5
318.524	333.5
318.753	310.5
318.983	310.5
319.212	334.5
319.441	337.5
319.67	331.5
319.9	345.5
320.129	330.5
320.358	333.5
320.587	323.5
320.816	338.5
321.046	323.5
321.275	341.5
321.504	348.5
321.733	329.5
321.962	342.5
322.191	326.5
322.42	330.5
322.649	354.5
322.878	339.5
323.108	339.5
323.337	325.5
323.566	349.5
323.795	351.5
324.024	353.5
324.253	352.5
324.482	340.5
324.71	325.5
324.939	341.5
325.168	344.5
325.397	354.5
325.626	326.5
325.855	354.5
326.084	345.5
326.313	357.5
326.542	351.5
326.77	369.5
326.999	347.5
327.228	364.5
327.457	358.5
327.686	349.5
327.914	354.5
328.143	351.5
328.372	362.5
328.6	361.5
328.829	365.5
329.058	357.5
329.287	371.5
329.515	379.5
329.744	356.5
329.972	371.5
330.201	367.5
330.43	380.5
330.658	375.5
330.887	393.5
331.115	371.5
331.344	399.5
331.572	390.5
331.801	379.5
332.03	400.5
332.258	395.5
332.486	394.5
332.715	405.5
332.943	392.5
333.172	398.5
333.4	429.5
333.629	413.5
333.857	414.5
334.085	411.5
334.314	413.5
334.542	418.5
334.771	421.5
334.999	403.5
335.227	418.5
335.455	433.5
335.684	423.5
335.912	432.5
336.14	443.5
336.369	399.5
336.597	418.5
336.825	424.5
337.053	408.5
337.281	392.5
337.51	385.5
337.738	417.5
337.966	396.5
338.194	413.5
338.422	415.5
338.65	400.5
338.878	391.5
339.106	381.5
339.334	394.5
339.562	389.5
339.79	386.5
340.018	388.5
340.246	382.5
340.474	362.5
340.702	376.5
340.93	402.5
341.158	376.5
341.386	377.5
341.614	398.5
341.842	374.5
342.07	398.5
342.298	402.5
342.526	403.5
342.754	389.5
342.981	404.5
343.209	403.5
343.437	396.5
343.665	401.5
343.893	425.5
344.12	415.5
344.348	447.5
344.576	413.5
344.804	403.5
345.031	389.5
345.259	402.5
345.487	386.5
345.714	399.5
345.942	378.5
346.17	396.5
346.397	381.5
346.625	371.5
346.853	399.5
347.08	379.5
347.308	361.5
347.535	376.5
347.763	377.5
347.99	365.5
348.218	369.5
348.445	363.5
348.673	369.5
348.9	385.5
349.128	373.5
349.355	369.5
349.583	373.5
349.81	399.5
350.037	385.5
350.265	373.5
350.492	369.5
350.72	377.5
350.947	360.5
351.174	385.5
351.402	375.5
351.629	373.5
351.856	377.5
352.083	381.5
352.311	359.5
352.538	354.5
352.765	382.5
352.992	354.5
353.22	365.5
353.447	354.5
353.674	383.5
353.901	377.5
354.128	356.5
354.355	371.5
354.583	365.5
354.81	381.5
355.037	376.5
355.264	394.5
355.491	384.5
355.718	381.5
355.945	382.5
356.172	381.5
356.399	362.5
356.626	361.5
356.853	392.5
357.08	368.5
357.307	385.5
357.534	373.5
357.761	385.5
357.988	384.5
358.215	390.5
358.441	385.5
358.668	372.5
358.895	383.5
359.122	375.5
359.349	367.5
359.576	371.5
359.802	382.5
360.029	390.5
360.256	366.5
360.483	362.5
360.709	345.5
360.936	360.5
361.163	357.5
361.39	370.5
361.616	398.5
361.843	366.5
362.07	388.5
362.296	380.5
362.523	370.5
362.749	378.5
362.976	363.5
363.203	375.5
363.429	367.5
363.656	388.5
363.882	377.5
364.109	396.5
364.335	386.5
364.562	385.5
364.788	396.5
365.015	389.5
365.241	367.5
365.468	379.5
365.694	378.5
365.92	384.5
366.147	390.5
366.373	385.5
366.599	391.5
366.826	389.5
367.052	391.5
367.278	392.5
367.505	367.5
367.731	399.5
367.957	416.5
368.184	374.5
368.41	388.5
368.636	411.5
368.862	382.5
369.089	402.5
369.315	404.5
369.541	398.5
369.767	389.5
369.993	399.5
370.219	393.5
370.445	395.5
370.672	394.5
370.898	381.5
371.124	423.5
371.35	394.5
371.576	413.5
371.802	414.5
372.028	410.5
372.254	429.5
372.48	416.5
372.706	407.5
372.932	403.5
373.158	417.5
373.384	426.5
373.61	433.5
373.835	420.5
374.061	417.5
374.287	410.5
374.513	431.5
374.739	446.5
374.965	427.5
375.191	445.5
375.416	421.5
375.642	431.5
375.868	432.5
376.094	446.5
376.319	413.5
376.545	399.5
376.771	430.5
376.997	410.5
377.222	399.5
377.448	421.5
377.674	412.5
377.899	404.5
378.125	420.5
378.35	420.5
378.576	408.5
378.802	404.5
379.027	411.5
379.253	426.5
379.478	422.5
379.704	414.5
379.929	426.5
380.155	396.5
380.38	407.5
380.606	418.5
380.831	405.5
381.057	419.5
381.282	404.5
381.507	433.5
381.733	411.5
381.958	413.5
382.184	442.5
382.409	421.5
382.634	434.5
382.86	431.5
383.085	418.5
383.31	446.5
383.535	430.5
383.761	443.5
383.986	450.5
384.211	445.5
384.436	445.5
384.662	463.5
384.887	472.5
385.112	473.5
385.337	466.5
385.562	455.5
385.787	468.5
386.013	486.5
386.238	471.5
386.463	474.5
386.688	462.5
386.913	453.5
387.138	458.5
387.363	466.5
387.588	477.5
387.813	485.5
388.038	470.5
388.263	475.5
388.488	460.5
388.713	482.5
388.938	474.5
389.163	463.5
389.387	481.5
389.612	469.5
389.837	473.5
390.062	469.5
390.287	479.5
390.512	479.5
390.736	474.5
390.961	479.5
391.186	468.5
391.411	477.5
391.636	509.5
391.86	501.5
392.085	486.5
392.31	511.5
392.534	509.5
392.759	528.5
392.984	514.5
393.208	504.5
393.433	502.5
393.658	491.5
393.882	497.5
394.107	490.5
394.331	487.5
394.556	501.5
394.78	501.5
395.005	486.5
395.229	487.5
395.454	506.5
395.678	514.5
395.903	521.5
396.127	523.5
396.352	514.5
396.576	519.5
396.801	527.5
397.025	536.5
397.249	542.5
397.474	536.5
397.698	535.5
397.922	544.5
398.147	539.5
398.371	539.5
398.595	565.5
398.82	563.5
399.044	587.5
399.268	612.5
399.492	639.5
399.717	658.5
399.941	685.5
400.165	659.5
400.389	612.5
400.613	615.5
400.837	581.5
401.062	571.5
401.286	577.5
401.51	577.5
401.734	568.5
401.958	574.5
402.182	546.5
402.406	567.5
402.63	586.5
402.854	596.5
403.078	573.5
403.302	583.5
403.526	583.5
403.75	564.5
403.974	588.5
404.198	568.5
404.422	598.5
404.645	603.5
404.869	590.5
405.093	603.5
405.317	568.5
405.541	578.5
405.765	558.5
405.988	569.5
406.212	584.5
406.436	595.5
406.66	609.5
406.883	599.5
407.107	607.5
407.331	639.5
407.555	656.5
407.778	647.5
408.002	631.5
408.226	636.5
408.449	625.5
408.673	608.5
408.896	616.5
409.12	612.5
409.344	622.5
409.567	591.5
409.791	628.5
410.014	631.5
410.238	601.5
410.461	607.5
410.685	574.5
410.908	592.5
411.132	581.5
411.355	597.5
411.578	576.5
411.802	577.5
412.025	581.5
412.249	587.5
412.472	555.5
412.695	552.5
412.919	573.5
413.142	575.5
413.365	558.5
413.589	567.5
413.812	561.5
414.035	569.5
414.258	575.5
414.482	555.5
414.705	558.5
414.928	570.5
415.151	574.5
415.374	555.5
415.597	557.5
415.821	570.5
416.044	557.5
416.267	544.5
416.49	537.5
416.713	537.5
416.936	559.5
417.159	537.5
417.382	547.5
417.605	526.5
417.828	526.5
418.051	544.5
418.274	545.5
418.497	551.5
418.72	566.5
418.943	554.5
419.166	583.5
419.389	581.5
419.611	579.5
419.834	573.5
420.057	557.5
420.28	532.5
420.503	536.5
420.726	560.5
420.948	533.5
421.171	563.5
421.394	552.5
421.617	545.5
421.839	542.5
422.062	530.5
422.285	541.5
422.507	552.5
422.73	528.5
422.953	554.5
423.175	527.5
423.398	550.5
423.621	539.5
423.843	545.5
424.066	537.5
424.288	552.5
424.511	548.5
424.733	540.5
424.956	545.5
425.178	537.5
425.401	528.5
425.623	537.5
425.846	528.5
426.068	544.5
426.291	521.5
426.513	515.5
426.735	513.5
426.958	536.5
427.18	500.5
427.402	522.5
427.625	514.5
427.847	500.5
428.069	511.5
428.292	531.5
428.514	480.5
428.736	491.5
428.958	519.5
429.181	491.5
429.403	495.5
429.625	501.5
429.847	512.5
430.069	474.5
430.292	482.5
430.514	484.5
430.736	502.5
430.958	508.5
431.18	504.5
431.402	491.5
431.624	498.5
431.846	521.5
432.068	513.5
432.29	488.5
432.512	524.5
432.734	514.5
432.956	491.5
433.178	518.5
433.4	519.5
433.622	521.5
433.844	530.5
434.066	515.5
434.287	541.5
434.509	531.5
434.731	543.5
434.953	514.5
435.175	535.5
435.397	535.5
435.618	530.5
435.84	497.5
436.062	506.5
436.284	493.5
436.505	493.5
436.727	505.5
436.949	497.5
437.17	482.5
437.392	509.5
437.614	499.5
437.835	474.5
438.057	474.5
438.278	492.5
438.5	491.5
438.721	496.5
438.943	482.5
439.165	491.5
439.386	487.5
439.608	500.5
439.829	484.5
440.05	513.5
440.272	521.5
440.493	507.5
440.715	524.5
440.936	513.5
441.158	528.5
441.379	530.5
441.6	521.5
441.822	533.5
442.043	521.5
442.264	524.5
442.486	520.5
442.707	527.5
442.928	535.5
443.149	530.5
443.371	506.5
443.592	533.5
443.813	535.5
444.034	547.5
444.255	553.5
444.476	572.5
444.698	567.5
444.919	583.5
445.14	640.5
445.361	580.5
445.582	545.5
445.803	525.5
446.024	509.5
446.245	519.5
446.466	504.5
446.687	497.5
446.908	501.5
447.129	491.5
447.35	488.5
447.571	480.5
447.792	481.5
448.013	485.5
448.234	461.5
448.455	460.5
448.675	454.5
448.896	467.5
449.117	485.5
449.338	464.5
449.559	463.5
449.779	464.5
450	450.5
450.221	459.5
450.442	459.5
450.662	454.5
450.883	447.5
451.104	463.5
451.324	453.5
451.545	459.5
451.766	473.5
451.986	469.5
452.207	467.5
452.428	456.5
452.648	458.5
452.869	451.5
453.089	457.5
453.31	461.5
453.53	455.5
453.751	461.5
453.971	466.5
454.192	446.5
454.412	451.5
454.633	452.5
454.853	415.5
455.073	419.5
455.294	434.5
455.514	457.5
455.734	441.5
455.955	438.5
456.175	460.5
456.395	452.5
456.616	452.5
456.836	448.5
457.056	437.5
457.276	446.5
457.497	437.5
457.717	453.5
457.937	454.5
458.157	466.5
458.377	464.5
458.598	468.5
458.818	460.5
459.038	504.5
459.258	494.5
459.478	500.5
459.698	505.5
459.918	488.5
460.138	527.5
460.358	549.5
460.578	536.5
460.798	545.5
461.018	541.5
461.238	538.5
461.458	526.5
461.678	547.5
461.898	554.5
462.118	574.5
462.338	575.5
462.558	605.5
462.777	587.5
462.997	611.5
463.217	606.5
463.437	611.5
463.657	589.5
463.876	625.5
464.096	626.5
464.316	585.5
464.536	612.5
464.755	595.5
464.975	574.5
465.195	551.5
465.414	547.5
465.634	521.5
465.854	537.5
466.073	523.5
466.293	519.5
466.512	490.5
466.732	484.5
466.951	486.5
467.171	510.5
467.391	502.5
467.61	499.5
467.829	507.5
468.049	502.5
468.268	460.5
468.488	474.5
468.707	480.5
468.927	489.5
469.146	477.5
469.365	494.5
469.585	477.5
469.804	502.5
470.023	500.5
470.243	470.5
470.462	498.5
470.681	493.5
470.901	488.5
471.12	483.5
471.339	486.5
471.558	490.5
471.777	471.5
471.997	487.5
472.216	500.5
472.435	489.5
472.654	471.5
472.873	466.5
473.092	500.5
473.311	495.5
473.53	480.5
473.749	499.5
473.968	484.5
474.187	467.5
474.406	481.5
474.625	483.5
474.844	488.5
475.063	498.5
475.282	480.5
475.501	503.5
475.72	503.5
475.939	498.5
476.158	506.5
476.377	505.5
476.596	518.5
476.814	507.5
477.033	514.5
477.252	533.5
477.471	520.5
477.69	532.5
477.908	529.5
478.127	560.5
478.346	555.5
478.564	560.5
478.783	547.5
479.002	574.5
479.22	565.5
479.439	576.5
479.658	579.5
479.876	601.5
480.095	578.5
480.313	587.5
480.532	632.5
480.751	582.5
480.969	605.5
481.188	566.5
481.406	590.5
481.624	585.5
481.843	567.5
482.061	576.5
482.28	580.5
482.498	578.5
482.717	581.5
482.935	578.5
483.153	568.5
483.372	592.5
483.59	568.5
483.808	572.5
484.027	580.5
484.245	599.5
484.463	588.5
484.681	603.5
484.9	587.5
485.118	601.5
485.336	604.5
485.554	588.5
485.772	606.5
485.99	581.5
486.209	582.5
486.427	593.5
486.645	595.5
486.863	597.5
487.081	576.5
487.299	595.5
487.517	607.5
487.735	592.5
487.953	588.5
488.171	607.5
488.389	583.5
488.607	568.5
488.825	591.5
489.043	586.5
489.261	590.5
489.479	595.5
489.696	581.5
489.914	583.5
490.132	603.5
490.35	598.5
490.568	605.5
490.786	588.5
491.003	591.5
491.221	617.5
491.439	602.5
491.657	598.5
491.874	624.5
492.092	584.5
492.31	604.5
492.527	609.5
492.745	619.5
492.963	610.5
493.18	598.5
493.398	617.5
493.615	618.5
493.833	599.5
494.05	624.5
494.268	621.5
494.485	635.5
494.703	624.5
494.92	630.5
495.138	627.5
495.355	625.5
495.573	633.5
495.79	635.5
496.008	629.5
496.225	664.5
496.442	655.5
496.66	644.5
496.877	671.5
497.094	681.5
497.312	662.5
497.529	675.5
497.746	685.5
497.963	719.5
498.181	716.5
498.398	739.5
498.615	773.5
498.832	788.5
499.049	848.5
499.267	854.5
499.484	880.5
499.701	968.5
499.918	997.5
500.135	1058.5
500.352	1136.5
500.569	1146.5
500.786	1135.5
501.003	1098.5
501.22	1055.5
501.437	966.5
501.654	909.5
501.871	882.5
502.088	862.5
502.305	802.5
502.522	792.5
502.739	773.5
502.956	741.5
503.172	736.5
503.389	705.5
503.606	666.5
503.823	661.5
504.04	679.5
504.256	685.5
504.473	680.5
504.69	657.5
504.907	667.5
505.123	633.5
505.34	630.5
505.557	597.5
505.773	597.5
505.99	606.5
506.207	569.5
506.423	583.5
506.64	565.5
506.856	573.5
507.073	567.5
507.289	549.5
507.506	550.5
507.722	539.5
507.939	551.5
508.155	550.5
508.372	557.5
508.588	546.5
508.805	545.5
509.021	526.5
509.238	522.5
509.454	520.5
509.67	495.5
509.887	511.5
510.103	497.5
510.319	501.5
510.536	521.5
510.752	511.5
510.968	506.5
511.184	505.5
511.401	535.5
511.617	493.5
511.833	503.5
512.049	500.5
512.265	509.5
512.481	517.5
512.698	490.5
512.914	517.5
513.13	515.5
513.346	521.5
513.562	531.5
513.778	511.5
513.994	511.5
514.21	528.5
514.426	515.5
514.642	529.5
514.858	503.5
515.074	518.5
515.29	527.5
515.506	520.5
515.721	519.5
515.937	526.5
516.153	518.5
516.369	542.5
516.585	560.5
516.801	554.5
517.016	573.5
517.232	589.5
517.448	582.5
517.664	612.5
517.879	585.5
518.095	570.5
518.311	600.5
518.527	573.5
518.742	597.5
518.958	553.5
519.173	553.5
519.389	543.5
519.605	531.5
