Data from Fe(NO3)3@0.05M.TitratingCurve.Agarose3%dH2O.NegLispCup.LampEnergy10.LIBS07252019_HRD10591_16-46-40-334.txt Node
Date: Thu Jul 25 16:46:40 EDT 2019
User: cochatt
Spectrometer: HR+D1059
Trigger mode: 1
Integration Time (sec): 1.000000E-1
Scans to average: 1
Electric dark correction enabled: true
Nonlinearity correction enabled: false
Boxcar width: 0
XAxis mode: Wavelengths
Number of Pixels in Spectrum: 2048
>>>>>Begin Spectral Data<<<<<
223.165	-23.75
223.4	-23.75
223.635	-23.75
223.869	-24.75
224.104	-2.75
224.338	-8.75
224.573	-6.75
224.808	-30.75
225.042	-3.75
225.277	4.25
225.511	-9.75
225.746	12.25
225.98	4.25
226.215	21.25
226.449	21.25
226.683	6.25
226.918	24.25
227.152	17.25
227.387	34.25
227.621	44.25
227.856	35.25
228.09	42.25
228.324	46.25
228.559	43.25
228.793	62.25
229.027	107.25
229.262	120.25
229.496	117.25
229.73	136.25
229.964	137.25
230.199	130.25
230.433	140.25
230.667	134.25
230.901	133.25
231.136	154.25
231.37	138.25
231.604	130.25
231.838	161.25
232.072	151.25
232.306	162.25
232.541	169.25
232.775	153.25
233.009	173.25
233.243	169.25
233.477	158.25
233.711	172.25
233.945	177.25
234.179	178.25
234.413	182.25
234.647	185.25
234.881	168.25
235.115	180.25
235.349	175.25
235.583	173.25
235.817	184.25
236.051	185.25
236.285	185.25
236.519	205.25
236.753	188.25
236.987	209.25
237.221	192.25
237.455	190.25
237.689	192.25
237.922	169.25
238.156	195.25
238.39	199.25
238.624	216.25
238.858	211.25
239.091	218.25
239.325	202.25
239.559	210.25
239.793	229.25
240.027	229.25
240.26	212.25
240.494	213.25
240.728	217.25
240.961	226.25
241.195	224.25
241.429	236.25
241.662	222.25
241.896	217.25
242.13	214.25
242.363	237.25
242.597	234.25
242.83	234.25
243.064	252.25
243.298	224.25
243.531	229.25
243.765	220.25
243.998	256.25
244.232	262.25
244.465	251.25
244.699	242.25
244.932	277.25
245.166	250.25
245.399	263.25
245.633	251.25
245.866	258.25
246.099	262.25
246.333	261.25
246.566	276.25
246.8	251.25
247.033	247.25
247.266	273.25
247.5	243.25
247.733	284.25
247.966	283.25
248.2	280.25
248.433	276.25
248.666	282.25
248.899	285.25
249.133	279.25
249.366	291.25
249.599	300.25
249.832	310.25
250.066	300.25
250.299	283.25
250.532	301.25
250.765	296.25
250.998	296.25
251.231	280.25
251.465	284.25
251.698	290.25
251.931	322.25
252.164	328.25
252.397	295.25
252.63	313.25
252.863	356.25
253.096	324.25
253.329	330.25
253.562	372.25
253.795	354.25
254.028	349.25
254.261	370.25
254.494	345.25
254.727	321.25
254.96	328.25
255.193	347.25
255.426	340.25
255.659	327.25
255.892	345.25
256.124	347.25
256.357	356.25
256.59	365.25
256.823	345.25
257.056	353.25
257.289	335.25
257.521	334.25
257.754	338.25
257.987	363.25
258.22	374.25
258.452	375.25
258.685	379.25
258.918	395.25
259.151	377.25
259.383	379.25
259.616	372.25
259.849	413.25
260.081	425.25
260.314	465.25
260.547	403.25
260.779	395.25
261.012	408.25
261.244	408.25
261.477	432.25
261.71	405.25
261.942	395.25
262.175	394.25
262.407	395.25
262.64	419.25
262.872	419.25
263.105	435.25
263.337	435.25
263.57	423.25
263.802	407.25
264.035	411.25
264.267	391.25
264.499	392.25
264.732	399.25
264.964	414.25
265.197	404.25
265.429	405.25
265.661	410.25
265.894	399.25
266.126	410.25
266.358	404.25
266.591	419.25
266.823	435.25
267.055	418.25
267.287	416.25
267.52	406.25
267.752	394.25
267.984	416.25
268.216	423.25
268.448	432.25
268.681	419.25
268.913	434.25
269.145	432.25
269.377	441.25
269.609	429.25
269.841	452.25
270.073	438.25
270.306	433.25
270.538	448.25
270.77	444.25
271.002	453.25
271.234	457.25
271.466	459.25
271.698	475.25
271.93	457.25
272.162	486.25
272.394	477.25
272.626	464.25
272.858	466.25
273.09	477.25
273.322	473.25
273.553	491.25
273.785	501.25
274.017	512.25
274.249	548.25
274.481	556.25
274.713	558.25
274.945	589.25
275.176	591.25
275.408	550.25
275.64	553.25
275.872	583.25
276.104	528.25
276.335	493.25
276.567	524.25
276.799	520.25
277.031	540.25
277.262	521.25
277.494	492.25
277.726	520.25
277.957	502.25
278.189	537.25
278.421	520.25
278.652	526.25
278.884	513.25
279.115	523.25
279.347	540.25
279.579	522.25
279.81	516.25
280.042	525.25
280.273	541.25
280.505	525.25
280.736	531.25
280.968	537.25
281.199	543.25
281.431	542.25
281.662	538.25
281.894	539.25
282.125	525.25
282.356	565.25
282.588	539.25
282.819	548.25
283.051	546.25
283.282	564.25
283.513	560.25
283.745	564.25
283.976	569.25
284.207	562.25
284.439	576.25
284.67	556.25
284.901	557.25
285.132	573.25
285.364	591.25
285.595	570.25
285.826	561.25
286.057	557.25
286.288	561.25
286.52	572.25
286.751	587.25
286.982	578.25
287.213	588.25
287.444	567.25
287.675	600.25
287.906	587.25
288.138	581.25
288.369	604.25
288.6	578.25
288.831	607.25
289.062	593.25
289.293	602.25
289.524	601.25
289.755	596.25
289.986	586.25
290.217	581.25
290.448	607.25
290.679	580.25
290.91	621.25
291.141	616.25
291.371	601.25
291.602	610.25
291.833	598.25
292.064	628.25
292.295	627.25
292.526	598.25
292.757	615.25
292.987	604.25
293.218	613.25
293.449	612.25
293.68	610.25
293.91	613.25
294.141	602.25
294.372	605.25
294.603	606.25
294.833	600.25
295.064	621.25
295.295	631.25
295.525	632.25
295.756	619.25
295.987	621.25
296.217	625.25
296.448	628.25
296.679	628.25
296.909	631.25
297.14	651.25
297.37	636.25
297.601	664.25
297.831	647.25
298.062	655.25
298.292	651.25
298.523	679.25
298.753	662.25
298.984	657.25
299.214	677.25
299.445	672.25
299.675	653.25
299.905	664.25
300.136	645.25
300.366	672.25
300.597	655.25
300.827	647.25
301.057	666.25
301.288	662.25
301.518	662.25
301.748	662.25
301.979	705.25
302.209	710.25
302.439	697.25
302.669	697.25
302.9	692.25
303.13	683.25
303.36	686.25
303.59	684.25
303.82	697.25
304.051	715.25
304.281	692.25
304.511	678.25
304.741	685.25
304.971	691.25
305.201	706.25
305.431	693.25
305.661	677.25
305.891	717.25
306.121	688.25
306.352	712.25
306.582	694.25
306.812	698.25
307.042	705.25
307.272	711.25
307.502	696.25
307.731	690.25
307.961	718.25
308.191	706.25
308.421	696.25
308.651	680.25
308.881	691.25
309.111	684.25
309.341	707.25
309.571	688.25
309.8	680.25
310.03	710.25
310.26	723.25
310.49	674.25
310.72	696.25
310.949	704.25
311.179	716.25
311.409	715.25
311.639	734.25
311.868	714.25
312.098	733.25
312.328	752.25
312.557	727.25
312.787	731.25
313.017	744.25
313.246	723.25
313.476	711.25
313.706	729.25
313.935	746.25
314.165	768.25
314.394	773.25
314.624	769.25
314.853	735.25
315.083	760.25
315.312	746.25
315.542	759.25
315.771	734.25
316.001	775.25
316.23	763.25
316.46	747.25
316.689	779.25
316.919	756.25
317.148	766.25
317.377	753.25
317.607	747.25
317.836	745.25
318.065	771.25
318.295	747.25
318.524	777.25
318.753	768.25
318.983	781.25
319.212	766.25
319.441	768.25
319.67	781.25
319.9	781.25
320.129	750.25
320.358	757.25
320.587	759.25
320.816	789.25
321.046	770.25
321.275	778.25
321.504	795.25
321.733	791.25
321.962	770.25
322.191	787.25
322.42	791.25
322.649	791.25
322.878	783.25
323.108	794.25
323.337	794.25
323.566	790.25
323.795	802.25
324.024	805.25
324.253	826.25
324.482	796.25
324.71	800.25
324.939	798.25
325.168	821.25
325.397	784.25
325.626	824.25
325.855	818.25
326.084	809.25
326.313	831.25
326.542	825.25
326.77	843.25
326.999	801.25
327.228	812.25
327.457	837.25
327.686	828.25
327.914	838.25
328.143	834.25
328.372	839.25
328.6	833.25
328.829	822.25
329.058	854.25
329.287	870.25
329.515	829.25
329.744	826.25
329.972	841.25
330.201	848.25
330.43	884.25
330.658	886.25
330.887	844.25
331.115	872.25
331.344	849.25
331.572	860.25
331.801	883.25
332.03	882.25
332.258	910.25
332.486	890.25
332.715	913.25
332.943	937.25
333.172	949.25
333.4	947.25
333.629	983.25
333.857	991.25
334.085	985.25
334.314	989.25
334.542	1000.25
334.771	987.25
334.999	979.25
335.227	989.25
335.455	995.25
335.684	983.25
335.912	995.25
336.14	960.25
336.369	960.25
336.597	976.25
336.825	998.25
337.053	988.25
337.281	976.25
337.51	965.25
337.738	952.25
337.966	933.25
338.194	926.25
338.422	917.25
338.65	901.25
338.878	925.25
339.106	929.25
339.334	929.25
339.562	897.25
339.79	899.25
340.018	900.25
340.246	903.25
340.474	918.25
340.702	890.25
340.93	899.25
341.158	884.25
341.386	868.25
341.614	902.25
341.842	890.25
342.07	882.25
342.298	910.25
342.526	902.25
342.754	889.25
342.981	897.25
343.209	884.25
343.437	915.25
343.665	953.25
343.893	961.25
344.12	1001.25
344.348	998.25
344.576	965.25
344.804	945.25
345.031	918.25
345.259	924.25
345.487	899.25
345.714	896.25
345.942	891.25
346.17	882.25
346.397	864.25
346.625	881.25
346.853	865.25
347.08	867.25
347.308	842.25
347.535	870.25
347.763	843.25
347.99	861.25
348.218	858.25
348.445	858.25
348.673	858.25
348.9	848.25
349.128	869.25
349.355	863.25
349.583	852.25
349.81	854.25
350.037	854.25
350.265	855.25
350.492	860.25
350.72	853.25
350.947	830.25
351.174	850.25
351.402	856.25
351.629	857.25
351.856	839.25
352.083	839.25
352.311	857.25
352.538	857.25
352.765	856.25
352.992	843.25
353.22	833.25
353.447	825.25
353.674	830.25
353.901	842.25
354.128	856.25
354.355	852.25
354.583	830.25
354.81	851.25
355.037	845.25
355.264	861.25
355.491	837.25
355.718	844.25
355.945	855.25
356.172	857.25
356.399	831.25
356.626	850.25
356.853	876.25
357.08	877.25
357.307	859.25
357.534	845.25
357.761	878.25
357.988	868.25
358.215	874.25
358.441	878.25
358.668	883.25
358.895	871.25
359.122	846.25
359.349	840.25
359.576	816.25
359.802	821.25
360.029	863.25
360.256	855.25
360.483	873.25
360.709	847.25
360.936	867.25
361.163	887.25
361.39	856.25
361.616	852.25
361.843	844.25
362.07	865.25
362.296	880.25
362.523	860.25
362.749	873.25
362.976	878.25
363.203	882.25
363.429	869.25
363.656	882.25
363.882	847.25
364.109	858.25
364.335	858.25
364.562	885.25
364.788	861.25
365.015	887.25
365.241	872.25
365.468	882.25
365.694	886.25
365.92	877.25
366.147	882.25
366.373	867.25
366.599	859.25
366.826	873.25
367.052	864.25
367.278	875.25
367.505	877.25
367.731	868.25
367.957	887.25
368.184	883.25
368.41	886.25
368.636	900.25
368.862	913.25
369.089	897.25
369.315	894.25
369.541	914.25
369.767	896.25
369.993	924.25
370.219	901.25
370.445	922.25
370.672	934.25
370.898	954.25
371.124	944.25
371.35	930.25
371.576	941.25
371.802	948.25
372.028	942.25
372.254	975.25
372.48	977.25
372.706	951.25
372.932	950.25
373.158	979.25
373.384	958.25
373.61	953.25
373.835	1010.25
374.061	934.25
374.287	952.25
374.513	971.25
374.739	1024.25
374.965	1005.25
375.191	1034.25
375.416	999.25
375.642	984.25
375.868	1028.25
376.094	979.25
376.319	956.25
376.545	987.25
376.771	983.25
376.997	978.25
377.222	957.25
377.448	947.25
377.674	948.25
377.899	941.25
378.125	940.25
378.35	940.25
378.576	957.25
378.802	954.25
379.027	950.25
379.253	924.25
379.478	924.25
379.704	951.25
379.929	929.25
380.155	962.25
380.38	984.25
380.606	954.25
380.831	954.25
381.057	933.25
381.282	973.25
381.507	951.25
381.733	994.25
381.958	989.25
382.184	988.25
382.409	1041.25
382.634	1010.25
382.86	1018.25
383.085	1034.25
383.31	1013.25
383.535	1014.25
383.761	1017.25
383.986	1034.25
384.211	1057.25
384.436	1046.25
384.662	1026.25
384.887	1066.25
385.112	1060.25
385.337	1067.25
385.562	1084.25
385.787	1092.25
386.013	1135.25
386.238	1109.25
386.463	1088.25
386.688	1107.25
386.913	1082.25
387.138	1119.25
387.363	1130.25
387.588	1091.25
387.813	1102.25
388.038	1127.25
388.263	1120.25
388.488	1125.25
388.713	1163.25
388.938	1125.25
389.163	1138.25
389.387	1089.25
389.612	1125.25
389.837	1120.25
390.062	1115.25
390.287	1147.25
390.512	1114.25
390.736	1153.25
390.961	1125.25
391.186	1133.25
391.411	1181.25
391.636	1166.25
391.86	1162.25
392.085	1199.25
392.31	1218.25
392.534	1208.25
392.759	1172.25
392.984	1141.25
393.208	1183.25
393.433	1170.25
393.658	1191.25
393.882	1202.25
394.107	1214.25
394.331	1207.25
394.556	1204.25
394.78	1182.25
395.005	1226.25
395.229	1208.25
395.454	1216.25
395.678	1222.25
395.903	1227.25
396.127	1217.25
396.352	1206.25
396.576	1213.25
396.801	1244.25
397.025	1254.25
397.249	1269.25
397.474	1270.25
397.698	1288.25
397.922	1296.25
398.147	1299.25
398.371	1321.25
398.595	1350.25
398.82	1354.25
399.044	1406.25
399.268	1446.25
399.492	1581.25
399.717	1626.25
399.941	1628.25
400.165	1596.25
400.389	1566.25
400.613	1499.25
400.837	1461.25
401.062	1440.25
401.286	1359.25
401.51	1387.25
401.734	1382.25
401.958	1403.25
402.182	1357.25
402.406	1352.25
402.63	1347.25
402.854	1390.25
403.078	1400.25
403.302	1387.25
403.526	1391.25
403.75	1414.25
403.974	1400.25
404.198	1397.25
404.422	1428.25
404.645	1440.25
404.869	1421.25
405.093	1421.25
405.317	1405.25
405.541	1419.25
405.765	1431.25
405.988	1411.25
406.212	1483.25
406.436	1475.25
406.66	1503.25
406.883	1493.25
407.107	1535.25
407.331	1571.25
407.555	1594.25
407.778	1618.25
408.002	1574.25
408.226	1589.25
408.449	1570.25
408.673	1568.25
408.896	1552.25
409.12	1491.25
409.344	1533.25
409.567	1518.25
409.791	1494.25
410.014	1486.25
410.238	1470.25
410.461	1466.25
410.685	1448.25
410.908	1421.25
411.132	1472.25
411.355	1429.25
411.578	1453.25
411.802	1413.25
412.025	1418.25
412.249	1458.25
412.472	1462.25
412.695	1407.25
412.919	1421.25
413.142	1399.25
413.365	1402.25
413.589	1407.25
413.812	1408.25
414.035	1374.25
414.258	1383.25
414.482	1406.25
414.705	1408.25
414.928	1359.25
415.151	1408.25
415.374	1379.25
415.597	1348.25
415.821	1357.25
416.044	1346.25
416.267	1371.25
416.49	1312.25
416.713	1331.25
416.936	1365.25
417.159	1328.25
417.382	1306.25
417.605	1320.25
417.828	1308.25
418.051	1292.25
418.274	1320.25
418.497	1332.25
418.72	1332.25
418.943	1349.25
419.166	1393.25
419.389	1460.25
419.611	1475.25
419.834	1426.25
420.057	1403.25
420.28	1362.25
420.503	1335.25
420.726	1284.25
420.948	1264.25
421.171	1301.25
421.394	1321.25
421.617	1296.25
421.839	1296.25
422.062	1329.25
422.285	1288.25
422.507	1321.25
422.73	1246.25
422.953	1290.25
423.175	1316.25
423.398	1318.25
423.621	1308.25
423.843	1301.25
424.066	1330.25
424.288	1298.25
424.511	1321.25
424.733	1292.25
424.956	1300.25
425.178	1346.25
425.401	1316.25
425.623	1287.25
425.846	1288.25
426.068	1300.25
426.291	1291.25
426.513	1303.25
426.735	1250.25
426.958	1290.25
427.18	1256.25
427.402	1284.25
427.625	1257.25
427.847	1224.25
428.069	1266.25
428.292	1291.25
428.514	1230.25
428.736	1253.25
428.958	1257.25
429.181	1221.25
429.403	1229.25
429.625	1238.25
429.847	1222.25
430.069	1218.25
430.292	1241.25
430.514	1239.25
430.736	1244.25
430.958	1276.25
431.18	1210.25
431.402	1227.25
431.624	1248.25
431.846	1270.25
432.068	1278.25
432.29	1278.25
432.512	1274.25
432.734	1294.25
432.956	1206.25
433.178	1235.25
433.4	1253.25
433.622	1253.25
433.844	1281.25
434.066	1266.25
434.287	1256.25
434.509	1328.25
434.731	1306.25
434.953	1299.25
435.175	1314.25
435.397	1309.25
435.618	1312.25
435.84	1257.25
436.062	1245.25
436.284	1262.25
436.505	1264.25
436.727	1276.25
436.949	1241.25
437.17	1242.25
437.392	1249.25
437.614	1217.25
437.835	1212.25
438.057	1225.25
438.278	1194.25
438.5	1222.25
438.721	1201.25
438.943	1229.25
439.165	1185.25
439.386	1208.25
439.608	1236.25
439.829	1248.25
440.05	1205.25
440.272	1274.25
440.493	1292.25
440.715	1236.25
440.936	1244.25
441.158	1257.25
441.379	1264.25
441.6	1335.25
441.822	1322.25
442.043	1360.25
442.264	1290.25
442.486	1310.25
442.707	1303.25
442.928	1258.25
443.149	1291.25
443.371	1341.25
443.592	1312.25
443.813	1300.25
444.034	1294.25
444.255	1333.25
444.476	1340.25
444.698	1403.25
444.919	1402.25
445.14	1501.25
445.361	1410.25
445.582	1342.25
445.803	1333.25
446.024	1281.25
446.245	1289.25
446.466	1270.25
446.687	1230.25
446.908	1244.25
447.129	1211.25
447.35	1214.25
447.571	1197.25
447.792	1185.25
448.013	1222.25
448.234	1172.25
448.455	1156.25
448.675	1146.25
448.896	1158.25
449.117	1160.25
449.338	1154.25
449.559	1125.25
449.779	1149.25
450	1127.25
450.221	1134.25
450.442	1150.25
450.662	1161.25
450.883	1127.25
451.104	1138.25
451.324	1113.25
451.545	1166.25
451.766	1139.25
451.986	1122.25
452.207	1103.25
452.428	1117.25
452.648	1106.25
452.869	1103.25
453.089	1120.25
453.31	1118.25
453.53	1124.25
453.751	1093.25
453.971	1112.25
454.192	1100.25
454.412	1096.25
454.633	1112.25
454.853	1096.25
455.073	1066.25
455.294	1082.25
455.514	1084.25
455.734	1092.25
455.955	1080.25
456.175	1076.25
456.395	1057.25
456.616	1074.25
456.836	1115.25
457.056	1121.25
457.276	1100.25
457.497	1129.25
457.717	1108.25
457.937	1127.25
458.157	1108.25
458.377	1102.25
458.598	1146.25
458.818	1163.25
459.038	1190.25
459.258	1230.25
459.478	1241.25
459.698	1218.25
459.918	1282.25
460.138	1275.25
460.358	1308.25
460.578	1335.25
460.798	1334.25
461.018	1357.25
461.238	1376.25
461.458	1340.25
461.678	1335.25
461.898	1411.25
462.118	1407.25
462.338	1405.25
462.558	1461.25
462.777	1476.25
462.997	1507.25
463.217	1534.25
463.437	1594.25
463.657	1499.25
463.876	1527.25
464.096	1508.25
464.316	1460.25
464.536	1495.25
464.755	1453.25
464.975	1431.25
465.195	1398.25
465.414	1392.25
465.634	1294.25
465.854	1330.25
466.073	1305.25
466.293	1267.25
466.512	1218.25
466.732	1221.25
466.951	1238.25
467.171	1252.25
467.391	1249.25
467.61	1202.25
467.829	1222.25
468.049	1179.25
468.268	1170.25
468.488	1174.25
468.707	1171.25
468.927	1216.25
469.146	1221.25
469.365	1227.25
469.585	1201.25
469.804	1204.25
470.023	1242.25
470.243	1194.25
470.462	1226.25
470.681	1231.25
470.901	1237.25
471.12	1219.25
471.339	1195.25
471.558	1225.25
471.777	1210.25
471.997	1198.25
472.216	1195.25
472.435	1190.25
472.654	1176.25
472.873	1173.25
473.092	1206.25
473.311	1185.25
473.53	1213.25
473.749	1170.25
473.968	1172.25
474.187	1195.25
474.406	1172.25
474.625	1206.25
474.844	1184.25
475.063	1220.25
475.282	1193.25
475.501	1213.25
475.72	1213.25
475.939	1213.25
476.158	1257.25
476.377	1284.25
476.596	1294.25
476.814	1306.25
477.033	1288.25
477.252	1270.25
477.471	1300.25
477.69	1299.25
477.908	1364.25
478.127	1366.25
478.346	1351.25
478.564	1375.25
478.783	1385.25
479.002	1412.25
479.22	1379.25
479.439	1448.25
479.658	1443.25
479.876	1447.25
480.095	1442.25
480.313	1480.25
480.532	1467.25
480.751	1466.25
480.969	1410.25
481.188	1458.25
481.406	1443.25
481.624	1410.25
481.843	1412.25
482.061	1423.25
482.28	1426.25
482.498	1451.25
482.717	1385.25
482.935	1395.25
483.153	1395.25
483.372	1398.25
483.59	1393.25
483.808	1418.25
484.027	1387.25
484.245	1414.25
484.463	1378.25
484.681	1431.25
484.9	1414.25
485.118	1420.25
485.336	1440.25
485.554	1424.25
485.772	1441.25
485.99	1423.25
486.209	1453.25
486.427	1460.25
486.645	1450.25
486.863	1458.25
487.081	1439.25
487.299	1426.25
487.517	1462.25
487.735	1443.25
487.953	1403.25
488.171	1447.25
488.389	1421.25
488.607	1433.25
488.825	1433.25
489.043	1432.25
489.261	1415.25
489.479	1445.25
489.696	1420.25
489.914	1415.25
490.132	1452.25
490.35	1485.25
490.568	1437.25
490.786	1442.25
491.003	1424.25
491.221	1482.25
491.439	1457.25
491.657	1457.25
491.874	1447.25
492.092	1489.25
492.31	1488.25
492.527	1498.25
492.745	1505.25
492.963	1491.25
493.18	1489.25
493.398	1522.25
493.615	1472.25
493.833	1477.25
494.05	1501.25
494.268	1523.25
494.485	1511.25
