Data from Fe(NO3)3@0.05M.TitratingCurve.Agarose3%dH2O.NegLispCup.LampEnergy10.LIBS07252019_HRD10591_16-47-15-334.txt Node
Date: Thu Jul 25 16:47:15 EDT 2019
User: cochatt
Spectrometer: HR+D1059
Trigger mode: 1
Integration Time (sec): 1.000000E-1
Scans to average: 1
Electric dark correction enabled: true
Nonlinearity correction enabled: false
Boxcar width: 0
XAxis mode: Wavelengths
Number of Pixels in Spectrum: 2048
>>>>>Begin Spectral Data<<<<<
223.165	-8.94
223.4	-8.94
223.635	-8.94
223.869	-20.94
224.104	-24.94
224.338	-21.94
224.573	-11.94
224.808	-5.94
225.042	-10.94
225.277	-6.94
225.511	1.06
225.746	19.06
225.98	3.06
226.215	5.06
226.449	14.06
226.683	25.06
226.918	14.06
227.152	31.06
227.387	36.06
227.621	52.06
227.856	43.06
228.09	35.06
228.324	53.06
228.559	67.06
228.793	61.06
229.027	88.06
229.262	91.06
229.496	97.06
229.73	104.06
229.964	105.06
230.199	113.06
230.433	134.06
230.667	120.06
230.901	131.06
231.136	100.06
231.37	121.06
231.604	125.06
231.838	130.06
232.072	132.06
232.306	126.06
232.541	140.06
232.775	134.06
233.009	124.06
233.243	136.06
233.477	132.06
233.711	135.06
233.945	142.06
234.179	139.06
234.413	130.06
234.647	151.06
234.881	155.06
235.115	147.06
235.349	141.06
235.583	166.06
235.817	163.06
236.051	148.06
236.285	138.06
236.519	163.06
236.753	150.06
236.987	139.06
237.221	134.06
237.455	144.06
237.689	152.06
237.922	137.06
238.156	149.06
238.39	157.06
238.624	184.06
238.858	168.06
239.091	150.06
239.325	171.06
239.559	153.06
239.793	185.06
240.027	173.06
240.26	175.06
240.494	180.06
240.728	164.06
240.961	168.06
241.195	183.06
241.429	164.06
241.662	200.06
241.896	189.06
242.13	179.06
242.363	164.06
242.597	167.06
242.83	179.06
243.064	177.06
243.298	195.06
243.531	191.06
243.765	198.06
243.998	188.06
244.232	188.06
244.465	196.06
244.699	185.06
244.932	197.06
245.166	193.06
245.399	184.06
245.633	182.06
245.866	196.06
246.099	184.06
246.333	217.06
246.566	193.06
246.8	201.06
247.033	198.06
247.266	201.06
247.5	210.06
247.733	208.06
247.966	201.06
248.2	185.06
248.433	209.06
248.666	203.06
248.899	195.06
249.133	223.06
249.366	220.06
249.599	240.06
249.832	229.06
250.066	225.06
250.299	224.06
250.532	217.06
250.765	211.06
250.998	226.06
251.231	230.06
251.465	226.06
251.698	216.06
251.931	236.06
252.164	239.06
252.397	233.06
252.63	242.06
252.863	257.06
253.096	267.06
253.329	243.06
253.562	256.06
253.795	256.06
254.028	264.06
254.261	274.06
254.494	252.06
254.727	255.06
254.96	244.06
255.193	260.06
255.426	247.06
255.659	245.06
255.892	250.06
256.124	240.06
256.357	249.06
256.59	232.06
256.823	258.06
257.056	271.06
257.289	262.06
257.521	259.06
257.754	243.06
257.987	250.06
258.22	261.06
258.452	258.06
258.685	293.06
258.918	287.06
259.151	287.06
259.383	297.06
259.616	269.06
259.849	285.06
260.081	343.06
260.314	344.06
260.547	325.06
260.779	299.06
261.012	316.06
261.244	295.06
261.477	328.06
261.71	318.06
261.942	295.06
262.175	273.06
262.407	276.06
262.64	301.06
262.872	320.06
263.105	323.06
263.337	322.06
263.57	298.06
263.802	314.06
264.035	283.06
264.267	289.06
264.499	264.06
264.732	297.06
264.964	298.06
265.197	277.06
265.429	264.06
265.661	285.06
265.894	312.06
266.126	282.06
266.358	312.06
266.591	293.06
266.823	305.06
267.055	313.06
267.287	295.06
267.52	289.06
267.752	308.06
267.984	303.06
268.216	294.06
268.448	314.06
268.681	313.06
268.913	313.06
269.145	324.06
269.377	311.06
269.609	314.06
269.841	339.06
270.073	305.06
270.306	313.06
270.538	317.06
270.77	345.06
271.002	329.06
271.234	344.06
271.466	338.06
271.698	335.06
271.93	323.06
272.162	344.06
272.394	350.06
272.626	332.06
272.858	355.06
273.09	360.06
273.322	351.06
273.553	353.06
273.785	364.06
274.017	372.06
274.249	403.06
274.481	399.06
274.713	407.06
274.945	457.06
275.176	452.06
275.408	416.06
275.64	403.06
275.872	409.06
276.104	385.06
276.335	382.06
276.567	377.06
276.799	369.06
277.031	389.06
277.262	374.06
277.494	361.06
277.726	377.06
277.957	375.06
278.189	375.06
278.421	389.06
278.652	381.06
278.884	381.06
279.115	373.06
279.347	367.06
279.579	364.06
279.81	383.06
280.042	375.06
280.273	377.06
280.505	385.06
280.736	377.06
280.968	377.06
281.199	376.06
281.431	382.06
281.662	378.06
281.894	394.06
282.125	409.06
282.356	388.06
282.588	383.06
282.819	395.06
283.051	392.06
283.282	393.06
283.513	409.06
283.745	423.06
283.976	391.06
284.207	405.06
284.439	381.06
284.67	405.06
284.901	391.06
285.132	424.06
285.364	394.06
285.595	409.06
285.826	417.06
286.057	416.06
286.288	406.06
286.52	402.06
286.751	397.06
286.982	420.06
287.213	436.06
287.444	414.06
287.675	435.06
287.906	419.06
288.138	433.06
288.369	418.06
288.6	441.06
288.831	418.06
289.062	424.06
289.293	427.06
289.524	419.06
289.755	422.06
289.986	417.06
290.217	444.06
290.448	436.06
290.679	440.06
290.91	449.06
291.141	417.06
291.371	439.06
291.602	424.06
291.833	437.06
292.064	445.06
292.295	431.06
292.526	444.06
292.757	439.06
292.987	458.06
293.218	430.06
293.449	452.06
293.68	446.06
293.91	429.06
294.141	424.06
294.372	435.06
294.603	453.06
294.833	436.06
295.064	443.06
295.295	457.06
295.525	432.06
295.756	441.06
295.987	465.06
296.217	448.06
296.448	456.06
296.679	462.06
296.909	449.06
297.14	457.06
297.37	470.06
297.601	468.06
297.831	472.06
298.062	465.06
298.292	461.06
298.523	461.06
298.753	474.06
298.984	489.06
299.214	471.06
299.445	471.06
299.675	461.06
299.905	459.06
300.136	475.06
300.366	487.06
300.597	479.06
300.827	493.06
301.057	495.06
301.288	469.06
301.518	485.06
301.748	496.06
301.979	510.06
302.209	511.06
302.439	506.06
302.669	504.06
302.9	512.06
303.13	495.06
303.36	477.06
303.59	495.06
303.82	530.06
304.051	511.06
304.281	489.06
304.511	520.06
304.741	487.06
304.971	493.06
305.201	499.06
305.431	490.06
305.661	496.06
305.891	492.06
306.121	485.06
306.352	507.06
306.582	495.06
306.812	484.06
307.042	503.06
307.272	528.06
307.502	503.06
307.731	511.06
307.961	497.06
308.191	487.06
308.421	495.06
308.651	490.06
308.881	507.06
309.111	490.06
309.341	502.06
309.571	493.06
309.8	507.06
310.03	513.06
310.26	508.06
310.49	492.06
310.72	499.06
310.949	501.06
311.179	527.06
311.409	499.06
311.639	530.06
311.868	530.06
312.098	524.06
312.328	522.06
312.557	517.06
312.787	538.06
313.017	531.06
313.246	548.06
313.476	540.06
313.706	525.06
313.935	538.06
314.165	519.06
314.394	544.06
314.624	561.06
314.853	551.06
315.083	537.06
315.312	537.06
315.542	551.06
315.771	544.06
316.001	543.06
316.23	532.06
316.46	546.06
316.689	531.06
316.919	533.06
317.148	544.06
317.377	552.06
317.607	550.06
317.836	559.06
318.065	584.06
318.295	582.06
318.524	565.06
318.753	559.06
318.983	540.06
319.212	533.06
319.441	524.06
319.67	557.06
319.9	534.06
320.129	557.06
320.358	563.06
320.587	547.06
320.816	553.06
321.046	542.06
321.275	568.06
321.504	575.06
321.733	569.06
321.962	583.06
322.191	581.06
322.42	569.06
322.649	552.06
322.878	578.06
323.108	583.06
323.337	560.06
323.566	565.06
323.795	580.06
324.024	580.06
324.253	581.06
324.482	586.06
324.71	595.06
324.939	577.06
325.168	568.06
325.397	570.06
325.626	595.06
325.855	580.06
326.084	598.06
326.313	602.06
326.542	577.06
326.77	586.06
326.999	578.06
327.228	595.06
327.457	585.06
327.686	573.06
327.914	598.06
328.143	580.06
328.372	610.06
328.6	578.06
328.829	601.06
329.058	602.06
329.287	584.06
329.515	595.06
329.744	611.06
329.972	608.06
330.201	619.06
330.43	616.06
330.658	635.06
330.887	641.06
331.115	616.06
331.344	597.06
331.572	621.06
331.801	634.06
332.03	635.06
332.258	648.06
332.486	622.06
332.715	671.06
332.943	649.06
333.172	652.06
333.4	678.06
333.629	714.06
333.857	690.06
334.085	701.06
334.314	689.06
334.542	684.06
334.771	708.06
334.999	720.06
335.227	699.06
335.455	708.06
335.684	702.06
335.912	690.06
336.14	704.06
336.369	667.06
336.597	700.06
336.825	679.06
337.053	674.06
337.281	695.06
337.51	663.06
337.738	668.06
337.966	660.06
338.194	656.06
338.422	659.06
338.65	659.06
338.878	661.06
339.106	670.06
339.334	649.06
339.562	655.06
339.79	653.06
340.018	635.06
340.246	635.06
340.474	643.06
340.702	640.06
340.93	625.06
341.158	636.06
341.386	647.06
341.614	646.06
341.842	613.06
342.07	629.06
342.298	643.06
342.526	645.06
342.754	634.06
342.981	645.06
343.209	629.06
343.437	671.06
343.665	685.06
343.893	719.06
344.12	707.06
344.348	688.06
344.576	662.06
344.804	676.06
345.031	667.06
345.259	652.06
345.487	637.06
345.714	636.06
345.942	634.06
346.17	621.06
346.397	609.06
346.625	633.06
346.853	635.06
347.08	610.06
347.308	631.06
347.535	619.06
347.763	615.06
347.99	600.06
348.218	601.06
348.445	622.06
348.673	636.06
348.9	632.06
349.128	609.06
349.355	615.06
349.583	585.06
349.81	607.06
350.037	631.06
350.265	609.06
350.492	629.06
350.72	610.06
350.947	613.06
351.174	600.06
351.402	606.06
351.629	625.06
351.856	616.06
352.083	613.06
352.311	601.06
352.538	589.06
352.765	625.06
352.992	601.06
353.22	620.06
353.447	625.06
353.674	602.06
353.901	607.06
354.128	619.06
354.355	634.06
354.583	607.06
354.81	600.06
355.037	620.06
355.264	613.06
355.491	633.06
355.718	609.06
355.945	613.06
356.172	631.06
356.399	629.06
356.626	626.06
356.853	617.06
357.08	643.06
357.307	633.06
357.534	622.06
357.761	595.06
357.988	629.06
358.215	642.06
358.441	645.06
358.668	636.06
358.895	638.06
359.122	590.06
359.349	606.06
359.576	612.06
359.802	622.06
360.029	600.06
360.256	611.06
360.483	604.06
360.709	624.06
360.936	640.06
361.163	637.06
361.39	613.06
361.616	607.06
361.843	613.06
362.07	625.06
362.296	623.06
362.523	616.06
362.749	634.06
362.976	621.06
363.203	636.06
363.429	647.06
363.656	595.06
363.882	637.06
364.109	624.06
364.335	620.06
364.562	624.06
364.788	633.06
365.015	642.06
365.241	639.06
365.468	619.06
365.694	614.06
365.92	602.06
366.147	623.06
366.373	611.06
366.599	634.06
366.826	629.06
367.052	625.06
367.278	624.06
367.505	617.06
367.731	631.06
367.957	645.06
368.184	647.06
368.41	626.06
368.636	636.06
368.862	664.06
369.089	643.06
369.315	636.06
369.541	633.06
369.767	647.06
369.993	656.06
370.219	656.06
370.445	642.06
370.672	708.06
370.898	687.06
371.124	666.06
371.35	677.06
371.576	659.06
371.802	674.06
372.028	710.06
372.254	684.06
372.48	682.06
372.706	684.06
372.932	676.06
373.158	694.06
373.384	691.06
373.61	746.06
373.835	724.06
374.061	727.06
374.287	687.06
374.513	712.06
374.739	707.06
374.965	751.06
375.191	755.06
375.416	711.06
375.642	723.06
375.868	724.06
376.094	716.06
376.319	715.06
376.545	696.06
376.771	695.06
376.997	688.06
377.222	700.06
377.448	691.06
377.674	676.06
377.899	693.06
378.125	703.06
378.35	659.06
378.576	683.06
378.802	680.06
379.027	666.06
379.253	700.06
379.478	691.06
379.704	687.06
379.929	686.06
380.155	675.06
380.38	684.06
380.606	656.06
380.831	703.06
381.057	703.06
381.282	687.06
381.507	725.06
381.733	738.06
381.958	729.06
382.184	735.06
382.409	730.06
382.634	751.06
382.86	759.06
383.085	716.06
383.31	730.06
383.535	722.06
383.761	716.06
383.986	757.06
384.211	751.06
384.436	752.06
384.662	752.06
384.887	771.06
385.112	797.06
385.337	776.06
385.562	804.06
385.787	772.06
386.013	817.06
386.238	809.06
386.463	796.06
386.688	804.06
386.913	801.06
387.138	801.06
387.363	833.06
387.588	817.06
387.813	838.06
388.038	825.06
388.263	816.06
388.488	816.06
388.713	823.06
388.938	852.06
389.163	816.06
389.387	810.06
389.612	812.06
389.837	816.06
390.062	817.06
390.287	831.06
390.512	795.06
390.736	827.06
390.961	823.06
391.186	843.06
391.411	851.06
391.636	852.06
391.86	853.06
392.085	868.06
392.31	886.06
392.534	868.06
392.759	873.06
392.984	838.06
393.208	867.06
393.433	852.06
393.658	856.06
393.882	826.06
394.107	849.06
394.331	853.06
394.556	862.06
394.78	859.06
395.005	855.06
395.229	867.06
395.454	871.06
395.678	897.06
395.903	902.06
396.127	898.06
396.352	865.06
396.576	873.06
396.801	915.06
397.025	895.06
397.249	908.06
397.474	919.06
397.698	913.06
397.922	921.06
398.147	930.06
398.371	953.06
398.595	980.06
398.82	1000.06
399.044	1039.06
399.268	1043.06
399.492	1115.06
399.717	1160.06
399.941	1171.06
400.165	1186.06
400.389	1145.06
400.613	1073.06
400.837	1027.06
401.062	1038.06
401.286	1011.06
401.51	990.06
401.734	965.06
401.958	955.06
402.182	981.06
402.406	979.06
402.63	971.06
402.854	999.06
403.078	1000.06
403.302	993.06
403.526	1005.06
403.75	976.06
403.974	1016.06
404.198	999.06
404.422	1008.06
404.645	1050.06
404.869	1041.06
405.093	1056.06
405.317	1013.06
405.541	1011.06
405.765	1019.06
405.988	1036.06
406.212	1051.06
406.436	1076.06
406.66	1079.06
406.883	1054.06
407.107	1098.06
407.331	1118.06
407.555	1125.06
407.778	1127.06
408.002	1160.06
408.226	1112.06
408.449	1105.06
408.673	1064.06
408.896	1082.06
409.12	1058.06
409.344	1095.06
409.567	1058.06
409.791	1002.06
410.014	1031.06
410.238	1038.06
410.461	1035.06
410.685	1021.06
410.908	1030.06
411.132	996.06
411.355	1005.06
411.578	1037.06
411.802	1009.06
412.025	1023.06
412.249	1024.06
412.472	1046.06
412.695	1034.06
412.919	1023.06
413.142	1027.06
413.365	1011.06
413.589	978.06
413.812	986.06
414.035	980.06
414.258	947.06
414.482	985.06
414.705	1002.06
414.928	998.06
415.151	984.06
415.374	968.06
415.597	946.06
415.821	958.06
416.044	978.06
416.267	966.06
416.49	946.06
416.713	953.06
416.936	965.06
417.159	930.06
417.382	928.06
417.605	943.06
417.828	956.06
418.051	952.06
418.274	937.06
418.497	955.06
418.72	956.06
418.943	959.06
419.166	998.06
419.389	1060.06
419.611	1050.06
419.834	1019.06
420.057	971.06
420.28	953.06
420.503	957.06
420.726	937.06
420.948	933.06
421.171	927.06
421.394	962.06
421.617	945.06
421.839	950.06
422.062	957.06
422.285	940.06
422.507	959.06
422.73	945.06
422.953	929.06
423.175	938.06
423.398	943.06
423.621	960.06
423.843	959.06
424.066	959.06
424.288	952.06
424.511	964.06
424.733	929.06
424.956	927.06
425.178	958.06
425.401	938.06
425.623	960.06
425.846	928.06
426.068	944.06
426.291	941.06
426.513	949.06
426.735	915.06
426.958	925.06
427.18	892.06
427.402	941.06
427.625	925.06
427.847	893.06
428.069	913.06
428.292	913.06
428.514	880.06
428.736	901.06
428.958	908.06
429.181	895.06
429.403	900.06
429.625	905.06
429.847	896.06
430.069	886.06
430.292	884.06
430.514	877.06
430.736	913.06
430.958	932.06
431.18	919.06
431.402	895.06
431.624	923.06
431.846	887.06
432.068	913.06
432.29	932.06
432.512	893.06
432.734	928.06
432.956	915.06
433.178	903.06
433.4	946.06
433.622	955.06
433.844	947.06
434.066	935.06
434.287	897.06
434.509	935.06
434.731	956.06
434.953	959.06
435.175	945.06
435.397	965.06
435.618	950.06
435.84	935.06
436.062	926.06
436.284	904.06
436.505	911.06
436.727	910.06
436.949	932.06
437.17	890.06
437.392	889.06
437.614	867.06
437.835	867.06
438.057	886.06
438.278	883.06
438.5	889.06
438.721	908.06
438.943	888.06
439.165	864.06
439.386	868.06
439.608	902.06
439.829	889.06
440.05	914.06
440.272	902.06
440.493	912.06
440.715	929.06
440.936	893.06
441.158	915.06
441.379	939.06
441.6	952.06
441.822	968.06
442.043	940.06
442.264	950.06
442.486	970.06
442.707	963.06
442.928	944.06
443.149	927.06
443.371	963.06
443.592	947.06
443.813	976.06
444.034	981.06
444.255	988.06
444.476	1012.06
444.698	1014.06
444.919	1000.06
445.14	1071.06
445.361	1035.06
445.582	978.06
445.803	976.06
446.024	950.06
446.245	941.06
446.466	933.06
446.687	919.06
446.908	929.06
447.129	901.06
447.35	907.06
447.571	901.06
447.792	882.06
448.013	886.06
448.234	874.06
448.455	862.06
448.675	848.06
448.896	835.06
449.117	815.06
449.338	882.06
449.559	837.06
449.779	852.06
450	868.06
450.221	833.06
450.442	819.06
450.662	834.06
450.883	826.06
451.104	847.06
451.324	843.06
451.545	840.06
451.766	830.06
451.986	807.06
452.207	817.06
452.428	819.06
452.648	802.06
452.869	802.06
453.089	811.06
453.31	813.06
453.53	788.06
453.751	787.06
453.971	814.06
454.192	802.06
454.412	791.06
454.633	803.06
454.853	807.06
455.073	780.06
455.294	825.06
455.514	756.06
455.734	818.06
455.955	793.06
456.175	789.06
456.395	778.06
456.616	792.06
456.836	787.06
457.056	799.06
457.276	789.06
457.497	777.06
457.717	794.06
457.937	804.06
458.157	820.06
458.377	802.06
458.598	829.06
458.818	841.06
459.038	857.06
459.258	879.06
459.478	895.06
459.698	936.06
459.918	909.06
460.138	920.06
460.358	958.06
460.578	987.06
460.798	960.06
461.018	962.06
461.238	992.06
461.458	1010.06
461.678	1009.06
461.898	1041.06
462.118	1040.06
462.338	1045.06
462.558	1068.06
462.777	1089.06
462.997	1109.06
463.217	1159.06
463.437	1166.06
463.657	1121.06
463.876	1096.06
464.096	1110.06
464.316	1084.06
464.536	1083.06
464.755	1057.06
464.975	1018.06
465.195	1033.06
465.414	996.06
465.634	960.06
465.854	956.06
466.073	929.06
466.293	913.06
466.512	910.06
466.732	927.06
466.951	878.06
467.171	900.06
467.391	898.06
467.61	891.06
467.829	888.06
468.049	890.06
468.268	858.06
468.488	850.06
468.707	885.06
468.927	885.06
469.146	889.06
469.365	883.06
469.585	899.06
469.804	893.06
470.023	911.06
470.243	917.06
470.462	910.06
470.681	909.06
470.901	895.06
471.12	921.06
471.339	898.06
471.558	909.06
471.777	910.06
471.997	925.06
472.216	889.06
472.435	896.06
472.654	895.06
472.873	898.06
473.092	875.06
473.311	862.06
473.53	897.06
473.749	861.06
473.968	903.06
474.187	851.06
474.406	863.06
474.625	904.06
474.844	901.06
475.063	890.06
475.282	878.06
475.501	865.06
475.72	899.06
475.939	913.06
476.158	934.06
476.377	947.06
476.596	961.06
476.814	964.06
477.033	967.06
477.252	954.06
477.471	989.06
477.69	997.06
477.908	1029.06
478.127	993.06
478.346	1003.06
478.564	1051.06
478.783	1039.06
479.002	1042.06
479.22	1077.06
479.439	1098.06
479.658	1079.06
479.876	1097.06
480.095	1109.06
480.313	1093.06
480.532	1096.06
480.751	1105.06
480.969	1035.06
481.188	1110.06
481.406	1065.06
481.624	1059.06
481.843	1058.06
482.061	1058.06
482.28	1057.06
482.498	1067.06
482.717	1034.06
482.935	1050.06
483.153	1034.06
483.372	1035.06
483.59	1042.06
483.808	1041.06
484.027	1033.06
484.245	1017.06
484.463	1041.06
484.681	1039.06
484.9	1077.06
485.118	1071.06
485.336	1047.06
485.554	1068.06
485.772	1068.06
485.99	1058.06
486.209	1069.06
486.427	1059.06
486.645	1088.06
486.863	1071.06
487.081	1044.06
487.299	1071.06
487.517	1067.06
487.735	1055.06
487.953	1088.06
488.171	1085.06
488.389	1087.06
488.607	1069.06
488.825	1071.06
489.043	1095.06
489.261	1063.06
489.479	1075.06
489.696	1081.06
489.914	1111.06
490.132	1066.06
490.35	1074.06
490.568	1092.06
490.786	1109.06
491.003	1069.06
491.221	1090.06
491.439	1089.06
491.657	1080.06
491.874	1092.06
492.092	1087.06
492.31	1111.06
492.527	1123.06
492.745	1129.06
492.963	1103.06
493.18	1121.06
493.398	1104.06
493.615	1145.06
493.833	1119.06
494.05	1106.06
494.268	1127.06
494.485	1140.06
494.703	1128.06
494.92	1156.06
495.138	1139.06
495.355	1158.06
495.573	1139.06
495.79	1149.06
496.008	1181.06
496.225	1180.06
496.442	1192.06
496.66	1183.06
496.877	1194.06
497.094	1209.06
497.312	1213.06
497.529	1265.06
497.746	1276.06
497.963	1271.06
498.181	1329.06
498.398	1372.06
498.615	1436.06
498.832	1436.06
499.049	1557.06
499.267	1580.06
