Data from Fe(NO3)3@0.0125M.TitratingCurve.Agarose3%dH2O.NegLispCup.LampEnergy10.LIBS07252019_HRD10591_16-58-35-335.txt Node
Date: Thu Jul 25 16:58:35 EDT 2019
User: cochatt
Spectrometer: HR+D1059
Trigger mode: 1
Integration Time (sec): 1.000000E-1
Scans to average: 1
Electric dark correction enabled: true
Nonlinearity correction enabled: false
Boxcar width: 0
XAxis mode: Wavelengths
Number of Pixels in Spectrum: 2048
>>>>>Begin Spectral Data<<<<<
223.165	-13.25
223.4	-13.25
223.635	-13.25
223.869	-22.25
224.104	-25.25
224.338	-4.25
224.573	-6.25
224.808	-17.25
225.042	-1.25
225.277	-15.25
225.511	-7.25
225.746	-1.25
225.98	14.75
226.215	17.75
226.449	18.75
226.683	10.75
226.918	31.75
227.152	19.75
227.387	17.75
227.621	40.75
227.856	53.75
228.09	50.75
228.324	52.75
228.559	61.75
228.793	59.75
229.027	84.75
229.262	102.75
229.496	107.75
229.73	102.75
229.964	114.75
230.199	125.75
230.433	122.75
230.667	111.75
230.901	127.75
231.136	120.75
231.37	117.75
231.604	143.75
231.838	134.75
232.072	133.75
232.306	119.75
232.541	128.75
232.775	136.75
233.009	147.75
233.243	128.75
233.477	124.75
233.711	137.75
233.945	130.75
234.179	143.75
234.413	133.75
234.647	134.75
234.881	154.75
235.115	138.75
235.349	131.75
235.583	134.75
235.817	137.75
236.051	138.75
236.285	150.75
236.519	136.75
236.753	144.75
236.987	151.75
237.221	150.75
237.455	157.75
237.689	151.75
237.922	156.75
238.156	142.75
238.39	169.75
238.624	148.75
238.858	154.75
239.091	148.75
239.325	150.75
239.559	168.75
239.793	158.75
240.027	154.75
240.26	164.75
240.494	153.75
240.728	155.75
240.961	159.75
241.195	161.75
241.429	154.75
241.662	172.75
241.896	172.75
242.13	170.75
242.363	162.75
242.597	180.75
242.83	167.75
243.064	167.75
243.298	176.75
243.531	181.75
243.765	173.75
243.998	185.75
244.232	202.75
244.465	186.75
244.699	174.75
244.932	191.75
245.166	192.75
245.399	185.75
245.633	198.75
245.866	184.75
246.099	163.75
246.333	199.75
246.566	202.75
246.8	198.75
247.033	200.75
247.266	196.75
247.5	209.75
247.733	208.75
247.966	198.75
248.2	209.75
248.433	194.75
248.666	206.75
248.899	209.75
249.133	210.75
249.366	201.75
249.599	220.75
249.832	220.75
250.066	222.75
250.299	205.75
250.532	216.75
250.765	208.75
250.998	224.75
251.231	207.75
251.465	214.75
251.698	208.75
251.931	247.75
252.164	242.75
252.397	214.75
252.63	222.75
252.863	233.75
253.096	220.75
253.329	250.75
253.562	231.75
253.795	214.75
254.028	236.75
254.261	236.75
254.494	244.75
254.727	246.75
254.96	231.75
255.193	267.75
255.426	250.75
255.659	236.75
255.892	246.75
256.124	243.75
256.357	251.75
256.59	262.75
256.823	274.75
257.056	248.75
257.289	267.75
257.521	258.75
257.754	262.75
257.987	256.75
258.22	283.75
258.452	266.75
258.685	269.75
258.918	258.75
259.151	267.75
259.383	297.75
259.616	258.75
259.849	282.75
260.081	274.75
260.314	273.75
260.547	293.75
260.779	270.75
261.012	293.75
261.244	298.75
261.477	280.75
261.71	265.75
261.942	278.75
262.175	289.75
262.407	293.75
262.64	285.75
262.872	294.75
263.105	322.75
263.337	322.75
263.57	295.75
263.802	301.75
264.035	311.75
264.267	296.75
264.499	299.75
264.732	275.75
264.964	307.75
265.197	307.75
265.429	311.75
265.661	306.75
265.894	311.75
266.126	316.75
266.358	331.75
266.591	306.75
266.823	312.75
267.055	288.75
267.287	329.75
267.52	322.75
267.752	339.75
267.984	323.75
268.216	320.75
268.448	339.75
268.681	335.75
268.913	349.75
269.145	321.75
269.377	324.75
269.609	329.75
269.841	348.75
270.073	337.75
270.306	362.75
270.538	355.75
270.77	334.75
271.002	330.75
271.234	334.75
271.466	343.75
271.698	352.75
271.93	346.75
272.162	367.75
272.394	359.75
272.626	371.75
272.858	370.75
273.09	355.75
273.322	364.75
273.553	377.75
273.785	346.75
274.017	370.75
274.249	382.75
274.481	377.75
274.713	385.75
274.945	359.75
275.176	373.75
275.408	391.75
275.64	370.75
275.872	383.75
276.104	396.75
276.335	388.75
276.567	394.75
276.799	364.75
277.031	382.75
277.262	396.75
277.494	392.75
277.726	384.75
277.957	404.75
278.189	390.75
278.421	401.75
278.652	397.75
278.884	412.75
279.115	383.75
279.347	393.75
279.579	428.75
279.81	406.75
280.042	412.75
280.273	425.75
280.505	436.75
280.736	416.75
280.968	429.75
281.199	424.75
281.431	431.75
281.662	423.75
281.894	422.75
282.125	391.75
282.356	440.75
282.588	436.75
282.819	442.75
283.051	449.75
283.282	445.75
283.513	422.75
283.745	439.75
283.976	445.75
284.207	444.75
284.439	442.75
284.67	447.75
284.901	453.75
285.132	459.75
285.364	464.75
285.595	445.75
285.826	447.75
286.057	464.75
286.288	470.75
286.52	472.75
286.751	489.75
286.982	486.75
287.213	476.75
287.444	459.75
287.675	472.75
287.906	460.75
288.138	452.75
288.369	483.75
288.6	492.75
288.831	467.75
289.062	480.75
289.293	483.75
289.524	501.75
289.755	490.75
289.986	494.75
290.217	503.75
290.448	502.75
290.679	491.75
290.91	510.75
291.141	501.75
291.371	490.75
291.602	508.75
291.833	505.75
292.064	496.75
292.295	502.75
292.526	500.75
292.757	517.75
292.987	519.75
293.218	505.75
293.449	494.75
293.68	486.75
293.91	515.75
294.141	516.75
294.372	518.75
294.603	502.75
294.833	545.75
295.064	533.75
295.295	529.75
295.525	543.75
295.756	521.75
295.987	514.75
296.217	539.75
296.448	498.75
296.679	522.75
296.909	520.75
297.14	540.75
297.37	549.75
297.601	540.75
297.831	551.75
298.062	533.75
298.292	547.75
298.523	569.75
298.753	554.75
298.984	535.75
299.214	526.75
299.445	562.75
299.675	553.75
299.905	540.75
300.136	540.75
300.366	539.75
300.597	550.75
300.827	576.75
301.057	568.75
301.288	569.75
301.518	550.75
301.748	558.75
301.979	566.75
302.209	592.75
302.439	591.75
302.669	598.75
302.9	584.75
303.13	570.75
303.36	584.75
303.59	589.75
303.82	603.75
304.051	599.75
304.281	606.75
304.511	603.75
304.741	584.75
304.971	615.75
305.201	605.75
305.431	588.75
305.661	612.75
305.891	576.75
306.121	594.75
306.352	572.75
306.582	604.75
306.812	625.75
307.042	612.75
307.272	619.75
307.502	602.75
307.731	611.75
307.961	630.75
308.191	589.75
308.421	599.75
308.651	589.75
308.881	594.75
309.111	628.75
309.341	613.75
309.571	620.75
309.8	611.75
310.03	628.75
310.26	628.75
310.49	610.75
310.72	612.75
310.949	632.75
311.179	612.75
311.409	628.75
311.639	631.75
311.868	628.75
312.098	630.75
312.328	629.75
312.557	622.75
312.787	648.75
313.017	638.75
313.246	624.75
313.476	639.75
313.706	657.75
313.935	648.75
314.165	665.75
314.394	655.75
314.624	661.75
314.853	649.75
315.083	666.75
315.312	663.75
315.542	652.75
315.771	668.75
316.001	652.75
316.23	666.75
316.46	663.75
316.689	680.75
316.919	675.75
317.148	666.75
317.377	674.75
317.607	679.75
317.836	659.75
318.065	682.75
318.295	677.75
318.524	668.75
318.753	680.75
318.983	674.75
319.212	681.75
319.441	692.75
319.67	730.75
319.9	704.75
320.129	688.75
320.358	688.75
320.587	699.75
320.816	710.75
321.046	703.75
321.275	726.75
321.504	700.75
321.733	725.75
321.962	701.75
322.191	721.75
322.42	733.75
322.649	728.75
322.878	718.75
323.108	722.75
323.337	712.75
323.566	741.75
323.795	739.75
324.024	713.75
324.253	736.75
324.482	725.75
324.71	726.75
324.939	751.75
325.168	742.75
325.397	742.75
325.626	726.75
325.855	740.75
326.084	751.75
326.313	755.75
326.542	740.75
326.77	741.75
326.999	761.75
327.228	769.75
327.457	740.75
327.686	751.75
327.914	757.75
328.143	764.75
328.372	744.75
328.6	747.75
328.829	751.75
329.058	755.75
329.287	774.75
329.515	751.75
329.744	755.75
329.972	792.75
330.201	776.75
330.43	771.75
330.658	759.75
330.887	764.75
331.115	776.75
331.344	790.75
331.572	780.75
331.801	786.75
332.03	806.75
332.258	794.75
332.486	778.75
332.715	774.75
332.943	794.75
333.172	774.75
333.4	783.75
333.629	805.75
333.857	820.75
334.085	809.75
334.314	836.75
334.542	794.75
334.771	815.75
334.999	821.75
335.227	816.75
335.455	828.75
335.684	841.75
335.912	838.75
336.14	795.75
336.369	826.75
336.597	856.75
336.825	831.75
337.053	844.75
337.281	840.75
337.51	824.75
337.738	822.75
337.966	810.75
338.194	814.75
338.422	843.75
338.65	813.75
338.878	828.75
339.106	845.75
339.334	842.75
339.562	826.75
339.79	790.75
340.018	828.75
340.246	829.75
340.474	814.75
340.702	791.75
340.93	814.75
341.158	835.75
341.386	836.75
341.614	814.75
341.842	819.75
342.07	828.75
342.298	806.75
342.526	806.75
342.754	796.75
342.981	792.75
343.209	818.75
343.437	815.75
343.665	812.75
343.893	814.75
344.12	848.75
344.348	818.75
344.576	837.75
344.804	848.75
345.031	809.75
345.259	816.75
345.487	816.75
345.714	830.75
345.942	826.75
346.17	808.75
346.397	799.75
346.625	812.75
346.853	789.75
347.08	782.75
347.308	802.75
347.535	811.75
347.763	803.75
347.99	799.75
348.218	785.75
348.445	763.75
348.673	777.75
348.9	785.75
349.128	782.75
349.355	792.75
349.583	791.75
349.81	783.75
350.037	794.75
350.265	783.75
350.492	765.75
350.72	771.75
350.947	782.75
351.174	800.75
351.402	800.75
351.629	770.75
351.856	778.75
352.083	794.75
352.311	790.75
352.538	787.75
352.765	781.75
352.992	778.75
353.22	785.75
353.447	776.75
353.674	777.75
353.901	780.75
354.128	765.75
354.355	769.75
354.583	801.75
354.81	781.75
355.037	785.75
355.264	772.75
355.491	768.75
355.718	790.75
355.945	797.75
356.172	782.75
356.399	778.75
356.626	774.75
356.853	780.75
357.08	776.75
357.307	796.75
357.534	784.75
357.761	776.75
357.988	792.75
358.215	795.75
358.441	800.75
358.668	774.75
358.895	792.75
359.122	777.75
359.349	784.75
359.576	793.75
359.802	788.75
360.029	822.75
360.256	779.75
360.483	782.75
360.709	774.75
360.936	790.75
361.163	794.75
361.39	795.75
361.616	769.75
361.843	786.75
362.07	763.75
362.296	777.75
362.523	785.75
362.749	798.75
362.976	788.75
363.203	814.75
363.429	792.75
363.656	824.75
363.882	793.75
364.109	798.75
364.335	791.75
364.562	799.75
364.788	808.75
365.015	814.75
365.241	790.75
365.468	783.75
365.694	812.75
365.92	823.75
366.147	785.75
366.373	813.75
366.599	804.75
366.826	804.75
367.052	811.75
367.278	815.75
367.505	795.75
367.731	804.75
367.957	810.75
368.184	834.75
368.41	831.75
368.636	809.75
368.862	813.75
369.089	836.75
369.315	826.75
369.541	836.75
369.767	807.75
369.993	840.75
370.219	821.75
370.445	860.75
370.672	855.75
370.898	826.75
371.124	842.75
371.35	852.75
371.576	858.75
371.802	856.75
372.028	861.75
372.254	864.75
372.48	845.75
372.706	850.75
372.932	856.75
373.158	854.75
373.384	859.75
373.61	882.75
373.835	815.75
374.061	843.75
374.287	877.75
374.513	856.75
374.739	861.75
374.965	852.75
375.191	869.75
375.416	878.75
375.642	886.75
375.868	891.75
376.094	877.75
376.319	859.75
376.545	842.75
376.771	850.75
376.997	860.75
377.222	828.75
377.448	836.75
377.674	835.75
377.899	858.75
378.125	828.75
378.35	850.75
378.576	858.75
378.802	850.75
379.027	838.75
379.253	856.75
379.478	866.75
379.704	850.75
379.929	848.75
380.155	820.75
380.38	859.75
380.606	874.75
380.831	848.75
381.057	875.75
381.282	860.75
381.507	867.75
381.733	866.75
381.958	847.75
382.184	844.75
382.409	859.75
382.634	847.75
382.86	876.75
383.085	861.75
383.31	856.75
383.535	882.75
383.761	874.75
383.986	877.75
384.211	888.75
384.436	886.75
384.662	871.75
384.887	882.75
385.112	882.75
385.337	901.75
385.562	921.75
385.787	896.75
386.013	907.75
386.238	905.75
386.463	918.75
386.688	919.75
386.913	926.75
387.138	917.75
387.363	942.75
387.588	943.75
387.813	954.75
388.038	926.75
388.263	945.75
388.488	929.75
388.713	934.75
388.938	944.75
389.163	926.75
389.387	955.75
389.612	912.75
389.837	937.75
390.062	932.75
390.287	918.75
390.512	956.75
390.736	970.75
390.961	946.75
391.186	927.75
391.411	943.75
391.636	972.75
391.86	967.75
392.085	972.75
392.31	948.75
392.534	967.75
392.759	996.75
392.984	966.75
393.208	965.75
393.433	943.75
393.658	954.75
393.882	962.75
394.107	955.75
394.331	952.75
394.556	950.75
394.78	936.75
395.005	936.75
395.229	965.75
395.454	967.75
395.678	940.75
395.903	943.75
396.127	936.75
396.352	973.75
396.576	976.75
396.801	997.75
397.025	987.75
397.249	1006.75
397.474	987.75
397.698	971.75
397.922	1008.75
398.147	986.75
398.371	1010.75
398.595	1029.75
398.82	1020.75
399.044	1074.75
399.268	1063.75
399.492	1071.75
399.717	1043.75
399.941	1086.75
400.165	1096.75
400.389	1080.75
400.613	1108.75
400.837	1079.75
401.062	1059.75
401.286	1066.75
401.51	1080.75
401.734	1032.75
401.958	1041.75
402.182	1026.75
402.406	1038.75
402.63	1032.75
402.854	1055.75
403.078	1053.75
403.302	1004.75
403.526	1039.75
403.75	1056.75
403.974	1050.75
404.198	1026.75
404.422	1070.75
404.645	1037.75
404.869	1040.75
405.093	1059.75
405.317	1054.75
405.541	1063.75
405.765	1053.75
405.988	1060.75
406.212	1078.75
406.436	1058.75
406.66	1102.75
406.883	1072.75
407.107	1101.75
407.331	1085.75
407.555	1123.75
407.778	1125.75
408.002	1125.75
408.226	1146.75
408.449	1131.75
408.673	1128.75
408.896	1080.75
409.12	1111.75
409.344	1083.75
409.567	1107.75
409.791	1117.75
410.014	1084.75
410.238	1060.75
410.461	1075.75
410.685	1069.75
410.908	1062.75
411.132	1088.75
411.355	1046.75
411.578	1099.75
411.802	1062.75
412.025	1026.75
412.249	1066.75
412.472	1062.75
412.695	1074.75
412.919	1049.75
413.142	1071.75
413.365	1042.75
413.589	1033.75
413.812	1013.75
414.035	1014.75
414.258	1015.75
414.482	1046.75
414.705	1019.75
414.928	1044.75
415.151	1051.75
415.374	1043.75
415.597	1026.75
415.821	991.75
416.044	999.75
416.267	1005.75
416.49	1002.75
416.713	1005.75
416.936	995.75
417.159	998.75
417.382	974.75
417.605	1003.75
417.828	999.75
418.051	1003.75
418.274	990.75
418.497	961.75
418.72	958.75
418.943	978.75
419.166	995.75
419.389	1070.75
419.611	1050.75
419.834	1048.75
420.057	1015.75
420.28	972.75
420.503	963.75
420.726	969.75
420.948	949.75
421.171	973.75
421.394	954.75
421.617	960.75
421.839	968.75
422.062	983.75
422.285	970.75
422.507	986.75
422.73	964.75
422.953	938.75
423.175	948.75
423.398	968.75
423.621	941.75
423.843	987.75
424.066	978.75
424.288	947.75
424.511	949.75
424.733	984.75
424.956	966.75
425.178	958.75
425.401	962.75
425.623	973.75
425.846	938.75
426.068	954.75
426.291	948.75
426.513	973.75
426.735	967.75
426.958	972.75
427.18	924.75
427.402	950.75
427.625	953.75
427.847	932.75
428.069	954.75
428.292	968.75
428.514	938.75
428.736	940.75
428.958	963.75
429.181	955.75
429.403	969.75
429.625	948.75
429.847	935.75
430.069	956.75
430.292	944.75
430.514	928.75
430.736	940.75
430.958	935.75
431.18	953.75
431.402	936.75
431.624	970.75
431.846	928.75
432.068	965.75
432.29	942.75
432.512	971.75
432.734	958.75
432.956	950.75
433.178	967.75
433.4	980.75
433.622	975.75
433.844	965.75
434.066	935.75
434.287	952.75
434.509	978.75
434.731	953.75
434.953	930.75
435.175	976.75
435.397	942.75
435.618	942.75
435.84	956.75
436.062	928.75
436.284	931.75
436.505	930.75
436.727	949.75
436.949	938.75
437.17	921.75
437.392	930.75
437.614	902.75
437.835	930.75
438.057	926.75
438.278	939.75
438.5	895.75
438.721	909.75
438.943	932.75
439.165	912.75
439.386	937.75
439.608	936.75
439.829	914.75
440.05	923.75
440.272	892.75
440.493	919.75
440.715	930.75
440.936	939.75
441.158	931.75
441.379	927.75
441.6	940.75
441.822	942.75
442.043	937.75
442.264	933.75
442.486	928.75
442.707	941.75
442.928	914.75
443.149	944.75
443.371	904.75
443.592	920.75
443.813	934.75
444.034	941.75
444.255	966.75
444.476	917.75
444.698	960.75
444.919	945.75
445.14	1041.75
445.361	965.75
445.582	941.75
445.803	940.75
446.024	898.75
446.245	916.75
446.466	904.75
446.687	919.75
446.908	903.75
447.129	887.75
447.35	898.75
447.571	898.75
447.792	863.75
448.013	885.75
448.234	892.75
448.455	875.75
448.675	901.75
448.896	867.75
449.117	845.75
449.338	882.75
449.559	860.75
449.779	880.75
450	876.75
450.221	880.75
450.442	877.75
450.662	885.75
450.883	852.75
451.104	863.75
451.324	862.75
451.545	852.75
451.766	822.75
451.986	855.75
452.207	840.75
452.428	856.75
452.648	856.75
452.869	805.75
453.089	834.75
453.31	862.75
453.53	811.75
453.751	822.75
453.971	852.75
454.192	828.75
454.412	819.75
454.633	844.75
454.853	863.75
455.073	839.75
455.294	801.75
455.514	816.75
455.734	828.75
455.955	810.75
456.175	829.75
456.395	836.75
456.616	838.75
456.836	867.75
457.056	835.75
457.276	850.75
457.497	859.75
457.717	852.75
457.937	842.75
458.157	852.75
458.377	862.75
458.598	860.75
458.818	852.75
459.038	866.75
459.258	901.75
459.478	879.75
459.698	874.75
459.918	877.75
460.138	930.75
460.358	919.75
460.578	886.75
460.798	917.75
461.018	930.75
461.238	958.75
461.458	912.75
461.678	949.75
461.898	949.75
462.118	959.75
462.338	943.75
462.558	964.75
462.777	996.75
462.997	984.75
463.217	1000.75
463.437	1006.75
463.657	987.75
463.876	1001.75
464.096	987.75
464.316	982.75
464.536	983.75
464.755	983.75
464.975	964.75
465.195	976.75
465.414	970.75
465.634	950.75
465.854	920.75
466.073	918.75
466.293	908.75
466.512	919.75
466.732	910.75
466.951	923.75
467.171	899.75
467.391	894.75
467.61	908.75
467.829	901.75
468.049	910.75
468.268	895.75
468.488	893.75
468.707	884.75
468.927	904.75
469.146	892.75
469.365	908.75
469.585	887.75
469.804	866.75
470.023	902.75
470.243	890.75
470.462	919.75
470.681	899.75
470.901	912.75
471.12	912.75
471.339	916.75
471.558	920.75
471.777	943.75
471.997	907.75
472.216	907.75
472.435	921.75
472.654	906.75
472.873	918.75
473.092	899.75
473.311	897.75
473.53	884.75
473.749	894.75
473.968	939.75
474.187	913.75
474.406	942.75
474.625	956.75
474.844	919.75
475.063	934.75
475.282	946.75
475.501	963.75
475.72	961.75
475.939	943.75
476.158	944.75
476.377	979.75
476.596	944.75
476.814	980.75
477.033	995.75
477.252	955.75
477.471	972.75
477.69	959.75
477.908	994.75
478.127	1021.75
478.346	1026.75
478.564	1019.75
478.783	1022.75
479.002	1035.75
479.22	1068.75
479.439	1041.75
479.658	1055.75
479.876	1077.75
480.095	1064.75
480.313	1078.75
480.532	1051.75
480.751	1061.75
480.969	1067.75
481.188	1068.75
481.406	1060.75
481.624	1069.75
481.843	1053.75
482.061	1089.75
482.28	1062.75
482.498	1078.75
482.717	1049.75
482.935	1042.75
483.153	1090.75
483.372	1071.75
483.59	1100.75
483.808	1098.75
484.027	1060.75
484.245	1068.75
484.463	1085.75
484.681	1110.75
484.9	1098.75
485.118	1090.75
485.336	1112.75
485.554	1098.75
485.772	1099.75
485.99	1110.75
486.209	1098.75
486.427	1123.75
486.645	1129.75
486.863	1129.75
487.081	1116.75
487.299	1116.75
487.517	1126.75
487.735	1132.75
487.953	1122.75
488.171	1115.75
488.389	1105.75
488.607	1119.75
488.825	1107.75
489.043	1127.75
489.261	1108.75
489.479	1154.75
489.696	1122.75
489.914	1131.75
490.132	1116.75
490.35	1113.75
490.568	1131.75
490.786	1148.75
491.003	1115.75
491.221	1127.75
491.439	1124.75
491.657	1127.75
491.874	1141.75
492.092	1138.75
492.31	1118.75
492.527	1162.75
492.745	1160.75
492.963	1172.75
493.18	1151.75
493.398	1164.75
493.615	1168.75
493.833	1150.75
494.05	1143.75
494.268	1167.75
494.485	1163.75
494.703	1155.75
494.92	1177.75
495.138	1175.75
495.355	1195.75
495.573	1191.75
495.79	1173.75
496.008	1214.75
496.225	1210.75
496.442	1219.75
496.66	1224.75
496.877	1226.75
497.094	1264.75
497.312	1256.75
497.529	1250.75
497.746	1286.75
497.963	1276.75
498.181	1275.75
498.398	1307.75
498.615	1305.75
498.832	1332.75
499.049	1373.75
