Data from Fe(NO3)3@0.05M.TitratingCurve.Agarose3%dH2O.NegLispCup.LampEnergy10.LIBS07252019_HRD10591_16-48-39-334.txt Node
Date: Thu Jul 25 16:48:39 EDT 2019
User: cochatt
Spectrometer: HR+D1059
Trigger mode: 1
Integration Time (sec): 1.000000E-1
Scans to average: 1
Electric dark correction enabled: true
Nonlinearity correction enabled: false
Boxcar width: 0
XAxis mode: Wavelengths
Number of Pixels in Spectrum: 2048
>>>>>Begin Spectral Data<<<<<
223.165	-15.81
223.4	-15.81
223.635	-15.81
223.869	-21.81
224.104	-29.81
224.338	-21.81
224.573	-13.81
224.808	-11.81
225.042	-12.81
225.277	-8.81
225.511	12.19
225.746	-4.81
225.98	7.19
226.215	18.19
226.449	18.19
226.683	25.19
226.918	25.19
227.152	35.19
227.387	34.19
227.621	36.19
227.856	41.19
228.09	50.19
228.324	60.19
228.559	41.19
228.793	53.19
229.027	62.19
229.262	69.19
229.496	84.19
229.73	77.19
229.964	72.19
230.199	81.19
230.433	74.19
230.667	80.19
230.901	75.19
231.136	85.19
231.37	80.19
231.604	94.19
231.838	90.19
232.072	84.19
232.306	73.19
232.541	79.19
232.775	90.19
233.009	100.19
233.243	79.19
233.477	104.19
233.711	83.19
233.945	71.19
234.179	84.19
234.413	83.19
234.647	89.19
234.881	88.19
235.115	75.19
235.349	83.19
235.583	86.19
235.817	62.19
236.051	86.19
236.285	89.19
236.519	102.19
236.753	95.19
236.987	84.19
237.221	81.19
237.455	86.19
237.689	97.19
237.922	74.19
238.156	75.19
238.39	82.19
238.624	92.19
238.858	84.19
239.091	81.19
239.325	82.19
239.559	85.19
239.793	75.19
240.027	92.19
240.26	84.19
240.494	92.19
240.728	102.19
240.961	107.19
241.195	82.19
241.429	86.19
241.662	102.19
241.896	93.19
242.13	89.19
242.363	93.19
242.597	90.19
242.83	82.19
243.064	86.19
243.298	79.19
243.531	99.19
243.765	93.19
243.998	98.19
244.232	94.19
244.465	96.19
244.699	87.19
244.932	73.19
245.166	89.19
245.399	86.19
245.633	86.19
245.866	91.19
246.099	93.19
246.333	97.19
246.566	85.19
246.8	77.19
247.033	72.19
247.266	87.19
247.5	93.19
247.733	100.19
247.966	99.19
248.2	99.19
248.433	98.19
248.666	90.19
248.899	98.19
249.133	99.19
249.366	88.19
249.599	100.19
249.832	94.19
250.066	105.19
250.299	95.19
250.532	99.19
250.765	92.19
250.998	89.19
251.231	110.19
251.465	91.19
251.698	93.19
251.931	106.19
252.164	89.19
252.397	98.19
252.63	101.19
252.863	98.19
253.096	98.19
253.329	109.19
253.562	104.19
253.795	85.19
254.028	100.19
254.261	81.19
254.494	98.19
254.727	102.19
254.96	95.19
255.193	100.19
255.426	88.19
255.659	99.19
255.892	106.19
256.124	108.19
256.357	114.19
256.59	106.19
256.823	113.19
257.056	96.19
257.289	94.19
257.521	95.19
257.754	102.19
257.987	113.19
258.22	98.19
258.452	107.19
258.685	119.19
258.918	111.19
259.151	107.19
259.383	99.19
259.616	95.19
259.849	105.19
260.081	108.19
260.314	117.19
260.547	104.19
260.779	97.19
261.012	102.19
261.244	102.19
261.477	122.19
261.71	110.19
261.942	101.19
262.175	92.19
262.407	106.19
262.64	96.19
262.872	107.19
263.105	108.19
263.337	95.19
263.57	105.19
263.802	113.19
264.035	106.19
264.267	117.19
264.499	102.19
264.732	103.19
264.964	116.19
265.197	107.19
265.429	104.19
265.661	100.19
265.894	110.19
266.126	117.19
266.358	126.19
266.591	118.19
266.823	103.19
267.055	111.19
267.287	106.19
267.52	106.19
267.752	122.19
267.984	103.19
268.216	98.19
268.448	129.19
268.681	115.19
268.913	108.19
269.145	94.19
269.377	114.19
269.609	107.19
269.841	93.19
270.073	108.19
270.306	114.19
270.538	122.19
270.77	113.19
271.002	99.19
271.234	108.19
271.466	117.19
271.698	119.19
271.93	107.19
272.162	115.19
272.394	109.19
272.626	94.19
272.858	119.19
273.09	106.19
273.322	105.19
273.553	109.19
273.785	110.19
274.017	121.19
274.249	125.19
274.481	114.19
274.713	130.19
274.945	137.19
275.176	122.19
275.408	118.19
275.64	123.19
275.872	133.19
276.104	116.19
276.335	124.19
276.567	110.19
276.799	121.19
277.031	116.19
277.262	113.19
277.494	108.19
277.726	129.19
277.957	110.19
278.189	110.19
278.421	123.19
278.652	114.19
278.884	122.19
279.115	126.19
279.347	117.19
279.579	113.19
279.81	119.19
280.042	112.19
280.273	115.19
280.505	119.19
280.736	116.19
280.968	115.19
281.199	109.19
281.431	119.19
281.662	121.19
281.894	108.19
282.125	115.19
282.356	111.19
282.588	116.19
282.819	132.19
283.051	117.19
283.282	109.19
283.513	115.19
283.745	113.19
283.976	114.19
284.207	115.19
284.439	128.19
284.67	134.19
284.901	123.19
285.132	125.19
285.364	127.19
285.595	109.19
285.826	121.19
286.057	129.19
286.288	127.19
286.52	127.19
286.751	121.19
286.982	119.19
287.213	115.19
287.444	128.19
287.675	124.19
287.906	120.19
288.138	123.19
288.369	116.19
288.6	129.19
288.831	123.19
289.062	120.19
289.293	109.19
289.524	127.19
289.755	118.19
289.986	111.19
290.217	136.19
290.448	109.19
290.679	109.19
290.91	132.19
291.141	129.19
291.371	123.19
291.602	125.19
291.833	121.19
292.064	113.19
292.295	132.19
292.526	125.19
292.757	119.19
292.987	135.19
293.218	117.19
293.449	124.19
293.68	125.19
293.91	117.19
294.141	127.19
294.372	125.19
294.603	118.19
294.833	121.19
295.064	119.19
295.295	126.19
295.525	147.19
295.756	135.19
295.987	143.19
296.217	119.19
296.448	122.19
296.679	113.19
296.909	143.19
297.14	131.19
297.37	149.19
297.601	122.19
297.831	138.19
298.062	135.19
298.292	126.19
298.523	121.19
298.753	126.19
298.984	125.19
299.214	127.19
299.445	134.19
299.675	127.19
299.905	132.19
300.136	137.19
300.366	128.19
300.597	127.19
300.827	139.19
301.057	140.19
301.288	135.19
301.518	128.19
301.748	122.19
301.979	138.19
302.209	148.19
302.439	139.19
302.669	129.19
302.9	137.19
303.13	126.19
303.36	130.19
303.59	128.19
303.82	130.19
304.051	133.19
304.281	133.19
304.511	116.19
304.741	135.19
304.971	151.19
305.201	144.19
305.431	128.19
305.661	142.19
305.891	131.19
306.121	110.19
306.352	127.19
306.582	131.19
306.812	137.19
307.042	117.19
307.272	146.19
307.502	136.19
307.731	144.19
307.961	124.19
308.191	131.19
308.421	135.19
308.651	110.19
308.881	123.19
309.111	132.19
309.341	129.19
309.571	136.19
309.8	137.19
310.03	137.19
310.26	132.19
310.49	135.19
310.72	130.19
310.949	134.19
311.179	140.19
311.409	137.19
311.639	151.19
311.868	147.19
312.098	144.19
312.328	133.19
312.557	156.19
312.787	133.19
313.017	128.19
313.246	121.19
313.476	147.19
313.706	130.19
313.935	144.19
314.165	146.19
314.394	149.19
314.624	144.19
314.853	140.19
315.083	139.19
315.312	148.19
315.542	142.19
315.771	141.19
316.001	136.19
316.23	137.19
316.46	133.19
316.689	150.19
316.919	152.19
317.148	151.19
317.377	136.19
317.607	135.19
317.836	138.19
318.065	134.19
318.295	150.19
318.524	139.19
318.753	139.19
318.983	138.19
319.212	132.19
319.441	150.19
319.67	132.19
319.9	135.19
320.129	126.19
320.358	134.19
320.587	140.19
320.816	141.19
321.046	134.19
321.275	140.19
321.504	128.19
321.733	140.19
321.962	123.19
322.191	130.19
322.42	126.19
322.649	135.19
322.878	132.19
323.108	138.19
323.337	128.19
323.566	135.19
323.795	143.19
324.024	134.19
324.253	131.19
324.482	145.19
324.71	126.19
324.939	153.19
325.168	159.19
325.397	135.19
325.626	125.19
325.855	138.19
326.084	131.19
326.313	146.19
326.542	132.19
326.77	136.19
326.999	118.19
327.228	142.19
327.457	137.19
327.686	142.19
327.914	136.19
328.143	149.19
328.372	148.19
328.6	137.19
328.829	131.19
329.058	148.19
329.287	142.19
329.515	144.19
329.744	147.19
329.972	151.19
330.201	138.19
330.43	140.19
330.658	153.19
330.887	150.19
331.115	141.19
331.344	132.19
331.572	156.19
331.801	157.19
332.03	142.19
332.258	148.19
332.486	147.19
332.715	154.19
332.943	146.19
333.172	148.19
333.4	170.19
333.629	156.19
333.857	166.19
334.085	162.19
334.314	143.19
334.542	141.19
334.771	153.19
334.999	159.19
335.227	169.19
335.455	153.19
335.684	160.19
335.912	151.19
336.14	147.19
336.369	154.19
336.597	154.19
336.825	154.19
337.053	164.19
337.281	162.19
337.51	160.19
337.738	142.19
337.966	159.19
338.194	158.19
338.422	137.19
338.65	153.19
338.878	161.19
339.106	138.19
339.334	151.19
339.562	150.19
339.79	142.19
340.018	151.19
340.246	129.19
340.474	129.19
340.702	137.19
340.93	148.19
341.158	162.19
341.386	156.19
341.614	135.19
341.842	156.19
342.07	156.19
342.298	128.19
342.526	145.19
342.754	137.19
342.981	134.19
343.209	150.19
343.437	149.19
343.665	154.19
343.893	153.19
344.12	162.19
344.348	161.19
344.576	126.19
344.804	150.19
345.031	151.19
345.259	162.19
345.487	149.19
345.714	145.19
345.942	133.19
346.17	151.19
346.397	161.19
346.625	152.19
346.853	141.19
347.08	150.19
347.308	149.19
347.535	136.19
347.763	134.19
347.99	153.19
348.218	142.19
348.445	159.19
348.673	150.19
348.9	126.19
349.128	153.19
349.355	147.19
349.583	150.19
349.81	143.19
350.037	149.19
350.265	153.19
350.492	137.19
350.72	154.19
350.947	163.19
351.174	131.19
351.402	147.19
351.629	144.19
351.856	130.19
352.083	149.19
352.311	153.19
352.538	147.19
352.765	151.19
352.992	149.19
353.22	146.19
353.447	151.19
353.674	146.19
353.901	151.19
354.128	151.19
354.355	155.19
354.583	144.19
354.81	141.19
355.037	133.19
355.264	154.19
355.491	134.19
355.718	159.19
355.945	150.19
356.172	150.19
356.399	146.19
356.626	131.19
356.853	130.19
357.08	139.19
357.307	162.19
357.534	150.19
357.761	154.19
357.988	155.19
358.215	146.19
358.441	150.19
358.668	154.19
358.895	146.19
359.122	153.19
359.349	138.19
359.576	160.19
359.802	147.19
360.029	162.19
360.256	154.19
360.483	152.19
360.709	148.19
360.936	139.19
361.163	145.19
361.39	151.19
361.616	149.19
361.843	143.19
362.07	150.19
362.296	151.19
362.523	145.19
362.749	155.19
362.976	145.19
363.203	147.19
363.429	150.19
363.656	168.19
363.882	157.19
364.109	144.19
364.335	162.19
364.562	150.19
364.788	143.19
365.015	149.19
365.241	143.19
365.468	148.19
365.694	157.19
365.92	148.19
366.147	145.19
366.373	153.19
366.599	153.19
366.826	165.19
367.052	149.19
367.278	154.19
367.505	157.19
367.731	153.19
367.957	155.19
368.184	154.19
368.41	141.19
368.636	151.19
368.862	155.19
369.089	140.19
369.315	161.19
369.541	145.19
369.767	167.19
369.993	168.19
370.219	186.19
370.445	149.19
370.672	160.19
370.898	162.19
371.124	147.19
371.35	167.19
371.576	156.19
371.802	169.19
372.028	157.19
372.254	163.19
372.48	163.19
372.706	154.19
372.932	150.19
373.158	163.19
373.384	160.19
373.61	180.19
373.835	177.19
374.061	164.19
374.287	159.19
374.513	165.19
374.739	170.19
374.965	169.19
375.191	165.19
375.416	177.19
375.642	169.19
375.868	180.19
376.094	175.19
376.319	164.19
376.545	148.19
376.771	170.19
376.997	157.19
377.222	157.19
377.448	174.19
377.674	153.19
377.899	161.19
378.125	162.19
378.35	153.19
378.576	153.19
378.802	179.19
379.027	162.19
379.253	144.19
379.478	173.19
379.704	172.19
379.929	166.19
380.155	150.19
380.38	160.19
380.606	146.19
380.831	172.19
381.057	178.19
381.282	173.19
381.507	161.19
381.733	173.19
381.958	193.19
382.184	188.19
382.409	177.19
382.634	170.19
382.86	168.19
383.085	188.19
383.31	179.19
383.535	167.19
383.761	189.19
383.986	181.19
384.211	191.19
384.436	179.19
384.662	172.19
384.887	195.19
385.112	191.19
385.337	189.19
385.562	190.19
385.787	181.19
386.013	214.19
386.238	193.19
386.463	193.19
386.688	187.19
386.913	189.19
387.138	183.19
387.363	187.19
387.588	190.19
387.813	189.19
388.038	185.19
388.263	201.19
388.488	177.19
388.713	212.19
388.938	192.19
389.163	177.19
389.387	203.19
389.612	183.19
389.837	199.19
390.062	189.19
390.287	192.19
390.512	189.19
390.736	188.19
390.961	202.19
391.186	194.19
391.411	209.19
391.636	203.19
391.86	207.19
392.085	217.19
392.31	190.19
392.534	206.19
392.759	206.19
392.984	198.19
393.208	204.19
393.433	208.19
393.658	210.19
393.882	199.19
394.107	204.19
394.331	212.19
394.556	203.19
394.78	203.19
395.005	203.19
395.229	208.19
395.454	215.19
395.678	207.19
395.903	215.19
396.127	213.19
396.352	199.19
396.576	194.19
396.801	214.19
397.025	225.19
397.249	205.19
397.474	228.19
397.698	220.19
397.922	214.19
398.147	199.19
398.371	201.19
398.595	213.19
398.82	219.19
399.044	223.19
399.268	233.19
399.492	261.19
399.717	297.19
399.941	285.19
400.165	264.19
400.389	246.19
400.613	241.19
400.837	221.19
401.062	224.19
401.286	224.19
401.51	222.19
401.734	219.19
401.958	214.19
402.182	238.19
402.406	249.19
402.63	239.19
402.854	234.19
403.078	257.19
403.302	237.19
403.526	232.19
403.75	249.19
403.974	247.19
404.198	235.19
404.422	241.19
404.645	232.19
404.869	244.19
405.093	249.19
405.317	249.19
405.541	232.19
405.765	235.19
405.988	245.19
406.212	251.19
406.436	261.19
406.66	245.19
406.883	248.19
407.107	263.19
407.331	279.19
407.555	265.19
407.778	270.19
408.002	278.19
408.226	274.19
408.449	254.19
408.673	263.19
408.896	251.19
409.12	257.19
409.344	245.19
409.567	263.19
409.791	263.19
410.014	260.19
410.238	259.19
410.461	261.19
410.685	233.19
410.908	247.19
411.132	237.19
411.355	238.19
411.578	246.19
411.802	249.19
412.025	242.19
412.249	238.19
412.472	243.19
412.695	227.19
412.919	253.19
413.142	240.19
413.365	243.19
413.589	254.19
413.812	243.19
414.035	229.19
414.258	232.19
414.482	226.19
414.705	249.19
414.928	242.19
415.151	259.19
415.374	248.19
415.597	238.19
415.821	226.19
416.044	241.19
416.267	259.19
416.49	250.19
416.713	250.19
416.936	242.19
417.159	232.19
417.382	238.19
417.605	243.19
417.828	234.19
418.051	230.19
418.274	236.19
418.497	258.19
418.72	236.19
418.943	261.19
419.166	244.19
419.389	258.19
419.611	246.19
419.834	254.19
420.057	244.19
420.28	233.19
420.503	240.19
420.726	261.19
420.948	237.19
421.171	233.19
421.394	264.19
421.617	234.19
421.839	269.19
422.062	267.19
422.285	253.19
422.507	249.19
422.73	257.19
422.953	236.19
423.175	257.19
423.398	250.19
423.621	233.19
423.843	251.19
424.066	257.19
424.288	272.19
424.511	253.19
424.733	268.19
424.956	257.19
425.178	254.19
425.401	248.19
425.623	237.19
425.846	242.19
426.068	234.19
426.291	252.19
426.513	229.19
426.735	232.19
426.958	234.19
427.18	237.19
427.402	244.19
427.625	232.19
427.847	241.19
428.069	219.19
428.292	237.19
428.514	235.19
428.736	238.19
428.958	242.19
429.181	230.19
429.403	236.19
429.625	226.19
429.847	228.19
430.069	223.19
430.292	230.19
430.514	233.19
430.736	241.19
430.958	238.19
431.18	222.19
431.402	219.19
431.624	230.19
431.846	233.19
432.068	234.19
432.29	227.19
432.512	243.19
432.734	242.19
432.956	238.19
433.178	247.19
433.4	252.19
433.622	252.19
433.844	247.19
434.066	250.19
434.287	243.19
434.509	243.19
434.731	244.19
434.953	255.19
435.175	263.19
435.397	247.19
435.618	243.19
435.84	237.19
436.062	236.19
436.284	238.19
436.505	233.19
436.727	250.19
436.949	246.19
437.17	259.19
437.392	235.19
437.614	241.19
437.835	232.19
438.057	238.19
438.278	238.19
438.5	246.19
438.721	253.19
438.943	237.19
439.165	237.19
439.386	253.19
439.608	263.19
439.829	245.19
440.05	260.19
440.272	251.19
440.493	245.19
440.715	261.19
440.936	252.19
441.158	247.19
441.379	267.19
441.6	266.19
441.822	269.19
442.043	270.19
442.264	260.19
442.486	264.19
442.707	279.19
442.928	255.19
443.149	272.19
443.371	277.19
443.592	265.19
443.813	261.19
444.034	277.19
444.255	287.19
444.476	271.19
444.698	282.19
444.919	306.19
445.14	414.19
445.361	315.19
445.582	269.19
445.803	263.19
446.024	260.19
446.245	263.19
446.466	250.19
446.687	267.19
446.908	261.19
447.129	261.19
447.35	244.19
447.571	252.19
447.792	241.19
448.013	233.19
448.234	243.19
448.455	236.19
448.675	236.19
448.896	247.19
449.117	217.19
449.338	233.19
449.559	245.19
449.779	228.19
450	243.19
450.221	249.19
450.442	235.19
450.662	239.19
450.883	254.19
451.104	236.19
451.324	241.19
451.545	236.19
451.766	236.19
451.986	236.19
452.207	238.19
452.428	233.19
452.648	231.19
452.869	222.19
453.089	210.19
453.31	239.19
453.53	242.19
453.751	214.19
453.971	224.19
454.192	234.19
454.412	218.19
454.633	234.19
454.853	237.19
455.073	209.19
455.294	221.19
455.514	224.19
455.734	241.19
455.955	231.19
456.175	230.19
456.395	223.19
456.616	228.19
456.836	228.19
457.056	225.19
457.276	214.19
457.497	220.19
457.717	226.19
457.937	220.19
458.157	224.19
458.377	234.19
458.598	234.19
458.818	243.19
459.038	226.19
459.258	227.19
459.478	234.19
459.698	229.19
459.918	263.19
460.138	274.19
460.358	265.19
460.578	263.19
460.798	265.19
461.018	271.19
461.238	268.19
461.458	268.19
461.678	257.19
461.898	279.19
462.118	277.19
462.338	288.19
462.558	275.19
462.777	289.19
462.997	307.19
463.217	329.19
463.437	339.19
463.657	311.19
463.876	316.19
464.096	302.19
464.316	287.19
464.536	301.19
464.755	290.19
464.975	286.19
465.195	284.19
465.414	269.19
465.634	264.19
465.854	255.19
466.073	244.19
466.293	265.19
466.512	259.19
466.732	253.19
466.951	272.19
467.171	258.19
467.391	245.19
467.61	253.19
467.829	258.19
468.049	259.19
468.268	260.19
468.488	244.19
468.707	239.19
468.927	244.19
469.146	265.19
469.365	248.19
469.585	225.19
469.804	238.19
470.023	234.19
470.243	250.19
470.462	243.19
470.681	269.19
470.901	264.19
471.12	245.19
471.339	245.19
471.558	244.19
471.777	245.19
471.997	242.19
472.216	259.19
472.435	232.19
472.654	235.19
472.873	238.19
473.092	233.19
473.311	247.19
473.53	246.19
473.749	252.19
473.968	249.19
474.187	236.19
474.406	257.19
474.625	242.19
474.844	254.19
475.063	236.19
475.282	244.19
475.501	246.19
475.72	253.19
475.939	224.19
476.158	238.19
476.377	246.19
476.596	258.19
476.814	266.19
477.033	254.19
477.252	253.19
477.471	281.19
477.69	266.19
477.908	271.19
478.127	272.19
478.346	283.19
478.564	290.19
478.783	298.19
479.002	274.19
479.22	282.19
479.439	272.19
479.658	284.19
479.876	275.19
480.095	277.19
480.313	282.19
480.532	290.19
480.751	296.19
480.969	303.19
481.188	280.19
481.406	264.19
481.624	288.19
481.843	277.19
482.061	271.19
482.28	264.19
482.498	260.19
482.717	279.19
482.935	284.19
483.153	274.19
483.372	266.19
483.59	274.19
483.808	279.19
484.027	261.19
484.245	272.19
484.463	285.19
484.681	286.19
484.9	284.19
485.118	281.19
485.336	268.19
485.554	286.19
485.772	267.19
485.99	268.19
486.209	264.19
486.427	273.19
486.645	276.19
486.863	277.19
487.081	276.19
487.299	283.19
487.517	280.19
487.735	289.19
487.953	284.19
488.171	281.19
488.389	277.19
488.607	282.19
488.825	276.19
489.043	300.19
489.261	283.19
489.479	286.19
489.696	289.19
489.914	276.19
490.132	282.19
490.35	293.19
490.568	268.19
490.786	277.19
491.003	301.19
491.221	286.19
491.439	277.19
491.657	291.19
491.874	295.19
492.092	331.19
492.31	326.19
492.527	316.19
492.745	310.19
492.963	326.19
493.18	288.19
493.398	315.19
493.615	309.19
493.833	294.19
494.05	302.19
494.268	308.19
494.485	292.19
494.703	299.19
494.92	313.19
495.138	298.19
495.355	298.19
495.573	306.19
495.79	288.19
496.008	302.19
496.225	309.19
496.442	279.19
496.66	300.19
496.877	308.19
497.094	293.19
497.312	313.19
497.529	324.19
497.746	299.19
497.963	310.19
498.181	301.19
498.398	344.19
498.615	342.19
498.832	342.19
499.049	344.19
499.267	391.19
499.484	395.19
499.701	440.19
499.918	490.19
500.135	521.19
500.352	579.19
500.569	560.19
500.786	571.19
501.003	549.19
501.22	476.19
501.437	446.19
501.654	430.19
501.871	371.19
502.088	354.19
502.305	377.19
502.522	356.19
502.739	329.19
502.956	318.19
503.172	327.19
