Data from Fe(NO3)3@0.1M.TitratingCurve.Agarose3%dH2O.NegLispCup.LampEnergy10.LIBS07252019_HRD10591_16-40-11-332.txt Node
Date: Thu Jul 25 16:40:11 EDT 2019
User: cochatt
Spectrometer: HR+D1059
Trigger mode: 1
Integration Time (sec): 1.000000E-1
Scans to average: 1
Electric dark correction enabled: true
Nonlinearity correction enabled: false
Boxcar width: 0
XAxis mode: Wavelengths
Number of Pixels in Spectrum: 2048
>>>>>Begin Spectral Data<<<<<
223.165	1.69
223.4	1.69
223.635	1.69
223.869	-22.31
224.104	-19.31
224.338	0.69
224.573	-20.31
224.808	-20.31
225.042	-14.31
225.277	-7.31
225.511	-10.31
225.746	7.69
225.98	-6.31
226.215	9.69
226.449	12.69
226.683	23.69
226.918	36.69
227.152	27.69
227.387	25.69
227.621	34.69
227.856	48.69
228.09	41.69
228.324	51.69
228.559	53.69
228.793	53.69
229.027	82.69
229.262	82.69
229.496	104.69
229.73	88.69
229.964	108.69
230.199	90.69
230.433	101.69
230.667	97.69
230.901	103.69
231.136	106.69
231.37	115.69
231.604	111.69
231.838	108.69
232.072	121.69
232.306	114.69
232.541	109.69
232.775	120.69
233.009	104.69
233.243	114.69
233.477	127.69
233.711	127.69
233.945	117.69
234.179	133.69
234.413	124.69
234.647	112.69
234.881	113.69
235.115	119.69
235.349	118.69
235.583	123.69
235.817	112.69
236.051	116.69
236.285	123.69
236.519	119.69
236.753	113.69
236.987	106.69
237.221	107.69
237.455	109.69
237.689	133.69
237.922	131.69
238.156	116.69
238.39	120.69
238.624	127.69
238.858	131.69
239.091	116.69
239.325	119.69
239.559	124.69
239.793	124.69
240.027	132.69
240.26	124.69
240.494	140.69
240.728	130.69
240.961	130.69
241.195	136.69
241.429	132.69
241.662	132.69
241.896	136.69
242.13	138.69
242.363	141.69
242.597	149.69
242.83	135.69
243.064	142.69
243.298	129.69
243.531	154.69
243.765	143.69
243.998	131.69
244.232	132.69
244.465	147.69
244.699	139.69
244.932	147.69
245.166	161.69
245.399	146.69
245.633	151.69
245.866	159.69
246.099	154.69
246.333	145.69
246.566	144.69
246.8	145.69
247.033	163.69
247.266	148.69
247.5	155.69
247.733	148.69
247.966	158.69
248.2	176.69
248.433	165.69
248.666	160.69
248.899	160.69
249.133	152.69
249.366	169.69
249.599	178.69
249.832	157.69
250.066	172.69
250.299	154.69
250.532	174.69
250.765	175.69
250.998	155.69
251.231	166.69
251.465	178.69
251.698	177.69
251.931	167.69
252.164	169.69
252.397	195.69
252.63	180.69
252.863	195.69
253.096	166.69
253.329	172.69
253.562	181.69
253.795	170.69
254.028	194.69
254.261	174.69
254.494	186.69
254.727	196.69
254.96	198.69
255.193	179.69
255.426	172.69
255.659	189.69
255.892	195.69
256.124	179.69
256.357	188.69
256.59	190.69
256.823	206.69
257.056	208.69
257.289	202.69
257.521	196.69
257.754	200.69
257.987	205.69
258.22	191.69
258.452	188.69
258.685	209.69
258.918	209.69
259.151	182.69
259.383	208.69
259.616	187.69
259.849	204.69
260.081	219.69
260.314	212.69
260.547	206.69
260.779	191.69
261.012	219.69
261.244	215.69
261.477	215.69
261.71	209.69
261.942	195.69
262.175	213.69
262.407	210.69
262.64	215.69
262.872	211.69
263.105	219.69
263.337	228.69
263.57	223.69
263.802	209.69
264.035	211.69
264.267	220.69
264.499	234.69
264.732	221.69
264.964	245.69
265.197	233.69
265.429	231.69
265.661	204.69
265.894	224.69
266.126	223.69
266.358	228.69
266.591	219.69
266.823	237.69
267.055	236.69
267.287	229.69
267.52	244.69
267.752	226.69
267.984	225.69
268.216	245.69
268.448	241.69
268.681	223.69
268.913	235.69
269.145	235.69
269.377	235.69
269.609	250.69
269.841	235.69
270.073	241.69
270.306	239.69
270.538	234.69
270.77	255.69
271.002	239.69
271.234	251.69
271.466	263.69
271.698	249.69
271.93	259.69
272.162	248.69
272.394	264.69
272.626	259.69
272.858	247.69
273.09	258.69
273.322	262.69
273.553	229.69
273.785	257.69
274.017	256.69
274.249	272.69
274.481	273.69
274.713	261.69
274.945	267.69
275.176	264.69
275.408	253.69
275.64	260.69
275.872	268.69
276.104	276.69
276.335	253.69
276.567	272.69
276.799	258.69
277.031	252.69
277.262	285.69
277.494	272.69
277.726	278.69
277.957	279.69
278.189	275.69
278.421	276.69
278.652	273.69
278.884	299.69
279.115	277.69
279.347	269.69
279.579	273.69
279.81	287.69
280.042	280.69
280.273	299.69
280.505	279.69
280.736	270.69
280.968	286.69
281.199	278.69
281.431	278.69
281.662	282.69
281.894	292.69
282.125	290.69
282.356	291.69
282.588	290.69
282.819	303.69
283.051	300.69
283.282	283.69
283.513	292.69
283.745	298.69
283.976	288.69
284.207	298.69
284.439	289.69
284.67	312.69
284.901	301.69
285.132	297.69
285.364	311.69
285.595	311.69
285.826	297.69
286.057	308.69
286.288	316.69
286.52	319.69
286.751	297.69
286.982	307.69
287.213	327.69
287.444	313.69
287.675	312.69
287.906	308.69
288.138	299.69
288.369	321.69
288.6	328.69
288.831	315.69
289.062	315.69
289.293	338.69
289.524	320.69
289.755	323.69
289.986	308.69
290.217	322.69
290.448	312.69
290.679	325.69
290.91	320.69
291.141	314.69
291.371	310.69
291.602	328.69
291.833	325.69
292.064	307.69
292.295	319.69
292.526	325.69
292.757	314.69
292.987	315.69
293.218	315.69
293.449	312.69
293.68	316.69
293.91	320.69
294.141	319.69
294.372	299.69
294.603	333.69
294.833	324.69
295.064	301.69
295.295	323.69
295.525	329.69
295.756	331.69
295.987	322.69
296.217	327.69
296.448	318.69
296.679	332.69
296.909	316.69
297.14	333.69
297.37	340.69
297.601	341.69
297.831	324.69
298.062	346.69
298.292	340.69
298.523	356.69
298.753	368.69
298.984	346.69
299.214	344.69
299.445	345.69
299.675	351.69
299.905	341.69
300.136	346.69
300.366	355.69
300.597	346.69
300.827	352.69
301.057	379.69
301.288	363.69
301.518	346.69
301.748	358.69
301.979	371.69
302.209	353.69
302.439	362.69
302.669	363.69
302.9	353.69
303.13	365.69
303.36	379.69
303.59	372.69
303.82	375.69
304.051	359.69
304.281	375.69
304.511	364.69
304.741	367.69
304.971	381.69
305.201	355.69
305.431	359.69
305.661	377.69
305.891	375.69
306.121	376.69
306.352	363.69
306.582	351.69
306.812	348.69
307.042	352.69
307.272	347.69
307.502	357.69
307.731	357.69
307.961	359.69
308.191	353.69
308.421	356.69
308.651	356.69
308.881	357.69
309.111	341.69
309.341	346.69
309.571	352.69
309.8	355.69
310.03	376.69
310.26	363.69
310.49	343.69
310.72	375.69
310.949	351.69
311.179	361.69
311.409	355.69
311.639	364.69
311.868	380.69
312.098	379.69
312.328	367.69
312.557	392.69
312.787	376.69
313.017	369.69
313.246	386.69
313.476	403.69
313.706	382.69
313.935	392.69
314.165	394.69
314.394	396.69
314.624	390.69
314.853	397.69
315.083	389.69
315.312	401.69
315.542	413.69
315.771	393.69
316.001	383.69
316.23	384.69
316.46	386.69
316.689	378.69
316.919	375.69
317.148	390.69
317.377	393.69
317.607	383.69
317.836	379.69
318.065	378.69
318.295	361.69
318.524	387.69
318.753	374.69
318.983	390.69
319.212	390.69
319.441	391.69
319.67	376.69
319.9	380.69
320.129	395.69
320.358	385.69
320.587	386.69
320.816	376.69
321.046	393.69
321.275	407.69
321.504	382.69
321.733	373.69
321.962	383.69
322.191	375.69
322.42	387.69
322.649	387.69
322.878	402.69
323.108	394.69
323.337	423.69
323.566	398.69
323.795	411.69
324.024	398.69
324.253	395.69
324.482	394.69
324.71	402.69
324.939	400.69
325.168	403.69
325.397	397.69
325.626	397.69
325.855	435.69
326.084	421.69
326.313	424.69
326.542	426.69
326.77	418.69
326.999	439.69
327.228	401.69
327.457	398.69
327.686	405.69
327.914	427.69
328.143	431.69
328.372	427.69
328.6	409.69
328.829	409.69
329.058	422.69
329.287	419.69
329.515	444.69
329.744	423.69
329.972	407.69
330.201	427.69
330.43	417.69
330.658	436.69
330.887	445.69
331.115	452.69
331.344	435.69
331.572	436.69
331.801	448.69
332.03	458.69
332.258	473.69
332.486	459.69
332.715	473.69
332.943	474.69
333.172	486.69
333.4	503.69
333.629	521.69
333.857	547.69
334.085	530.69
334.314	507.69
334.542	521.69
334.771	500.69
334.999	523.69
335.227	511.69
335.455	522.69
335.684	514.69
335.912	520.69
336.14	516.69
336.369	496.69
336.597	528.69
336.825	528.69
337.053	519.69
337.281	479.69
337.51	484.69
337.738	472.69
337.966	459.69
338.194	482.69
338.422	461.69
338.65	443.69
338.878	468.69
339.106	455.69
339.334	463.69
339.562	448.69
339.79	460.69
340.018	449.69
340.246	459.69
340.474	425.69
340.702	447.69
340.93	447.69
341.158	439.69
341.386	437.69
341.614	440.69
341.842	460.69
342.07	441.69
342.298	437.69
342.526	431.69
342.754	463.69
342.981	458.69
343.209	443.69
343.437	482.69
343.665	471.69
343.893	500.69
344.12	531.69
344.348	492.69
344.576	481.69
344.804	476.69
345.031	464.69
345.259	459.69
345.487	443.69
345.714	455.69
345.942	433.69
346.17	426.69
346.397	455.69
346.625	437.69
346.853	410.69
347.08	435.69
347.308	420.69
347.535	424.69
347.763	439.69
347.99	439.69
348.218	432.69
348.445	431.69
348.673	412.69
348.9	423.69
349.128	420.69
349.355	429.69
349.583	421.69
349.81	436.69
350.037	428.69
350.265	424.69
350.492	422.69
350.72	405.69
350.947	432.69
351.174	423.69
351.402	412.69
351.629	424.69
351.856	425.69
352.083	386.69
352.311	420.69
352.538	407.69
352.765	421.69
352.992	398.69
353.22	418.69
353.447	412.69
353.674	416.69
353.901	416.69
354.128	402.69
354.355	404.69
354.583	411.69
354.81	418.69
355.037	410.69
355.264	422.69
355.491	419.69
355.718	412.69
355.945	433.69
356.172	437.69
356.399	417.69
356.626	411.69
356.853	428.69
357.08	407.69
357.307	414.69
357.534	412.69
357.761	421.69
357.988	438.69
358.215	409.69
358.441	413.69
358.668	427.69
358.895	424.69
359.122	415.69
359.349	420.69
359.576	415.69
359.802	410.69
360.029	429.69
360.256	424.69
360.483	431.69
360.709	434.69
360.936	421.69
361.163	419.69
361.39	411.69
361.616	419.69
361.843	405.69
362.07	428.69
362.296	448.69
362.523	421.69
362.749	441.69
362.976	414.69
363.203	411.69
363.429	421.69
363.656	426.69
363.882	419.69
364.109	417.69
364.335	399.69
364.562	402.69
364.788	420.69
365.015	453.69
365.241	435.69
365.468	426.69
365.694	427.69
365.92	419.69
366.147	413.69
366.373	422.69
366.599	416.69
366.826	441.69
367.052	421.69
367.278	407.69
367.505	439.69
367.731	438.69
367.957	429.69
368.184	445.69
368.41	427.69
368.636	416.69
368.862	445.69
369.089	428.69
369.315	429.69
369.541	432.69
369.767	447.69
369.993	451.69
370.219	443.69
370.445	442.69
370.672	442.69
370.898	448.69
371.124	463.69
371.35	462.69
371.576	448.69
371.802	448.69
372.028	472.69
372.254	474.69
372.48	460.69
372.706	480.69
372.932	467.69
373.158	465.69
373.384	457.69
373.61	442.69
373.835	495.69
374.061	462.69
374.287	472.69
374.513	462.69
374.739	479.69
374.965	478.69
375.191	476.69
375.416	497.69
375.642	490.69
375.868	479.69
376.094	485.69
376.319	466.69
376.545	469.69
376.771	467.69
376.997	457.69
377.222	486.69
377.448	469.69
377.674	454.69
377.899	460.69
378.125	463.69
378.35	471.69
378.576	447.69
378.802	445.69
379.027	444.69
379.253	456.69
379.478	456.69
379.704	453.69
379.929	439.69
380.155	449.69
380.38	460.69
380.606	477.69
380.831	468.69
381.057	469.69
381.282	462.69
381.507	448.69
381.733	457.69
381.958	458.69
382.184	482.69
382.409	468.69
382.634	480.69
382.86	478.69
383.085	482.69
383.31	485.69
383.535	498.69
383.761	495.69
383.986	519.69
384.211	505.69
384.436	509.69
384.662	519.69
384.887	524.69
385.112	521.69
385.337	527.69
385.562	531.69
385.787	555.69
386.013	550.69
386.238	540.69
386.463	557.69
386.688	546.69
386.913	526.69
387.138	533.69
387.363	554.69
387.588	543.69
387.813	551.69
388.038	539.69
388.263	539.69
388.488	557.69
388.713	568.69
388.938	543.69
389.163	539.69
389.387	548.69
389.612	573.69
389.837	546.69
390.062	549.69
390.287	540.69
390.512	568.69
390.736	544.69
390.961	551.69
391.186	572.69
391.411	578.69
391.636	575.69
391.86	617.69
392.085	598.69
392.31	615.69
392.534	582.69
392.759	596.69
392.984	584.69
393.208	595.69
393.433	576.69
393.658	591.69
393.882	588.69
394.107	595.69
394.331	587.69
394.556	589.69
394.78	619.69
395.005	581.69
395.229	589.69
395.454	634.69
395.678	623.69
395.903	619.69
396.127	619.69
396.352	595.69
396.576	566.69
396.801	593.69
397.025	598.69
397.249	619.69
397.474	637.69
397.698	671.69
397.922	631.69
398.147	621.69
398.371	636.69
398.595	639.69
398.82	680.69
399.044	708.69
399.268	763.69
399.492	840.69
399.717	890.69
399.941	883.69
400.165	874.69
400.389	799.69
400.613	740.69
400.837	739.69
401.062	703.69
401.286	693.69
401.51	676.69
401.734	698.69
401.958	687.69
402.182	672.69
402.406	709.69
402.63	709.69
402.854	724.69
403.078	730.69
403.302	717.69
403.526	703.69
403.75	725.69
403.974	728.69
404.198	749.69
404.422	759.69
404.645	746.69
404.869	738.69
405.093	724.69
405.317	741.69
405.541	743.69
405.765	742.69
405.988	723.69
406.212	753.69
406.436	732.69
406.66	762.69
406.883	768.69
407.107	815.69
407.331	815.69
407.555	850.69
407.778	838.69
408.002	853.69
408.226	840.69
408.449	801.69
408.673	774.69
408.896	792.69
409.12	786.69
409.344	807.69
409.567	777.69
409.791	763.69
410.014	772.69
410.238	783.69
410.461	779.69
410.685	756.69
410.908	763.69
411.132	741.69
411.355	721.69
411.578	717.69
411.802	723.69
412.025	701.69
412.249	747.69
412.472	728.69
412.695	711.69
412.919	696.69
413.142	717.69
413.365	697.69
413.589	711.69
413.812	723.69
414.035	685.69
414.258	711.69
414.482	717.69
414.705	729.69
414.928	684.69
415.151	718.69
415.374	731.69
415.597	705.69
415.821	668.69
416.044	685.69
416.267	706.69
416.49	678.69
416.713	687.69
416.936	693.69
417.159	668.69
417.382	683.69
417.605	680.69
417.828	672.69
418.051	672.69
418.274	675.69
418.497	672.69
418.72	663.69
418.943	696.69
419.166	724.69
419.389	766.69
419.611	767.69
419.834	748.69
420.057	721.69
420.28	709.69
420.503	687.69
420.726	683.69
420.948	659.69
421.171	651.69
421.394	681.69
421.617	648.69
421.839	696.69
422.062	683.69
422.285	683.69
422.507	687.69
422.73	674.69
422.953	703.69
423.175	691.69
423.398	699.69
423.621	703.69
423.843	719.69
424.066	704.69
424.288	697.69
424.511	677.69
424.733	689.69
424.956	663.69
425.178	682.69
425.401	662.69
425.623	671.69
425.846	676.69
426.068	640.69
426.291	663.69
426.513	647.69
426.735	681.69
426.958	652.69
427.18	632.69
427.402	641.69
427.625	670.69
427.847	644.69
428.069	639.69
428.292	633.69
428.514	615.69
428.736	644.69
428.958	638.69
429.181	604.69
429.403	643.69
429.625	623.69
429.847	620.69
430.069	609.69
430.292	641.69
430.514	623.69
430.736	653.69
430.958	630.69
431.18	627.69
431.402	636.69
431.624	633.69
431.846	650.69
432.068	612.69
432.29	638.69
432.512	612.69
432.734	633.69
432.956	623.69
433.178	649.69
433.4	642.69
433.622	651.69
433.844	653.69
434.066	626.69
434.287	642.69
434.509	664.69
434.731	673.69
434.953	673.69
435.175	696.69
435.397	684.69
435.618	671.69
435.84	652.69
436.062	642.69
436.284	633.69
436.505	637.69
436.727	648.69
436.949	614.69
437.17	655.69
437.392	607.69
437.614	637.69
437.835	615.69
438.057	598.69
438.278	617.69
438.5	611.69
438.721	613.69
438.943	636.69
439.165	618.69
439.386	632.69
439.608	640.69
439.829	635.69
440.05	634.69
440.272	630.69
440.493	644.69
440.715	666.69
440.936	650.69
441.158	662.69
441.379	694.69
441.6	695.69
441.822	702.69
442.043	703.69
442.264	680.69
442.486	649.69
442.707	703.69
442.928	677.69
443.149	692.69
443.371	664.69
443.592	690.69
443.813	708.69
444.034	680.69
444.255	701.69
444.476	738.69
444.698	750.69
444.919	778.69
445.14	854.69
445.361	784.69
445.582	710.69
445.803	697.69
446.024	682.69
446.245	671.69
446.466	667.69
446.687	646.69
446.908	673.69
447.129	644.69
447.35	616.69
447.571	597.69
447.792	610.69
448.013	625.69
448.234	608.69
448.455	611.69
448.675	601.69
448.896	617.69
449.117	606.69
449.338	581.69
449.559	577.69
449.779	580.69
450	580.69
450.221	589.69
450.442	585.69
450.662	562.69
450.883	587.69
451.104	600.69
451.324	603.69
451.545	598.69
451.766	584.69
451.986	601.69
452.207	592.69
452.428	585.69
452.648	589.69
452.869	593.69
453.089	569.69
453.31	581.69
453.53	555.69
453.751	570.69
453.971	582.69
454.192	563.69
454.412	562.69
454.633	561.69
454.853	548.69
455.073	533.69
455.294	561.69
455.514	550.69
455.734	535.69
455.955	526.69
456.175	562.69
456.395	551.69
456.616	551.69
456.836	557.69
457.056	549.69
457.276	543.69
457.497	552.69
457.717	539.69
457.937	545.69
458.157	565.69
458.377	592.69
458.598	571.69
458.818	563.69
459.038	596.69
459.258	628.69
459.478	619.69
459.698	621.69
459.918	644.69
460.138	657.69
460.358	688.69
460.578	723.69
460.798	706.69
461.018	706.69
461.238	723.69
461.458	681.69
461.678	694.69
461.898	731.69
462.118	725.69
462.338	790.69
462.558	761.69
462.777	785.69
462.997	839.69
463.217	854.69
463.437	854.69
463.657	831.69
463.876	819.69
464.096	829.69
464.316	801.69
464.536	799.69
464.755	755.69
464.975	752.69
465.195	715.69
465.414	696.69
465.634	671.69
465.854	636.69
466.073	654.69
466.293	635.69
466.512	633.69
466.732	632.69
466.951	609.69
467.171	594.69
467.391	629.69
467.61	596.69
467.829	604.69
468.049	598.69
468.268	577.69
468.488	578.69
468.707	604.69
468.927	586.69
469.146	574.69
469.365	603.69
469.585	601.69
469.804	613.69
470.023	619.69
470.243	605.69
470.462	627.69
470.681	631.69
470.901	627.69
471.12	617.69
471.339	593.69
471.558	578.69
471.777	595.69
471.997	595.69
472.216	558.69
472.435	587.69
472.654	560.69
472.873	573.69
473.092	563.69
473.311	596.69
473.53	586.69
473.749	568.69
473.968	584.69
474.187	559.69
474.406	569.69
474.625	571.69
474.844	562.69
475.063	589.69
475.282	595.69
475.501	584.69
475.72	605.69
475.939	581.69
476.158	590.69
476.377	585.69
476.596	588.69
476.814	605.69
477.033	595.69
477.252	602.69
477.471	619.69
477.69	635.69
477.908	645.69
478.127	659.69
478.346	640.69
478.564	667.69
478.783	663.69
479.002	677.69
479.22	672.69
479.439	671.69
479.658	695.69
479.876	698.69
480.095	690.69
480.313	694.69
480.532	717.69
480.751	723.69
480.969	711.69
481.188	694.69
481.406	668.69
481.624	668.69
481.843	666.69
482.061	687.69
482.28	657.69
482.498	636.69
482.717	637.69
482.935	651.69
483.153	653.69
483.372	674.69
483.59	650.69
483.808	640.69
484.027	675.69
484.245	662.69
484.463	650.69
484.681	673.69
484.9	665.69
485.118	700.69
485.336	670.69
485.554	675.69
485.772	677.69
485.99	677.69
486.209	687.69
486.427	701.69
486.645	699.69
486.863	668.69
487.081	650.69
487.299	677.69
487.517	666.69
487.735	661.69
487.953	661.69
488.171	683.69
488.389	689.69
488.607	679.69
488.825	628.69
489.043	659.69
489.261	656.69
489.479	657.69
489.696	707.69
489.914	667.69
490.132	673.69
490.35	680.69
490.568	658.69
490.786	671.69
491.003	685.69
491.221	676.69
491.439	700.69
491.657	700.69
491.874	688.69
492.092	710.69
492.31	699.69
492.527	683.69
492.745	696.69
492.963	697.69
493.18	706.69
493.398	697.69
493.615	718.69
493.833	682.69
494.05	723.69
494.268	711.69
494.485	712.69
494.703	694.69
494.92	693.69
495.138	693.69
495.355	709.69
495.573	706.69
495.79	698.69
496.008	713.69
496.225	726.69
496.442	757.69
496.66	741.69
496.877	749.69
497.094	778.69
497.312	798.69
497.529	799.69
497.746	825.69
497.963	843.69
498.181	833.69
498.398	890.69
498.615	906.69
498.832	957.69
499.049	1030.69
499.267	1095.69
499.484	1152.69
499.701	1273.69
499.918	1340.69
500.135	1504.69
500.352	1604.69
500.569	1658.69
500.786	1623.69
501.003	1601.69
501.22	1466.69
501.437	1331.69
501.654	1225.69
