Data from Fe(NO3)3@0.0125M.TitratingCurve.Agarose3%dH2O.NegLispCup.LampEnergy10.LIBS07252019_HRD10591_17-00-24-336.txt Node
Date: Thu Jul 25 17:00:24 EDT 2019
User: cochatt
Spectrometer: HR+D1059
Trigger mode: 1
Integration Time (sec): 1.000000E-1
Scans to average: 1
Electric dark correction enabled: true
Nonlinearity correction enabled: false
Boxcar width: 0
XAxis mode: Wavelengths
Number of Pixels in Spectrum: 2048
>>>>>Begin Spectral Data<<<<<
223.165	-19.44
223.4	-19.44
223.635	-19.44
223.869	-19.44
224.104	-34.44
224.338	-4.44
224.573	-20.44
224.808	-20.44
225.042	-2.44
225.277	-21.44
225.511	-12.44
225.746	3.56
225.98	-11.44
226.215	14.56
226.449	12.56
226.683	44.56
226.918	46.56
227.152	44.56
227.387	41.56
227.621	39.56
227.856	44.56
228.09	56.56
228.324	63.56
228.559	52.56
228.793	70.56
229.027	71.56
229.262	79.56
229.496	82.56
229.73	74.56
229.964	85.56
230.199	78.56
230.433	86.56
230.667	83.56
230.901	98.56
231.136	78.56
231.37	87.56
231.604	102.56
231.838	106.56
232.072	101.56
232.306	87.56
232.541	103.56
232.775	104.56
233.009	112.56
233.243	92.56
233.477	97.56
233.711	117.56
233.945	103.56
234.179	94.56
234.413	84.56
234.647	114.56
234.881	99.56
235.115	89.56
235.349	88.56
235.583	103.56
235.817	101.56
236.051	119.56
236.285	104.56
236.519	110.56
236.753	105.56
236.987	121.56
237.221	103.56
237.455	102.56
237.689	96.56
237.922	107.56
238.156	118.56
238.39	91.56
238.624	117.56
238.858	102.56
239.091	93.56
239.325	95.56
239.559	108.56
239.793	121.56
240.027	107.56
240.26	103.56
240.494	108.56
240.728	100.56
240.961	109.56
241.195	121.56
241.429	107.56
241.662	106.56
241.896	110.56
242.13	119.56
242.363	123.56
242.597	116.56
242.83	97.56
243.064	99.56
243.298	112.56
243.531	119.56
243.765	124.56
243.998	107.56
244.232	108.56
244.465	115.56
244.699	103.56
244.932	116.56
245.166	120.56
245.399	123.56
245.633	121.56
245.866	107.56
246.099	125.56
246.333	122.56
246.566	129.56
246.8	114.56
247.033	110.56
247.266	121.56
247.5	116.56
247.733	108.56
247.966	120.56
248.2	127.56
248.433	117.56
248.666	142.56
248.899	120.56
249.133	125.56
249.366	137.56
249.599	127.56
249.832	141.56
250.066	129.56
250.299	133.56
250.532	122.56
250.765	125.56
250.998	125.56
251.231	133.56
251.465	128.56
251.698	130.56
251.931	131.56
252.164	130.56
252.397	137.56
252.63	135.56
252.863	119.56
253.096	124.56
253.329	131.56
253.562	129.56
253.795	137.56
254.028	133.56
254.261	140.56
254.494	128.56
254.727	124.56
254.96	142.56
255.193	145.56
255.426	127.56
255.659	131.56
255.892	140.56
256.124	154.56
256.357	145.56
256.59	134.56
256.823	144.56
257.056	143.56
257.289	135.56
257.521	144.56
257.754	147.56
257.987	146.56
258.22	147.56
258.452	144.56
258.685	152.56
258.918	161.56
259.151	147.56
259.383	164.56
259.616	153.56
259.849	159.56
260.081	155.56
260.314	165.56
260.547	153.56
260.779	157.56
261.012	153.56
261.244	155.56
261.477	164.56
261.71	150.56
261.942	145.56
262.175	143.56
262.407	164.56
262.64	148.56
262.872	162.56
263.105	140.56
263.337	161.56
263.57	177.56
263.802	158.56
264.035	154.56
264.267	157.56
264.499	164.56
264.732	150.56
264.964	161.56
265.197	153.56
265.429	143.56
265.661	159.56
265.894	157.56
266.126	163.56
266.358	157.56
266.591	161.56
266.823	158.56
267.055	154.56
267.287	169.56
267.52	155.56
267.752	161.56
267.984	165.56
268.216	165.56
268.448	163.56
268.681	172.56
268.913	177.56
269.145	167.56
269.377	162.56
269.609	150.56
269.841	168.56
270.073	157.56
270.306	171.56
270.538	148.56
270.77	173.56
271.002	168.56
271.234	169.56
271.466	156.56
271.698	182.56
271.93	162.56
272.162	174.56
272.394	191.56
272.626	174.56
272.858	167.56
273.09	175.56
273.322	193.56
273.553	179.56
273.785	188.56
274.017	185.56
274.249	191.56
274.481	179.56
274.713	192.56
274.945	195.56
275.176	179.56
275.408	207.56
275.64	203.56
275.872	212.56
276.104	195.56
276.335	188.56
276.567	171.56
276.799	188.56
277.031	180.56
277.262	203.56
277.494	197.56
277.726	187.56
277.957	189.56
278.189	180.56
278.421	167.56
278.652	193.56
278.884	211.56
279.115	189.56
279.347	198.56
279.579	191.56
279.81	180.56
280.042	183.56
280.273	195.56
280.505	187.56
280.736	214.56
280.968	211.56
281.199	196.56
281.431	211.56
281.662	216.56
281.894	198.56
282.125	177.56
282.356	195.56
282.588	201.56
282.819	202.56
283.051	184.56
283.282	193.56
283.513	202.56
283.745	206.56
283.976	207.56
284.207	194.56
284.439	205.56
284.67	207.56
284.901	211.56
285.132	197.56
285.364	206.56
285.595	195.56
285.826	203.56
286.057	213.56
286.288	208.56
286.52	211.56
286.751	205.56
286.982	226.56
287.213	206.56
287.444	218.56
287.675	225.56
287.906	219.56
288.138	220.56
288.369	232.56
288.6	237.56
288.831	230.56
289.062	213.56
289.293	229.56
289.524	224.56
289.755	222.56
289.986	222.56
290.217	242.56
290.448	232.56
290.679	220.56
290.91	212.56
291.141	230.56
291.371	228.56
291.602	242.56
291.833	222.56
292.064	220.56
292.295	233.56
292.526	232.56
292.757	219.56
292.987	227.56
293.218	205.56
293.449	244.56
293.68	234.56
293.91	249.56
294.141	232.56
294.372	217.56
294.603	230.56
294.833	233.56
295.064	213.56
295.295	226.56
295.525	212.56
295.756	238.56
295.987	231.56
296.217	226.56
296.448	229.56
296.679	238.56
296.909	254.56
297.14	232.56
297.37	233.56
297.601	231.56
297.831	235.56
298.062	226.56
298.292	235.56
298.523	264.56
298.753	257.56
298.984	246.56
299.214	229.56
299.445	244.56
299.675	243.56
299.905	255.56
300.136	242.56
300.366	250.56
300.597	252.56
300.827	249.56
301.057	257.56
301.288	261.56
301.518	252.56
301.748	245.56
301.979	239.56
302.209	223.56
302.439	262.56
302.669	264.56
302.9	266.56
303.13	262.56
303.36	249.56
303.59	246.56
303.82	260.56
304.051	251.56
304.281	259.56
304.511	253.56
304.741	263.56
304.971	261.56
305.201	259.56
305.431	251.56
305.661	257.56
305.891	252.56
306.121	262.56
306.352	255.56
306.582	247.56
306.812	248.56
307.042	278.56
307.272	271.56
307.502	270.56
307.731	257.56
307.961	265.56
308.191	260.56
308.421	279.56
308.651	280.56
308.881	273.56
309.111	259.56
309.341	285.56
309.571	275.56
309.8	278.56
310.03	271.56
310.26	258.56
310.49	255.56
310.72	284.56
310.949	265.56
311.179	274.56
311.409	263.56
311.639	269.56
311.868	264.56
312.098	286.56
312.328	275.56
312.557	262.56
312.787	284.56
313.017	266.56
313.246	277.56
313.476	268.56
313.706	273.56
313.935	261.56
314.165	286.56
314.394	285.56
314.624	273.56
314.853	280.56
315.083	284.56
315.312	277.56
315.542	274.56
315.771	277.56
316.001	278.56
316.23	291.56
316.46	289.56
316.689	283.56
316.919	295.56
317.148	294.56
317.377	293.56
317.607	294.56
317.836	294.56
318.065	296.56
318.295	282.56
318.524	297.56
318.753	308.56
318.983	293.56
319.212	299.56
319.441	293.56
319.67	280.56
319.9	279.56
320.129	289.56
320.358	278.56
320.587	293.56
320.816	301.56
321.046	293.56
321.275	284.56
321.504	297.56
321.733	287.56
321.962	295.56
322.191	302.56
322.42	291.56
322.649	311.56
322.878	302.56
323.108	315.56
323.337	304.56
323.566	314.56
323.795	308.56
324.024	300.56
324.253	308.56
324.482	300.56
324.71	330.56
324.939	323.56
325.168	317.56
325.397	300.56
325.626	327.56
325.855	330.56
326.084	308.56
326.313	314.56
326.542	309.56
326.77	323.56
326.999	304.56
327.228	326.56
327.457	313.56
327.686	329.56
327.914	339.56
328.143	332.56
328.372	326.56
328.6	320.56
328.829	323.56
329.058	318.56
329.287	317.56
329.515	322.56
329.744	339.56
329.972	327.56
330.201	329.56
330.43	312.56
330.658	325.56
330.887	321.56
331.115	321.56
331.344	329.56
331.572	341.56
331.801	342.56
332.03	346.56
332.258	319.56
332.486	312.56
332.715	347.56
332.943	345.56
333.172	348.56
333.4	347.56
333.629	364.56
333.857	370.56
334.085	347.56
334.314	375.56
334.542	349.56
334.771	339.56
334.999	359.56
335.227	361.56
335.455	373.56
335.684	351.56
335.912	359.56
336.14	349.56
336.369	356.56
336.597	362.56
336.825	355.56
337.053	372.56
337.281	356.56
337.51	349.56
337.738	340.56
337.966	356.56
338.194	348.56
338.422	342.56
338.65	349.56
338.878	364.56
339.106	362.56
339.334	346.56
339.562	350.56
339.79	338.56
340.018	352.56
340.246	353.56
340.474	338.56
340.702	356.56
340.93	339.56
341.158	345.56
341.386	342.56
341.614	339.56
341.842	350.56
342.07	353.56
342.298	365.56
342.526	342.56
342.754	347.56
342.981	343.56
343.209	347.56
343.437	366.56
343.665	376.56
343.893	353.56
344.12	367.56
344.348	351.56
344.576	350.56
344.804	364.56
345.031	367.56
345.259	362.56
345.487	362.56
345.714	346.56
345.942	346.56
346.17	342.56
346.397	331.56
346.625	336.56
346.853	326.56
347.08	356.56
347.308	346.56
347.535	333.56
347.763	377.56
347.99	343.56
348.218	333.56
348.445	350.56
348.673	342.56
348.9	356.56
349.128	339.56
349.355	347.56
349.583	347.56
349.81	346.56
350.037	335.56
350.265	362.56
350.492	358.56
350.72	338.56
350.947	340.56
351.174	345.56
351.402	354.56
351.629	317.56
351.856	323.56
352.083	316.56
352.311	332.56
352.538	347.56
352.765	346.56
352.992	358.56
353.22	339.56
353.447	335.56
353.674	337.56
353.901	339.56
354.128	339.56
354.355	357.56
354.583	341.56
354.81	333.56
355.037	333.56
355.264	343.56
355.491	347.56
355.718	339.56
355.945	345.56
356.172	343.56
356.399	330.56
356.626	353.56
356.853	346.56
357.08	366.56
357.307	344.56
357.534	328.56
357.761	343.56
357.988	344.56
358.215	342.56
358.441	345.56
358.668	338.56
358.895	335.56
359.122	343.56
359.349	344.56
359.576	335.56
359.802	338.56
360.029	354.56
360.256	343.56
360.483	343.56
360.709	346.56
360.936	335.56
361.163	348.56
361.39	367.56
361.616	350.56
361.843	354.56
362.07	360.56
362.296	349.56
362.523	366.56
362.749	336.56
362.976	323.56
363.203	362.56
363.429	374.56
363.656	372.56
363.882	364.56
364.109	354.56
364.335	336.56
364.562	359.56
364.788	341.56
365.015	355.56
365.241	356.56
365.468	366.56
365.694	358.56
365.92	369.56
366.147	357.56
366.373	380.56
366.599	357.56
366.826	337.56
367.052	356.56
367.278	366.56
367.505	338.56
367.731	380.56
367.957	381.56
368.184	373.56
368.41	374.56
368.636	357.56
368.862	358.56
369.089	372.56
369.315	362.56
369.541	373.56
369.767	374.56
369.993	360.56
370.219	356.56
370.445	383.56
370.672	385.56
370.898	376.56
371.124	387.56
371.35	385.56
371.576	394.56
371.802	367.56
372.028	391.56
372.254	391.56
372.48	374.56
372.706	350.56
372.932	359.56
373.158	362.56
373.384	379.56
373.61	389.56
373.835	402.56
374.061	381.56
374.287	385.56
374.513	378.56
374.739	390.56
374.965	414.56
375.191	402.56
375.416	405.56
375.642	392.56
375.868	395.56
376.094	389.56
376.319	381.56
376.545	381.56
376.771	387.56
376.997	391.56
377.222	386.56
377.448	394.56
377.674	366.56
377.899	388.56
378.125	380.56
378.35	354.56
378.576	381.56
378.802	371.56
379.027	354.56
379.253	385.56
379.478	379.56
379.704	371.56
379.929	373.56
380.155	391.56
380.38	370.56
380.606	386.56
380.831	401.56
381.057	375.56
381.282	375.56
381.507	389.56
381.733	404.56
381.958	392.56
382.184	397.56
382.409	411.56
382.634	391.56
382.86	399.56
383.085	405.56
383.31	389.56
383.535	406.56
383.761	399.56
383.986	414.56
384.211	410.56
384.436	408.56
384.662	415.56
384.887	412.56
385.112	399.56
385.337	410.56
385.562	417.56
385.787	422.56
386.013	435.56
386.238	417.56
386.463	403.56
386.688	438.56
386.913	429.56
387.138	425.56
387.363	442.56
387.588	442.56
387.813	443.56
388.038	430.56
388.263	443.56
388.488	416.56
388.713	423.56
388.938	414.56
389.163	426.56
389.387	417.56
389.612	420.56
389.837	428.56
390.062	433.56
390.287	435.56
390.512	458.56
390.736	441.56
390.961	464.56
391.186	437.56
391.411	435.56
391.636	435.56
391.86	465.56
392.085	438.56
392.31	457.56
392.534	459.56
392.759	471.56
392.984	463.56
393.208	466.56
393.433	497.56
393.658	465.56
393.882	451.56
394.107	453.56
394.331	456.56
394.556	452.56
394.78	449.56
395.005	453.56
395.229	432.56
395.454	489.56
395.678	459.56
395.903	443.56
396.127	467.56
396.352	458.56
396.576	477.56
396.801	462.56
397.025	486.56
397.249	467.56
397.474	486.56
397.698	482.56
397.922	484.56
398.147	495.56
398.371	469.56
398.595	519.56
398.82	516.56
399.044	517.56
399.268	555.56
399.492	572.56
399.717	557.56
399.941	563.56
400.165	549.56
400.389	531.56
400.613	531.56
400.837	538.56
401.062	509.56
401.286	511.56
401.51	497.56
401.734	497.56
401.958	510.56
402.182	499.56
402.406	491.56
402.63	487.56
402.854	516.56
403.078	498.56
403.302	514.56
403.526	507.56
403.75	500.56
403.974	507.56
404.198	525.56
404.422	502.56
404.645	520.56
404.869	525.56
405.093	503.56
405.317	513.56
405.541	526.56
405.765	522.56
405.988	539.56
406.212	525.56
406.436	524.56
406.66	531.56
406.883	562.56
407.107	550.56
407.331	563.56
407.555	567.56
407.778	583.56
408.002	551.56
408.226	554.56
408.449	531.56
408.673	555.56
408.896	555.56
409.12	534.56
409.344	555.56
409.567	529.56
409.791	531.56
410.014	546.56
410.238	552.56
410.461	517.56
410.685	557.56
410.908	540.56
411.132	510.56
411.355	528.56
411.578	523.56
411.802	517.56
412.025	502.56
412.249	535.56
412.472	491.56
412.695	523.56
412.919	515.56
413.142	519.56
413.365	532.56
413.589	509.56
413.812	528.56
414.035	482.56
414.258	491.56
414.482	485.56
414.705	499.56
414.928	489.56
415.151	515.56
415.374	509.56
415.597	521.56
415.821	503.56
416.044	499.56
416.267	485.56
416.49	503.56
416.713	494.56
416.936	508.56
417.159	483.56
417.382	499.56
417.605	489.56
417.828	473.56
418.051	503.56
418.274	510.56
418.497	506.56
418.72	482.56
418.943	489.56
419.166	494.56
419.389	534.56
419.611	536.56
419.834	518.56
420.057	501.56
420.28	503.56
420.503	477.56
420.726	473.56
420.948	479.56
421.171	477.56
421.394	485.56
421.617	463.56
421.839	508.56
422.062	503.56
422.285	498.56
422.507	467.56
422.73	481.56
422.953	491.56
423.175	478.56
423.398	506.56
423.621	492.56
423.843	494.56
424.066	491.56
424.288	475.56
424.511	483.56
424.733	490.56
424.956	496.56
425.178	491.56
425.401	501.56
425.623	505.56
425.846	457.56
426.068	455.56
426.291	474.56
426.513	479.56
426.735	486.56
426.958	498.56
427.18	478.56
427.402	458.56
427.625	488.56
427.847	476.56
428.069	474.56
428.292	495.56
428.514	471.56
428.736	463.56
428.958	479.56
429.181	460.56
429.403	479.56
429.625	466.56
429.847	462.56
430.069	477.56
430.292	491.56
430.514	468.56
430.736	471.56
430.958	465.56
431.18	491.56
431.402	494.56
431.624	472.56
431.846	466.56
432.068	490.56
432.29	476.56
432.512	465.56
432.734	473.56
432.956	493.56
433.178	487.56
433.4	485.56
433.622	474.56
433.844	473.56
434.066	489.56
434.287	485.56
434.509	491.56
434.731	493.56
434.953	467.56
435.175	502.56
435.397	492.56
435.618	497.56
435.84	486.56
436.062	506.56
436.284	476.56
436.505	481.56
436.727	470.56
436.949	451.56
437.17	488.56
437.392	466.56
437.614	487.56
437.835	468.56
438.057	448.56
438.278	468.56
438.5	493.56
438.721	486.56
438.943	466.56
439.165	474.56
439.386	496.56
439.608	492.56
439.829	469.56
440.05	487.56
440.272	490.56
440.493	472.56
440.715	487.56
440.936	478.56
441.158	489.56
441.379	488.56
441.6	499.56
441.822	477.56
442.043	498.56
442.264	479.56
442.486	485.56
442.707	472.56
442.928	493.56
443.149	489.56
443.371	491.56
443.592	489.56
443.813	499.56
444.034	501.56
444.255	513.56
444.476	488.56
444.698	519.56
444.919	507.56
445.14	557.56
445.361	541.56
445.582	505.56
445.803	490.56
446.024	472.56
446.245	483.56
446.466	477.56
446.687	483.56
446.908	500.56
447.129	475.56
447.35	457.56
447.571	462.56
447.792	471.56
448.013	475.56
448.234	455.56
448.455	483.56
448.675	455.56
448.896	468.56
449.117	445.56
449.338	454.56
449.559	451.56
449.779	460.56
450	462.56
450.221	466.56
450.442	460.56
450.662	455.56
450.883	462.56
451.104	469.56
451.324	423.56
451.545	439.56
451.766	446.56
451.986	440.56
452.207	436.56
452.428	446.56
452.648	446.56
452.869	459.56
453.089	447.56
453.31	427.56
453.53	434.56
453.751	443.56
453.971	437.56
454.192	435.56
454.412	457.56
454.633	425.56
454.853	437.56
455.073	437.56
455.294	445.56
455.514	437.56
455.734	443.56
455.955	438.56
456.175	436.56
456.395	436.56
456.616	439.56
456.836	421.56
457.056	449.56
457.276	428.56
457.497	460.56
457.717	455.56
457.937	460.56
458.157	450.56
458.377	434.56
458.598	466.56
458.818	476.56
459.038	491.56
459.258	462.56
459.478	470.56
459.698	478.56
459.918	470.56
460.138	482.56
460.358	494.56
460.578	513.56
460.798	507.56
461.018	516.56
461.238	508.56
461.458	511.56
461.678	498.56
461.898	517.56
462.118	527.56
462.338	547.56
462.558	538.56
462.777	540.56
462.997	552.56
463.217	564.56
463.437	542.56
463.657	545.56
463.876	558.56
464.096	558.56
464.316	532.56
464.536	540.56
464.755	542.56
464.975	523.56
465.195	517.56
465.414	517.56
465.634	478.56
465.854	504.56
466.073	494.56
466.293	498.56
466.512	497.56
466.732	488.56
466.951	485.56
467.171	485.56
467.391	483.56
467.61	486.56
467.829	472.56
468.049	474.56
468.268	487.56
468.488	483.56
468.707	453.56
468.927	458.56
469.146	459.56
469.365	481.56
469.585	471.56
469.804	484.56
470.023	471.56
470.243	474.56
470.462	495.56
470.681	494.56
470.901	482.56
471.12	472.56
471.339	481.56
471.558	487.56
471.777	487.56
471.997	501.56
472.216	487.56
472.435	500.56
472.654	471.56
472.873	476.56
473.092	487.56
473.311	480.56
473.53	499.56
473.749	505.56
473.968	467.56
474.187	514.56
474.406	504.56
474.625	474.56
474.844	493.56
475.063	494.56
475.282	483.56
475.501	502.56
475.72	513.56
475.939	512.56
476.158	522.56
476.377	514.56
476.596	523.56
476.814	510.56
477.033	531.56
477.252	533.56
477.471	549.56
477.69	542.56
477.908	536.56
478.127	537.56
478.346	557.56
478.564	542.56
478.783	557.56
479.002	570.56
479.22	584.56
479.439	559.56
479.658	573.56
479.876	578.56
480.095	590.56
480.313	570.56
480.532	551.56
480.751	572.56
480.969	555.56
481.188	589.56
481.406	571.56
481.624	566.56
481.843	573.56
482.061	600.56
482.28	585.56
482.498	591.56
482.717	564.56
482.935	570.56
483.153	579.56
483.372	561.56
483.59	566.56
483.808	596.56
484.027	592.56
484.245	560.56
484.463	585.56
484.681	590.56
484.9	570.56
485.118	589.56
485.336	590.56
485.554	606.56
485.772	594.56
485.99	589.56
486.209	581.56
486.427	587.56
486.645	610.56
486.863	606.56
487.081	593.56
487.299	590.56
487.517	612.56
487.735	609.56
487.953	592.56
488.171	591.56
488.389	604.56
488.607	595.56
488.825	582.56
489.043	594.56
489.261	585.56
489.479	599.56
489.696	593.56
489.914	589.56
490.132	589.56
490.35	610.56
490.568	613.56
490.786	607.56
491.003	607.56
491.221	630.56
491.439	613.56
491.657	622.56
491.874	609.56
492.092	629.56
492.31	630.56
492.527	620.56
492.745	627.56
492.963	633.56
493.18	612.56
493.398	634.56
493.615	635.56
493.833	632.56
494.05	629.56
494.268	624.56
494.485	632.56
494.703	618.56
494.92	627.56
495.138	643.56
495.355	647.56
495.573	641.56
495.79	648.56
496.008	647.56
496.225	663.56
496.442	667.56
496.66	661.56
496.877	693.56
497.094	674.56
497.312	660.56
497.529	679.56
497.746	693.56
497.963	711.56
498.181	717.56
498.398	716.56
498.615	745.56
498.832	761.56
499.049	775.56
499.267	775.56
499.484	829.56
499.701	833.56
499.918	841.56
500.135	905.56
500.352	905.56
500.569	899.56
500.786	913.56
501.003	903.56
501.22	897.56
501.437	856.56
501.654	821.56
501.871	810.56
