Data from Fe(NO3)3@0.05M.TitratingCurve.Agarose3%dH2O.NegLispCup.LampEnergy10.LIBS07252019_HRD10591_16-48-56-334.txt Node
Date: Thu Jul 25 16:48:56 EDT 2019
User: cochatt
Spectrometer: HR+D1059
Trigger mode: 1
Integration Time (sec): 1.000000E-1
Scans to average: 1
Electric dark correction enabled: true
Nonlinearity correction enabled: false
Boxcar width: 0
XAxis mode: Wavelengths
Number of Pixels in Spectrum: 2048
>>>>>Begin Spectral Data<<<<<
223.165	-9.31
223.4	-9.31
223.635	-9.31
223.869	-23.31
224.104	-17.31
224.338	-26.31
224.573	-7.31
224.808	-12.31
225.042	8.69
225.277	-7.31
225.511	2.69
225.746	1.69
225.98	5.69
226.215	10.69
226.449	5.69
226.683	14.69
226.918	17.69
227.152	35.69
227.387	35.69
227.621	36.69
227.856	32.69
228.09	44.69
228.324	57.69
228.559	59.69
228.793	67.69
229.027	68.69
229.262	55.69
229.496	82.69
229.73	93.69
229.964	83.69
230.199	81.69
230.433	75.69
230.667	85.69
230.901	90.69
231.136	94.69
231.37	96.69
231.604	100.69
231.838	94.69
232.072	79.69
232.306	110.69
232.541	101.69
232.775	100.69
233.009	85.69
233.243	93.69
233.477	96.69
233.711	101.69
233.945	97.69
234.179	105.69
234.413	84.69
234.647	84.69
234.881	89.69
235.115	94.69
235.349	87.69
235.583	85.69
235.817	91.69
236.051	89.69
236.285	99.69
236.519	97.69
236.753	89.69
236.987	98.69
237.221	92.69
237.455	108.69
237.689	90.69
237.922	90.69
238.156	91.69
238.39	99.69
238.624	97.69
238.858	93.69
239.091	85.69
239.325	101.69
239.559	94.69
239.793	108.69
240.027	104.69
240.26	92.69
240.494	78.69
240.728	90.69
240.961	99.69
241.195	90.69
241.429	100.69
241.662	97.69
241.896	88.69
242.13	100.69
242.363	89.69
242.597	100.69
242.83	106.69
243.064	93.69
243.298	109.69
243.531	106.69
243.765	99.69
243.998	109.69
244.232	110.69
244.465	93.69
244.699	100.69
244.932	113.69
245.166	107.69
245.399	109.69
245.633	115.69
245.866	111.69
246.099	119.69
246.333	106.69
246.566	95.69
246.8	118.69
247.033	101.69
247.266	96.69
247.5	107.69
247.733	115.69
247.966	124.69
248.2	114.69
248.433	105.69
248.666	105.69
248.899	114.69
249.133	97.69
249.366	115.69
249.599	108.69
249.832	121.69
250.066	117.69
250.299	94.69
250.532	104.69
250.765	123.69
250.998	105.69
251.231	109.69
251.465	123.69
251.698	123.69
251.931	107.69
252.164	108.69
252.397	115.69
252.63	106.69
252.863	113.69
253.096	107.69
253.329	101.69
253.562	130.69
253.795	119.69
254.028	119.69
254.261	134.69
254.494	113.69
254.727	108.69
254.96	110.69
255.193	106.69
255.426	108.69
255.659	108.69
255.892	116.69
256.124	117.69
256.357	116.69
256.59	114.69
256.823	122.69
257.056	127.69
257.289	111.69
257.521	125.69
257.754	125.69
257.987	128.69
258.22	129.69
258.452	121.69
258.685	121.69
258.918	123.69
259.151	118.69
259.383	129.69
259.616	122.69
259.849	128.69
260.081	132.69
260.314	133.69
260.547	107.69
260.779	117.69
261.012	131.69
261.244	126.69
261.477	127.69
261.71	115.69
261.942	119.69
262.175	132.69
262.407	139.69
262.64	128.69
262.872	135.69
263.105	133.69
263.337	135.69
263.57	115.69
263.802	139.69
264.035	121.69
264.267	117.69
264.499	136.69
264.732	130.69
264.964	118.69
265.197	124.69
265.429	142.69
265.661	123.69
265.894	120.69
266.126	142.69
266.358	129.69
266.591	133.69
266.823	135.69
267.055	132.69
267.287	131.69
267.52	122.69
267.752	131.69
267.984	129.69
268.216	124.69
268.448	120.69
268.681	126.69
268.913	125.69
269.145	146.69
269.377	134.69
269.609	145.69
269.841	138.69
270.073	134.69
270.306	133.69
270.538	126.69
270.77	146.69
271.002	134.69
271.234	123.69
271.466	147.69
271.698	143.69
271.93	145.69
272.162	143.69
272.394	131.69
272.626	142.69
272.858	147.69
273.09	131.69
273.322	131.69
273.553	141.69
273.785	141.69
274.017	135.69
274.249	146.69
274.481	139.69
274.713	141.69
274.945	142.69
275.176	155.69
275.408	143.69
275.64	139.69
275.872	154.69
276.104	142.69
276.335	132.69
276.567	145.69
276.799	157.69
277.031	159.69
277.262	155.69
277.494	155.69
277.726	139.69
277.957	158.69
278.189	151.69
278.421	138.69
278.652	140.69
278.884	142.69
279.115	138.69
279.347	146.69
279.579	148.69
279.81	150.69
280.042	142.69
280.273	154.69
280.505	160.69
280.736	149.69
280.968	158.69
281.199	153.69
281.431	141.69
281.662	151.69
281.894	149.69
282.125	144.69
282.356	158.69
282.588	148.69
282.819	142.69
283.051	147.69
283.282	141.69
283.513	163.69
283.745	145.69
283.976	161.69
284.207	146.69
284.439	158.69
284.67	158.69
284.901	174.69
285.132	153.69
285.364	167.69
285.595	149.69
285.826	162.69
286.057	181.69
286.288	155.69
286.52	172.69
286.751	167.69
286.982	168.69
287.213	141.69
287.444	162.69
287.675	170.69
287.906	153.69
288.138	158.69
288.369	167.69
288.6	162.69
288.831	161.69
289.062	181.69
289.293	170.69
289.524	159.69
289.755	168.69
289.986	167.69
290.217	183.69
290.448	173.69
290.679	167.69
290.91	149.69
291.141	164.69
291.371	171.69
291.602	168.69
291.833	172.69
292.064	151.69
292.295	161.69
292.526	163.69
292.757	172.69
292.987	155.69
293.218	144.69
293.449	147.69
293.68	163.69
293.91	149.69
294.141	157.69
294.372	165.69
294.603	162.69
294.833	162.69
295.064	172.69
295.295	159.69
295.525	164.69
295.756	149.69
295.987	165.69
296.217	172.69
296.448	178.69
296.679	169.69
296.909	156.69
297.14	166.69
297.37	174.69
297.601	172.69
297.831	179.69
298.062	174.69
298.292	171.69
298.523	160.69
298.753	188.69
298.984	182.69
299.214	168.69
299.445	179.69
299.675	185.69
299.905	170.69
300.136	170.69
300.366	178.69
300.597	172.69
300.827	173.69
301.057	170.69
301.288	162.69
301.518	177.69
301.748	171.69
301.979	185.69
302.209	202.69
302.439	201.69
302.669	165.69
302.9	183.69
303.13	177.69
303.36	174.69
303.59	173.69
303.82	179.69
304.051	167.69
304.281	173.69
304.511	187.69
304.741	170.69
304.971	175.69
305.201	166.69
305.431	174.69
305.661	182.69
305.891	177.69
306.121	177.69
306.352	177.69
306.582	182.69
306.812	171.69
307.042	168.69
307.272	167.69
307.502	167.69
307.731	169.69
307.961	176.69
308.191	164.69
308.421	163.69
308.651	183.69
308.881	188.69
309.111	179.69
309.341	175.69
309.571	170.69
309.8	191.69
310.03	167.69
310.26	183.69
310.49	180.69
310.72	172.69
310.949	193.69
311.179	167.69
311.409	173.69
311.639	172.69
311.868	179.69
312.098	179.69
312.328	177.69
312.557	178.69
312.787	186.69
313.017	200.69
313.246	183.69
313.476	190.69
313.706	180.69
313.935	197.69
314.165	205.69
314.394	186.69
314.624	188.69
314.853	167.69
315.083	198.69
315.312	179.69
315.542	189.69
315.771	190.69
316.001	189.69
316.23	180.69
316.46	176.69
316.689	190.69
316.919	167.69
317.148	189.69
317.377	190.69
317.607	180.69
317.836	186.69
318.065	187.69
318.295	182.69
318.524	174.69
318.753	189.69
318.983	174.69
319.212	172.69
319.441	161.69
319.67	178.69
319.9	193.69
320.129	190.69
320.358	180.69
320.587	167.69
320.816	189.69
321.046	185.69
321.275	186.69
321.504	188.69
321.733	200.69
321.962	186.69
322.191	185.69
322.42	182.69
322.649	195.69
322.878	184.69
323.108	170.69
323.337	196.69
323.566	195.69
323.795	190.69
324.024	191.69
324.253	193.69
324.482	180.69
324.71	182.69
324.939	202.69
325.168	187.69
325.397	191.69
325.626	186.69
325.855	199.69
326.084	189.69
326.313	202.69
326.542	198.69
326.77	201.69
326.999	193.69
327.228	198.69
327.457	180.69
327.686	185.69
327.914	185.69
328.143	183.69
328.372	205.69
328.6	194.69
328.829	206.69
329.058	194.69
329.287	201.69
329.515	195.69
329.744	207.69
329.972	200.69
330.201	206.69
330.43	203.69
330.658	209.69
330.887	199.69
331.115	201.69
331.344	190.69
331.572	204.69
331.801	205.69
332.03	220.69
332.258	220.69
332.486	214.69
332.715	240.69
332.943	252.69
333.172	242.69
333.4	258.69
333.629	247.69
333.857	237.69
334.085	245.69
334.314	237.69
334.542	247.69
334.771	229.69
334.999	255.69
335.227	222.69
335.455	246.69
335.684	249.69
335.912	234.69
336.14	232.69
336.369	231.69
336.597	221.69
336.825	215.69
337.053	219.69
337.281	222.69
337.51	206.69
337.738	212.69
337.966	217.69
338.194	226.69
338.422	204.69
338.65	205.69
338.878	200.69
339.106	197.69
339.334	222.69
339.562	225.69
339.79	195.69
340.018	208.69
340.246	205.69
340.474	196.69
340.702	207.69
340.93	208.69
341.158	209.69
341.386	217.69
341.614	198.69
341.842	209.69
342.07	196.69
342.298	210.69
342.526	203.69
342.754	215.69
342.981	214.69
343.209	213.69
343.437	222.69
343.665	220.69
343.893	224.69
344.12	248.69
344.348	231.69
344.576	230.69
344.804	217.69
345.031	199.69
345.259	211.69
345.487	199.69
345.714	204.69
345.942	212.69
346.17	205.69
346.397	199.69
346.625	198.69
346.853	207.69
347.08	188.69
347.308	199.69
347.535	193.69
347.763	181.69
347.99	201.69
348.218	221.69
348.445	196.69
348.673	208.69
348.9	201.69
349.128	193.69
349.355	189.69
349.583	184.69
349.81	185.69
350.037	175.69
350.265	185.69
350.492	193.69
350.72	196.69
350.947	204.69
351.174	204.69
351.402	175.69
351.629	197.69
351.856	195.69
352.083	198.69
352.311	203.69
352.538	202.69
352.765	196.69
352.992	191.69
353.22	191.69
353.447	206.69
353.674	200.69
353.901	192.69
354.128	204.69
354.355	203.69
354.583	202.69
354.81	206.69
355.037	198.69
355.264	216.69
355.491	178.69
355.718	201.69
355.945	201.69
356.172	198.69
356.399	187.69
356.626	199.69
356.853	200.69
357.08	206.69
357.307	203.69
357.534	206.69
357.761	186.69
357.988	217.69
358.215	194.69
358.441	187.69
358.668	174.69
358.895	197.69
359.122	175.69
359.349	194.69
359.576	224.69
359.802	189.69
360.029	198.69
360.256	183.69
360.483	203.69
360.709	194.69
360.936	206.69
361.163	194.69
361.39	185.69
361.616	199.69
361.843	191.69
362.07	191.69
362.296	199.69
362.523	207.69
362.749	186.69
362.976	195.69
363.203	199.69
363.429	198.69
363.656	180.69
363.882	191.69
364.109	209.69
364.335	197.69
364.562	186.69
364.788	198.69
365.015	195.69
365.241	183.69
365.468	195.69
365.694	202.69
365.92	201.69
366.147	206.69
366.373	190.69
366.599	197.69
366.826	203.69
367.052	207.69
367.278	188.69
367.505	198.69
367.731	193.69
367.957	205.69
368.184	205.69
368.41	189.69
368.636	215.69
368.862	205.69
369.089	207.69
369.315	206.69
369.541	182.69
369.767	218.69
369.993	205.69
370.219	199.69
370.445	225.69
370.672	208.69
370.898	202.69
371.124	197.69
371.35	205.69
371.576	220.69
371.802	220.69
372.028	210.69
372.254	213.69
372.48	213.69
372.706	215.69
372.932	227.69
373.158	225.69
373.384	232.69
373.61	207.69
373.835	214.69
374.061	222.69
374.287	213.69
374.513	210.69
374.739	217.69
374.965	223.69
375.191	226.69
375.416	217.69
375.642	231.69
375.868	231.69
376.094	218.69
376.319	212.69
376.545	209.69
376.771	218.69
376.997	234.69
377.222	237.69
377.448	229.69
377.674	226.69
377.899	219.69
378.125	203.69
378.35	207.69
378.576	214.69
378.802	229.69
379.027	210.69
379.253	225.69
379.478	217.69
379.704	207.69
379.929	225.69
380.155	214.69
380.38	221.69
380.606	211.69
380.831	226.69
381.057	198.69
381.282	214.69
381.507	226.69
381.733	215.69
381.958	220.69
382.184	237.69
382.409	231.69
382.634	213.69
382.86	236.69
383.085	225.69
383.31	222.69
383.535	233.69
383.761	233.69
383.986	258.69
384.211	235.69
384.436	254.69
384.662	252.69
384.887	246.69
385.112	246.69
385.337	245.69
385.562	264.69
385.787	269.69
386.013	253.69
386.238	263.69
386.463	261.69
386.688	269.69
386.913	262.69
387.138	243.69
387.363	245.69
387.588	268.69
387.813	256.69
388.038	244.69
388.263	246.69
388.488	230.69
388.713	255.69
388.938	243.69
389.163	238.69
389.387	247.69
389.612	269.69
389.837	253.69
390.062	234.69
390.287	239.69
390.512	238.69
390.736	249.69
390.961	270.69
391.186	259.69
391.411	276.69
391.636	277.69
391.86	266.69
392.085	279.69
392.31	271.69
392.534	281.69
392.759	261.69
392.984	266.69
393.208	269.69
393.433	270.69
393.658	277.69
393.882	261.69
394.107	269.69
394.331	280.69
394.556	272.69
394.78	268.69
395.005	270.69
395.229	279.69
395.454	295.69
395.678	281.69
395.903	292.69
396.127	298.69
396.352	263.69
396.576	264.69
396.801	277.69
397.025	277.69
397.249	282.69
397.474	292.69
397.698	285.69
397.922	284.69
398.147	278.69
398.371	279.69
398.595	285.69
398.82	311.69
399.044	324.69
399.268	332.69
399.492	377.69
399.717	439.69
399.941	422.69
400.165	395.69
400.389	380.69
400.613	333.69
400.837	312.69
401.062	305.69
401.286	307.69
401.51	309.69
401.734	303.69
401.958	317.69
402.182	310.69
402.406	325.69
402.63	314.69
402.854	317.69
403.078	348.69
403.302	339.69
403.526	343.69
403.75	341.69
403.974	360.69
404.198	353.69
404.422	363.69
404.645	341.69
404.869	332.69
405.093	333.69
405.317	341.69
405.541	339.69
405.765	340.69
405.988	332.69
406.212	332.69
406.436	334.69
406.66	331.69
406.883	364.69
407.107	375.69
407.331	377.69
407.555	383.69
407.778	383.69
408.002	385.69
408.226	375.69
408.449	364.69
408.673	366.69
408.896	357.69
409.12	350.69
409.344	362.69
409.567	348.69
409.791	354.69
410.014	354.69
410.238	348.69
410.461	350.69
410.685	339.69
410.908	342.69
411.132	311.69
411.355	330.69
411.578	321.69
411.802	323.69
412.025	339.69
412.249	335.69
412.472	323.69
412.695	333.69
412.919	327.69
413.142	318.69
413.365	346.69
413.589	319.69
413.812	314.69
414.035	303.69
414.258	330.69
414.482	313.69
414.705	328.69
414.928	348.69
415.151	331.69
415.374	320.69
415.597	323.69
415.821	329.69
416.044	303.69
416.267	313.69
416.49	312.69
416.713	311.69
416.936	313.69
417.159	317.69
417.382	312.69
417.605	315.69
417.828	333.69
418.051	324.69
418.274	328.69
418.497	320.69
418.72	317.69
418.943	329.69
419.166	345.69
419.389	355.69
419.611	340.69
419.834	338.69
420.057	329.69
420.28	321.69
420.503	317.69
420.726	303.69
420.948	318.69
421.171	322.69
421.394	327.69
421.617	316.69
421.839	324.69
422.062	312.69
422.285	306.69
422.507	313.69
422.73	319.69
422.953	331.69
423.175	340.69
423.398	335.69
423.621	324.69
423.843	330.69
424.066	332.69
424.288	323.69
424.511	344.69
424.733	334.69
424.956	346.69
425.178	350.69
425.401	332.69
425.623	323.69
425.846	331.69
426.068	317.69
426.291	318.69
426.513	298.69
426.735	303.69
426.958	290.69
427.18	310.69
427.402	300.69
427.625	295.69
427.847	305.69
428.069	295.69
428.292	315.69
428.514	295.69
428.736	291.69
428.958	282.69
429.181	289.69
429.403	282.69
429.625	302.69
429.847	297.69
430.069	295.69
430.292	299.69
430.514	285.69
430.736	280.69
430.958	298.69
431.18	287.69
431.402	307.69
431.624	302.69
431.846	292.69
432.068	285.69
432.29	316.69
432.512	284.69
432.734	304.69
432.956	296.69
433.178	320.69
433.4	314.69
433.622	314.69
433.844	302.69
434.066	299.69
434.287	313.69
434.509	316.69
434.731	323.69
434.953	312.69
435.175	321.69
435.397	319.69
435.618	330.69
435.84	305.69
436.062	301.69
436.284	301.69
436.505	313.69
436.727	307.69
436.949	299.69
437.17	325.69
437.392	297.69
437.614	314.69
437.835	298.69
438.057	289.69
438.278	299.69
438.5	284.69
438.721	319.69
438.943	300.69
439.165	295.69
439.386	300.69
439.608	311.69
439.829	299.69
440.05	300.69
440.272	323.69
440.493	297.69
440.715	313.69
440.936	311.69
441.158	326.69
441.379	329.69
441.6	341.69
441.822	349.69
442.043	342.69
442.264	353.69
442.486	324.69
442.707	326.69
442.928	309.69
443.149	339.69
443.371	316.69
443.592	341.69
443.813	337.69
444.034	340.69
444.255	375.69
444.476	371.69
444.698	391.69
444.919	393.69
445.14	502.69
445.361	420.69
445.582	331.69
445.803	339.69
446.024	325.69
446.245	333.69
446.466	321.69
446.687	319.69
446.908	325.69
447.129	301.69
447.35	300.69
447.571	305.69
447.792	298.69
448.013	310.69
448.234	292.69
448.455	282.69
448.675	314.69
448.896	278.69
449.117	290.69
449.338	285.69
449.559	311.69
449.779	278.69
450	276.69
450.221	288.69
450.442	292.69
450.662	287.69
450.883	311.69
451.104	289.69
451.324	302.69
451.545	295.69
451.766	295.69
451.986	304.69
452.207	285.69
452.428	294.69
452.648	291.69
452.869	295.69
453.089	274.69
453.31	284.69
453.53	267.69
453.751	269.69
453.971	270.69
454.192	280.69
454.412	275.69
454.633	246.69
454.853	273.69
455.073	257.69
455.294	278.69
455.514	278.69
455.734	295.69
455.955	270.69
456.175	256.69
456.395	273.69
456.616	270.69
456.836	265.69
457.056	257.69
457.276	257.69
457.497	263.69
457.717	271.69
457.937	276.69
458.157	272.69
458.377	277.69
458.598	273.69
458.818	272.69
459.038	275.69
459.258	285.69
459.478	290.69
459.698	311.69
459.918	320.69
460.138	344.69
460.358	357.69
460.578	332.69
460.798	359.69
461.018	349.69
461.238	357.69
461.458	364.69
461.678	342.69
461.898	346.69
462.118	361.69
462.338	357.69
462.558	375.69
462.777	369.69
462.997	409.69
463.217	425.69
463.437	442.69
463.657	421.69
463.876	406.69
464.096	405.69
464.316	385.69
464.536	398.69
464.755	373.69
464.975	362.69
465.195	356.69
465.414	331.69
465.634	323.69
465.854	306.69
466.073	300.69
466.293	301.69
466.512	307.69
466.732	309.69
466.951	307.69
467.171	317.69
467.391	297.69
467.61	287.69
467.829	285.69
468.049	305.69
468.268	287.69
468.488	282.69
468.707	297.69
468.927	288.69
469.146	300.69
469.365	305.69
469.585	297.69
469.804	285.69
470.023	310.69
470.243	311.69
470.462	318.69
470.681	317.69
470.901	305.69
471.12	300.69
471.339	292.69
471.558	307.69
471.777	297.69
471.997	288.69
472.216	281.69
472.435	286.69
472.654	292.69
472.873	276.69
473.092	267.69
473.311	270.69
473.53	279.69
473.749	273.69
473.968	291.69
474.187	286.69
474.406	280.69
474.625	298.69
474.844	292.69
475.063	281.69
475.282	287.69
475.501	280.69
475.72	314.69
475.939	291.69
476.158	269.69
476.377	297.69
476.596	295.69
476.814	295.69
477.033	290.69
477.252	294.69
477.471	279.69
477.69	304.69
477.908	313.69
478.127	329.69
478.346	321.69
478.564	345.69
478.783	319.69
479.002	332.69
479.22	323.69
479.439	327.69
479.658	347.69
479.876	332.69
480.095	341.69
480.313	336.69
480.532	347.69
480.751	350.69
480.969	330.69
481.188	314.69
481.406	299.69
481.624	303.69
481.843	317.69
482.061	314.69
482.28	297.69
482.498	307.69
482.717	290.69
482.935	304.69
483.153	295.69
483.372	318.69
483.59	302.69
483.808	296.69
484.027	325.69
484.245	312.69
484.463	308.69
484.681	321.69
484.9	321.69
485.118	346.69
485.336	321.69
485.554	323.69
485.772	316.69
485.99	333.69
486.209	329.69
486.427	317.69
486.645	314.69
486.863	314.69
487.081	323.69
487.299	320.69
487.517	326.69
487.735	312.69
487.953	327.69
488.171	335.69
488.389	343.69
488.607	319.69
488.825	322.69
489.043	326.69
489.261	309.69
489.479	313.69
489.696	344.69
489.914	326.69
490.132	333.69
490.35	326.69
490.568	331.69
490.786	311.69
491.003	345.69
491.221	328.69
491.439	318.69
491.657	332.69
491.874	331.69
492.092	340.69
492.31	359.69
492.527	335.69
492.745	328.69
492.963	324.69
493.18	322.69
493.398	351.69
493.615	345.69
493.833	337.69
494.05	335.69
494.268	346.69
494.485	348.69
494.703	350.69
494.92	360.69
495.138	367.69
495.355	364.69
495.573	345.69
495.79	313.69
496.008	353.69
496.225	355.69
496.442	355.69
496.66	379.69
496.877	379.69
497.094	360.69
497.312	359.69
497.529	354.69
497.746	363.69
497.963	380.69
498.181	391.69
498.398	427.69
498.615	418.69
498.832	466.69
499.049	486.69
499.267	486.69
499.484	535.69
499.701	597.69
499.918	633.69
500.135	707.69
500.352	803.69
500.569	832.69
500.786	801.69
501.003	754.69
501.22	692.69
501.437	620.69
501.654	585.69
501.871	521.69
502.088	489.69
502.305	457.69
