Data from Fe(NO3)3@0.1M.TitratingCurve.Agarose3%dH2O.NegLispCup.LampEnergy10.LIBS07252019_HRD10591_16-42-13-333.txt Node
Date: Thu Jul 25 16:42:13 EDT 2019
User: cochatt
Spectrometer: HR+D1059
Trigger mode: 1
Integration Time (sec): 1.000000E-1
Scans to average: 1
Electric dark correction enabled: true
Nonlinearity correction enabled: false
Boxcar width: 0
XAxis mode: Wavelengths
Number of Pixels in Spectrum: 2048
>>>>>Begin Spectral Data<<<<<
223.165	-10.69
223.4	-10.69
223.635	-10.69
223.869	-20.69
224.104	-25.69
224.338	-13.69
224.573	-12.69
224.808	-12.69
225.042	-10.69
225.277	-3.69
225.511	-3.69
225.746	8.31
225.98	11.31
226.215	0.31
226.449	16.31
226.683	16.31
226.918	39.31
227.152	22.31
227.387	22.31
227.621	42.31
227.856	40.31
228.09	51.31
228.324	53.31
228.559	45.31
228.793	61.31
229.027	69.31
229.262	76.31
229.496	71.31
229.73	85.31
229.964	89.31
230.199	100.31
230.433	97.31
230.667	114.31
230.901	93.31
231.136	94.31
231.37	102.31
231.604	99.31
231.838	105.31
232.072	98.31
232.306	99.31
232.541	100.31
232.775	116.31
233.009	93.31
233.243	106.31
233.477	105.31
233.711	109.31
233.945	106.31
234.179	109.31
234.413	115.31
234.647	117.31
234.881	112.31
235.115	117.31
235.349	109.31
235.583	104.31
235.817	105.31
236.051	111.31
236.285	103.31
236.519	110.31
236.753	104.31
236.987	109.31
237.221	115.31
237.455	107.31
237.689	100.31
237.922	107.31
238.156	112.31
238.39	102.31
238.624	123.31
238.858	113.31
239.091	118.31
239.325	109.31
239.559	109.31
239.793	115.31
240.027	118.31
240.26	123.31
240.494	121.31
240.728	126.31
240.961	113.31
241.195	116.31
241.429	113.31
241.662	109.31
241.896	115.31
242.13	124.31
242.363	108.31
242.597	105.31
242.83	117.31
243.064	104.31
243.298	119.31
243.531	120.31
243.765	127.31
243.998	113.31
244.232	129.31
244.465	131.31
244.699	123.31
244.932	144.31
245.166	133.31
245.399	126.31
245.633	146.31
245.866	139.31
246.099	131.31
246.333	142.31
246.566	144.31
246.8	138.31
247.033	143.31
247.266	139.31
247.5	124.31
247.733	120.31
247.966	128.31
248.2	132.31
248.433	140.31
248.666	132.31
248.899	139.31
249.133	140.31
249.366	144.31
249.599	142.31
249.832	148.31
250.066	130.31
250.299	139.31
250.532	145.31
250.765	140.31
250.998	148.31
251.231	132.31
251.465	135.31
251.698	150.31
251.931	143.31
252.164	153.31
252.397	143.31
252.63	157.31
252.863	150.31
253.096	150.31
253.329	163.31
253.562	143.31
253.795	145.31
254.028	154.31
254.261	154.31
254.494	145.31
254.727	155.31
254.96	161.31
255.193	166.31
255.426	142.31
255.659	153.31
255.892	158.31
256.124	143.31
256.357	144.31
256.59	152.31
256.823	173.31
257.056	161.31
257.289	169.31
257.521	178.31
257.754	155.31
257.987	173.31
258.22	161.31
258.452	167.31
258.685	156.31
258.918	164.31
259.151	140.31
259.383	159.31
259.616	153.31
259.849	156.31
260.081	147.31
260.314	176.31
260.547	159.31
260.779	170.31
261.012	161.31
261.244	171.31
261.477	161.31
261.71	171.31
261.942	162.31
262.175	173.31
262.407	169.31
262.64	170.31
262.872	179.31
263.105	156.31
263.337	161.31
263.57	186.31
263.802	189.31
264.035	170.31
264.267	199.31
264.499	166.31
264.732	176.31
264.964	177.31
265.197	168.31
265.429	192.31
265.661	182.31
265.894	184.31
266.126	167.31
266.358	165.31
266.591	177.31
266.823	172.31
267.055	186.31
267.287	185.31
267.52	191.31
267.752	182.31
267.984	184.31
268.216	183.31
268.448	205.31
268.681	178.31
268.913	176.31
269.145	188.31
269.377	201.31
269.609	175.31
269.841	177.31
270.073	194.31
270.306	189.31
270.538	196.31
270.77	184.31
271.002	182.31
271.234	191.31
271.466	215.31
271.698	189.31
271.93	187.31
272.162	192.31
272.394	193.31
272.626	184.31
272.858	191.31
273.09	206.31
273.322	200.31
273.553	200.31
273.785	196.31
274.017	193.31
274.249	204.31
274.481	207.31
274.713	207.31
274.945	200.31
275.176	198.31
275.408	205.31
275.64	205.31
275.872	223.31
276.104	211.31
276.335	204.31
276.567	196.31
276.799	196.31
277.031	205.31
277.262	227.31
277.494	213.31
277.726	200.31
277.957	209.31
278.189	215.31
278.421	218.31
278.652	187.31
278.884	236.31
279.115	211.31
279.347	225.31
279.579	215.31
279.81	217.31
280.042	207.31
280.273	220.31
280.505	217.31
280.736	224.31
280.968	218.31
281.199	218.31
281.431	205.31
281.662	230.31
281.894	210.31
282.125	229.31
282.356	236.31
282.588	229.31
282.819	214.31
283.051	223.31
283.282	223.31
283.513	231.31
283.745	226.31
283.976	244.31
284.207	223.31
284.439	233.31
284.67	243.31
284.901	228.31
285.132	223.31
285.364	253.31
285.595	238.31
285.826	235.31
286.057	264.31
286.288	228.31
286.52	228.31
286.751	250.31
286.982	232.31
287.213	249.31
287.444	261.31
287.675	236.31
287.906	248.31
288.138	251.31
288.369	251.31
288.6	249.31
288.831	252.31
289.062	250.31
289.293	247.31
289.524	259.31
289.755	228.31
289.986	247.31
290.217	253.31
290.448	260.31
290.679	251.31
290.91	249.31
291.141	246.31
291.371	253.31
291.602	265.31
291.833	243.31
292.064	262.31
292.295	266.31
292.526	249.31
292.757	241.31
292.987	243.31
293.218	254.31
293.449	253.31
293.68	226.31
293.91	241.31
294.141	249.31
294.372	251.31
294.603	243.31
294.833	258.31
295.064	262.31
295.295	267.31
295.525	248.31
295.756	255.31
295.987	252.31
296.217	261.31
296.448	245.31
296.679	265.31
296.909	261.31
297.14	271.31
297.37	264.31
297.601	269.31
297.831	271.31
298.062	279.31
298.292	266.31
298.523	263.31
298.753	265.31
298.984	263.31
299.214	271.31
299.445	262.31
299.675	272.31
299.905	285.31
300.136	264.31
300.366	274.31
300.597	270.31
300.827	272.31
301.057	290.31
301.288	291.31
301.518	253.31
301.748	271.31
301.979	280.31
302.209	275.31
302.439	282.31
302.669	284.31
302.9	287.31
303.13	267.31
303.36	289.31
303.59	273.31
303.82	291.31
304.051	284.31
304.281	274.31
304.511	289.31
304.741	279.31
304.971	285.31
305.201	288.31
305.431	277.31
305.661	271.31
305.891	299.31
306.121	271.31
306.352	273.31
306.582	287.31
306.812	267.31
307.042	263.31
307.272	267.31
307.502	281.31
307.731	283.31
307.961	277.31
308.191	268.31
308.421	255.31
308.651	275.31
308.881	260.31
309.111	268.31
309.341	272.31
309.571	267.31
309.8	280.31
310.03	282.31
310.26	284.31
310.49	282.31
310.72	269.31
310.949	286.31
311.179	285.31
311.409	273.31
311.639	275.31
311.868	292.31
312.098	281.31
312.328	297.31
312.557	293.31
312.787	284.31
313.017	278.31
313.246	282.31
313.476	303.31
313.706	300.31
313.935	293.31
314.165	293.31
314.394	307.31
314.624	285.31
314.853	272.31
315.083	290.31
315.312	291.31
315.542	292.31
315.771	283.31
316.001	287.31
316.23	295.31
316.46	284.31
316.689	279.31
316.919	286.31
317.148	307.31
317.377	311.31
317.607	284.31
317.836	308.31
318.065	284.31
318.295	317.31
318.524	305.31
318.753	298.31
318.983	283.31
319.212	269.31
319.441	281.31
319.67	297.31
319.9	296.31
320.129	298.31
320.358	316.31
320.587	295.31
320.816	291.31
321.046	298.31
321.275	305.31
321.504	313.31
321.733	294.31
321.962	305.31
322.191	326.31
322.42	305.31
322.649	308.31
322.878	289.31
323.108	303.31
323.337	290.31
323.566	311.31
323.795	294.31
324.024	296.31
324.253	320.31
324.482	291.31
324.71	294.31
324.939	296.31
325.168	320.31
325.397	312.31
325.626	312.31
325.855	297.31
326.084	312.31
326.313	333.31
326.542	320.31
326.77	339.31
326.999	317.31
327.228	318.31
327.457	303.31
327.686	327.31
327.914	315.31
328.143	333.31
328.372	303.31
328.6	309.31
328.829	319.31
329.058	321.31
329.287	324.31
329.515	307.31
329.744	327.31
329.972	324.31
330.201	313.31
330.43	322.31
330.658	336.31
330.887	339.31
331.115	322.31
331.344	348.31
331.572	351.31
331.801	369.31
332.03	351.31
332.258	357.31
332.486	359.31
332.715	365.31
332.943	377.31
333.172	389.31
333.4	419.31
333.629	425.31
333.857	425.31
334.085	415.31
334.314	384.31
334.542	402.31
334.771	397.31
334.999	398.31
335.227	390.31
335.455	381.31
335.684	369.31
335.912	404.31
336.14	391.31
336.369	388.31
336.597	385.31
336.825	390.31
337.053	367.31
337.281	373.31
337.51	356.31
337.738	373.31
337.966	377.31
338.194	370.31
338.422	340.31
338.65	341.31
338.878	333.31
339.106	342.31
339.334	348.31
339.562	346.31
339.79	329.31
340.018	339.31
340.246	348.31
340.474	337.31
340.702	329.31
340.93	332.31
341.158	350.31
341.386	338.31
341.614	336.31
341.842	326.31
342.07	331.31
342.298	330.31
342.526	339.31
342.754	308.31
342.981	332.31
343.209	342.31
343.437	367.31
343.665	358.31
343.893	397.31
344.12	371.31
344.348	397.31
344.576	380.31
344.804	360.31
345.031	351.31
345.259	339.31
345.487	320.31
345.714	339.31
345.942	327.31
346.17	322.31
346.397	334.31
346.625	318.31
346.853	320.31
347.08	323.31
347.308	332.31
347.535	337.31
347.763	332.31
347.99	321.31
348.218	327.31
348.445	340.31
348.673	326.31
348.9	326.31
349.128	325.31
349.355	326.31
349.583	321.31
349.81	332.31
350.037	320.31
350.265	327.31
350.492	321.31
350.72	330.31
350.947	311.31
351.174	307.31
351.402	299.31
351.629	317.31
351.856	322.31
352.083	323.31
352.311	318.31
352.538	312.31
352.765	311.31
352.992	314.31
353.22	322.31
353.447	331.31
353.674	325.31
353.901	306.31
354.128	298.31
354.355	320.31
354.583	313.31
354.81	329.31
355.037	303.31
355.264	315.31
355.491	322.31
355.718	325.31
355.945	322.31
356.172	332.31
356.399	311.31
356.626	325.31
356.853	328.31
357.08	332.31
357.307	305.31
357.534	324.31
357.761	299.31
357.988	326.31
358.215	333.31
358.441	320.31
358.668	298.31
358.895	331.31
359.122	333.31
359.349	328.31
359.576	317.31
359.802	340.31
360.029	311.31
360.256	324.31
360.483	335.31
360.709	311.31
360.936	332.31
361.163	316.31
361.39	324.31
361.616	305.31
361.843	298.31
362.07	307.31
362.296	315.31
362.523	313.31
362.749	314.31
362.976	328.31
363.203	316.31
363.429	325.31
363.656	322.31
363.882	322.31
364.109	323.31
364.335	314.31
364.562	316.31
364.788	319.31
365.015	326.31
365.241	319.31
365.468	325.31
365.694	313.31
365.92	313.31
366.147	331.31
366.373	311.31
366.599	314.31
366.826	309.31
367.052	311.31
367.278	317.31
367.505	316.31
367.731	314.31
367.957	328.31
368.184	316.31
368.41	311.31
368.636	326.31
368.862	319.31
369.089	329.31
369.315	331.31
369.541	337.31
369.767	334.31
369.993	347.31
370.219	337.31
370.445	348.31
370.672	335.31
370.898	328.31
371.124	365.31
371.35	348.31
371.576	345.31
371.802	338.31
372.028	348.31
372.254	345.31
372.48	354.31
372.706	354.31
372.932	360.31
373.158	348.31
373.384	349.31
373.61	338.31
373.835	357.31
374.061	342.31
374.287	355.31
374.513	361.31
374.739	385.31
374.965	387.31
375.191	376.31
375.416	381.31
375.642	346.31
375.868	377.31
376.094	374.31
376.319	352.31
376.545	356.31
376.771	373.31
376.997	357.31
377.222	325.31
377.448	341.31
377.674	363.31
377.899	337.31
378.125	357.31
378.35	350.31
378.576	351.31
378.802	339.31
379.027	346.31
379.253	338.31
379.478	342.31
379.704	337.31
379.929	349.31
380.155	349.31
380.38	352.31
380.606	352.31
380.831	340.31
381.057	364.31
381.282	352.31
381.507	352.31
381.733	356.31
381.958	377.31
382.184	345.31
382.409	377.31
382.634	346.31
382.86	363.31
383.085	362.31
383.31	381.31
383.535	373.31
383.761	380.31
383.986	373.31
384.211	417.31
384.436	397.31
384.662	419.31
384.887	427.31
385.112	405.31
385.337	395.31
385.562	412.31
385.787	417.31
386.013	433.31
386.238	414.31
386.463	407.31
386.688	405.31
386.913	388.31
387.138	397.31
387.363	407.31
387.588	402.31
387.813	399.31
388.038	405.31
388.263	421.31
388.488	409.31
388.713	401.31
388.938	406.31
389.163	417.31
389.387	395.31
389.612	389.31
389.837	390.31
390.062	395.31
390.287	406.31
390.512	411.31
390.736	409.31
390.961	408.31
391.186	425.31
391.411	451.31
391.636	449.31
391.86	445.31
392.085	459.31
392.31	476.31
392.534	447.31
392.759	435.31
392.984	416.31
393.208	427.31
393.433	412.31
393.658	428.31
393.882	442.31
394.107	436.31
394.331	431.31
394.556	428.31
394.78	438.31
395.005	427.31
395.229	441.31
395.454	420.31
395.678	461.31
395.903	436.31
396.127	455.31
396.352	451.31
396.576	440.31
396.801	457.31
397.025	427.31
397.249	455.31
397.474	464.31
397.698	431.31
397.922	450.31
398.147	456.31
398.371	476.31
398.595	482.31
398.82	476.31
399.044	547.31
399.268	587.31
399.492	655.31
399.717	714.31
399.941	684.31
400.165	619.31
400.389	581.31
400.613	543.31
400.837	503.31
401.062	510.31
401.286	512.31
401.51	502.31
401.734	512.31
401.958	517.31
402.182	504.31
402.406	525.31
402.63	533.31
402.854	515.31
403.078	545.31
403.302	547.31
403.526	541.31
403.75	579.31
403.974	580.31
404.198	593.31
404.422	566.31
404.645	588.31
404.869	575.31
405.093	567.31
405.317	562.31
405.541	554.31
405.765	539.31
405.988	553.31
406.212	540.31
406.436	545.31
406.66	556.31
406.883	546.31
407.107	589.31
407.331	619.31
407.555	632.31
407.778	637.31
408.002	617.31
408.226	594.31
408.449	591.31
408.673	572.31
408.896	571.31
409.12	569.31
409.344	568.31
409.567	580.31
409.791	575.31
410.014	560.31
410.238	566.31
410.461	567.31
410.685	564.31
410.908	538.31
411.132	534.31
411.355	518.31
411.578	513.31
411.802	545.31
412.025	559.31
412.249	562.31
412.472	538.31
412.695	528.31
412.919	516.31
413.142	498.31
413.365	491.31
413.589	506.31
413.812	506.31
414.035	514.31
414.258	504.31
414.482	520.31
414.705	521.31
414.928	481.31
415.151	523.31
415.374	531.31
415.597	527.31
415.821	508.31
416.044	500.31
416.267	501.31
416.49	504.31
416.713	505.31
416.936	497.31
417.159	484.31
417.382	518.31
417.605	505.31
417.828	522.31
418.051	529.31
418.274	509.31
418.497	518.31
418.72	519.31
418.943	533.31
419.166	555.31
419.389	565.31
419.611	575.31
419.834	542.31
420.057	515.31
420.28	525.31
420.503	517.31
420.726	516.31
420.948	496.31
421.171	512.31
421.394	523.31
421.617	512.31
421.839	521.31
422.062	516.31
422.285	532.31
422.507	481.31
422.73	500.31
422.953	537.31
423.175	510.31
423.398	515.31
423.621	543.31
423.843	565.31
424.066	546.31
424.288	521.31
424.511	517.31
424.733	527.31
424.956	504.31
425.178	504.31
425.401	509.31
425.623	534.31
425.846	468.31
426.068	519.31
426.291	500.31
426.513	486.31
426.735	468.31
426.958	479.31
427.18	467.31
427.402	475.31
427.625	471.31
427.847	472.31
428.069	453.31
428.292	482.31
428.514	481.31
428.736	460.31
428.958	453.31
429.181	438.31
429.403	449.31
429.625	441.31
429.847	468.31
430.069	441.31
430.292	452.31
430.514	455.31
430.736	470.31
430.958	469.31
431.18	465.31
431.402	481.31
431.624	455.31
431.846	460.31
432.068	458.31
432.29	457.31
432.512	451.31
432.734	460.31
432.956	474.31
433.178	492.31
433.4	461.31
433.622	481.31
433.844	487.31
434.066	476.31
434.287	470.31
434.509	465.31
434.731	504.31
434.953	505.31
435.175	513.31
435.397	518.31
435.618	491.31
435.84	474.31
436.062	455.31
436.284	468.31
436.505	448.31
436.727	447.31
436.949	467.31
437.17	464.31
437.392	443.31
437.614	450.31
437.835	456.31
438.057	445.31
438.278	424.31
438.5	437.31
438.721	439.31
438.943	466.31
439.165	447.31
439.386	464.31
439.608	462.31
439.829	483.31
440.05	461.31
440.272	474.31
440.493	466.31
440.715	469.31
440.936	487.31
441.158	470.31
441.379	499.31
441.6	519.31
441.822	518.31
442.043	536.31
442.264	515.31
442.486	526.31
442.707	512.31
442.928	535.31
443.149	499.31
443.371	500.31
443.592	521.31
443.813	528.31
444.034	529.31
444.255	534.31
444.476	560.31
444.698	583.31
444.919	611.31
445.14	654.31
445.361	585.31
445.582	533.31
445.803	499.31
446.024	516.31
446.245	500.31
446.466	498.31
446.687	475.31
446.908	477.31
447.129	458.31
447.35	483.31
447.571	456.31
447.792	431.31
448.013	458.31
448.234	443.31
448.455	446.31
448.675	433.31
448.896	430.31
449.117	437.31
449.338	430.31
449.559	419.31
449.779	445.31
450	422.31
450.221	461.31
450.442	441.31
450.662	431.31
450.883	436.31
451.104	461.31
451.324	443.31
451.545	458.31
451.766	437.31
451.986	442.31
452.207	423.31
452.428	450.31
452.648	461.31
452.869	417.31
453.089	416.31
453.31	443.31
453.53	412.31
453.751	433.31
453.971	417.31
454.192	422.31
454.412	407.31
454.633	430.31
454.853	409.31
455.073	410.31
455.294	420.31
455.514	412.31
455.734	406.31
455.955	393.31
456.175	401.31
456.395	392.31
456.616	395.31
456.836	406.31
457.056	405.31
457.276	397.31
457.497	425.31
457.717	417.31
457.937	409.31
458.157	407.31
458.377	402.31
458.598	419.31
458.818	437.31
459.038	414.31
459.258	452.31
459.478	459.31
459.698	470.31
459.918	486.31
460.138	528.31
460.358	526.31
460.578	531.31
460.798	539.31
461.018	544.31
461.238	557.31
461.458	554.31
461.678	544.31
461.898	533.31
462.118	538.31
462.338	579.31
462.558	583.31
462.777	612.31
462.997	607.31
463.217	688.31
463.437	705.31
463.657	645.31
463.876	583.31
464.096	597.31
464.316	609.31
464.536	608.31
464.755	589.31
464.975	570.31
465.195	544.31
465.414	528.31
465.634	482.31
465.854	462.31
466.073	468.31
466.293	459.31
466.512	461.31
466.732	460.31
466.951	457.31
467.171	444.31
467.391	465.31
467.61	455.31
467.829	443.31
468.049	427.31
468.268	424.31
468.488	438.31
468.707	411.31
468.927	439.31
469.146	436.31
469.365	433.31
469.585	445.31
469.804	452.31
470.023	451.31
470.243	481.31
470.462	474.31
470.681	453.31
470.901	465.31
471.12	456.31
471.339	454.31
471.558	452.31
471.777	439.31
471.997	442.31
472.216	428.31
472.435	441.31
472.654	417.31
472.873	429.31
473.092	405.31
473.311	408.31
473.53	413.31
473.749	419.31
473.968	398.31
474.187	402.31
474.406	434.31
474.625	421.31
474.844	421.31
475.063	420.31
475.282	401.31
475.501	419.31
475.72	412.31
475.939	442.31
476.158	439.31
476.377	441.31
476.596	435.31
476.814	428.31
477.033	423.31
477.252	441.31
477.471	455.31
477.69	475.31
477.908	464.31
478.127	480.31
478.346	485.31
478.564	495.31
478.783	500.31
479.002	503.31
479.22	520.31
479.439	509.31
479.658	491.31
479.876	513.31
480.095	514.31
480.313	542.31
480.532	553.31
480.751	536.31
480.969	504.31
481.188	489.31
481.406	490.31
481.624	483.31
481.843	466.31
482.061	435.31
482.28	449.31
482.498	469.31
482.717	466.31
482.935	466.31
483.153	473.31
483.372	456.31
483.59	484.31
483.808	484.31
484.027	504.31
484.245	475.31
484.463	473.31
484.681	493.31
484.9	492.31
485.118	491.31
485.336	477.31
485.554	474.31
485.772	470.31
485.99	447.31
486.209	478.31
486.427	483.31
486.645	501.31
486.863	479.31
487.081	477.31
487.299	495.31
487.517	485.31
487.735	497.31
487.953	487.31
488.171	505.31
488.389	539.31
488.607	490.31
488.825	480.31
489.043	471.31
489.261	471.31
489.479	468.31
489.696	488.31
489.914	495.31
490.132	495.31
490.35	484.31
490.568	509.31
490.786	503.31
491.003	484.31
491.221	484.31
491.439	521.31
491.657	497.31
491.874	508.31
492.092	505.31
492.31	511.31
492.527	517.31
492.745	513.31
492.963	499.31
493.18	525.31
493.398	536.31
493.615	500.31
493.833	488.31
494.05	497.31
494.268	523.31
494.485	497.31
494.703	522.31
494.92	519.31
495.138	509.31
495.355	521.31
495.573	521.31
495.79	509.31
496.008	531.31
496.225	505.31
496.442	518.31
496.66	542.31
496.877	536.31
497.094	540.31
497.312	547.31
497.529	559.31
497.746	565.31
497.963	589.31
498.181	603.31
498.398	619.31
498.615	643.31
498.832	706.31
499.049	752.31
499.267	801.31
499.484	868.31
499.701	952.31
499.918	1075.31
500.135	1213.31
500.352	1333.31
500.569	1403.31
500.786	1370.31
501.003	1248.31
501.22	1093.31
501.437	1000.31
501.654	899.31
