Data from Fe(NO3)3@0.1M.TitratingCurve.Agarose3%dH2O.NegLispCup.LampEnergy10.LIBS07252019_HRD10591_16-41-04-333.txt Node
Date: Thu Jul 25 16:41:04 EDT 2019
User: cochatt
Spectrometer: HR+D1059
Trigger mode: 1
Integration Time (sec): 1.000000E-1
Scans to average: 1
Electric dark correction enabled: true
Nonlinearity correction enabled: false
Boxcar width: 0
XAxis mode: Wavelengths
Number of Pixels in Spectrum: 2048
>>>>>Begin Spectral Data<<<<<
223.165	-22.69
223.4	-22.69
223.635	-22.69
223.869	-22.69
224.104	-15.69
224.338	-3.69
224.573	-1.69
224.808	-18.69
225.042	-13.69
225.277	-2.69
225.511	-2.69
225.746	-7.69
225.98	17.31
226.215	16.31
226.449	18.31
226.683	17.31
226.918	24.31
227.152	18.31
227.387	35.31
227.621	43.31
227.856	41.31
228.09	45.31
228.324	48.31
228.559	68.31
228.793	55.31
229.027	73.31
229.262	78.31
229.496	76.31
229.73	86.31
229.964	79.31
230.199	90.31
230.433	91.31
230.667	98.31
230.901	99.31
231.136	85.31
231.37	90.31
231.604	93.31
231.838	111.31
232.072	106.31
232.306	94.31
232.541	90.31
232.775	100.31
233.009	93.31
233.243	110.31
233.477	103.31
233.711	120.31
233.945	99.31
234.179	99.31
234.413	100.31
234.647	92.31
234.881	102.31
235.115	106.31
235.349	111.31
235.583	111.31
235.817	99.31
236.051	96.31
236.285	109.31
236.519	96.31
236.753	102.31
236.987	113.31
237.221	96.31
237.455	97.31
237.689	114.31
237.922	100.31
238.156	98.31
238.39	101.31
238.624	98.31
238.858	117.31
239.091	97.31
239.325	93.31
239.559	122.31
239.793	127.31
240.027	106.31
240.26	102.31
240.494	101.31
240.728	115.31
240.961	107.31
241.195	98.31
241.429	99.31
241.662	120.31
241.896	111.31
242.13	106.31
242.363	117.31
242.597	107.31
242.83	115.31
243.064	107.31
243.298	111.31
243.531	116.31
243.765	122.31
243.998	119.31
244.232	126.31
244.465	112.31
244.699	112.31
244.932	118.31
245.166	120.31
245.399	110.31
245.633	122.31
245.866	125.31
246.099	126.31
246.333	132.31
246.566	126.31
246.8	122.31
247.033	123.31
247.266	122.31
247.5	127.31
247.733	117.31
247.966	123.31
248.2	139.31
248.433	123.31
248.666	103.31
248.899	131.31
249.133	127.31
249.366	142.31
249.599	130.31
249.832	129.31
250.066	123.31
250.299	120.31
250.532	143.31
250.765	131.31
250.998	131.31
251.231	128.31
251.465	121.31
251.698	133.31
251.931	131.31
252.164	135.31
252.397	120.31
252.63	127.31
252.863	143.31
253.096	136.31
253.329	145.31
253.562	134.31
253.795	151.31
254.028	134.31
254.261	146.31
254.494	149.31
254.727	143.31
254.96	135.31
255.193	157.31
255.426	130.31
255.659	135.31
255.892	145.31
256.124	146.31
256.357	133.31
256.59	136.31
256.823	138.31
257.056	158.31
257.289	139.31
257.521	135.31
257.754	139.31
257.987	141.31
258.22	163.31
258.452	138.31
258.685	164.31
258.918	163.31
259.151	155.31
259.383	151.31
259.616	148.31
259.849	128.31
260.081	143.31
260.314	148.31
260.547	152.31
260.779	140.31
261.012	146.31
261.244	137.31
261.477	145.31
261.71	153.31
261.942	159.31
262.175	147.31
262.407	143.31
262.64	148.31
262.872	148.31
263.105	154.31
263.337	151.31
263.57	160.31
263.802	165.31
264.035	139.31
264.267	159.31
264.499	154.31
264.732	161.31
264.964	161.31
265.197	166.31
265.429	163.31
265.661	168.31
265.894	160.31
266.126	160.31
266.358	163.31
266.591	174.31
266.823	159.31
267.055	161.31
267.287	173.31
267.52	170.31
267.752	169.31
267.984	165.31
268.216	155.31
268.448	168.31
268.681	179.31
268.913	170.31
269.145	183.31
269.377	177.31
269.609	167.31
269.841	176.31
270.073	173.31
270.306	169.31
270.538	167.31
270.77	187.31
271.002	164.31
271.234	181.31
271.466	192.31
271.698	185.31
271.93	171.31
272.162	178.31
272.394	166.31
272.626	163.31
272.858	185.31
273.09	184.31
273.322	190.31
273.553	176.31
273.785	174.31
274.017	179.31
274.249	177.31
274.481	192.31
274.713	176.31
274.945	178.31
275.176	178.31
275.408	191.31
275.64	171.31
275.872	185.31
276.104	194.31
276.335	178.31
276.567	199.31
276.799	192.31
277.031	182.31
277.262	204.31
277.494	197.31
277.726	182.31
277.957	193.31
278.189	165.31
278.421	198.31
278.652	202.31
278.884	194.31
279.115	190.31
279.347	196.31
279.579	193.31
279.81	199.31
280.042	181.31
280.273	201.31
280.505	215.31
280.736	195.31
280.968	202.31
281.199	202.31
281.431	213.31
281.662	208.31
281.894	213.31
282.125	216.31
282.356	201.31
282.588	200.31
282.819	208.31
283.051	209.31
283.282	206.31
283.513	216.31
283.745	201.31
283.976	218.31
284.207	205.31
284.439	196.31
284.67	216.31
284.901	228.31
285.132	223.31
285.364	205.31
285.595	210.31
285.826	210.31
286.057	216.31
286.288	208.31
286.52	210.31
286.751	222.31
286.982	229.31
287.213	212.31
287.444	215.31
287.675	226.31
287.906	202.31
288.138	215.31
288.369	225.31
288.6	222.31
288.831	213.31
289.062	219.31
289.293	223.31
289.524	217.31
289.755	226.31
289.986	220.31
290.217	208.31
290.448	218.31
290.679	209.31
290.91	219.31
291.141	223.31
291.371	209.31
291.602	226.31
291.833	222.31
292.064	222.31
292.295	230.31
292.526	225.31
292.757	231.31
292.987	214.31
293.218	230.31
293.449	228.31
293.68	231.31
293.91	226.31
294.141	228.31
294.372	231.31
294.603	225.31
294.833	224.31
295.064	231.31
295.295	239.31
295.525	250.31
295.756	234.31
295.987	228.31
296.217	220.31
296.448	231.31
296.679	220.31
296.909	219.31
297.14	254.31
297.37	249.31
297.601	245.31
297.831	230.31
298.062	238.31
298.292	224.31
298.523	242.31
298.753	247.31
298.984	241.31
299.214	237.31
299.445	225.31
299.675	229.31
299.905	237.31
300.136	243.31
300.366	245.31
300.597	233.31
300.827	263.31
301.057	250.31
301.288	245.31
301.518	265.31
301.748	261.31
301.979	242.31
302.209	256.31
302.439	246.31
302.669	256.31
302.9	235.31
303.13	259.31
303.36	255.31
303.59	246.31
303.82	253.31
304.051	266.31
304.281	253.31
304.511	258.31
304.741	268.31
304.971	261.31
305.201	262.31
305.431	241.31
305.661	251.31
305.891	250.31
306.121	249.31
306.352	255.31
306.582	262.31
306.812	248.31
307.042	255.31
307.272	268.31
307.502	253.31
307.731	253.31
307.961	250.31
308.191	255.31
308.421	234.31
308.651	271.31
308.881	239.31
309.111	274.31
309.341	250.31
309.571	273.31
309.8	263.31
310.03	264.31
310.26	243.31
310.49	245.31
310.72	270.31
310.949	239.31
311.179	265.31
311.409	263.31
311.639	259.31
311.868	268.31
312.098	265.31
312.328	259.31
312.557	280.31
312.787	282.31
313.017	279.31
313.246	259.31
313.476	274.31
313.706	269.31
313.935	263.31
314.165	269.31
314.394	273.31
314.624	273.31
314.853	281.31
315.083	273.31
315.312	268.31
315.542	269.31
315.771	262.31
316.001	264.31
316.23	275.31
316.46	291.31
316.689	259.31
316.919	265.31
317.148	273.31
317.377	272.31
317.607	290.31
317.836	275.31
318.065	255.31
318.295	281.31
318.524	276.31
318.753	280.31
318.983	272.31
319.212	268.31
319.441	264.31
319.67	267.31
319.9	280.31
320.129	269.31
320.358	278.31
320.587	276.31
320.816	263.31
321.046	275.31
321.275	280.31
321.504	272.31
321.733	283.31
321.962	279.31
322.191	267.31
322.42	281.31
322.649	267.31
322.878	281.31
323.108	263.31
323.337	282.31
323.566	289.31
323.795	278.31
324.024	277.31
324.253	275.31
324.482	271.31
324.71	285.31
324.939	279.31
325.168	305.31
325.397	304.31
325.626	291.31
325.855	277.31
326.084	298.31
326.313	292.31
326.542	290.31
326.77	303.31
326.999	280.31
327.228	285.31
327.457	303.31
327.686	287.31
327.914	288.31
328.143	293.31
328.372	281.31
328.6	305.31
328.829	288.31
329.058	291.31
329.287	298.31
329.515	300.31
329.744	302.31
329.972	287.31
330.201	296.31
330.43	301.31
330.658	315.31
330.887	310.31
331.115	315.31
331.344	308.31
331.572	306.31
331.801	309.31
332.03	326.31
332.258	331.31
332.486	336.31
332.715	342.31
332.943	351.31
333.172	347.31
333.4	376.31
333.629	369.31
333.857	362.31
334.085	351.31
334.314	374.31
334.542	377.31
334.771	349.31
334.999	346.31
335.227	372.31
335.455	347.31
335.684	345.31
335.912	346.31
336.14	343.31
336.369	341.31
336.597	345.31
336.825	334.31
337.053	334.31
337.281	339.31
337.51	340.31
337.738	335.31
337.966	337.31
338.194	333.31
338.422	337.31
338.65	330.31
338.878	317.31
339.106	318.31
339.334	311.31
339.562	307.31
339.79	309.31
340.018	318.31
340.246	302.31
340.474	312.31
340.702	312.31
340.93	303.31
341.158	325.31
341.386	310.31
341.614	317.31
341.842	308.31
342.07	320.31
342.298	304.31
342.526	295.31
342.754	317.31
342.981	311.31
343.209	322.31
343.437	327.31
343.665	340.31
343.893	350.31
344.12	358.31
344.348	362.31
344.576	338.31
344.804	320.31
345.031	321.31
345.259	305.31
345.487	314.31
345.714	306.31
345.942	319.31
346.17	303.31
346.397	287.31
346.625	309.31
346.853	289.31
347.08	297.31
347.308	312.31
347.535	307.31
347.763	294.31
347.99	287.31
348.218	302.31
348.445	288.31
348.673	291.31
348.9	318.31
349.128	301.31
349.355	308.31
349.583	298.31
349.81	292.31
350.037	301.31
350.265	280.31
350.492	301.31
350.72	299.31
350.947	293.31
351.174	277.31
351.402	279.31
351.629	305.31
351.856	304.31
352.083	302.31
352.311	294.31
352.538	290.31
352.765	297.31
352.992	298.31
353.22	304.31
353.447	295.31
353.674	290.31
353.901	299.31
354.128	288.31
354.355	274.31
354.583	296.31
354.81	302.31
355.037	301.31
355.264	290.31
355.491	292.31
355.718	302.31
355.945	294.31
356.172	283.31
356.399	310.31
356.626	291.31
356.853	294.31
357.08	319.31
357.307	307.31
357.534	289.31
357.761	311.31
357.988	302.31
358.215	303.31
358.441	317.31
358.668	288.31
358.895	281.31
359.122	309.31
359.349	296.31
359.576	278.31
359.802	313.31
360.029	290.31
360.256	304.31
360.483	305.31
360.709	299.31
360.936	281.31
361.163	305.31
361.39	310.31
361.616	305.31
361.843	303.31
362.07	283.31
362.296	294.31
362.523	285.31
362.749	310.31
362.976	313.31
363.203	296.31
363.429	303.31
363.656	306.31
363.882	295.31
364.109	296.31
364.335	304.31
364.562	296.31
364.788	293.31
365.015	318.31
365.241	311.31
365.468	290.31
365.694	308.31
365.92	297.31
366.147	299.31
366.373	312.31
366.599	291.31
366.826	301.31
367.052	315.31
367.278	287.31
367.505	303.31
367.731	328.31
367.957	306.31
368.184	307.31
368.41	295.31
368.636	285.31
368.862	312.31
369.089	313.31
369.315	311.31
369.541	311.31
369.767	314.31
369.993	307.31
370.219	314.31
370.445	309.31
370.672	320.31
370.898	296.31
371.124	332.31
371.35	330.31
371.576	333.31
371.802	300.31
372.028	336.31
372.254	323.31
372.48	341.31
372.706	342.31
372.932	330.31
373.158	322.31
373.384	332.31
373.61	330.31
373.835	334.31
374.061	334.31
374.287	336.31
374.513	357.31
374.739	330.31
374.965	358.31
375.191	341.31
375.416	355.31
375.642	335.31
375.868	346.31
376.094	328.31
376.319	332.31
376.545	337.31
376.771	330.31
376.997	316.31
377.222	318.31
377.448	340.31
377.674	352.31
377.899	328.31
378.125	329.31
378.35	336.31
378.576	320.31
378.802	310.31
379.027	323.31
379.253	308.31
379.478	316.31
379.704	333.31
379.929	334.31
380.155	332.31
380.38	329.31
380.606	329.31
380.831	328.31
381.057	341.31
381.282	329.31
381.507	322.31
381.733	342.31
381.958	336.31
382.184	358.31
382.409	328.31
382.634	344.31
382.86	353.31
383.085	351.31
383.31	343.31
383.535	369.31
383.761	350.31
383.986	368.31
384.211	371.31
384.436	373.31
384.662	360.31
384.887	365.31
385.112	397.31
385.337	382.31
385.562	379.31
385.787	384.31
386.013	408.31
386.238	393.31
386.463	391.31
386.688	365.31
386.913	366.31
387.138	382.31
387.363	373.31
387.588	386.31
387.813	381.31
388.038	396.31
388.263	393.31
388.488	390.31
388.713	391.31
388.938	382.31
389.163	373.31
389.387	382.31
389.612	397.31
389.837	389.31
390.062	383.31
390.287	381.31
390.512	376.31
390.736	374.31
390.961	392.31
391.186	403.31
391.411	415.31
391.636	415.31
391.86	426.31
392.085	402.31
392.31	431.31
392.534	406.31
392.759	410.31
392.984	424.31
393.208	407.31
393.433	391.31
393.658	398.31
393.882	393.31
394.107	399.31
394.331	377.31
394.556	395.31
394.78	401.31
395.005	421.31
395.229	436.31
395.454	433.31
395.678	427.31
395.903	424.31
396.127	408.31
396.352	417.31
396.576	405.31
396.801	411.31
397.025	411.31
397.249	427.31
397.474	418.31
397.698	443.31
397.922	435.31
398.147	439.31
398.371	437.31
398.595	445.31
398.82	466.31
399.044	495.31
399.268	535.31
399.492	598.31
399.717	616.31
399.941	619.31
400.165	589.31
400.389	567.31
400.613	514.31
400.837	500.31
401.062	470.31
401.286	477.31
401.51	476.31
401.734	466.31
401.958	461.31
402.182	475.31
402.406	472.31
402.63	490.31
402.854	490.31
403.078	498.31
403.302	530.31
403.526	499.31
403.75	499.31
403.974	521.31
404.198	508.31
404.422	538.31
404.645	504.31
404.869	515.31
405.093	524.31
405.317	522.31
405.541	506.31
405.765	490.31
405.988	511.31
406.212	522.31
406.436	513.31
406.66	520.31
406.883	526.31
407.107	567.31
407.331	571.31
407.555	596.31
407.778	578.31
408.002	588.31
408.226	571.31
408.449	533.31
408.673	528.31
408.896	521.31
409.12	543.31
409.344	538.31
409.567	530.31
409.791	535.31
410.014	556.31
410.238	517.31
410.461	505.31
410.685	527.31
410.908	506.31
411.132	494.31
411.355	496.31
411.578	502.31
411.802	491.31
412.025	503.31
412.249	514.31
412.472	481.31
412.695	490.31
412.919	478.31
413.142	472.31
413.365	475.31
413.589	478.31
413.812	470.31
414.035	488.31
414.258	461.31
414.482	469.31
414.705	475.31
414.928	472.31
415.151	471.31
415.374	505.31
415.597	466.31
415.821	474.31
416.044	472.31
416.267	472.31
416.49	472.31
416.713	465.31
416.936	481.31
417.159	461.31
417.382	467.31
417.605	440.31
417.828	451.31
418.051	466.31
418.274	486.31
418.497	481.31
418.72	490.31
418.943	460.31
419.166	479.31
419.389	541.31
419.611	528.31
419.834	485.31
420.057	467.31
420.28	495.31
420.503	473.31
420.726	463.31
420.948	446.31
421.171	459.31
421.394	456.31
421.617	465.31
421.839	486.31
422.062	477.31
422.285	474.31
422.507	471.31
422.73	463.31
422.953	470.31
423.175	489.31
423.398	496.31
423.621	497.31
423.843	485.31
424.066	503.31
424.288	496.31
424.511	498.31
424.733	494.31
424.956	476.31
425.178	479.31
425.401	486.31
425.623	490.31
425.846	452.31
426.068	449.31
426.291	464.31
426.513	456.31
426.735	451.31
426.958	456.31
427.18	459.31
427.402	462.31
427.625	457.31
427.847	447.31
428.069	446.31
428.292	432.31
428.514	441.31
428.736	407.31
428.958	434.31
429.181	433.31
429.403	424.31
429.625	426.31
429.847	427.31
430.069	414.31
430.292	434.31
430.514	425.31
430.736	427.31
430.958	409.31
431.18	437.31
431.402	423.31
431.624	403.31
431.846	413.31
432.068	426.31
432.29	445.31
432.512	433.31
432.734	440.31
432.956	433.31
433.178	421.31
433.4	455.31
433.622	454.31
433.844	439.31
434.066	453.31
434.287	439.31
434.509	438.31
434.731	447.31
434.953	476.31
435.175	473.31
435.397	455.31
435.618	433.31
435.84	434.31
436.062	460.31
436.284	429.31
436.505	426.31
436.727	461.31
436.949	447.31
437.17	444.31
437.392	430.31
437.614	420.31
437.835	425.31
438.057	415.31
438.278	429.31
438.5	438.31
438.721	443.31
438.943	454.31
439.165	438.31
439.386	422.31
439.608	423.31
439.829	417.31
440.05	445.31
440.272	443.31
440.493	457.31
440.715	453.31
440.936	479.31
441.158	465.31
441.379	470.31
441.6	497.31
441.822	489.31
442.043	486.31
442.264	499.31
442.486	484.31
442.707	465.31
442.928	470.31
443.149	478.31
443.371	471.31
443.592	473.31
443.813	483.31
444.034	490.31
444.255	503.31
444.476	517.31
444.698	523.31
444.919	567.31
445.14	618.31
445.361	536.31
445.582	483.31
445.803	482.31
446.024	460.31
446.245	471.31
446.466	462.31
446.687	457.31
446.908	467.31
447.129	447.31
447.35	445.31
447.571	438.31
447.792	418.31
448.013	438.31
448.234	415.31
448.455	424.31
448.675	410.31
448.896	422.31
449.117	417.31
449.338	418.31
449.559	410.31
449.779	419.31
450	408.31
450.221	414.31
450.442	407.31
450.662	423.31
450.883	422.31
451.104	420.31
451.324	429.31
451.545	425.31
451.766	418.31
451.986	421.31
452.207	383.31
452.428	395.31
452.648	414.31
452.869	409.31
453.089	392.31
453.31	383.31
453.53	407.31
453.751	380.31
453.971	396.31
454.192	403.31
454.412	388.31
454.633	380.31
454.853	404.31
455.073	397.31
455.294	372.31
455.514	405.31
455.734	382.31
455.955	366.31
456.175	391.31
456.395	386.31
456.616	380.31
456.836	367.31
457.056	377.31
457.276	376.31
457.497	391.31
457.717	389.31
457.937	393.31
458.157	389.31
458.377	385.31
458.598	399.31
458.818	409.31
459.038	412.31
459.258	411.31
459.478	443.31
459.698	415.31
459.918	460.31
460.138	463.31
460.358	497.31
460.578	486.31
460.798	499.31
461.018	485.31
461.238	484.31
461.458	506.31
461.678	481.31
461.898	525.31
462.118	513.31
462.338	533.31
462.558	530.31
462.777	557.31
462.997	585.31
463.217	613.31
463.437	618.31
463.657	572.31
463.876	563.31
464.096	561.31
464.316	557.31
464.536	538.31
464.755	554.31
464.975	545.31
465.195	511.31
465.414	504.31
465.634	473.31
465.854	463.31
466.073	453.31
466.293	449.31
466.512	449.31
466.732	421.31
466.951	433.31
467.171	423.31
467.391	426.31
467.61	415.31
467.829	423.31
468.049	446.31
468.268	417.31
468.488	408.31
468.707	406.31
468.927	417.31
469.146	404.31
469.365	405.31
469.585	432.31
469.804	416.31
470.023	417.31
470.243	420.31
470.462	426.31
470.681	437.31
470.901	443.31
471.12	415.31
471.339	421.31
471.558	407.31
471.777	418.31
471.997	408.31
472.216	403.31
472.435	399.31
472.654	399.31
472.873	398.31
473.092	394.31
473.311	381.31
473.53	397.31
473.749	401.31
473.968	401.31
474.187	403.31
474.406	396.31
474.625	387.31
474.844	390.31
475.063	398.31
475.282	396.31
475.501	398.31
475.72	405.31
475.939	389.31
476.158	405.31
476.377	421.31
476.596	402.31
476.814	424.31
477.033	414.31
477.252	411.31
477.471	453.31
477.69	427.31
477.908	422.31
478.127	451.31
478.346	450.31
478.564	464.31
478.783	456.31
479.002	456.31
479.22	469.31
479.439	472.31
479.658	472.31
479.876	475.31
480.095	477.31
480.313	504.31
480.532	517.31
480.751	489.31
480.969	481.31
481.188	477.31
481.406	466.31
481.624	457.31
481.843	450.31
482.061	441.31
482.28	444.31
482.498	467.31
482.717	434.31
482.935	451.31
483.153	457.31
483.372	456.31
483.59	465.31
483.808	445.31
484.027	454.31
484.245	469.31
484.463	448.31
484.681	456.31
484.9	463.31
485.118	472.31
485.336	456.31
485.554	462.31
485.772	465.31
485.99	454.31
486.209	457.31
486.427	451.31
486.645	458.31
486.863	443.31
487.081	459.31
487.299	471.31
487.517	465.31
487.735	450.31
487.953	486.31
488.171	442.31
488.389	449.31
488.607	451.31
488.825	480.31
489.043	445.31
489.261	465.31
489.479	471.31
489.696	456.31
489.914	453.31
490.132	448.31
490.35	468.31
490.568	488.31
490.786	466.31
491.003	474.31
491.221	470.31
491.439	488.31
491.657	454.31
491.874	463.31
492.092	472.31
492.31	460.31
492.527	494.31
492.745	479.31
492.963	478.31
493.18	477.31
493.398	482.31
493.615	486.31
493.833	504.31
494.05	472.31
494.268	471.31
494.485	506.31
494.703	501.31
494.92	481.31
495.138	479.31
495.355	494.31
495.573	495.31
495.79	479.31
496.008	493.31
496.225	489.31
496.442	490.31
496.66	491.31
496.877	527.31
497.094	515.31
497.312	537.31
497.529	554.31
497.746	594.31
497.963	567.31
498.181	601.31
498.398	608.31
498.615	637.31
498.832	663.31
499.049	691.31
499.267	755.31
499.484	814.31
499.701	874.31
499.918	936.31
500.135	1035.31
500.352	1145.31
500.569	1194.31
500.786	1165.31
501.003	1120.31
501.22	1010.31
501.437	930.31
501.654	817.31
501.871	767.31
