Data from Fe(NO3)3@0.0125M.TitratingCurve.Agarose3%dH2O.NegLispCup.LampEnergy10.LIBS07252019_HRD10591_17-00-59-337.txt Node
Date: Thu Jul 25 17:00:59 EDT 2019
User: cochatt
Spectrometer: HR+D1059
Trigger mode: 1
Integration Time (sec): 1.000000E-1
Scans to average: 1
Electric dark correction enabled: true
Nonlinearity correction enabled: false
Boxcar width: 0
XAxis mode: Wavelengths
Number of Pixels in Spectrum: 2048
>>>>>Begin Spectral Data<<<<<
223.165	-18.75
223.4	-18.75
223.635	-18.75
223.869	-26.75
224.104	-10.75
224.338	-30.75
224.573	-14.75
224.808	-0.75
225.042	-10.75
225.277	-2.75
225.511	2.25
225.746	5.25
225.98	1.25
226.215	15.25
226.449	19.25
226.683	21.25
226.918	25.25
227.152	26.25
227.387	33.25
227.621	42.25
227.856	59.25
228.09	50.25
228.324	50.25
228.559	54.25
228.793	70.25
229.027	79.25
229.262	87.25
229.496	95.25
229.73	90.25
229.964	97.25
230.199	82.25
230.433	83.25
230.667	100.25
230.901	106.25
231.136	103.25
231.37	98.25
231.604	102.25
231.838	96.25
232.072	121.25
232.306	95.25
232.541	110.25
232.775	92.25
233.009	102.25
233.243	103.25
233.477	111.25
233.711	113.25
233.945	120.25
234.179	112.25
234.413	115.25
234.647	115.25
234.881	105.25
235.115	115.25
235.349	107.25
235.583	100.25
235.817	110.25
236.051	96.25
236.285	107.25
236.519	101.25
236.753	122.25
236.987	113.25
237.221	90.25
237.455	96.25
237.689	104.25
237.922	106.25
238.156	119.25
238.39	113.25
238.624	123.25
238.858	115.25
239.091	105.25
239.325	132.25
239.559	121.25
239.793	123.25
240.027	115.25
240.26	109.25
240.494	123.25
240.728	114.25
240.961	114.25
241.195	124.25
241.429	132.25
241.662	119.25
241.896	129.25
242.13	115.25
242.363	110.25
242.597	105.25
242.83	113.25
243.064	109.25
243.298	126.25
243.531	119.25
243.765	116.25
243.998	133.25
244.232	123.25
244.465	123.25
244.699	114.25
244.932	119.25
245.166	128.25
245.399	148.25
245.633	118.25
245.866	118.25
246.099	116.25
246.333	122.25
246.566	125.25
246.8	119.25
247.033	132.25
247.266	117.25
247.5	136.25
247.733	114.25
247.966	141.25
248.2	136.25
248.433	147.25
248.666	144.25
248.899	130.25
249.133	155.25
249.366	149.25
249.599	133.25
249.832	138.25
250.066	132.25
250.299	150.25
250.532	148.25
250.765	147.25
250.998	154.25
251.231	143.25
251.465	146.25
251.698	149.25
251.931	138.25
252.164	139.25
252.397	142.25
252.63	141.25
252.863	159.25
253.096	134.25
253.329	135.25
253.562	136.25
253.795	147.25
254.028	164.25
254.261	159.25
254.494	147.25
254.727	157.25
254.96	161.25
255.193	166.25
255.426	145.25
255.659	152.25
255.892	149.25
256.124	156.25
256.357	153.25
256.59	157.25
256.823	154.25
257.056	147.25
257.289	162.25
257.521	151.25
257.754	155.25
257.987	139.25
258.22	155.25
258.452	161.25
258.685	166.25
258.918	177.25
259.151	157.25
259.383	151.25
259.616	157.25
259.849	181.25
260.081	174.25
260.314	185.25
260.547	168.25
260.779	174.25
261.012	149.25
261.244	155.25
261.477	168.25
261.71	177.25
261.942	168.25
262.175	185.25
262.407	173.25
262.64	163.25
262.872	177.25
263.105	171.25
263.337	186.25
263.57	186.25
263.802	169.25
264.035	171.25
264.267	171.25
264.499	182.25
264.732	187.25
264.964	171.25
265.197	174.25
265.429	180.25
265.661	184.25
265.894	181.25
266.126	187.25
266.358	181.25
266.591	163.25
266.823	185.25
267.055	181.25
267.287	179.25
267.52	192.25
267.752	187.25
267.984	193.25
268.216	185.25
268.448	185.25
268.681	201.25
268.913	194.25
269.145	195.25
269.377	185.25
269.609	187.25
269.841	191.25
270.073	171.25
270.306	184.25
270.538	187.25
270.77	191.25
271.002	187.25
271.234	198.25
271.466	199.25
271.698	190.25
271.93	194.25
272.162	162.25
272.394	187.25
272.626	215.25
272.858	187.25
273.09	189.25
273.322	195.25
273.553	191.25
273.785	195.25
274.017	212.25
274.249	212.25
274.481	222.25
274.713	216.25
274.945	223.25
275.176	239.25
275.408	251.25
275.64	231.25
275.872	230.25
276.104	221.25
276.335	199.25
276.567	212.25
276.799	212.25
277.031	212.25
277.262	213.25
277.494	217.25
277.726	213.25
277.957	205.25
278.189	225.25
278.421	203.25
278.652	216.25
278.884	211.25
279.115	199.25
279.347	220.25
279.579	214.25
279.81	217.25
280.042	214.25
280.273	227.25
280.505	227.25
280.736	231.25
280.968	223.25
281.199	241.25
281.431	214.25
281.662	226.25
281.894	208.25
282.125	220.25
282.356	234.25
282.588	239.25
282.819	228.25
283.051	224.25
283.282	221.25
283.513	223.25
283.745	223.25
283.976	240.25
284.207	229.25
284.439	233.25
284.67	241.25
284.901	230.25
285.132	233.25
285.364	243.25
285.595	254.25
285.826	233.25
286.057	232.25
286.288	217.25
286.52	234.25
286.751	243.25
286.982	224.25
287.213	242.25
287.444	245.25
287.675	235.25
287.906	251.25
288.138	249.25
288.369	230.25
288.6	222.25
288.831	231.25
289.062	245.25
289.293	237.25
289.524	239.25
289.755	236.25
289.986	251.25
290.217	252.25
290.448	260.25
290.679	259.25
290.91	257.25
291.141	231.25
291.371	225.25
291.602	227.25
291.833	231.25
292.064	266.25
292.295	249.25
292.526	258.25
292.757	237.25
292.987	241.25
293.218	245.25
293.449	251.25
293.68	268.25
293.91	257.25
294.141	250.25
294.372	250.25
294.603	255.25
294.833	255.25
295.064	270.25
295.295	277.25
295.525	261.25
295.756	267.25
295.987	263.25
296.217	263.25
296.448	261.25
296.679	244.25
296.909	245.25
297.14	267.25
297.37	243.25
297.601	268.25
297.831	273.25
298.062	261.25
298.292	249.25
298.523	270.25
298.753	283.25
298.984	269.25
299.214	279.25
299.445	274.25
299.675	281.25
299.905	277.25
300.136	270.25
300.366	267.25
300.597	259.25
300.827	257.25
301.057	260.25
301.288	265.25
301.518	294.25
301.748	270.25
301.979	294.25
302.209	298.25
302.439	285.25
302.669	278.25
302.9	295.25
303.13	319.25
303.36	289.25
303.59	284.25
303.82	266.25
304.051	291.25
304.281	282.25
304.511	281.25
304.741	297.25
304.971	282.25
305.201	275.25
305.431	290.25
305.661	287.25
305.891	290.25
306.121	305.25
306.352	295.25
306.582	294.25
306.812	292.25
307.042	300.25
307.272	286.25
307.502	289.25
307.731	276.25
307.961	293.25
308.191	292.25
308.421	296.25
308.651	278.25
308.881	297.25
309.111	297.25
309.341	277.25
309.571	293.25
309.8	305.25
310.03	290.25
310.26	293.25
310.49	290.25
310.72	285.25
310.949	300.25
311.179	299.25
311.409	300.25
311.639	312.25
311.868	308.25
312.098	308.25
312.328	311.25
312.557	294.25
312.787	303.25
313.017	313.25
313.246	313.25
313.476	309.25
313.706	323.25
313.935	323.25
314.165	306.25
314.394	302.25
314.624	314.25
314.853	297.25
315.083	310.25
315.312	299.25
315.542	330.25
315.771	310.25
316.001	327.25
316.23	310.25
316.46	297.25
316.689	313.25
316.919	311.25
317.148	307.25
317.377	317.25
317.607	311.25
317.836	330.25
318.065	307.25
318.295	335.25
318.524	327.25
318.753	334.25
318.983	312.25
319.212	315.25
319.441	316.25
319.67	340.25
319.9	326.25
320.129	322.25
320.358	318.25
320.587	333.25
320.816	337.25
321.046	330.25
321.275	324.25
321.504	341.25
321.733	340.25
321.962	338.25
322.191	336.25
322.42	331.25
322.649	341.25
322.878	344.25
323.108	339.25
323.337	323.25
323.566	343.25
323.795	351.25
324.024	352.25
324.253	358.25
324.482	345.25
324.71	345.25
324.939	338.25
325.168	352.25
325.397	339.25
325.626	349.25
325.855	346.25
326.084	337.25
326.313	355.25
326.542	340.25
326.77	341.25
326.999	351.25
327.228	354.25
327.457	340.25
327.686	350.25
327.914	364.25
328.143	353.25
328.372	346.25
328.6	339.25
328.829	346.25
329.058	349.25
329.287	371.25
329.515	375.25
329.744	361.25
329.972	352.25
330.201	353.25
330.43	363.25
330.658	360.25
330.887	356.25
331.115	373.25
331.344	377.25
331.572	367.25
331.801	379.25
332.03	371.25
332.258	355.25
332.486	379.25
332.715	385.25
332.943	376.25
333.172	373.25
333.4	385.25
333.629	393.25
333.857	389.25
334.085	376.25
334.314	399.25
334.542	398.25
334.771	378.25
334.999	389.25
335.227	410.25
335.455	397.25
335.684	381.25
335.912	395.25
336.14	398.25
336.369	402.25
336.597	395.25
336.825	385.25
337.053	377.25
337.281	393.25
337.51	398.25
337.738	371.25
337.966	407.25
338.194	391.25
338.422	391.25
338.65	383.25
338.878	395.25
339.106	382.25
339.334	380.25
339.562	382.25
339.79	382.25
340.018	378.25
340.246	372.25
340.474	389.25
340.702	383.25
340.93	385.25
341.158	364.25
341.386	377.25
341.614	379.25
341.842	387.25
342.07	389.25
342.298	388.25
342.526	382.25
342.754	371.25
342.981	383.25
343.209	382.25
343.437	392.25
343.665	400.25
343.893	400.25
344.12	395.25
344.348	398.25
344.576	406.25
344.804	381.25
345.031	378.25
345.259	370.25
345.487	381.25
345.714	380.25
345.942	396.25
346.17	386.25
346.397	381.25
346.625	384.25
346.853	363.25
347.08	389.25
347.308	366.25
347.535	343.25
347.763	368.25
347.99	367.25
348.218	380.25
348.445	381.25
348.673	362.25
348.9	363.25
349.128	379.25
349.355	362.25
349.583	364.25
349.81	377.25
350.037	364.25
350.265	375.25
350.492	363.25
350.72	381.25
350.947	365.25
351.174	353.25
351.402	360.25
351.629	364.25
351.856	356.25
352.083	380.25
352.311	371.25
352.538	369.25
352.765	369.25
352.992	350.25
353.22	369.25
353.447	364.25
353.674	361.25
353.901	379.25
354.128	372.25
354.355	365.25
354.583	381.25
354.81	355.25
355.037	379.25
355.264	370.25
355.491	363.25
355.718	374.25
355.945	377.25
356.172	375.25
356.399	375.25
356.626	360.25
356.853	377.25
357.08	351.25
357.307	389.25
357.534	383.25
357.761	397.25
357.988	390.25
358.215	388.25
358.441	373.25
358.668	365.25
358.895	369.25
359.122	362.25
359.349	363.25
359.576	368.25
359.802	359.25
360.029	379.25
360.256	376.25
360.483	362.25
360.709	375.25
360.936	385.25
361.163	377.25
361.39	379.25
361.616	374.25
361.843	379.25
362.07	367.25
362.296	379.25
362.523	389.25
362.749	378.25
362.976	391.25
363.203	367.25
363.429	395.25
363.656	364.25
363.882	385.25
364.109	383.25
364.335	373.25
364.562	390.25
364.788	372.25
365.015	364.25
365.241	384.25
365.468	392.25
365.694	390.25
365.92	386.25
366.147	377.25
366.373	389.25
366.599	389.25
366.826	402.25
367.052	381.25
367.278	377.25
367.505	395.25
367.731	366.25
367.957	379.25
368.184	385.25
368.41	382.25
368.636	405.25
368.862	388.25
369.089	382.25
369.315	414.25
369.541	377.25
369.767	375.25
369.993	399.25
370.219	387.25
370.445	395.25
370.672	419.25
370.898	398.25
371.124	387.25
371.35	419.25
371.576	397.25
371.802	398.25
372.028	409.25
372.254	413.25
372.48	419.25
372.706	403.25
372.932	425.25
373.158	414.25
373.384	385.25
373.61	401.25
373.835	404.25
374.061	426.25
374.287	423.25
374.513	418.25
374.739	403.25
374.965	415.25
375.191	421.25
375.416	424.25
375.642	430.25
375.868	412.25
376.094	411.25
376.319	397.25
376.545	377.25
376.771	394.25
376.997	416.25
377.222	407.25
377.448	406.25
377.674	402.25
377.899	404.25
378.125	396.25
378.35	398.25
378.576	406.25
378.802	383.25
379.027	414.25
379.253	403.25
379.478	398.25
379.704	410.25
379.929	407.25
380.155	382.25
380.38	391.25
380.606	404.25
380.831	401.25
381.057	407.25
381.282	413.25
381.507	407.25
381.733	424.25
381.958	415.25
382.184	423.25
382.409	422.25
382.634	425.25
382.86	436.25
383.085	424.25
383.31	451.25
383.535	437.25
383.761	423.25
383.986	432.25
384.211	433.25
384.436	412.25
384.662	431.25
384.887	442.25
385.112	415.25
385.337	446.25
385.562	449.25
385.787	478.25
386.013	443.25
386.238	448.25
386.463	462.25
386.688	445.25
386.913	434.25
387.138	447.25
387.363	444.25
387.588	458.25
387.813	452.25
388.038	449.25
388.263	445.25
388.488	442.25
388.713	463.25
388.938	446.25
389.163	445.25
389.387	450.25
389.612	462.25
389.837	458.25
390.062	445.25
390.287	475.25
390.512	467.25
390.736	451.25
390.961	462.25
391.186	470.25
391.411	465.25
391.636	469.25
391.86	478.25
392.085	481.25
392.31	483.25
392.534	463.25
392.759	492.25
392.984	492.25
393.208	490.25
393.433	490.25
393.658	498.25
393.882	466.25
394.107	476.25
394.331	492.25
394.556	473.25
394.78	462.25
395.005	474.25
395.229	476.25
395.454	480.25
395.678	489.25
395.903	461.25
396.127	477.25
396.352	472.25
396.576	462.25
396.801	466.25
397.025	493.25
397.249	498.25
397.474	503.25
397.698	486.25
397.922	512.25
398.147	500.25
398.371	506.25
398.595	509.25
398.82	510.25
399.044	531.25
399.268	535.25
399.492	569.25
399.717	565.25
399.941	570.25
400.165	575.25
400.389	564.25
400.613	551.25
400.837	543.25
401.062	546.25
401.286	535.25
401.51	530.25
401.734	519.25
401.958	519.25
402.182	524.25
402.406	531.25
402.63	526.25
402.854	525.25
403.078	516.25
403.302	527.25
403.526	502.25
403.75	514.25
403.974	514.25
404.198	526.25
404.422	551.25
404.645	533.25
404.869	536.25
405.093	538.25
405.317	553.25
405.541	551.25
405.765	543.25
405.988	531.25
406.212	556.25
406.436	535.25
406.66	538.25
406.883	558.25
407.107	561.25
407.331	545.25
407.555	594.25
407.778	583.25
408.002	585.25
408.226	579.25
408.449	575.25
408.673	565.25
408.896	548.25
409.12	539.25
409.344	559.25
409.567	539.25
409.791	563.25
410.014	541.25
410.238	557.25
410.461	545.25
410.685	535.25
410.908	546.25
411.132	549.25
411.355	521.25
411.578	531.25
411.802	538.25
412.025	533.25
412.249	541.25
412.472	541.25
412.695	557.25
412.919	522.25
413.142	545.25
413.365	546.25
413.589	553.25
413.812	550.25
414.035	510.25
414.258	519.25
414.482	524.25
414.705	529.25
414.928	525.25
415.151	529.25
415.374	510.25
415.597	519.25
415.821	484.25
416.044	509.25
416.267	499.25
416.49	507.25
416.713	512.25
416.936	509.25
417.159	517.25
417.382	486.25
417.605	496.25
417.828	490.25
418.051	519.25
418.274	513.25
418.497	502.25
418.72	493.25
418.943	480.25
419.166	541.25
419.389	537.25
419.611	517.25
419.834	511.25
420.057	514.25
420.28	527.25
420.503	493.25
420.726	505.25
420.948	482.25
421.171	491.25
421.394	493.25
421.617	523.25
421.839	510.25
422.062	505.25
422.285	488.25
422.507	483.25
422.73	485.25
422.953	491.25
423.175	504.25
423.398	473.25
423.621	488.25
423.843	500.25
424.066	469.25
424.288	494.25
424.511	479.25
424.733	489.25
424.956	508.25
425.178	489.25
425.401	486.25
425.623	516.25
425.846	494.25
426.068	497.25
426.291	477.25
426.513	489.25
426.735	476.25
426.958	493.25
427.18	472.25
427.402	484.25
427.625	488.25
427.847	487.25
428.069	455.25
428.292	486.25
428.514	466.25
428.736	474.25
428.958	474.25
429.181	466.25
429.403	460.25
429.625	478.25
429.847	479.25
430.069	470.25
430.292	468.25
430.514	471.25
430.736	481.25
430.958	471.25
431.18	504.25
431.402	476.25
431.624	488.25
431.846	489.25
432.068	497.25
432.29	495.25
432.512	499.25
432.734	461.25
432.956	486.25
433.178	493.25
433.4	469.25
433.622	464.25
433.844	501.25
434.066	497.25
434.287	473.25
434.509	473.25
434.731	501.25
434.953	492.25
435.175	493.25
435.397	484.25
435.618	501.25
435.84	483.25
436.062	486.25
436.284	462.25
436.505	475.25
436.727	465.25
436.949	476.25
437.17	484.25
437.392	479.25
437.614	460.25
437.835	459.25
438.057	480.25
438.278	480.25
438.5	474.25
438.721	481.25
438.943	449.25
439.165	472.25
439.386	459.25
439.608	469.25
439.829	470.25
440.05	470.25
440.272	465.25
440.493	456.25
440.715	465.25
440.936	486.25
441.158	459.25
441.379	478.25
441.6	497.25
441.822	487.25
442.043	494.25
442.264	481.25
442.486	465.25
442.707	478.25
442.928	486.25
443.149	481.25
443.371	473.25
443.592	490.25
443.813	474.25
444.034	474.25
444.255	490.25
444.476	493.25
444.698	501.25
444.919	509.25
445.14	580.25
445.361	527.25
445.582	507.25
445.803	493.25
446.024	468.25
446.245	483.25
446.466	473.25
446.687	479.25
446.908	469.25
447.129	456.25
447.35	467.25
447.571	461.25
447.792	448.25
448.013	448.25
448.234	437.25
448.455	458.25
448.675	451.25
448.896	447.25
449.117	447.25
449.338	453.25
449.559	441.25
449.779	436.25
450	443.25
450.221	453.25
450.442	445.25
450.662	449.25
450.883	448.25
451.104	438.25
451.324	434.25
451.545	433.25
451.766	422.25
451.986	429.25
452.207	447.25
452.428	420.25
452.648	456.25
452.869	430.25
453.089	424.25
453.31	420.25
453.53	434.25
453.751	427.25
453.971	422.25
454.192	409.25
454.412	422.25
454.633	436.25
454.853	430.25
455.073	431.25
455.294	443.25
455.514	419.25
455.734	449.25
455.955	411.25
456.175	423.25
456.395	414.25
456.616	426.25
456.836	440.25
457.056	403.25
457.276	430.25
457.497	435.25
457.717	447.25
457.937	428.25
458.157	438.25
458.377	443.25
458.598	465.25
458.818	433.25
459.038	455.25
459.258	430.25
459.478	445.25
459.698	471.25
459.918	463.25
460.138	471.25
460.358	481.25
460.578	482.25
460.798	490.25
461.018	495.25
461.238	491.25
461.458	483.25
461.678	499.25
461.898	504.25
462.118	508.25
462.338	525.25
462.558	515.25
462.777	545.25
462.997	543.25
463.217	550.25
463.437	547.25
463.657	533.25
463.876	534.25
464.096	527.25
464.316	526.25
464.536	519.25
464.755	539.25
464.975	493.25
465.195	528.25
465.414	471.25
465.634	503.25
465.854	469.25
466.073	459.25
466.293	471.25
466.512	463.25
466.732	472.25
466.951	470.25
467.171	483.25
467.391	467.25
467.61	478.25
467.829	473.25
468.049	462.25
468.268	460.25
468.488	494.25
468.707	458.25
468.927	463.25
469.146	445.25
469.365	453.25
469.585	441.25
469.804	476.25
470.023	469.25
470.243	464.25
470.462	473.25
470.681	462.25
470.901	487.25
471.12	473.25
471.339	455.25
471.558	467.25
471.777	474.25
471.997	440.25
472.216	465.25
472.435	463.25
472.654	464.25
472.873	453.25
473.092	430.25
473.311	457.25
473.53	459.25
473.749	458.25
473.968	478.25
474.187	461.25
474.406	485.25
474.625	463.25
474.844	465.25
475.063	475.25
475.282	471.25
475.501	494.25
475.72	500.25
475.939	482.25
476.158	502.25
476.377	492.25
476.596	500.25
476.814	512.25
477.033	516.25
477.252	497.25
477.471	513.25
477.69	509.25
477.908	527.25
478.127	531.25
478.346	535.25
478.564	535.25
478.783	530.25
479.002	530.25
479.22	556.25
479.439	553.25
479.658	551.25
479.876	561.25
480.095	569.25
480.313	548.25
480.532	583.25
480.751	551.25
480.969	550.25
481.188	548.25
481.406	556.25
481.624	566.25
481.843	567.25
482.061	577.25
482.28	567.25
482.498	557.25
482.717	566.25
482.935	563.25
483.153	569.25
483.372	550.25
483.59	573.25
483.808	573.25
484.027	565.25
484.245	587.25
484.463	570.25
484.681	578.25
484.9	590.25
485.118	595.25
485.336	581.25
485.554	579.25
485.772	585.25
485.99	594.25
486.209	574.25
486.427	574.25
486.645	590.25
486.863	581.25
487.081	579.25
487.299	591.25
487.517	577.25
487.735	586.25
487.953	597.25
488.171	610.25
488.389	590.25
488.607	594.25
488.825	590.25
489.043	581.25
489.261	580.25
489.479	578.25
489.696	585.25
489.914	551.25
490.132	581.25
490.35	596.25
490.568	598.25
490.786	588.25
491.003	554.25
491.221	590.25
491.439	606.25
491.657	583.25
491.874	583.25
492.092	595.25
492.31	595.25
492.527	601.25
492.745	606.25
492.963	595.25
493.18	600.25
493.398	578.25
493.615	587.25
493.833	589.25
494.05	618.25
494.268	588.25
494.485	591.25
494.703	610.25
494.92	610.25
495.138	605.25
495.355	619.25
495.573	611.25
495.79	609.25
496.008	653.25
496.225	618.25
496.442	621.25
496.66	595.25
496.877	650.25
497.094	663.25
497.312	658.25
497.529	638.25
497.746	657.25
497.963	673.25
498.181	693.25
498.398	687.25
498.615	698.25
498.832	742.25
499.049	741.25
499.267	801.25
499.484	783.25
499.701	814.25
499.918	836.25
500.135	891.25
500.352	864.25
500.569	908.25
500.786	860.25
501.003	904.25
501.22	894.25
501.437	829.25
501.654	794.25
