Data from Fe(NO3)3@0.1M.TitratingCurve.Agarose3%dH2O.NegLispCup.LampEnergy10.LIBS07252019_HRD10591_16-41-32-333.txt Node
Date: Thu Jul 25 16:41:32 EDT 2019
User: cochatt
Spectrometer: HR+D1059
Trigger mode: 1
Integration Time (sec): 1.000000E-1
Scans to average: 1
Electric dark correction enabled: true
Nonlinearity correction enabled: false
Boxcar width: 0
XAxis mode: Wavelengths
Number of Pixels in Spectrum: 2048
>>>>>Begin Spectral Data<<<<<
223.165	-19.19
223.4	-19.19
223.635	-19.19
223.869	-9.19
224.104	-24.19
224.338	-18.19
224.573	-17.19
224.808	-14.19
225.042	2.81
225.277	-10.19
225.511	-7.19
225.746	12.81
225.98	9.81
226.215	16.81
226.449	10.81
226.683	8.81
226.918	30.81
227.152	26.81
227.387	33.81
227.621	39.81
227.856	29.81
228.09	54.81
228.324	41.81
228.559	68.81
228.793	50.81
229.027	80.81
229.262	78.81
229.496	73.81
229.73	88.81
229.964	88.81
230.199	86.81
230.433	93.81
230.667	73.81
230.901	84.81
231.136	83.81
231.37	83.81
231.604	97.81
231.838	89.81
232.072	99.81
232.306	100.81
232.541	87.81
232.775	105.81
233.009	105.81
233.243	105.81
233.477	78.81
233.711	86.81
233.945	106.81
234.179	102.81
234.413	96.81
234.647	101.81
234.881	95.81
235.115	90.81
235.349	118.81
235.583	108.81
235.817	93.81
236.051	108.81
236.285	96.81
236.519	88.81
236.753	95.81
236.987	103.81
237.221	100.81
237.455	104.81
237.689	88.81
237.922	94.81
238.156	92.81
238.39	107.81
238.624	96.81
238.858	94.81
239.091	101.81
239.325	114.81
239.559	88.81
239.793	105.81
240.027	99.81
240.26	98.81
240.494	105.81
240.728	93.81
240.961	100.81
241.195	110.81
241.429	101.81
241.662	113.81
241.896	97.81
242.13	116.81
242.363	93.81
242.597	101.81
242.83	114.81
243.064	125.81
243.298	117.81
243.531	117.81
243.765	114.81
243.998	103.81
244.232	108.81
244.465	117.81
244.699	117.81
244.932	121.81
245.166	110.81
245.399	119.81
245.633	108.81
245.866	101.81
246.099	104.81
246.333	114.81
246.566	103.81
246.8	110.81
247.033	136.81
247.266	103.81
247.5	104.81
247.733	112.81
247.966	126.81
248.2	124.81
248.433	130.81
248.666	127.81
248.899	128.81
249.133	119.81
249.366	118.81
249.599	134.81
249.832	121.81
250.066	122.81
250.299	118.81
250.532	121.81
250.765	133.81
250.998	130.81
251.231	129.81
251.465	122.81
251.698	130.81
251.931	122.81
252.164	139.81
252.397	128.81
252.63	127.81
252.863	123.81
253.096	126.81
253.329	133.81
253.562	113.81
253.795	120.81
254.028	143.81
254.261	142.81
254.494	126.81
254.727	133.81
254.96	131.81
255.193	128.81
255.426	143.81
255.659	120.81
255.892	127.81
256.124	136.81
256.357	137.81
256.59	136.81
256.823	145.81
257.056	147.81
257.289	149.81
257.521	140.81
257.754	134.81
257.987	128.81
258.22	136.81
258.452	146.81
258.685	142.81
258.918	137.81
259.151	145.81
259.383	130.81
259.616	143.81
259.849	142.81
260.081	143.81
260.314	143.81
260.547	136.81
260.779	138.81
261.012	152.81
261.244	152.81
261.477	145.81
261.71	146.81
261.942	156.81
262.175	142.81
262.407	132.81
262.64	148.81
262.872	148.81
263.105	141.81
263.337	132.81
263.57	137.81
263.802	149.81
264.035	152.81
264.267	152.81
264.499	157.81
264.732	158.81
264.964	158.81
265.197	134.81
265.429	150.81
265.661	168.81
265.894	145.81
266.126	140.81
266.358	149.81
266.591	144.81
266.823	169.81
267.055	162.81
267.287	158.81
267.52	152.81
267.752	143.81
267.984	182.81
268.216	158.81
268.448	159.81
268.681	160.81
268.913	153.81
269.145	141.81
269.377	154.81
269.609	155.81
269.841	165.81
270.073	165.81
270.306	176.81
270.538	166.81
270.77	152.81
271.002	157.81
271.234	159.81
271.466	155.81
271.698	185.81
271.93	161.81
272.162	169.81
272.394	169.81
272.626	165.81
272.858	166.81
273.09	164.81
273.322	159.81
273.553	160.81
273.785	169.81
274.017	188.81
274.249	174.81
274.481	176.81
274.713	186.81
274.945	166.81
275.176	183.81
275.408	173.81
275.64	169.81
275.872	187.81
276.104	172.81
276.335	188.81
276.567	173.81
276.799	166.81
277.031	184.81
277.262	197.81
277.494	172.81
277.726	178.81
277.957	182.81
278.189	200.81
278.421	173.81
278.652	184.81
278.884	167.81
279.115	167.81
279.347	184.81
279.579	181.81
279.81	190.81
280.042	195.81
280.273	180.81
280.505	177.81
280.736	180.81
280.968	198.81
281.199	176.81
281.431	183.81
281.662	178.81
281.894	185.81
282.125	201.81
282.356	182.81
282.588	179.81
282.819	195.81
283.051	190.81
283.282	186.81
283.513	191.81
283.745	193.81
283.976	196.81
284.207	200.81
284.439	190.81
284.67	195.81
284.901	206.81
285.132	201.81
285.364	209.81
285.595	183.81
285.826	188.81
286.057	200.81
286.288	198.81
286.52	197.81
286.751	206.81
286.982	204.81
287.213	208.81
287.444	200.81
287.675	203.81
287.906	192.81
288.138	218.81
288.369	209.81
288.6	210.81
288.831	189.81
289.062	227.81
289.293	204.81
289.524	213.81
289.755	183.81
289.986	201.81
290.217	204.81
290.448	219.81
290.679	215.81
290.91	223.81
291.141	197.81
291.371	202.81
291.602	198.81
291.833	220.81
292.064	209.81
292.295	215.81
292.526	210.81
292.757	215.81
292.987	212.81
293.218	202.81
293.449	219.81
293.68	208.81
293.91	202.81
294.141	232.81
294.372	217.81
294.603	206.81
294.833	233.81
295.064	212.81
295.295	205.81
295.525	219.81
295.756	222.81
295.987	226.81
296.217	222.81
296.448	212.81
296.679	207.81
296.909	216.81
297.14	229.81
297.37	214.81
297.601	235.81
297.831	224.81
298.062	214.81
298.292	223.81
298.523	239.81
298.753	224.81
298.984	233.81
299.214	246.81
299.445	226.81
299.675	230.81
299.905	228.81
300.136	241.81
300.366	240.81
300.597	235.81
300.827	221.81
301.057	236.81
301.288	231.81
301.518	244.81
301.748	231.81
301.979	226.81
302.209	236.81
302.439	231.81
302.669	233.81
302.9	229.81
303.13	229.81
303.36	230.81
303.59	228.81
303.82	232.81
304.051	244.81
304.281	242.81
304.511	240.81
304.741	242.81
304.971	248.81
305.201	237.81
305.431	229.81
305.661	238.81
305.891	217.81
306.121	236.81
306.352	244.81
306.582	225.81
306.812	213.81
307.042	222.81
307.272	234.81
307.502	244.81
307.731	240.81
307.961	225.81
308.191	236.81
308.421	224.81
308.651	234.81
308.881	241.81
309.111	233.81
309.341	242.81
309.571	252.81
309.8	256.81
310.03	244.81
310.26	238.81
310.49	244.81
310.72	248.81
310.949	238.81
311.179	238.81
311.409	245.81
311.639	254.81
311.868	252.81
312.098	242.81
312.328	233.81
312.557	258.81
312.787	250.81
313.017	246.81
313.246	238.81
313.476	228.81
313.706	254.81
313.935	252.81
314.165	249.81
314.394	257.81
314.624	242.81
314.853	220.81
315.083	247.81
315.312	257.81
315.542	266.81
315.771	232.81
316.001	255.81
316.23	252.81
316.46	237.81
316.689	229.81
316.919	249.81
317.148	257.81
317.377	249.81
317.607	240.81
317.836	241.81
318.065	244.81
318.295	242.81
318.524	261.81
318.753	251.81
318.983	244.81
319.212	263.81
319.441	257.81
319.67	266.81
319.9	244.81
320.129	260.81
320.358	271.81
320.587	270.81
320.816	257.81
321.046	267.81
321.275	249.81
321.504	246.81
321.733	255.81
321.962	256.81
322.191	256.81
322.42	253.81
322.649	233.81
322.878	247.81
323.108	256.81
323.337	268.81
323.566	252.81
323.795	263.81
324.024	254.81
324.253	249.81
324.482	264.81
324.71	248.81
324.939	259.81
325.168	248.81
325.397	268.81
325.626	274.81
325.855	273.81
326.084	272.81
326.313	245.81
326.542	278.81
326.77	300.81
326.999	269.81
327.228	256.81
327.457	282.81
327.686	281.81
327.914	279.81
328.143	268.81
328.372	286.81
328.6	285.81
328.829	283.81
329.058	298.81
329.287	268.81
329.515	286.81
329.744	288.81
329.972	288.81
330.201	272.81
330.43	286.81
330.658	297.81
330.887	281.81
331.115	284.81
331.344	271.81
331.572	300.81
331.801	302.81
332.03	297.81
332.258	314.81
332.486	295.81
332.715	316.81
332.943	312.81
333.172	326.81
333.4	343.81
333.629	346.81
333.857	353.81
334.085	378.81
334.314	357.81
334.542	353.81
334.771	336.81
334.999	326.81
335.227	329.81
335.455	339.81
335.684	317.81
335.912	341.81
336.14	318.81
336.369	316.81
336.597	330.81
336.825	306.81
337.053	309.81
337.281	311.81
337.51	323.81
337.738	316.81
337.966	304.81
338.194	302.81
338.422	294.81
338.65	295.81
338.878	299.81
339.106	286.81
339.334	322.81
339.562	292.81
339.79	289.81
340.018	292.81
340.246	283.81
340.474	295.81
340.702	298.81
340.93	285.81
341.158	292.81
341.386	291.81
341.614	282.81
341.842	281.81
342.07	282.81
342.298	285.81
342.526	299.81
342.754	297.81
342.981	302.81
343.209	297.81
343.437	316.81
343.665	317.81
343.893	333.81
344.12	332.81
344.348	344.81
344.576	329.81
344.804	317.81
345.031	298.81
345.259	290.81
345.487	309.81
345.714	290.81
345.942	286.81
346.17	268.81
346.397	278.81
346.625	282.81
346.853	278.81
347.08	293.81
347.308	279.81
347.535	302.81
347.763	276.81
347.99	291.81
348.218	284.81
348.445	271.81
348.673	277.81
348.9	284.81
349.128	296.81
349.355	303.81
349.583	284.81
349.81	284.81
350.037	273.81
350.265	276.81
350.492	279.81
350.72	271.81
350.947	269.81
351.174	273.81
351.402	277.81
351.629	280.81
351.856	270.81
352.083	264.81
352.311	264.81
352.538	276.81
352.765	250.81
352.992	285.81
353.22	276.81
353.447	257.81
353.674	276.81
353.901	282.81
354.128	284.81
354.355	279.81
354.583	277.81
354.81	287.81
355.037	280.81
355.264	287.81
355.491	271.81
355.718	280.81
355.945	273.81
356.172	272.81
356.399	263.81
356.626	291.81
356.853	247.81
357.08	277.81
357.307	271.81
357.534	287.81
357.761	287.81
357.988	289.81
358.215	282.81
358.441	284.81
358.668	273.81
358.895	272.81
359.122	271.81
359.349	279.81
359.576	294.81
359.802	276.81
360.029	287.81
360.256	287.81
360.483	266.81
360.709	272.81
360.936	289.81
361.163	284.81
361.39	274.81
361.616	276.81
361.843	274.81
362.07	298.81
362.296	269.81
362.523	280.81
362.749	294.81
362.976	288.81
363.203	270.81
363.429	275.81
363.656	275.81
363.882	271.81
364.109	285.81
364.335	290.81
364.562	279.81
364.788	286.81
365.015	269.81
365.241	300.81
365.468	285.81
365.694	272.81
365.92	266.81
366.147	281.81
366.373	280.81
366.599	278.81
366.826	283.81
367.052	294.81
367.278	293.81
367.505	305.81
367.731	262.81
367.957	286.81
368.184	271.81
368.41	296.81
368.636	300.81
368.862	304.81
369.089	290.81
369.315	297.81
369.541	275.81
369.767	274.81
369.993	300.81
370.219	298.81
370.445	284.81
370.672	281.81
370.898	282.81
371.124	308.81
371.35	287.81
371.576	304.81
371.802	301.81
372.028	306.81
372.254	307.81
372.48	285.81
372.706	308.81
372.932	321.81
373.158	310.81
373.384	300.81
373.61	308.81
373.835	308.81
374.061	318.81
374.287	321.81
374.513	305.81
374.739	310.81
374.965	337.81
375.191	330.81
375.416	332.81
375.642	327.81
375.868	324.81
376.094	305.81
376.319	339.81
376.545	312.81
376.771	305.81
376.997	318.81
377.222	313.81
377.448	321.81
377.674	317.81
377.899	299.81
378.125	294.81
378.35	310.81
378.576	308.81
378.802	278.81
379.027	300.81
379.253	310.81
379.478	289.81
379.704	290.81
379.929	301.81
380.155	298.81
380.38	296.81
380.606	293.81
380.831	293.81
381.057	298.81
381.282	304.81
381.507	298.81
381.733	320.81
381.958	306.81
382.184	329.81
382.409	313.81
382.634	312.81
382.86	315.81
383.085	318.81
383.31	330.81
383.535	329.81
383.761	342.81
383.986	340.81
384.211	323.81
384.436	345.81
384.662	342.81
384.887	362.81
385.112	340.81
385.337	346.81
385.562	350.81
385.787	353.81
386.013	377.81
386.238	338.81
386.463	345.81
386.688	376.81
386.913	344.81
387.138	339.81
387.363	344.81
387.588	356.81
387.813	345.81
388.038	355.81
388.263	368.81
388.488	360.81
388.713	334.81
388.938	327.81
389.163	331.81
389.387	356.81
389.612	350.81
389.837	337.81
390.062	340.81
390.287	345.81
390.512	334.81
390.736	369.81
390.961	352.81
391.186	353.81
391.411	391.81
391.636	378.81
391.86	373.81
392.085	412.81
392.31	388.81
392.534	376.81
392.759	372.81
392.984	369.81
393.208	369.81
393.433	376.81
393.658	376.81
393.882	359.81
394.107	373.81
394.331	393.81
394.556	372.81
394.78	377.81
395.005	363.81
395.229	394.81
395.454	380.81
395.678	400.81
395.903	393.81
396.127	388.81
396.352	373.81
396.576	375.81
396.801	374.81
397.025	384.81
397.249	408.81
397.474	409.81
397.698	397.81
397.922	392.81
398.147	378.81
398.371	416.81
398.595	413.81
398.82	442.81
399.044	462.81
399.268	536.81
399.492	586.81
399.717	588.81
399.941	605.81
400.165	556.81
400.389	482.81
400.613	460.81
400.837	458.81
401.062	440.81
401.286	441.81
401.51	432.81
401.734	437.81
401.958	446.81
402.182	440.81
402.406	431.81
402.63	450.81
402.854	456.81
403.078	451.81
403.302	462.81
403.526	487.81
403.75	476.81
403.974	476.81
404.198	464.81
404.422	480.81
404.645	477.81
404.869	486.81
405.093	481.81
405.317	483.81
405.541	451.81
405.765	443.81
405.988	466.81
406.212	489.81
406.436	462.81
406.66	473.81
406.883	468.81
407.107	512.81
407.331	528.81
407.555	549.81
407.778	521.81
408.002	513.81
408.226	526.81
408.449	513.81
408.673	505.81
408.896	473.81
409.12	487.81
409.344	487.81
409.567	466.81
409.791	488.81
410.014	477.81
410.238	482.81
410.461	471.81
410.685	454.81
410.908	464.81
411.132	445.81
411.355	453.81
411.578	467.81
411.802	466.81
412.025	457.81
412.249	477.81
412.472	457.81
412.695	462.81
412.919	434.81
413.142	432.81
413.365	454.81
413.589	468.81
413.812	432.81
414.035	435.81
414.258	428.81
414.482	431.81
414.705	446.81
414.928	452.81
415.151	439.81
415.374	448.81
415.597	437.81
415.821	436.81
416.044	420.81
416.267	427.81
416.49	440.81
416.713	430.81
416.936	424.81
417.159	434.81
417.382	433.81
417.605	426.81
417.828	441.81
418.051	451.81
418.274	438.81
418.497	432.81
418.72	438.81
418.943	421.81
419.166	460.81
419.389	485.81
419.611	486.81
419.834	457.81
420.057	452.81
420.28	421.81
420.503	436.81
420.726	426.81
420.948	428.81
421.171	448.81
421.394	444.81
421.617	443.81
421.839	413.81
422.062	471.81
422.285	416.81
422.507	446.81
422.73	438.81
422.953	438.81
423.175	460.81
423.398	440.81
423.621	432.81
423.843	450.81
424.066	452.81
424.288	456.81
424.511	440.81
424.733	452.81
424.956	442.81
425.178	441.81
425.401	447.81
425.623	405.81
425.846	432.81
426.068	406.81
426.291	406.81
426.513	393.81
426.735	402.81
426.958	412.81
427.18	402.81
427.402	400.81
427.625	408.81
427.847	384.81
428.069	401.81
428.292	405.81
428.514	387.81
428.736	388.81
428.958	398.81
429.181	391.81
429.403	377.81
429.625	396.81
429.847	390.81
430.069	400.81
430.292	381.81
430.514	376.81
430.736	407.81
430.958	391.81
431.18	396.81
431.402	392.81
431.624	380.81
431.846	394.81
432.068	387.81
432.29	385.81
432.512	382.81
432.734	384.81
432.956	419.81
433.178	407.81
433.4	420.81
433.622	410.81
433.844	403.81
434.066	413.81
434.287	420.81
434.509	403.81
434.731	428.81
434.953	425.81
435.175	438.81
435.397	434.81
435.618	421.81
435.84	409.81
436.062	421.81
436.284	400.81
436.505	414.81
436.727	415.81
436.949	404.81
437.17	396.81
437.392	385.81
437.614	388.81
437.835	392.81
438.057	385.81
438.278	369.81
438.5	395.81
438.721	395.81
438.943	402.81
439.165	401.81
439.386	388.81
439.608	407.81
439.829	393.81
440.05	416.81
440.272	397.81
440.493	416.81
440.715	421.81
440.936	410.81
441.158	418.81
441.379	431.81
441.6	468.81
441.822	457.81
442.043	456.81
442.264	459.81
442.486	432.81
442.707	433.81
442.928	450.81
443.149	443.81
443.371	451.81
443.592	416.81
443.813	448.81
444.034	453.81
444.255	464.81
444.476	490.81
444.698	526.81
444.919	500.81
445.14	590.81
445.361	518.81
445.582	457.81
445.803	448.81
446.024	419.81
446.245	436.81
446.466	423.81
446.687	419.81
446.908	424.81
447.129	413.81
447.35	401.81
447.571	412.81
447.792	394.81
448.013	395.81
448.234	376.81
448.455	396.81
448.675	397.81
448.896	398.81
449.117	387.81
449.338	380.81
449.559	386.81
449.779	395.81
450	366.81
450.221	386.81
450.442	377.81
450.662	376.81
450.883	387.81
451.104	397.81
451.324	380.81
451.545	376.81
451.766	379.81
451.986	387.81
452.207	374.81
452.428	365.81
452.648	365.81
452.869	368.81
453.089	344.81
453.31	370.81
453.53	374.81
453.751	349.81
453.971	342.81
454.192	360.81
454.412	355.81
454.633	326.81
454.853	369.81
455.073	366.81
455.294	352.81
455.514	370.81
455.734	354.81
455.955	356.81
456.175	356.81
456.395	365.81
456.616	351.81
456.836	364.81
457.056	338.81
457.276	346.81
457.497	356.81
457.717	344.81
457.937	365.81
458.157	360.81
458.377	352.81
458.598	380.81
458.818	374.81
459.038	370.81
459.258	376.81
459.478	392.81
459.698	386.81
459.918	408.81
460.138	436.81
460.358	446.81
460.578	451.81
460.798	460.81
461.018	454.81
461.238	452.81
461.458	456.81
461.678	484.81
461.898	472.81
462.118	469.81
462.338	478.81
462.558	506.81
462.777	500.81
462.997	549.81
463.217	570.81
463.437	569.81
463.657	538.81
463.876	517.81
464.096	502.81
464.316	532.81
464.536	502.81
464.755	486.81
464.975	482.81
465.195	448.81
465.414	432.81
465.634	430.81
465.854	419.81
466.073	422.81
466.293	392.81
466.512	387.81
466.732	377.81
466.951	394.81
467.171	391.81
467.391	392.81
467.61	412.81
467.829	386.81
468.049	387.81
468.268	385.81
468.488	381.81
468.707	374.81
468.927	349.81
469.146	361.81
469.365	371.81
469.585	384.81
469.804	383.81
470.023	406.81
470.243	390.81
470.462	415.81
470.681	397.81
470.901	395.81
471.12	399.81
471.339	398.81
471.558	362.81
471.777	368.81
471.997	378.81
472.216	366.81
472.435	398.81
472.654	373.81
472.873	361.81
473.092	354.81
473.311	364.81
473.53	367.81
473.749	362.81
473.968	351.81
474.187	368.81
474.406	364.81
474.625	368.81
474.844	391.81
475.063	358.81
475.282	364.81
475.501	354.81
475.72	368.81
475.939	375.81
476.158	385.81
476.377	370.81
476.596	384.81
476.814	388.81
477.033	387.81
477.252	401.81
477.471	374.81
477.69	434.81
477.908	414.81
478.127	416.81
478.346	430.81
478.564	420.81
478.783	421.81
479.002	429.81
479.22	444.81
479.439	457.81
479.658	455.81
479.876	418.81
480.095	447.81
480.313	461.81
480.532	438.81
480.751	462.81
480.969	446.81
481.188	425.81
481.406	400.81
481.624	417.81
481.843	397.81
482.061	397.81
482.28	405.81
482.498	381.81
482.717	389.81
482.935	394.81
483.153	417.81
483.372	391.81
483.59	393.81
483.808	398.81
484.027	407.81
484.245	399.81
484.463	386.81
484.681	418.81
484.9	409.81
485.118	413.81
485.336	428.81
485.554	415.81
485.772	414.81
485.99	408.81
486.209	399.81
486.427	394.81
486.645	428.81
486.863	418.81
487.081	405.81
487.299	429.81
487.517	410.81
487.735	406.81
487.953	429.81
488.171	415.81
488.389	440.81
488.607	442.81
488.825	393.81
489.043	405.81
489.261	399.81
489.479	407.81
489.696	422.81
489.914	421.81
490.132	407.81
490.35	402.81
490.568	420.81
490.786	426.81
491.003	419.81
491.221	434.81
491.439	433.81
491.657	445.81
491.874	445.81
492.092	439.81
492.31	442.81
492.527	442.81
492.745	427.81
492.963	440.81
493.18	428.81
493.398	430.81
493.615	440.81
493.833	440.81
494.05	464.81
494.268	444.81
494.485	450.81
494.703	431.81
494.92	454.81
495.138	434.81
495.355	457.81
495.573	449.81
495.79	437.81
496.008	446.81
496.225	451.81
496.442	431.81
496.66	469.81
496.877	472.81
497.094	472.81
497.312	462.81
497.529	480.81
497.746	503.81
497.963	517.81
498.181	526.81
498.398	574.81
498.615	574.81
498.832	615.81
499.049	645.81
499.267	684.81
499.484	713.81
499.701	818.81
499.918	904.81
500.135	1006.81
500.352	1089.81
500.569	1148.81
500.786	1157.81
501.003	1044.81
501.22	951.81
501.437	819.81
501.654	745.81
501.871	704.81
502.088	650.81
