Data from Fe(NO3)3@0.0125M.TitratingCurve.Agarose3%dH2O.NegLispCup.LampEnergy10.LIBS07252019_HRD10591_16-59-04-336.txt Node
Date: Thu Jul 25 16:59:04 EDT 2019
User: cochatt
Spectrometer: HR+D1059
Trigger mode: 1
Integration Time (sec): 1.000000E-1
Scans to average: 1
Electric dark correction enabled: true
Nonlinearity correction enabled: false
Boxcar width: 0
XAxis mode: Wavelengths
Number of Pixels in Spectrum: 2048
>>>>>Begin Spectral Data<<<<<
223.165	0.25
223.4	0.25
223.635	0.25
223.869	-11.75
224.104	-23.75
224.338	-8.75
224.573	-8.75
224.808	-30.75
225.042	-11.75
225.277	-7.75
225.511	6.25
225.746	5.25
225.98	11.25
226.215	10.25
226.449	10.25
226.683	16.25
226.918	20.25
227.152	23.25
227.387	33.25
227.621	52.25
227.856	45.25
228.09	46.25
228.324	30.25
228.559	66.25
228.793	74.25
229.027	99.25
229.262	94.25
229.496	102.25
229.73	97.25
229.964	118.25
230.199	114.25
230.433	114.25
230.667	111.25
230.901	114.25
231.136	111.25
231.37	124.25
231.604	116.25
231.838	109.25
232.072	124.25
232.306	132.25
232.541	134.25
232.775	132.25
233.009	143.25
233.243	124.25
233.477	135.25
233.711	124.25
233.945	145.25
234.179	134.25
234.413	143.25
234.647	129.25
234.881	143.25
235.115	124.25
235.349	141.25
235.583	143.25
235.817	136.25
236.051	150.25
236.285	138.25
236.519	166.25
236.753	150.25
236.987	133.25
237.221	156.25
237.455	145.25
237.689	123.25
237.922	136.25
238.156	143.25
238.39	157.25
238.624	166.25
238.858	154.25
239.091	168.25
239.325	144.25
239.559	144.25
239.793	150.25
240.027	171.25
240.26	168.25
240.494	148.25
240.728	155.25
240.961	174.25
241.195	161.25
241.429	165.25
241.662	156.25
241.896	153.25
242.13	164.25
242.363	158.25
242.597	145.25
242.83	171.25
243.064	148.25
243.298	177.25
243.531	151.25
243.765	167.25
243.998	174.25
244.232	170.25
244.465	185.25
244.699	192.25
244.932	179.25
245.166	177.25
245.399	178.25
245.633	172.25
245.866	186.25
246.099	178.25
246.333	168.25
246.566	175.25
246.8	173.25
247.033	201.25
247.266	190.25
247.5	198.25
247.733	187.25
247.966	202.25
248.2	184.25
248.433	201.25
248.666	185.25
248.899	183.25
249.133	198.25
249.366	203.25
249.599	212.25
249.832	202.25
250.066	208.25
250.299	204.25
250.532	204.25
250.765	223.25
250.998	212.25
251.231	207.25
251.465	205.25
251.698	221.25
251.931	230.25
252.164	220.25
252.397	218.25
252.63	215.25
252.863	206.25
253.096	230.25
253.329	225.25
253.562	216.25
253.795	227.25
254.028	221.25
254.261	225.25
254.494	221.25
254.727	230.25
254.96	238.25
255.193	234.25
255.426	234.25
255.659	228.25
255.892	214.25
256.124	232.25
256.357	231.25
256.59	252.25
256.823	247.25
257.056	237.25
257.289	236.25
257.521	240.25
257.754	237.25
257.987	246.25
258.22	236.25
258.452	247.25
258.685	245.25
258.918	273.25
259.151	274.25
259.383	254.25
259.616	268.25
259.849	252.25
260.081	254.25
260.314	282.25
260.547	284.25
260.779	267.25
261.012	267.25
261.244	283.25
261.477	288.25
261.71	296.25
261.942	269.25
262.175	283.25
262.407	263.25
262.64	270.25
262.872	279.25
263.105	274.25
263.337	286.25
263.57	277.25
263.802	266.25
264.035	278.25
264.267	270.25
264.499	279.25
264.732	285.25
264.964	292.25
265.197	283.25
265.429	294.25
265.661	293.25
265.894	302.25
266.126	280.25
266.358	277.25
266.591	287.25
266.823	291.25
267.055	288.25
267.287	281.25
267.52	299.25
267.752	304.25
267.984	314.25
268.216	294.25
268.448	300.25
268.681	298.25
268.913	271.25
269.145	300.25
269.377	289.25
269.609	309.25
269.841	317.25
270.073	313.25
270.306	302.25
270.538	314.25
270.77	300.25
271.002	319.25
271.234	332.25
271.466	332.25
271.698	324.25
271.93	327.25
272.162	340.25
272.394	335.25
272.626	329.25
272.858	337.25
273.09	343.25
273.322	326.25
273.553	343.25
273.785	361.25
274.017	363.25
274.249	356.25
274.481	363.25
274.713	358.25
274.945	364.25
275.176	378.25
275.408	367.25
275.64	351.25
275.872	343.25
276.104	352.25
276.335	325.25
276.567	360.25
276.799	349.25
277.031	351.25
277.262	362.25
277.494	376.25
277.726	358.25
277.957	362.25
278.189	372.25
278.421	345.25
278.652	363.25
278.884	368.25
279.115	371.25
279.347	368.25
279.579	372.25
279.81	374.25
280.042	404.25
280.273	375.25
280.505	364.25
280.736	382.25
280.968	384.25
281.199	374.25
281.431	412.25
281.662	379.25
281.894	392.25
282.125	396.25
282.356	389.25
282.588	410.25
282.819	398.25
283.051	400.25
283.282	398.25
283.513	404.25
283.745	398.25
283.976	412.25
284.207	393.25
284.439	394.25
284.67	399.25
284.901	408.25
285.132	418.25
285.364	428.25
285.595	398.25
285.826	416.25
286.057	405.25
286.288	404.25
286.52	395.25
286.751	421.25
286.982	434.25
287.213	419.25
287.444	432.25
287.675	423.25
287.906	421.25
288.138	429.25
288.369	437.25
288.6	428.25
288.831	434.25
289.062	438.25
289.293	435.25
289.524	442.25
289.755	424.25
289.986	422.25
290.217	443.25
290.448	460.25
290.679	443.25
290.91	436.25
291.141	446.25
291.371	439.25
291.602	426.25
291.833	430.25
292.064	447.25
292.295	441.25
292.526	445.25
292.757	440.25
292.987	438.25
293.218	435.25
293.449	451.25
293.68	462.25
293.91	446.25
294.141	460.25
294.372	458.25
294.603	452.25
294.833	458.25
295.064	475.25
295.295	472.25
295.525	456.25
295.756	462.25
295.987	460.25
296.217	467.25
296.448	470.25
296.679	437.25
296.909	472.25
297.14	454.25
297.37	478.25
297.601	462.25
297.831	485.25
298.062	481.25
298.292	482.25
298.523	494.25
298.753	486.25
298.984	480.25
299.214	488.25
299.445	468.25
299.675	501.25
299.905	476.25
300.136	489.25
300.366	482.25
300.597	509.25
300.827	500.25
301.057	485.25
301.288	499.25
301.518	486.25
301.748	506.25
301.979	519.25
302.209	506.25
302.439	506.25
302.669	506.25
302.9	492.25
303.13	492.25
303.36	518.25
303.59	513.25
303.82	500.25
304.051	522.25
304.281	526.25
304.511	526.25
304.741	512.25
304.971	530.25
305.201	536.25
305.431	525.25
305.661	512.25
305.891	537.25
306.121	538.25
306.352	550.25
306.582	515.25
306.812	496.25
307.042	517.25
307.272	532.25
307.502	552.25
307.731	557.25
307.961	534.25
308.191	527.25
308.421	525.25
308.651	534.25
308.881	518.25
309.111	542.25
309.341	541.25
309.571	549.25
309.8	532.25
310.03	547.25
310.26	540.25
310.49	532.25
310.72	533.25
310.949	533.25
311.179	542.25
311.409	551.25
311.639	532.25
311.868	550.25
312.098	578.25
312.328	578.25
312.557	579.25
312.787	562.25
313.017	580.25
313.246	571.25
313.476	558.25
313.706	584.25
313.935	585.25
314.165	568.25
314.394	581.25
314.624	584.25
314.853	592.25
315.083	580.25
315.312	573.25
315.542	594.25
315.771	582.25
316.001	587.25
316.23	591.25
316.46	580.25
316.689	597.25
316.919	604.25
317.148	596.25
317.377	589.25
317.607	591.25
317.836	588.25
318.065	580.25
318.295	589.25
318.524	622.25
318.753	614.25
318.983	603.25
319.212	603.25
319.441	603.25
319.67	588.25
319.9	611.25
320.129	626.25
320.358	608.25
320.587	620.25
320.816	612.25
321.046	626.25
321.275	639.25
321.504	582.25
321.733	616.25
321.962	607.25
322.191	620.25
322.42	607.25
322.649	623.25
322.878	633.25
323.108	630.25
323.337	648.25
323.566	623.25
323.795	646.25
324.024	633.25
324.253	626.25
324.482	632.25
324.71	651.25
324.939	633.25
325.168	640.25
325.397	627.25
325.626	619.25
325.855	626.25
326.084	648.25
326.313	626.25
326.542	660.25
326.77	660.25
326.999	655.25
327.228	646.25
327.457	644.25
327.686	642.25
327.914	655.25
328.143	654.25
328.372	642.25
328.6	646.25
328.829	653.25
329.058	670.25
329.287	643.25
329.515	633.25
329.744	662.25
329.972	642.25
330.201	674.25
330.43	654.25
330.658	637.25
330.887	678.25
331.115	676.25
331.344	669.25
331.572	676.25
331.801	662.25
332.03	694.25
332.258	710.25
332.486	707.25
332.715	698.25
332.943	703.25
333.172	682.25
333.4	694.25
333.629	684.25
333.857	686.25
334.085	711.25
334.314	716.25
334.542	701.25
334.771	706.25
334.999	725.25
335.227	715.25
335.455	735.25
335.684	703.25
335.912	706.25
336.14	709.25
336.369	708.25
336.597	720.25
336.825	735.25
337.053	727.25
337.281	693.25
337.51	724.25
337.738	713.25
337.966	714.25
338.194	696.25
338.422	711.25
338.65	728.25
338.878	690.25
339.106	715.25
339.334	717.25
339.562	695.25
339.79	696.25
340.018	713.25
340.246	687.25
340.474	712.25
340.702	704.25
340.93	702.25
341.158	695.25
341.386	712.25
341.614	707.25
341.842	714.25
342.07	702.25
342.298	723.25
342.526	704.25
342.754	721.25
342.981	738.25
343.209	708.25
343.437	699.25
343.665	708.25
343.893	713.25
344.12	706.25
344.348	745.25
344.576	708.25
344.804	701.25
345.031	717.25
345.259	705.25
345.487	704.25
345.714	703.25
345.942	662.25
346.17	698.25
346.397	698.25
346.625	704.25
346.853	720.25
347.08	678.25
347.308	679.25
347.535	680.25
347.763	715.25
347.99	712.25
348.218	704.25
348.445	722.25
348.673	676.25
348.9	716.25
349.128	716.25
349.355	701.25
349.583	698.25
349.81	705.25
350.037	682.25
350.265	680.25
350.492	694.25
350.72	678.25
350.947	698.25
351.174	675.25
351.402	676.25
351.629	660.25
351.856	679.25
352.083	687.25
352.311	709.25
352.538	672.25
352.765	690.25
352.992	683.25
353.22	685.25
353.447	666.25
353.674	684.25
353.901	683.25
354.128	698.25
354.355	684.25
354.583	662.25
354.81	686.25
355.037	694.25
355.264	683.25
355.491	686.25
355.718	700.25
355.945	679.25
356.172	708.25
356.399	694.25
356.626	688.25
356.853	691.25
357.08	667.25
357.307	680.25
357.534	692.25
357.761	690.25
357.988	693.25
358.215	673.25
358.441	690.25
358.668	696.25
358.895	710.25
359.122	699.25
359.349	673.25
359.576	701.25
359.802	711.25
360.029	694.25
360.256	701.25
360.483	695.25
360.709	711.25
360.936	703.25
361.163	696.25
361.39	708.25
361.616	706.25
361.843	708.25
362.07	676.25
362.296	692.25
362.523	704.25
362.749	723.25
362.976	719.25
363.203	696.25
363.429	678.25
363.656	715.25
363.882	710.25
364.109	719.25
364.335	714.25
364.562	718.25
364.788	733.25
365.015	704.25
365.241	700.25
365.468	703.25
365.694	699.25
365.92	715.25
366.147	714.25
366.373	710.25
366.599	691.25
366.826	718.25
367.052	722.25
367.278	701.25
367.505	729.25
367.731	743.25
367.957	694.25
368.184	729.25
368.41	734.25
368.636	725.25
368.862	743.25
369.089	730.25
369.315	759.25
369.541	730.25
369.767	756.25
369.993	751.25
370.219	745.25
370.445	754.25
370.672	744.25
370.898	719.25
371.124	743.25
371.35	720.25
371.576	745.25
371.802	746.25
372.028	745.25
372.254	747.25
372.48	780.25
372.706	787.25
372.932	744.25
373.158	758.25
373.384	744.25
373.61	770.25
373.835	742.25
374.061	759.25
374.287	768.25
374.513	758.25
374.739	761.25
374.965	771.25
375.191	766.25
375.416	744.25
375.642	768.25
375.868	730.25
376.094	747.25
376.319	746.25
376.545	751.25
376.771	755.25
376.997	758.25
377.222	745.25
377.448	727.25
377.674	748.25
377.899	743.25
378.125	730.25
378.35	735.25
378.576	745.25
378.802	735.25
379.027	720.25
379.253	759.25
379.478	745.25
379.704	758.25
379.929	760.25
380.155	759.25
380.38	749.25
380.606	733.25
380.831	744.25
381.057	747.25
381.282	766.25
381.507	735.25
381.733	742.25
381.958	778.25
382.184	756.25
382.409	764.25
382.634	773.25
382.86	769.25
383.085	769.25
383.31	792.25
383.535	762.25
383.761	757.25
383.986	770.25
384.211	772.25
384.436	792.25
384.662	765.25
384.887	798.25
385.112	775.25
385.337	818.25
385.562	783.25
385.787	796.25
386.013	829.25
386.238	815.25
386.463	802.25
386.688	798.25
386.913	809.25
387.138	801.25
387.363	824.25
387.588	787.25
387.813	783.25
388.038	799.25
388.263	810.25
388.488	806.25
388.713	816.25
388.938	844.25
389.163	823.25
389.387	816.25
389.612	799.25
389.837	829.25
390.062	804.25
390.287	798.25
390.512	768.25
390.736	813.25
390.961	829.25
391.186	806.25
391.411	856.25
391.636	812.25
391.86	806.25
392.085	812.25
392.31	839.25
392.534	821.25
392.759	850.25
392.984	812.25
393.208	860.25
393.433	830.25
393.658	847.25
393.882	838.25
394.107	851.25
394.331	821.25
394.556	852.25
394.78	834.25
395.005	797.25
395.229	834.25
395.454	837.25
395.678	811.25
395.903	840.25
396.127	880.25
396.352	830.25
396.576	848.25
396.801	871.25
397.025	857.25
397.249	857.25
397.474	860.25
397.698	843.25
397.922	867.25
398.147	856.25
398.371	866.25
398.595	876.25
398.82	866.25
399.044	894.25
399.268	898.25
399.492	910.25
399.717	938.25
399.941	932.25
400.165	957.25
400.389	939.25
400.613	912.25
400.837	909.25
401.062	921.25
401.286	894.25
401.51	913.25
401.734	891.25
401.958	919.25
402.182	938.25
402.406	875.25
402.63	897.25
402.854	894.25
403.078	896.25
403.302	891.25
403.526	888.25
403.75	892.25
403.974	890.25
404.198	876.25
404.422	890.25
404.645	882.25
404.869	911.25
405.093	898.25
405.317	871.25
405.541	908.25
405.765	900.25
405.988	898.25
406.212	896.25
406.436	912.25
406.66	933.25
406.883	916.25
407.107	935.25
407.331	929.25
407.555	946.25
407.778	934.25
408.002	942.25
408.226	952.25
408.449	940.25
408.673	946.25
408.896	938.25
409.12	951.25
409.344	909.25
409.567	920.25
409.791	955.25
410.014	949.25
410.238	914.25
410.461	904.25
410.685	919.25
410.908	924.25
411.132	946.25
411.355	911.25
411.578	927.25
411.802	906.25
412.025	896.25
412.249	911.25
412.472	933.25
412.695	894.25
412.919	902.25
413.142	892.25
413.365	905.25
413.589	883.25
413.812	896.25
414.035	885.25
414.258	916.25
414.482	896.25
414.705	891.25
414.928	887.25
415.151	862.25
415.374	892.25
415.597	873.25
415.821	851.25
416.044	867.25
416.267	886.25
416.49	850.25
416.713	848.25
416.936	891.25
417.159	861.25
417.382	860.25
417.605	843.25
417.828	864.25
418.051	862.25
418.274	855.25
418.497	824.25
418.72	843.25
418.943	831.25
419.166	874.25
419.389	928.25
419.611	891.25
419.834	905.25
420.057	875.25
420.28	850.25
420.503	843.25
420.726	846.25
420.948	852.25
421.171	842.25
421.394	825.25
421.617	843.25
421.839	831.25
422.062	846.25
422.285	783.25
422.507	826.25
422.73	833.25
422.953	813.25
423.175	832.25
423.398	830.25
423.621	809.25
423.843	826.25
424.066	829.25
424.288	825.25
424.511	825.25
424.733	795.25
424.956	836.25
425.178	794.25
425.401	810.25
425.623	879.25
425.846	823.25
426.068	818.25
426.291	827.25
426.513	827.25
426.735	838.25
426.958	816.25
427.18	809.25
427.402	836.25
427.625	830.25
427.847	820.25
428.069	825.25
428.292	810.25
428.514	840.25
428.736	858.25
428.958	830.25
429.181	811.25
429.403	817.25
429.625	814.25
429.847	812.25
430.069	800.25
430.292	829.25
430.514	818.25
430.736	818.25
430.958	844.25
431.18	833.25
431.402	806.25
431.624	815.25
431.846	821.25
432.068	797.25
432.29	834.25
432.512	800.25
432.734	826.25
432.956	810.25
433.178	812.25
433.4	787.25
433.622	820.25
433.844	848.25
434.066	799.25
434.287	838.25
434.509	848.25
434.731	814.25
434.953	813.25
435.175	807.25
435.397	824.25
435.618	828.25
435.84	814.25
436.062	799.25
436.284	782.25
436.505	798.25
436.727	794.25
436.949	798.25
437.17	798.25
437.392	796.25
437.614	840.25
437.835	791.25
438.057	799.25
438.278	774.25
438.5	800.25
438.721	796.25
438.943	804.25
439.165	820.25
439.386	799.25
439.608	806.25
439.829	819.25
440.05	801.25
440.272	809.25
440.493	801.25
440.715	812.25
440.936	812.25
441.158	831.25
441.379	808.25
441.6	816.25
441.822	828.25
442.043	846.25
442.264	832.25
442.486	802.25
442.707	797.25
442.928	790.25
443.149	799.25
443.371	812.25
443.592	826.25
443.813	828.25
444.034	826.25
444.255	825.25
444.476	788.25
444.698	824.25
444.919	806.25
445.14	906.25
445.361	871.25
445.582	833.25
445.803	808.25
446.024	798.25
446.245	805.25
446.466	782.25
446.687	776.25
446.908	802.25
447.129	770.25
447.35	796.25
447.571	783.25
447.792	784.25
448.013	762.25
448.234	770.25
448.455	747.25
448.675	794.25
448.896	765.25
449.117	766.25
449.338	773.25
449.559	754.25
449.779	767.25
450	762.25
450.221	791.25
450.442	765.25
450.662	756.25
450.883	767.25
451.104	742.25
451.324	762.25
451.545	757.25
451.766	726.25
451.986	749.25
452.207	754.25
452.428	741.25
452.648	742.25
452.869	755.25
453.089	719.25
453.31	741.25
453.53	740.25
453.751	733.25
453.971	734.25
454.192	743.25
454.412	699.25
454.633	749.25
454.853	745.25
455.073	765.25
455.294	720.25
455.514	737.25
455.734	720.25
455.955	726.25
456.175	716.25
456.395	718.25
456.616	739.25
456.836	731.25
457.056	775.25
457.276	739.25
457.497	751.25
457.717	713.25
457.937	713.25
458.157	750.25
458.377	744.25
458.598	744.25
458.818	791.25
459.038	781.25
459.258	771.25
459.478	766.25
459.698	755.25
459.918	791.25
460.138	757.25
460.358	802.25
460.578	825.25
460.798	813.25
461.018	802.25
461.238	774.25
461.458	791.25
461.678	829.25
461.898	818.25
462.118	817.25
462.338	846.25
462.558	836.25
462.777	836.25
462.997	845.25
463.217	858.25
463.437	855.25
463.657	850.25
463.876	830.25
464.096	836.25
464.316	831.25
464.536	827.25
464.755	852.25
464.975	836.25
465.195	824.25
465.414	822.25
465.634	810.25
465.854	804.25
466.073	797.25
466.293	787.25
466.512	797.25
466.732	789.25
466.951	803.25
467.171	774.25
467.391	790.25
467.61	754.25
467.829	757.25
468.049	790.25
468.268	771.25
468.488	792.25
468.707	806.25
468.927	796.25
469.146	792.25
469.365	785.25
469.585	810.25
469.804	804.25
470.023	790.25
470.243	799.25
470.462	788.25
470.681	793.25
470.901	798.25
471.12	794.25
471.339	798.25
471.558	798.25
471.777	795.25
471.997	797.25
472.216	795.25
472.435	826.25
472.654	820.25
472.873	801.25
473.092	831.25
473.311	832.25
473.53	803.25
473.749	802.25
473.968	846.25
474.187	815.25
474.406	809.25
474.625	823.25
474.844	868.25
475.063	838.25
475.282	840.25
475.501	825.25
475.72	840.25
475.939	822.25
476.158	856.25
476.377	849.25
476.596	899.25
476.814	892.25
477.033	880.25
477.252	883.25
477.471	895.25
477.69	896.25
477.908	889.25
478.127	932.25
478.346	919.25
478.564	910.25
478.783	895.25
479.002	920.25
479.22	908.25
479.439	934.25
479.658	940.25
479.876	932.25
480.095	941.25
480.313	939.25
480.532	939.25
480.751	953.25
480.969	953.25
481.188	974.25
481.406	960.25
481.624	964.25
481.843	965.25
482.061	978.25
482.28	942.25
482.498	979.25
482.717	958.25
482.935	951.25
483.153	963.25
483.372	995.25
483.59	960.25
483.808	991.25
484.027	978.25
484.245	990.25
484.463	967.25
484.681	1004.25
484.9	955.25
485.118	980.25
485.336	980.25
485.554	994.25
485.772	1008.25
485.99	969.25
486.209	1003.25
486.427	987.25
486.645	1013.25
486.863	992.25
487.081	984.25
487.299	990.25
487.517	1025.25
487.735	976.25
487.953	1002.25
488.171	994.25
488.389	988.25
488.607	997.25
488.825	983.25
489.043	1001.25
489.261	994.25
489.479	992.25
489.696	1006.25
489.914	1004.25
490.132	1003.25
490.35	1011.25
490.568	1014.25
490.786	1033.25
491.003	1018.25
491.221	1027.25
491.439	1006.25
491.657	1017.25
491.874	1012.25
492.092	1028.25
492.31	1034.25
492.527	1037.25
492.745	1054.25
492.963	1044.25
493.18	1059.25
493.398	992.25
493.615	1036.25
493.833	1022.25
494.05	1039.25
494.268	1006.25
494.485	1032.25
494.703	1048.25
494.92	1052.25
495.138	1034.25
495.355	1050.25
495.573	1052.25
495.79	1069.25
496.008	1112.25
496.225	1072.25
496.442	1087.25
496.66	1093.25
496.877	1104.25
497.094	1085.25
497.312	1077.25
497.529	1100.25
497.746	1143.25
497.963	1122.25
498.181	1145.25
498.398	1131.25
498.615	1168.25
498.832	1168.25
499.049	1196.25
499.267	1197.25
499.484	1227.25
499.701	1234.25
499.918	1267.25
500.135	1274.25
500.352	1318.25
500.569	1289.25
500.786	1307.25
