Data from Fe(NO3)3@0.025M.TitratingCurve.Agarose3%dH2O.NegLispCup.LampEnergy10.LIBS07252019_HRD10591_16-55-21-336.txt Node
Date: Thu Jul 25 16:55:21 EDT 2019
User: cochatt
Spectrometer: HR+D1059
Trigger mode: 1
Integration Time (sec): 1.000000E-1
Scans to average: 1
Electric dark correction enabled: true
Nonlinearity correction enabled: false
Boxcar width: 0
XAxis mode: Wavelengths
Number of Pixels in Spectrum: 2048
>>>>>Begin Spectral Data<<<<<
223.165	-6.31
223.4	-6.31
223.635	-6.31
223.869	-22.31
224.104	-6.31
224.338	-17.31
224.573	-12.31
224.808	-4.31
225.042	-9.31
225.277	-9.31
225.511	10.69
225.746	4.69
225.98	3.69
226.215	5.69
226.449	6.69
226.683	3.69
226.918	17.69
227.152	34.69
227.387	38.69
227.621	32.69
227.856	54.69
228.09	40.69
228.324	29.69
228.559	51.69
228.793	63.69
229.027	79.69
229.262	87.69
229.496	78.69
229.73	84.69
229.964	84.69
230.199	78.69
230.433	78.69
230.667	79.69
230.901	94.69
231.136	100.69
231.37	98.69
231.604	95.69
231.838	104.69
232.072	97.69
232.306	86.69
232.541	106.69
232.775	95.69
233.009	105.69
233.243	81.69
233.477	85.69
233.711	94.69
233.945	93.69
234.179	96.69
234.413	101.69
234.647	86.69
234.881	94.69
235.115	107.69
235.349	97.69
235.583	104.69
235.817	91.69
236.051	102.69
236.285	107.69
236.519	123.69
236.753	105.69
236.987	109.69
237.221	83.69
237.455	92.69
237.689	113.69
237.922	105.69
238.156	104.69
238.39	96.69
238.624	104.69
238.858	116.69
239.091	117.69
239.325	99.69
239.559	103.69
239.793	95.69
240.027	102.69
240.26	103.69
240.494	105.69
240.728	108.69
240.961	97.69
241.195	113.69
241.429	115.69
241.662	98.69
241.896	117.69
242.13	108.69
242.363	113.69
242.597	102.69
242.83	125.69
243.064	99.69
243.298	102.69
243.531	116.69
243.765	119.69
243.998	111.69
244.232	127.69
244.465	125.69
244.699	124.69
244.932	125.69
245.166	115.69
245.399	109.69
245.633	112.69
245.866	110.69
246.099	117.69
246.333	114.69
246.566	130.69
246.8	115.69
247.033	127.69
247.266	110.69
247.5	109.69
247.733	126.69
247.966	115.69
248.2	123.69
248.433	134.69
248.666	108.69
248.899	123.69
249.133	127.69
249.366	139.69
249.599	142.69
249.832	142.69
250.066	133.69
250.299	135.69
250.532	131.69
250.765	143.69
250.998	135.69
251.231	109.69
251.465	125.69
251.698	129.69
251.931	129.69
252.164	127.69
252.397	143.69
252.63	142.69
252.863	124.69
253.096	135.69
253.329	136.69
253.562	133.69
253.795	128.69
254.028	133.69
254.261	137.69
254.494	145.69
254.727	129.69
254.96	135.69
255.193	134.69
255.426	125.69
255.659	143.69
255.892	140.69
256.124	152.69
256.357	136.69
256.59	138.69
256.823	151.69
257.056	137.69
257.289	133.69
257.521	138.69
257.754	148.69
257.987	151.69
258.22	146.69
258.452	127.69
258.685	159.69
258.918	139.69
259.151	147.69
259.383	140.69
259.616	141.69
259.849	147.69
260.081	145.69
260.314	155.69
260.547	158.69
260.779	152.69
261.012	173.69
261.244	158.69
261.477	156.69
261.71	156.69
261.942	157.69
262.175	156.69
262.407	149.69
262.64	159.69
262.872	156.69
263.105	148.69
263.337	166.69
263.57	164.69
263.802	161.69
264.035	157.69
264.267	162.69
264.499	162.69
264.732	167.69
264.964	165.69
265.197	155.69
265.429	147.69
265.661	152.69
265.894	151.69
266.126	161.69
266.358	151.69
266.591	155.69
266.823	156.69
267.055	161.69
267.287	158.69
267.52	168.69
267.752	156.69
267.984	159.69
268.216	158.69
268.448	173.69
268.681	165.69
268.913	168.69
269.145	163.69
269.377	176.69
269.609	169.69
269.841	161.69
270.073	160.69
270.306	185.69
270.538	177.69
270.77	165.69
271.002	185.69
271.234	173.69
271.466	172.69
271.698	187.69
271.93	179.69
272.162	176.69
272.394	191.69
272.626	188.69
272.858	159.69
273.09	169.69
273.322	175.69
273.553	180.69
273.785	174.69
274.017	169.69
274.249	200.69
274.481	187.69
274.713	197.69
274.945	191.69
275.176	190.69
275.408	188.69
275.64	195.69
275.872	177.69
276.104	181.69
276.335	206.69
276.567	202.69
276.799	184.69
277.031	189.69
277.262	172.69
277.494	186.69
277.726	192.69
277.957	200.69
278.189	185.69
278.421	204.69
278.652	187.69
278.884	187.69
279.115	199.69
279.347	194.69
279.579	196.69
279.81	182.69
280.042	207.69
280.273	200.69
280.505	213.69
280.736	193.69
280.968	201.69
281.199	225.69
281.431	207.69
281.662	210.69
281.894	184.69
282.125	193.69
282.356	212.69
282.588	212.69
282.819	202.69
283.051	199.69
283.282	202.69
283.513	211.69
283.745	213.69
283.976	207.69
284.207	214.69
284.439	204.69
284.67	204.69
284.901	211.69
285.132	203.69
285.364	219.69
285.595	206.69
285.826	204.69
286.057	198.69
286.288	210.69
286.52	222.69
286.751	212.69
286.982	213.69
287.213	212.69
287.444	212.69
287.675	233.69
287.906	231.69
288.138	231.69
288.369	231.69
288.6	229.69
288.831	212.69
289.062	227.69
289.293	217.69
289.524	234.69
289.755	226.69
289.986	228.69
290.217	231.69
290.448	227.69
290.679	219.69
290.91	232.69
291.141	221.69
291.371	220.69
291.602	227.69
291.833	227.69
292.064	229.69
292.295	223.69
292.526	227.69
292.757	227.69
292.987	218.69
293.218	228.69
293.449	229.69
293.68	232.69
293.91	219.69
294.141	244.69
294.372	228.69
294.603	220.69
294.833	242.69
295.064	218.69
295.295	237.69
295.525	230.69
295.756	246.69
295.987	229.69
296.217	229.69
296.448	237.69
296.679	232.69
296.909	241.69
297.14	241.69
297.37	233.69
297.601	242.69
297.831	227.69
298.062	241.69
298.292	233.69
298.523	250.69
298.753	257.69
298.984	248.69
299.214	237.69
299.445	260.69
299.675	250.69
299.905	251.69
300.136	241.69
300.366	237.69
300.597	254.69
300.827	238.69
301.057	261.69
301.288	280.69
301.518	276.69
301.748	266.69
301.979	265.69
302.209	257.69
302.439	266.69
302.669	262.69
302.9	261.69
303.13	272.69
303.36	273.69
303.59	257.69
303.82	270.69
304.051	263.69
304.281	279.69
304.511	293.69
304.741	267.69
304.971	259.69
305.201	267.69
305.431	258.69
305.661	275.69
305.891	242.69
306.121	258.69
306.352	262.69
306.582	244.69
306.812	264.69
307.042	266.69
307.272	267.69
307.502	247.69
307.731	267.69
307.961	272.69
308.191	270.69
308.421	270.69
308.651	278.69
308.881	267.69
309.111	261.69
309.341	271.69
309.571	269.69
309.8	274.69
310.03	263.69
310.26	260.69
310.49	265.69
310.72	274.69
310.949	286.69
311.179	271.69
311.409	282.69
311.639	272.69
311.868	277.69
312.098	268.69
312.328	276.69
312.557	279.69
312.787	291.69
313.017	306.69
313.246	297.69
313.476	302.69
313.706	277.69
313.935	277.69
314.165	283.69
314.394	273.69
314.624	285.69
314.853	281.69
315.083	289.69
315.312	291.69
315.542	291.69
315.771	299.69
316.001	281.69
316.23	289.69
316.46	314.69
316.689	295.69
316.919	310.69
317.148	302.69
317.377	296.69
317.607	299.69
317.836	299.69
318.065	291.69
318.295	272.69
318.524	303.69
318.753	308.69
318.983	295.69
319.212	281.69
319.441	291.69
319.67	298.69
319.9	299.69
320.129	296.69
320.358	315.69
320.587	293.69
320.816	305.69
321.046	294.69
321.275	310.69
321.504	285.69
321.733	292.69
321.962	306.69
322.191	305.69
322.42	302.69
322.649	313.69
322.878	302.69
323.108	305.69
323.337	313.69
323.566	302.69
323.795	311.69
324.024	313.69
324.253	323.69
324.482	306.69
324.71	311.69
324.939	310.69
325.168	314.69
325.397	315.69
325.626	314.69
325.855	316.69
326.084	323.69
326.313	336.69
326.542	302.69
326.77	333.69
326.999	339.69
327.228	307.69
327.457	322.69
327.686	319.69
327.914	323.69
328.143	342.69
328.372	333.69
328.6	342.69
328.829	298.69
329.058	330.69
329.287	321.69
329.515	337.69
329.744	349.69
329.972	343.69
330.201	342.69
330.43	340.69
330.658	333.69
330.887	349.69
331.115	353.69
331.344	338.69
331.572	333.69
331.801	334.69
332.03	357.69
332.258	354.69
332.486	355.69
332.715	362.69
332.943	349.69
333.172	361.69
333.4	363.69
333.629	367.69
333.857	390.69
334.085	380.69
334.314	398.69
334.542	393.69
334.771	397.69
334.999	386.69
335.227	375.69
335.455	381.69
335.684	399.69
335.912	358.69
336.14	387.69
336.369	385.69
336.597	374.69
336.825	378.69
337.053	373.69
337.281	385.69
337.51	372.69
337.738	370.69
337.966	369.69
338.194	375.69
338.422	365.69
338.65	363.69
338.878	367.69
339.106	358.69
339.334	363.69
339.562	380.69
339.79	367.69
340.018	359.69
340.246	360.69
340.474	351.69
340.702	375.69
340.93	346.69
341.158	370.69
341.386	358.69
341.614	351.69
341.842	358.69
342.07	357.69
342.298	373.69
342.526	354.69
342.754	369.69
342.981	347.69
343.209	369.69
343.437	357.69
343.665	365.69
343.893	384.69
344.12	367.69
344.348	393.69
344.576	366.69
344.804	341.69
345.031	370.69
345.259	385.69
345.487	379.69
345.714	359.69
345.942	355.69
346.17	361.69
346.397	363.69
346.625	343.69
346.853	353.69
347.08	351.69
347.308	346.69
347.535	340.69
347.763	354.69
347.99	343.69
348.218	351.69
348.445	342.69
348.673	345.69
348.9	346.69
349.128	361.69
349.355	344.69
349.583	354.69
349.81	361.69
350.037	342.69
350.265	348.69
350.492	336.69
350.72	359.69
350.947	331.69
351.174	333.69
351.402	337.69
351.629	344.69
351.856	342.69
352.083	326.69
352.311	359.69
352.538	337.69
352.765	350.69
352.992	338.69
353.22	331.69
353.447	347.69
353.674	359.69
353.901	371.69
354.128	363.69
354.355	333.69
354.583	335.69
354.81	328.69
355.037	338.69
355.264	341.69
355.491	333.69
355.718	350.69
355.945	341.69
356.172	343.69
356.399	351.69
356.626	338.69
356.853	343.69
357.08	355.69
357.307	349.69
357.534	341.69
357.761	342.69
357.988	358.69
358.215	349.69
358.441	358.69
358.668	353.69
358.895	337.69
359.122	355.69
359.349	349.69
359.576	331.69
359.802	352.69
360.029	341.69
360.256	348.69
360.483	357.69
360.709	353.69
360.936	354.69
361.163	357.69
361.39	372.69
361.616	353.69
361.843	355.69
362.07	354.69
362.296	350.69
362.523	337.69
362.749	354.69
362.976	353.69
363.203	355.69
363.429	352.69
363.656	349.69
363.882	361.69
364.109	380.69
364.335	350.69
364.562	365.69
364.788	373.69
365.015	380.69
365.241	367.69
365.468	364.69
365.694	340.69
365.92	379.69
366.147	352.69
366.373	353.69
366.599	358.69
366.826	358.69
367.052	360.69
367.278	363.69
367.505	356.69
367.731	348.69
367.957	364.69
368.184	371.69
368.41	361.69
368.636	364.69
368.862	358.69
369.089	367.69
369.315	350.69
369.541	355.69
369.767	378.69
369.993	357.69
370.219	377.69
370.445	372.69
370.672	387.69
370.898	389.69
371.124	363.69
371.35	385.69
371.576	382.69
371.802	385.69
372.028	386.69
372.254	400.69
372.48	383.69
372.706	377.69
372.932	395.69
373.158	392.69
373.384	388.69
373.61	398.69
373.835	395.69
374.061	370.69
374.287	391.69
374.513	417.69
374.739	389.69
374.965	399.69
375.191	393.69
375.416	399.69
375.642	394.69
375.868	400.69
376.094	392.69
376.319	387.69
376.545	401.69
376.771	385.69
376.997	382.69
377.222	341.69
377.448	374.69
377.674	371.69
377.899	380.69
378.125	385.69
378.35	358.69
378.576	381.69
378.802	378.69
379.027	387.69
379.253	394.69
379.478	373.69
379.704	377.69
379.929	385.69
380.155	392.69
380.38	395.69
380.606	398.69
380.831	397.69
381.057	387.69
381.282	385.69
381.507	398.69
381.733	401.69
381.958	385.69
382.184	399.69
382.409	403.69
382.634	411.69
382.86	415.69
383.085	400.69
383.31	421.69
383.535	422.69
383.761	388.69
383.986	401.69
384.211	436.69
384.436	430.69
384.662	410.69
384.887	425.69
385.112	443.69
385.337	421.69
385.562	430.69
385.787	445.69
386.013	484.69
386.238	442.69
386.463	458.69
386.688	444.69
386.913	459.69
387.138	440.69
387.363	449.69
387.588	465.69
387.813	458.69
388.038	448.69
388.263	459.69
388.488	461.69
388.713	455.69
388.938	430.69
389.163	445.69
389.387	459.69
389.612	460.69
389.837	443.69
390.062	455.69
390.287	468.69
390.512	442.69
390.736	440.69
390.961	455.69
391.186	455.69
391.411	490.69
391.636	483.69
391.86	476.69
392.085	469.69
392.31	485.69
392.534	467.69
392.759	467.69
392.984	458.69
393.208	455.69
393.433	474.69
393.658	470.69
393.882	464.69
394.107	477.69
394.331	471.69
394.556	477.69
394.78	490.69
395.005	482.69
395.229	477.69
395.454	476.69
395.678	507.69
395.903	491.69
396.127	480.69
396.352	461.69
396.576	472.69
396.801	487.69
397.025	506.69
397.249	519.69
397.474	504.69
397.698	519.69
397.922	517.69
398.147	519.69
398.371	546.69
398.595	565.69
398.82	554.69
399.044	560.69
399.268	611.69
399.492	635.69
399.717	633.69
399.941	642.69
400.165	636.69
400.389	621.69
400.613	577.69
400.837	580.69
401.062	557.69
401.286	552.69
401.51	540.69
401.734	543.69
401.958	551.69
402.182	540.69
402.406	545.69
402.63	525.69
402.854	531.69
403.078	554.69
403.302	541.69
403.526	537.69
403.75	547.69
403.974	553.69
404.198	538.69
404.422	565.69
404.645	542.69
404.869	564.69
405.093	555.69
405.317	533.69
405.541	552.69
405.765	542.69
405.988	570.69
406.212	571.69
406.436	575.69
406.66	574.69
406.883	568.69
407.107	610.69
407.331	585.69
407.555	635.69
407.778	618.69
408.002	593.69
408.226	589.69
408.449	595.69
408.673	570.69
408.896	576.69
409.12	575.69
409.344	581.69
409.567	578.69
409.791	553.69
410.014	566.69
410.238	549.69
410.461	558.69
410.685	537.69
410.908	558.69
411.132	547.69
411.355	551.69
411.578	554.69
411.802	563.69
412.025	566.69
412.249	539.69
412.472	539.69
412.695	548.69
412.919	559.69
413.142	552.69
413.365	553.69
413.589	526.69
413.812	534.69
414.035	529.69
414.258	545.69
414.482	539.69
414.705	556.69
414.928	545.69
415.151	551.69
415.374	538.69
415.597	503.69
415.821	521.69
416.044	506.69
416.267	519.69
416.49	514.69
416.713	515.69
416.936	511.69
417.159	498.69
417.382	503.69
417.605	482.69
417.828	510.69
418.051	496.69
418.274	491.69
418.497	492.69
418.72	494.69
418.943	532.69
419.166	546.69
419.389	560.69
419.611	543.69
419.834	529.69
420.057	507.69
420.28	519.69
420.503	498.69
420.726	497.69
420.948	497.69
421.171	502.69
421.394	496.69
421.617	490.69
421.839	509.69
422.062	491.69
422.285	489.69
422.507	510.69
422.73	509.69
422.953	470.69
423.175	500.69
423.398	499.69
423.621	508.69
423.843	507.69
424.066	487.69
424.288	510.69
424.511	504.69
424.733	490.69
424.956	513.69
425.178	504.69
425.401	503.69
425.623	495.69
425.846	484.69
426.068	515.69
426.291	501.69
426.513	491.69
426.735	488.69
426.958	502.69
427.18	457.69
427.402	489.69
427.625	499.69
427.847	487.69
428.069	499.69
428.292	490.69
428.514	492.69
428.736	482.69
428.958	483.69
429.181	489.69
429.403	480.69
429.625	481.69
429.847	463.69
430.069	501.69
430.292	471.69
430.514	451.69
430.736	466.69
430.958	473.69
431.18	461.69
431.402	487.69
431.624	483.69
431.846	487.69
432.068	475.69
432.29	466.69
432.512	449.69
432.734	476.69
432.956	483.69
433.178	476.69
433.4	479.69
433.622	483.69
433.844	495.69
434.066	500.69
434.287	485.69
434.509	497.69
434.731	506.69
434.953	508.69
435.175	503.69
435.397	502.69
435.618	499.69
435.84	518.69
436.062	461.69
436.284	473.69
436.505	471.69
436.727	478.69
436.949	463.69
437.17	465.69
437.392	460.69
437.614	471.69
437.835	470.69
438.057	455.69
438.278	475.69
438.5	471.69
438.721	459.69
438.943	474.69
439.165	459.69
439.386	467.69
439.608	465.69
439.829	463.69
440.05	456.69
440.272	476.69
440.493	449.69
440.715	467.69
440.936	469.69
441.158	495.69
441.379	494.69
441.6	501.69
441.822	497.69
442.043	500.69
442.264	516.69
442.486	514.69
442.707	502.69
442.928	492.69
443.149	507.69
443.371	494.69
443.592	489.69
443.813	490.69
444.034	500.69
444.255	513.69
444.476	495.69
444.698	488.69
444.919	523.69
445.14	575.69
445.361	550.69
445.582	485.69
445.803	492.69
446.024	504.69
446.245	494.69
446.466	484.69
446.687	476.69
446.908	488.69
447.129	464.69
447.35	475.69
447.571	453.69
447.792	432.69
448.013	463.69
448.234	442.69
448.455	453.69
448.675	462.69
448.896	445.69
449.117	442.69
449.338	436.69
449.559	447.69
449.779	415.69
450	426.69
450.221	434.69
450.442	443.69
450.662	439.69
450.883	428.69
451.104	435.69
451.324	428.69
451.545	437.69
451.766	443.69
451.986	420.69
452.207	426.69
452.428	421.69
452.648	430.69
452.869	437.69
453.089	411.69
453.31	413.69
453.53	422.69
453.751	428.69
453.971	413.69
454.192	428.69
454.412	408.69
454.633	418.69
454.853	395.69
455.073	405.69
455.294	420.69
455.514	410.69
455.734	417.69
455.955	413.69
456.175	406.69
456.395	429.69
456.616	433.69
456.836	423.69
457.056	441.69
457.276	411.69
457.497	417.69
457.717	421.69
457.937	418.69
458.157	427.69
458.377	434.69
458.598	455.69
458.818	462.69
459.038	431.69
459.258	471.69
459.478	496.69
459.698	464.69
459.918	501.69
460.138	498.69
460.358	497.69
460.578	488.69
460.798	516.69
461.018	542.69
461.238	532.69
461.458	522.69
461.678	536.69
461.898	521.69
462.118	548.69
462.338	544.69
462.558	565.69
462.777	581.69
462.997	574.69
463.217	613.69
463.437	593.69
463.657	607.69
463.876	600.69
464.096	556.69
464.316	595.69
464.536	558.69
464.755	568.69
464.975	554.69
465.195	548.69
465.414	530.69
465.634	496.69
465.854	499.69
466.073	486.69
466.293	485.69
466.512	468.69
466.732	461.69
466.951	461.69
467.171	467.69
467.391	464.69
467.61	469.69
467.829	488.69
468.049	449.69
468.268	462.69
468.488	458.69
468.707	455.69
468.927	466.69
469.146	452.69
469.365	479.69
469.585	468.69
469.804	485.69
470.023	459.69
470.243	468.69
470.462	467.69
470.681	482.69
470.901	469.69
471.12	463.69
471.339	478.69
471.558	457.69
471.777	455.69
471.997	454.69
472.216	466.69
472.435	486.69
472.654	469.69
472.873	462.69
473.092	461.69
473.311	473.69
473.53	466.69
473.749	469.69
473.968	472.69
474.187	469.69
474.406	455.69
474.625	465.69
474.844	452.69
475.063	459.69
475.282	463.69
475.501	441.69
475.72	470.69
475.939	463.69
476.158	461.69
476.377	484.69
476.596	499.69
476.814	477.69
477.033	493.69
477.252	499.69
477.471	531.69
477.69	518.69
477.908	517.69
478.127	540.69
478.346	532.69
478.564	516.69
478.783	528.69
479.002	554.69
479.22	533.69
479.439	567.69
479.658	541.69
479.876	558.69
480.095	559.69
480.313	561.69
480.532	573.69
480.751	547.69
480.969	541.69
481.188	556.69
481.406	562.69
481.624	537.69
481.843	540.69
482.061	524.69
482.28	560.69
482.498	545.69
482.717	535.69
482.935	545.69
483.153	548.69
483.372	541.69
483.59	553.69
483.808	553.69
484.027	538.69
484.245	553.69
484.463	547.69
484.681	551.69
484.9	546.69
485.118	549.69
485.336	553.69
485.554	546.69
485.772	556.69
485.99	573.69
486.209	565.69
486.427	545.69
486.645	569.69
486.863	564.69
487.081	560.69
487.299	552.69
487.517	564.69
487.735	554.69
487.953	559.69
488.171	548.69
488.389	552.69
488.607	542.69
488.825	569.69
489.043	543.69
489.261	579.69
489.479	563.69
489.696	554.69
489.914	547.69
490.132	570.69
490.35	541.69
490.568	571.69
490.786	555.69
491.003	558.69
491.221	554.69
491.439	555.69
491.657	566.69
491.874	575.69
492.092	552.69
492.31	554.69
492.527	567.69
492.745	571.69
492.963	579.69
493.18	562.69
493.398	584.69
493.615	581.69
493.833	580.69
494.05	582.69
494.268	569.69
494.485	583.69
494.703	574.69
494.92	597.69
495.138	586.69
495.355	594.69
495.573	597.69
495.79	606.69
496.008	618.69
496.225	621.69
496.442	607.69
496.66	638.69
496.877	620.69
497.094	650.69
497.312	655.69
497.529	679.69
497.746	670.69
497.963	709.69
498.181	713.69
498.398	715.69
498.615	769.69
498.832	797.69
499.049	819.69
499.267	845.69
499.484	871.69
499.701	916.69
499.918	977.69
500.135	989.69
500.352	1028.69
500.569	1024.69
500.786	1034.69
501.003	1039.69
501.22	972.69
501.437	950.69
501.654	910.69
501.871	850.69
502.088	849.69
