Data from Fe(NO3)3@0.1M.TitratingCurve.Agarose3%dH2O.NegLispCup.LampEnergy10.LIBS07252019_HRD10591_16-39-44-332.txt Node
Date: Thu Jul 25 16:39:44 EDT 2019
User: cochatt
Spectrometer: HR+D1059
Trigger mode: 1
Integration Time (sec): 1.000000E-1
Scans to average: 1
Electric dark correction enabled: true
Nonlinearity correction enabled: false
Boxcar width: 0
XAxis mode: Wavelengths
Number of Pixels in Spectrum: 2048
>>>>>Begin Spectral Data<<<<<
223.165	-22.38
223.4	-22.38
223.635	-22.38
223.869	-6.38
224.104	-18.38
224.338	-12.38
224.573	-7.38
224.808	-20.38
225.042	-13.38
225.277	9.62
225.511	2.62
225.746	4.62
225.98	14.62
226.215	-9.38
226.449	14.62
226.683	16.62
226.918	20.62
227.152	26.62
227.387	30.62
227.621	44.62
227.856	41.62
228.09	48.62
228.324	43.62
228.559	44.62
228.793	68.62
229.027	67.62
229.262	69.62
229.496	83.62
229.73	77.62
229.964	86.62
230.199	92.62
230.433	98.62
230.667	88.62
230.901	95.62
231.136	88.62
231.37	82.62
231.604	94.62
231.838	85.62
232.072	100.62
232.306	101.62
232.541	104.62
232.775	95.62
233.009	112.62
233.243	101.62
233.477	93.62
233.711	107.62
233.945	84.62
234.179	113.62
234.413	105.62
234.647	110.62
234.881	110.62
235.115	105.62
235.349	104.62
235.583	93.62
235.817	114.62
236.051	105.62
236.285	122.62
236.519	120.62
236.753	117.62
236.987	110.62
237.221	98.62
237.455	100.62
237.689	106.62
237.922	101.62
238.156	99.62
238.39	100.62
238.624	102.62
238.858	100.62
239.091	99.62
239.325	99.62
239.559	107.62
239.793	98.62
240.027	114.62
240.26	113.62
240.494	120.62
240.728	108.62
240.961	119.62
241.195	108.62
241.429	122.62
241.662	112.62
241.896	103.62
242.13	114.62
242.363	114.62
242.597	108.62
242.83	106.62
243.064	115.62
243.298	122.62
243.531	124.62
243.765	106.62
243.998	124.62
244.232	122.62
244.465	111.62
244.699	114.62
244.932	124.62
245.166	137.62
245.399	124.62
245.633	123.62
245.866	128.62
246.099	117.62
246.333	128.62
246.566	121.62
246.8	118.62
247.033	142.62
247.266	129.62
247.5	115.62
247.733	107.62
247.966	124.62
248.2	124.62
248.433	113.62
248.666	122.62
248.899	117.62
249.133	126.62
249.366	147.62
249.599	125.62
249.832	124.62
250.066	129.62
250.299	127.62
250.532	121.62
250.765	127.62
250.998	127.62
251.231	126.62
251.465	140.62
251.698	138.62
251.931	129.62
252.164	138.62
252.397	129.62
252.63	139.62
252.863	152.62
253.096	139.62
253.329	139.62
253.562	139.62
253.795	144.62
254.028	135.62
254.261	141.62
254.494	140.62
254.727	151.62
254.96	156.62
255.193	156.62
255.426	145.62
255.659	149.62
255.892	150.62
256.124	131.62
256.357	148.62
256.59	151.62
256.823	161.62
257.056	155.62
257.289	142.62
257.521	168.62
257.754	144.62
257.987	148.62
258.22	141.62
258.452	150.62
258.685	146.62
258.918	143.62
259.151	141.62
259.383	158.62
259.616	161.62
259.849	160.62
260.081	172.62
260.314	177.62
260.547	151.62
260.779	154.62
261.012	147.62
261.244	151.62
261.477	182.62
261.71	167.62
261.942	157.62
262.175	163.62
262.407	160.62
262.64	164.62
262.872	161.62
263.105	159.62
263.337	165.62
263.57	165.62
263.802	174.62
264.035	153.62
264.267	162.62
264.499	156.62
264.732	153.62
264.964	161.62
265.197	148.62
265.429	169.62
265.661	157.62
265.894	170.62
266.126	168.62
266.358	178.62
266.591	172.62
266.823	167.62
267.055	173.62
267.287	182.62
267.52	170.62
267.752	184.62
267.984	172.62
268.216	173.62
268.448	167.62
268.681	178.62
268.913	182.62
269.145	174.62
269.377	182.62
269.609	174.62
269.841	178.62
270.073	162.62
270.306	169.62
270.538	164.62
270.77	172.62
271.002	173.62
271.234	169.62
271.466	192.62
271.698	173.62
271.93	194.62
272.162	187.62
272.394	186.62
272.626	183.62
272.858	188.62
273.09	186.62
273.322	195.62
273.553	189.62
273.785	213.62
274.017	181.62
274.249	175.62
274.481	190.62
274.713	191.62
274.945	185.62
275.176	203.62
275.408	201.62
275.64	172.62
275.872	179.62
276.104	187.62
276.335	190.62
276.567	205.62
276.799	198.62
277.031	198.62
277.262	189.62
277.494	191.62
277.726	179.62
277.957	197.62
278.189	201.62
278.421	193.62
278.652	174.62
278.884	197.62
279.115	205.62
279.347	194.62
279.579	200.62
279.81	197.62
280.042	209.62
280.273	211.62
280.505	193.62
280.736	209.62
280.968	200.62
281.199	212.62
281.431	218.62
281.662	217.62
281.894	201.62
282.125	210.62
282.356	215.62
282.588	201.62
282.819	206.62
283.051	200.62
283.282	220.62
283.513	213.62
283.745	229.62
283.976	213.62
284.207	216.62
284.439	210.62
284.67	207.62
284.901	207.62
285.132	230.62
285.364	212.62
285.595	216.62
285.826	219.62
286.057	213.62
286.288	214.62
286.52	217.62
286.751	202.62
286.982	197.62
287.213	222.62
287.444	219.62
287.675	241.62
287.906	224.62
288.138	225.62
288.369	214.62
288.6	226.62
288.831	209.62
289.062	222.62
289.293	235.62
289.524	233.62
289.755	213.62
289.986	232.62
290.217	219.62
290.448	233.62
290.679	239.62
290.91	236.62
291.141	232.62
291.371	222.62
291.602	209.62
291.833	230.62
292.064	222.62
292.295	228.62
292.526	224.62
292.757	226.62
292.987	209.62
293.218	216.62
293.449	242.62
293.68	234.62
293.91	232.62
294.141	247.62
294.372	228.62
294.603	235.62
294.833	236.62
295.064	242.62
295.295	238.62
295.525	238.62
295.756	255.62
295.987	226.62
296.217	241.62
296.448	252.62
296.679	246.62
296.909	241.62
297.14	230.62
297.37	223.62
297.601	250.62
297.831	242.62
298.062	248.62
298.292	258.62
298.523	253.62
298.753	234.62
298.984	235.62
299.214	251.62
299.445	248.62
299.675	255.62
299.905	244.62
300.136	241.62
300.366	243.62
300.597	260.62
300.827	261.62
301.057	240.62
301.288	266.62
301.518	235.62
301.748	264.62
301.979	278.62
302.209	260.62
302.439	270.62
302.669	245.62
302.9	256.62
303.13	268.62
303.36	259.62
303.59	240.62
303.82	265.62
304.051	282.62
304.281	285.62
304.511	270.62
304.741	243.62
304.971	247.62
305.201	255.62
305.431	247.62
305.661	266.62
305.891	249.62
306.121	268.62
306.352	242.62
306.582	262.62
306.812	257.62
307.042	245.62
307.272	242.62
307.502	264.62
307.731	261.62
307.961	247.62
308.191	258.62
308.421	278.62
308.651	263.62
308.881	254.62
309.111	270.62
309.341	241.62
309.571	262.62
309.8	238.62
310.03	272.62
310.26	235.62
310.49	256.62
310.72	260.62
310.949	269.62
311.179	261.62
311.409	254.62
311.639	276.62
311.868	272.62
312.098	259.62
312.328	267.62
312.557	271.62
312.787	284.62
313.017	280.62
313.246	281.62
313.476	266.62
313.706	274.62
313.935	266.62
314.165	288.62
314.394	288.62
314.624	286.62
314.853	283.62
315.083	277.62
315.312	285.62
315.542	275.62
315.771	290.62
316.001	285.62
316.23	266.62
316.46	271.62
316.689	299.62
316.919	286.62
317.148	262.62
317.377	279.62
317.607	276.62
317.836	268.62
318.065	275.62
318.295	282.62
318.524	263.62
318.753	286.62
318.983	280.62
319.212	270.62
319.441	288.62
319.67	274.62
319.9	266.62
320.129	278.62
320.358	276.62
320.587	264.62
320.816	289.62
321.046	276.62
321.275	274.62
321.504	288.62
321.733	281.62
321.962	293.62
322.191	293.62
322.42	288.62
322.649	297.62
322.878	290.62
323.108	292.62
323.337	282.62
323.566	292.62
323.795	271.62
324.024	294.62
324.253	296.62
324.482	294.62
324.71	289.62
324.939	306.62
325.168	319.62
325.397	283.62
325.626	310.62
325.855	308.62
326.084	306.62
326.313	305.62
326.542	304.62
326.77	301.62
326.999	304.62
327.228	310.62
327.457	310.62
327.686	313.62
327.914	280.62
328.143	300.62
328.372	296.62
328.6	306.62
328.829	290.62
329.058	292.62
329.287	295.62
329.515	288.62
329.744	308.62
329.972	311.62
330.201	306.62
330.43	324.62
330.658	302.62
330.887	321.62
331.115	317.62
331.344	313.62
331.572	314.62
331.801	338.62
332.03	331.62
332.258	332.62
332.486	344.62
332.715	348.62
332.943	347.62
333.172	372.62
333.4	373.62
333.629	361.62
333.857	384.62
334.085	368.62
334.314	371.62
334.542	364.62
334.771	380.62
334.999	374.62
335.227	357.62
335.455	364.62
335.684	352.62
335.912	365.62
336.14	362.62
336.369	372.62
336.597	362.62
336.825	358.62
337.053	344.62
337.281	338.62
337.51	339.62
337.738	358.62
337.966	336.62
338.194	332.62
338.422	318.62
338.65	339.62
338.878	326.62
339.106	308.62
339.334	330.62
339.562	314.62
339.79	317.62
340.018	311.62
340.246	321.62
340.474	314.62
340.702	312.62
340.93	326.62
341.158	305.62
341.386	309.62
341.614	308.62
341.842	313.62
342.07	316.62
342.298	312.62
342.526	317.62
342.754	326.62
342.981	314.62
343.209	334.62
343.437	336.62
343.665	368.62
343.893	370.62
344.12	383.62
344.348	364.62
344.576	351.62
344.804	339.62
345.031	320.62
345.259	326.62
345.487	326.62
345.714	314.62
345.942	302.62
346.17	322.62
346.397	326.62
346.625	315.62
346.853	295.62
347.08	312.62
347.308	312.62
347.535	301.62
347.763	322.62
347.99	308.62
348.218	311.62
348.445	312.62
348.673	301.62
348.9	312.62
349.128	316.62
349.355	312.62
349.583	307.62
349.81	300.62
350.037	299.62
350.265	298.62
350.492	292.62
350.72	305.62
350.947	294.62
351.174	308.62
351.402	298.62
351.629	290.62
351.856	298.62
352.083	306.62
352.311	325.62
352.538	314.62
352.765	330.62
352.992	304.62
353.22	298.62
353.447	301.62
353.674	312.62
353.901	308.62
354.128	299.62
354.355	290.62
354.583	331.62
354.81	316.62
355.037	294.62
355.264	305.62
355.491	313.62
355.718	313.62
355.945	330.62
356.172	305.62
356.399	319.62
356.626	321.62
356.853	315.62
357.08	295.62
357.307	300.62
357.534	292.62
357.761	290.62
357.988	305.62
358.215	297.62
358.441	290.62
358.668	289.62
358.895	297.62
359.122	301.62
359.349	312.62
359.576	316.62
359.802	301.62
360.029	306.62
360.256	327.62
360.483	304.62
360.709	303.62
360.936	315.62
361.163	313.62
361.39	311.62
361.616	305.62
361.843	308.62
362.07	302.62
362.296	308.62
362.523	304.62
362.749	328.62
362.976	306.62
363.203	300.62
363.429	298.62
363.656	314.62
363.882	296.62
364.109	284.62
364.335	315.62
364.562	308.62
364.788	298.62
365.015	314.62
365.241	295.62
365.468	310.62
365.694	307.62
365.92	294.62
366.147	286.62
366.373	307.62
366.599	302.62
366.826	287.62
367.052	310.62
367.278	315.62
367.505	315.62
367.731	312.62
367.957	326.62
368.184	310.62
368.41	323.62
368.636	314.62
368.862	310.62
369.089	323.62
369.315	299.62
369.541	337.62
369.767	336.62
369.993	311.62
370.219	326.62
370.445	332.62
370.672	316.62
370.898	298.62
371.124	332.62
371.35	341.62
371.576	300.62
371.802	330.62
372.028	325.62
372.254	346.62
372.48	329.62
372.706	337.62
372.932	330.62
373.158	339.62
373.384	340.62
373.61	335.62
373.835	321.62
374.061	327.62
374.287	333.62
374.513	334.62
374.739	362.62
374.965	361.62
375.191	357.62
375.416	369.62
375.642	355.62
375.868	370.62
376.094	341.62
376.319	356.62
376.545	343.62
376.771	327.62
376.997	338.62
377.222	337.62
377.448	341.62
377.674	351.62
377.899	332.62
378.125	330.62
378.35	339.62
378.576	335.62
378.802	334.62
379.027	336.62
379.253	342.62
379.478	320.62
379.704	340.62
379.929	330.62
380.155	324.62
380.38	338.62
380.606	346.62
380.831	330.62
381.057	318.62
381.282	328.62
381.507	323.62
381.733	337.62
381.958	352.62
382.184	345.62
382.409	342.62
382.634	348.62
382.86	356.62
383.085	361.62
383.31	350.62
383.535	379.62
383.761	343.62
383.986	342.62
384.211	373.62
384.436	364.62
384.662	390.62
384.887	388.62
385.112	383.62
385.337	386.62
385.562	408.62
385.787	395.62
386.013	394.62
386.238	410.62
386.463	384.62
386.688	412.62
386.913	386.62
387.138	408.62
387.363	376.62
387.588	376.62
387.813	405.62
388.038	394.62
388.263	383.62
388.488	380.62
388.713	389.62
388.938	392.62
389.163	373.62
389.387	385.62
389.612	372.62
389.837	389.62
390.062	380.62
390.287	369.62
390.512	396.62
390.736	396.62
390.961	437.62
391.186	410.62
391.411	396.62
391.636	402.62
391.86	425.62
392.085	459.62
392.31	430.62
392.534	411.62
392.759	428.62
392.984	398.62
393.208	422.62
393.433	419.62
393.658	408.62
393.882	424.62
394.107	402.62
394.331	420.62
394.556	434.62
394.78	428.62
395.005	414.62
395.229	401.62
395.454	448.62
395.678	417.62
395.903	425.62
396.127	426.62
396.352	423.62
396.576	405.62
396.801	408.62
397.025	409.62
397.249	422.62
397.474	462.62
397.698	433.62
397.922	429.62
398.147	464.62
398.371	461.62
398.595	468.62
398.82	486.62
399.044	514.62
399.268	552.62
399.492	632.62
399.717	666.62
399.941	640.62
400.165	604.62
400.389	562.62
400.613	541.62
400.837	532.62
401.062	499.62
401.286	481.62
401.51	478.62
401.734	502.62
401.958	497.62
402.182	511.62
402.406	511.62
402.63	494.62
402.854	494.62
403.078	523.62
403.302	544.62
403.526	561.62
403.75	548.62
403.974	541.62
404.198	536.62
404.422	541.62
404.645	513.62
404.869	529.62
405.093	523.62
405.317	525.62
405.541	515.62
405.765	521.62
405.988	542.62
406.212	521.62
406.436	533.62
406.66	539.62
406.883	526.62
407.107	571.62
407.331	601.62
407.555	593.62
407.778	604.62
408.002	590.62
408.226	549.62
408.449	587.62
408.673	556.62
408.896	569.62
409.12	546.62
409.344	555.62
409.567	532.62
409.791	524.62
410.014	537.62
410.238	518.62
410.461	526.62
410.685	518.62
410.908	519.62
411.132	503.62
411.355	503.62
411.578	520.62
411.802	529.62
412.025	502.62
412.249	526.62
412.472	520.62
412.695	507.62
412.919	502.62
413.142	502.62
413.365	506.62
413.589	505.62
413.812	489.62
414.035	514.62
414.258	500.62
414.482	493.62
414.705	514.62
414.928	504.62
415.151	509.62
415.374	485.62
415.597	514.62
415.821	480.62
416.044	486.62
416.267	487.62
416.49	474.62
416.713	477.62
416.936	489.62
417.159	472.62
417.382	490.62
417.605	494.62
417.828	509.62
418.051	485.62
418.274	488.62
418.497	497.62
418.72	479.62
418.943	511.62
419.166	496.62
419.389	538.62
419.611	550.62
419.834	530.62
420.057	521.62
420.28	523.62
420.503	459.62
420.726	482.62
420.948	456.62
421.171	488.62
421.394	485.62
421.617	487.62
421.839	496.62
422.062	503.62
422.285	480.62
422.507	498.62
422.73	491.62
422.953	514.62
423.175	508.62
423.398	509.62
423.621	532.62
423.843	518.62
424.066	519.62
424.288	520.62
424.511	484.62
424.733	516.62
424.956	492.62
425.178	497.62
425.401	482.62
425.623	481.62
425.846	461.62
426.068	473.62
426.291	489.62
426.513	456.62
426.735	457.62
426.958	450.62
427.18	440.62
427.402	441.62
427.625	450.62
427.847	468.62
428.069	447.62
428.292	450.62
428.514	430.62
428.736	432.62
428.958	443.62
429.181	439.62
429.403	456.62
429.625	454.62
429.847	433.62
430.069	452.62
430.292	429.62
430.514	430.62
430.736	446.62
430.958	452.62
431.18	425.62
431.402	453.62
431.624	444.62
431.846	447.62
432.068	451.62
432.29	447.62
432.512	450.62
432.734	456.62
432.956	430.62
433.178	443.62
433.4	448.62
433.622	463.62
433.844	445.62
434.066	480.62
434.287	468.62
434.509	484.62
434.731	463.62
434.953	490.62
435.175	482.62
435.397	493.62
435.618	461.62
435.84	465.62
436.062	443.62
436.284	465.62
436.505	440.62
436.727	445.62
436.949	441.62
437.17	453.62
437.392	453.62
437.614	448.62
437.835	435.62
438.057	437.62
438.278	436.62
438.5	413.62
438.721	438.62
438.943	468.62
439.165	430.62
439.386	435.62
439.608	443.62
439.829	468.62
440.05	442.62
440.272	455.62
440.493	471.62
440.715	453.62
440.936	475.62
441.158	469.62
441.379	479.62
441.6	515.62
441.822	477.62
442.043	509.62
442.264	484.62
442.486	477.62
442.707	490.62
442.928	475.62
443.149	485.62
443.371	491.62
443.592	488.62
443.813	507.62
444.034	507.62
444.255	552.62
444.476	535.62
444.698	573.62
444.919	597.62
445.14	638.62
445.361	580.62
445.582	526.62
445.803	481.62
446.024	495.62
446.245	487.62
446.466	484.62
446.687	459.62
446.908	473.62
447.129	462.62
447.35	475.62
447.571	461.62
447.792	435.62
448.013	438.62
448.234	444.62
448.455	433.62
448.675	419.62
448.896	425.62
449.117	421.62
449.338	438.62
449.559	426.62
449.779	414.62
450	437.62
450.221	413.62
450.442	436.62
450.662	436.62
450.883	435.62
451.104	434.62
451.324	437.62
451.545	444.62
451.766	443.62
451.986	421.62
452.207	419.62
452.428	427.62
452.648	443.62
452.869	397.62
453.089	406.62
453.31	392.62
453.53	404.62
453.751	411.62
453.971	405.62
454.192	412.62
454.412	418.62
454.633	412.62
454.853	406.62
455.073	404.62
455.294	412.62
455.514	378.62
455.734	386.62
455.955	402.62
456.175	401.62
456.395	373.62
456.616	376.62
456.836	379.62
457.056	382.62
457.276	397.62
457.497	404.62
457.717	397.62
457.937	382.62
458.157	400.62
458.377	410.62
458.598	411.62
458.818	409.62
459.038	426.62
459.258	440.62
459.478	438.62
459.698	470.62
459.918	464.62
460.138	475.62
460.358	481.62
460.578	528.62
460.798	516.62
461.018	516.62
461.238	506.62
461.458	501.62
461.678	514.62
461.898	511.62
462.118	507.62
462.338	553.62
462.558	553.62
462.777	558.62
462.997	613.62
463.217	646.62
463.437	636.62
463.657	610.62
463.876	587.62
464.096	588.62
464.316	583.62
464.536	579.62
464.755	580.62
464.975	550.62
465.195	533.62
465.414	492.62
465.634	487.62
465.854	472.62
466.073	451.62
466.293	459.62
466.512	449.62
466.732	449.62
466.951	439.62
467.171	455.62
467.391	454.62
467.61	445.62
467.829	424.62
468.049	444.62
468.268	424.62
468.488	425.62
468.707	424.62
468.927	424.62
469.146	434.62
469.365	418.62
469.585	427.62
469.804	462.62
470.023	442.62
470.243	474.62
470.462	458.62
470.681	455.62
470.901	447.62
471.12	445.62
471.339	453.62
471.558	413.62
471.777	438.62
471.997	414.62
472.216	444.62
472.435	401.62
472.654	398.62
472.873	418.62
473.092	405.62
473.311	405.62
473.53	407.62
473.749	400.62
473.968	394.62
474.187	417.62
474.406	404.62
474.625	402.62
474.844	399.62
475.063	404.62
475.282	441.62
475.501	402.62
475.72	415.62
475.939	425.62
476.158	429.62
476.377	406.62
476.596	413.62
476.814	436.62
477.033	452.62
477.252	437.62
477.471	437.62
477.69	468.62
477.908	467.62
478.127	478.62
478.346	474.62
478.564	463.62
478.783	481.62
479.002	509.62
479.22	473.62
479.439	501.62
479.658	481.62
479.876	500.62
480.095	507.62
480.313	523.62
480.532	515.62
480.751	517.62
480.969	489.62
481.188	480.62
481.406	476.62
481.624	467.62
481.843	457.62
482.061	454.62
482.28	440.62
482.498	446.62
482.717	485.62
482.935	446.62
483.153	438.62
483.372	449.62
483.59	455.62
483.808	435.62
484.027	475.62
484.245	461.62
484.463	473.62
484.681	468.62
484.9	453.62
485.118	466.62
485.336	472.62
485.554	470.62
485.772	473.62
485.99	444.62
486.209	476.62
486.427	453.62
486.645	467.62
486.863	478.62
487.081	475.62
487.299	465.62
487.517	489.62
487.735	460.62
487.953	476.62
488.171	495.62
488.389	467.62
488.607	453.62
488.825	479.62
489.043	469.62
489.261	456.62
489.479	483.62
489.696	474.62
489.914	485.62
490.132	463.62
490.35	473.62
490.568	474.62
490.786	467.62
491.003	489.62
491.221	488.62
491.439	498.62
491.657	488.62
491.874	493.62
492.092	509.62
492.31	504.62
492.527	470.62
492.745	505.62
492.963	507.62
493.18	491.62
493.398	490.62
493.615	499.62
493.833	499.62
494.05	518.62
494.268	499.62
494.485	499.62
494.703	494.62
494.92	497.62
495.138	471.62
495.355	483.62
495.573	524.62
495.79	509.62
496.008	524.62
496.225	502.62
496.442	508.62
496.66	537.62
496.877	522.62
497.094	536.62
497.312	535.62
497.529	540.62
497.746	564.62
497.963	584.62
498.181	612.62
498.398	606.62
498.615	645.62
498.832	686.62
499.049	727.62
499.267	798.62
499.484	861.62
499.701	905.62
499.918	1004.62
500.135	1125.62
500.352	1249.62
500.569	1247.62
500.786	1252.62
501.003	1149.62
501.22	1054.62
501.437	942.62
501.654	878.62
501.871	808.62
