Data from Fe(NO3)3@0.05M.TitratingCurve.Agarose3%dH2O.NegLispCup.LampEnergy10.LIBS07252019_HRD10591_16-45-51-334.txt Node
Date: Thu Jul 25 16:45:51 EDT 2019
User: cochatt
Spectrometer: HR+D1059
Trigger mode: 1
Integration Time (sec): 1.000000E-1
Scans to average: 1
Electric dark correction enabled: true
Nonlinearity correction enabled: false
Boxcar width: 0
XAxis mode: Wavelengths
Number of Pixels in Spectrum: 2048
>>>>>Begin Spectral Data<<<<<
223.165	-13.5
223.4	-13.5
223.635	-13.5
223.869	-3.5
224.104	-12.5
224.338	-21.5
224.573	-24.5
224.808	-15.5
225.042	-16.5
225.277	2.5
225.511	4.5
225.746	10.5
225.98	11.5
226.215	0.5
226.449	2.5
226.683	9.5
226.918	26.5
227.152	39.5
227.387	40.5
227.621	53.5
227.856	44.5
228.09	40.5
228.324	41.5
228.559	64.5
228.793	73.5
229.027	98.5
229.262	113.5
229.496	113.5
229.73	124.5
229.964	121.5
230.199	125.5
230.433	121.5
230.667	125.5
230.901	151.5
231.136	133.5
231.37	149.5
231.604	139.5
231.838	146.5
232.072	160.5
232.306	159.5
232.541	151.5
232.775	148.5
233.009	161.5
233.243	161.5
233.477	164.5
233.711	179.5
233.945	175.5
234.179	173.5
234.413	185.5
234.647	167.5
234.881	201.5
235.115	184.5
235.349	172.5
235.583	187.5
235.817	181.5
236.051	180.5
236.285	172.5
236.519	188.5
236.753	182.5
236.987	172.5
237.221	179.5
237.455	193.5
237.689	204.5
237.922	193.5
238.156	185.5
238.39	211.5
238.624	239.5
238.858	223.5
239.091	195.5
239.325	209.5
239.559	199.5
239.793	201.5
240.027	237.5
240.26	252.5
240.494	216.5
240.728	222.5
240.961	226.5
241.195	233.5
241.429	235.5
241.662	224.5
241.896	232.5
242.13	227.5
242.363	216.5
242.597	224.5
242.83	221.5
243.064	234.5
243.298	237.5
243.531	227.5
243.765	232.5
243.998	234.5
244.232	234.5
244.465	231.5
244.699	255.5
244.932	241.5
245.166	243.5
245.399	241.5
245.633	236.5
245.866	234.5
246.099	252.5
246.333	271.5
246.566	274.5
246.8	287.5
247.033	271.5
247.266	247.5
247.5	259.5
247.733	272.5
247.966	260.5
248.2	260.5
248.433	275.5
248.666	291.5
248.899	284.5
249.133	283.5
249.366	325.5
249.599	324.5
249.832	322.5
250.066	288.5
250.299	313.5
250.532	301.5
250.765	279.5
250.998	292.5
251.231	290.5
251.465	292.5
251.698	303.5
251.931	303.5
252.164	312.5
252.397	309.5
252.63	327.5
252.863	337.5
253.096	339.5
253.329	333.5
253.562	325.5
253.795	339.5
254.028	372.5
254.261	367.5
254.494	337.5
254.727	329.5
254.96	332.5
255.193	351.5
255.426	343.5
255.659	329.5
255.892	332.5
256.124	348.5
256.357	351.5
256.59	355.5
256.823	361.5
257.056	327.5
257.289	324.5
257.521	332.5
257.754	360.5
257.987	342.5
258.22	336.5
258.452	351.5
258.685	365.5
258.918	381.5
259.151	360.5
259.383	366.5
259.616	364.5
259.849	397.5
260.081	460.5
260.314	494.5
260.547	402.5
260.779	380.5
261.012	422.5
261.244	417.5
261.477	439.5
261.71	432.5
261.942	390.5
262.175	395.5
262.407	402.5
262.64	387.5
262.872	409.5
263.105	437.5
263.337	451.5
263.57	434.5
263.802	400.5
264.035	383.5
264.267	375.5
264.499	379.5
264.732	382.5
264.964	389.5
265.197	394.5
265.429	383.5
265.661	395.5
265.894	375.5
266.126	399.5
266.358	404.5
266.591	398.5
266.823	417.5
267.055	408.5
267.287	390.5
267.52	395.5
267.752	406.5
267.984	395.5
268.216	412.5
268.448	402.5
268.681	425.5
268.913	404.5
269.145	427.5
269.377	435.5
269.609	427.5
269.841	393.5
270.073	405.5
270.306	413.5
270.538	420.5
270.77	415.5
271.002	435.5
271.234	443.5
271.466	432.5
271.698	457.5
271.93	458.5
272.162	450.5
272.394	449.5
272.626	449.5
272.858	481.5
273.09	479.5
273.322	480.5
273.553	485.5
273.785	477.5
274.017	551.5
274.249	572.5
274.481	549.5
274.713	573.5
274.945	629.5
275.176	661.5
275.408	612.5
275.64	573.5
275.872	581.5
276.104	525.5
276.335	487.5
276.567	483.5
276.799	496.5
277.031	507.5
277.262	503.5
277.494	477.5
277.726	482.5
277.957	473.5
278.189	476.5
278.421	480.5
278.652	487.5
278.884	508.5
279.115	486.5
279.347	515.5
279.579	487.5
279.81	468.5
280.042	470.5
280.273	486.5
280.505	481.5
280.736	499.5
280.968	503.5
281.199	530.5
281.431	528.5
281.662	500.5
281.894	523.5
282.125	500.5
282.356	521.5
282.588	490.5
282.819	518.5
283.051	519.5
283.282	502.5
283.513	524.5
283.745	535.5
283.976	519.5
284.207	531.5
284.439	547.5
284.67	522.5
284.901	537.5
285.132	517.5
285.364	551.5
285.595	531.5
285.826	555.5
286.057	557.5
286.288	560.5
286.52	561.5
286.751	555.5
286.982	547.5
287.213	543.5
287.444	550.5
287.675	554.5
287.906	546.5
288.138	553.5
288.369	557.5
288.6	568.5
288.831	551.5
289.062	545.5
289.293	549.5
289.524	548.5
289.755	580.5
289.986	553.5
290.217	561.5
290.448	544.5
290.679	543.5
290.91	565.5
291.141	553.5
291.371	566.5
291.602	570.5
291.833	554.5
292.064	569.5
292.295	571.5
292.526	568.5
292.757	574.5
292.987	576.5
293.218	555.5
293.449	549.5
293.68	589.5
293.91	585.5
294.141	570.5
294.372	554.5
294.603	596.5
294.833	602.5
295.064	570.5
295.295	588.5
295.525	584.5
295.756	579.5
295.987	575.5
296.217	581.5
296.448	576.5
296.679	592.5
296.909	587.5
297.14	617.5
297.37	631.5
297.601	595.5
297.831	592.5
298.062	601.5
298.292	613.5
298.523	627.5
298.753	631.5
298.984	618.5
299.214	605.5
299.445	615.5
299.675	625.5
299.905	629.5
300.136	595.5
300.366	612.5
300.597	599.5
300.827	605.5
301.057	639.5
301.288	615.5
301.518	631.5
301.748	626.5
301.979	635.5
302.209	662.5
302.439	643.5
302.669	635.5
302.9	653.5
303.13	645.5
303.36	646.5
303.59	635.5
303.82	606.5
304.051	666.5
304.281	635.5
304.511	635.5
304.741	638.5
304.971	639.5
305.201	638.5
305.431	646.5
305.661	647.5
305.891	661.5
306.121	661.5
306.352	652.5
306.582	653.5
306.812	663.5
307.042	652.5
307.272	653.5
307.502	641.5
307.731	667.5
307.961	663.5
308.191	642.5
308.421	621.5
308.651	667.5
308.881	643.5
309.111	662.5
309.341	633.5
309.571	659.5
309.8	692.5
310.03	658.5
310.26	675.5
310.49	666.5
310.72	640.5
310.949	635.5
311.179	659.5
311.409	672.5
311.639	668.5
311.868	655.5
312.098	661.5
312.328	677.5
312.557	661.5
312.787	682.5
313.017	677.5
313.246	694.5
313.476	659.5
313.706	673.5
313.935	690.5
314.165	691.5
314.394	673.5
314.624	685.5
314.853	674.5
315.083	701.5
315.312	727.5
315.542	697.5
315.771	697.5
316.001	679.5
316.23	695.5
316.46	708.5
316.689	707.5
316.919	697.5
317.148	716.5
317.377	700.5
317.607	687.5
317.836	709.5
318.065	692.5
318.295	708.5
318.524	708.5
318.753	700.5
318.983	704.5
319.212	711.5
319.441	682.5
319.67	691.5
319.9	727.5
320.129	704.5
320.358	706.5
320.587	703.5
320.816	729.5
321.046	697.5
321.275	730.5
321.504	715.5
321.733	745.5
321.962	737.5
322.191	717.5
322.42	736.5
322.649	725.5
322.878	741.5
323.108	727.5
323.337	715.5
323.566	716.5
323.795	743.5
324.024	746.5
324.253	734.5
324.482	723.5
324.71	725.5
324.939	744.5
325.168	759.5
325.397	721.5
325.626	739.5
325.855	752.5
326.084	765.5
326.313	737.5
326.542	765.5
326.77	796.5
326.999	775.5
327.228	751.5
327.457	760.5
327.686	775.5
327.914	794.5
328.143	779.5
328.372	781.5
328.6	771.5
328.829	794.5
329.058	759.5
329.287	737.5
329.515	787.5
329.744	758.5
329.972	785.5
330.201	811.5
330.43	787.5
330.658	757.5
330.887	816.5
331.115	781.5
331.344	775.5
331.572	788.5
331.801	856.5
332.03	803.5
332.258	789.5
332.486	833.5
332.715	842.5
332.943	821.5
333.172	823.5
333.4	822.5
333.629	867.5
333.857	897.5
334.085	882.5
334.314	876.5
334.542	889.5
334.771	891.5
334.999	895.5
335.227	908.5
335.455	893.5
335.684	928.5
335.912	896.5
336.14	895.5
336.369	885.5
336.597	892.5
336.825	872.5
337.053	875.5
337.281	865.5
337.51	877.5
337.738	876.5
337.966	845.5
338.194	846.5
338.422	844.5
338.65	849.5
338.878	860.5
339.106	811.5
339.334	868.5
339.562	822.5
339.79	807.5
340.018	825.5
340.246	831.5
340.474	845.5
340.702	859.5
340.93	823.5
341.158	826.5
341.386	837.5
341.614	848.5
341.842	831.5
342.07	847.5
342.298	823.5
342.526	837.5
342.754	837.5
342.981	840.5
343.209	835.5
343.437	831.5
343.665	833.5
343.893	867.5
344.12	910.5
344.348	889.5
344.576	892.5
344.804	870.5
345.031	851.5
345.259	844.5
345.487	823.5
345.714	805.5
345.942	787.5
346.17	837.5
346.397	810.5
346.625	818.5
346.853	817.5
347.08	796.5
347.308	799.5
347.535	796.5
347.763	823.5
347.99	783.5
348.218	770.5
348.445	795.5
348.673	765.5
348.9	776.5
349.128	767.5
349.355	808.5
349.583	780.5
349.81	795.5
350.037	775.5
350.265	774.5
350.492	769.5
350.72	761.5
350.947	745.5
351.174	796.5
351.402	803.5
351.629	742.5
351.856	760.5
352.083	797.5
352.311	783.5
352.538	788.5
352.765	792.5
352.992	770.5
353.22	760.5
353.447	764.5
353.674	795.5
353.901	783.5
354.128	779.5
354.355	775.5
354.583	769.5
354.81	771.5
355.037	791.5
355.264	778.5
355.491	760.5
355.718	805.5
355.945	803.5
356.172	793.5
356.399	819.5
356.626	802.5
356.853	811.5
357.08	779.5
357.307	804.5
357.534	773.5
357.761	808.5
357.988	796.5
358.215	817.5
358.441	872.5
358.668	824.5
358.895	789.5
359.122	771.5
359.349	769.5
359.576	785.5
359.802	796.5
360.029	805.5
360.256	771.5
360.483	786.5
360.709	804.5
360.936	820.5
361.163	833.5
361.39	800.5
361.616	832.5
361.843	822.5
362.07	800.5
362.296	806.5
362.523	775.5
362.749	792.5
362.976	801.5
363.203	805.5
363.429	837.5
363.656	821.5
363.882	784.5
364.109	803.5
364.335	784.5
364.562	803.5
364.788	818.5
365.015	845.5
365.241	797.5
365.468	791.5
365.694	804.5
365.92	832.5
366.147	839.5
366.373	808.5
366.599	804.5
366.826	805.5
367.052	802.5
367.278	796.5
367.505	835.5
367.731	819.5
367.957	801.5
368.184	856.5
368.41	843.5
368.636	819.5
368.862	844.5
369.089	843.5
369.315	813.5
369.541	808.5
369.767	832.5
369.993	848.5
370.219	844.5
370.445	864.5
370.672	891.5
370.898	855.5
371.124	869.5
371.35	869.5
371.576	840.5
371.802	868.5
372.028	918.5
372.254	887.5
372.48	929.5
372.706	890.5
372.932	901.5
373.158	908.5
373.384	931.5
373.61	945.5
373.835	983.5
374.061	916.5
374.287	895.5
374.513	899.5
374.739	946.5
374.965	961.5
375.191	959.5
375.416	933.5
375.642	922.5
375.868	907.5
376.094	948.5
376.319	919.5
376.545	919.5
376.771	913.5
376.997	870.5
377.222	847.5
377.448	878.5
377.674	849.5
377.899	886.5
378.125	877.5
378.35	893.5
378.576	873.5
378.802	877.5
379.027	862.5
379.253	875.5
379.478	849.5
379.704	881.5
379.929	879.5
380.155	884.5
380.38	865.5
380.606	899.5
380.831	878.5
381.057	903.5
381.282	868.5
381.507	891.5
381.733	895.5
381.958	935.5
382.184	956.5
382.409	975.5
382.634	935.5
382.86	969.5
383.085	926.5
383.31	902.5
383.535	943.5
383.761	954.5
383.986	968.5
384.211	965.5
384.436	992.5
384.662	959.5
384.887	974.5
385.112	989.5
385.337	1010.5
385.562	1015.5
385.787	993.5
386.013	1010.5
386.238	1007.5
386.463	1031.5
386.688	1006.5
386.913	995.5
387.138	1014.5
387.363	1011.5
387.588	1024.5
387.813	1023.5
388.038	1036.5
388.263	1029.5
388.488	1032.5
388.713	1047.5
388.938	1027.5
389.163	1042.5
389.387	1041.5
389.612	1026.5
389.837	1010.5
390.062	1048.5
390.287	1048.5
390.512	1044.5
390.736	1010.5
390.961	1065.5
391.186	1052.5
391.411	1066.5
391.636	1049.5
391.86	1079.5
392.085	1089.5
392.31	1075.5
392.534	1079.5
392.759	1085.5
392.984	1082.5
393.208	1111.5
393.433	1066.5
393.658	1057.5
393.882	1071.5
394.107	1028.5
394.331	1053.5
394.556	1079.5
394.78	1077.5
395.005	1074.5
395.229	1074.5
395.454	1110.5
395.678	1114.5
395.903	1104.5
396.127	1121.5
396.352	1119.5
396.576	1109.5
396.801	1084.5
397.025	1153.5
397.249	1147.5
397.474	1153.5
397.698	1120.5
397.922	1157.5
398.147	1133.5
398.371	1158.5
398.595	1205.5
398.82	1238.5
399.044	1243.5
399.268	1317.5
399.492	1362.5
399.717	1379.5
399.941	1385.5
400.165	1337.5
400.389	1405.5
400.613	1325.5
400.837	1288.5
401.062	1268.5
401.286	1275.5
401.51	1244.5
401.734	1215.5
401.958	1245.5
402.182	1251.5
402.406	1227.5
402.63	1212.5
402.854	1255.5
403.078	1226.5
403.302	1204.5
403.526	1250.5
403.75	1216.5
403.974	1233.5
404.198	1229.5
404.422	1265.5
404.645	1250.5
404.869	1264.5
405.093	1240.5
405.317	1253.5
405.541	1284.5
405.765	1244.5
405.988	1273.5
406.212	1317.5
406.436	1336.5
406.66	1352.5
406.883	1323.5
407.107	1337.5
407.331	1433.5
407.555	1414.5
407.778	1428.5
408.002	1376.5
408.226	1404.5
408.449	1408.5
408.673	1379.5
408.896	1360.5
409.12	1331.5
409.344	1356.5
409.567	1346.5
409.791	1321.5
410.014	1353.5
410.238	1335.5
410.461	1318.5
410.685	1313.5
410.908	1335.5
411.132	1287.5
411.355	1249.5
411.578	1278.5
411.802	1293.5
412.025	1253.5
412.249	1298.5
412.472	1335.5
412.695	1291.5
412.919	1265.5
413.142	1275.5
413.365	1292.5
413.589	1273.5
413.812	1223.5
414.035	1222.5
414.258	1257.5
414.482	1237.5
414.705	1251.5
414.928	1258.5
415.151	1260.5
415.374	1238.5
415.597	1243.5
415.821	1230.5
416.044	1198.5
416.267	1229.5
416.49	1228.5
416.713	1206.5
416.936	1203.5
417.159	1223.5
417.382	1215.5
417.605	1216.5
417.828	1174.5
418.051	1244.5
418.274	1204.5
418.497	1177.5
418.72	1193.5
418.943	1197.5
419.166	1238.5
419.389	1330.5
419.611	1308.5
419.834	1267.5
420.057	1267.5
420.28	1235.5
420.503	1165.5
420.726	1193.5
420.948	1147.5
421.171	1199.5
421.394	1156.5
421.617	1179.5
421.839	1190.5
422.062	1155.5
422.285	1178.5
422.507	1170.5
422.73	1171.5
422.953	1183.5
423.175	1192.5
423.398	1165.5
423.621	1147.5
423.843	1201.5
424.066	1187.5
424.288	1168.5
424.511	1201.5
424.733	1179.5
424.956	1172.5
425.178	1166.5
425.401	1157.5
425.623	1212.5
425.846	1158.5
426.068	1153.5
426.291	1163.5
426.513	1153.5
426.735	1138.5
426.958	1154.5
427.18	1163.5
427.402	1178.5
427.625	1159.5
427.847	1155.5
428.069	1162.5
428.292	1172.5
428.514	1172.5
428.736	1146.5
428.958	1165.5
429.181	1125.5
429.403	1145.5
429.625	1114.5
429.847	1130.5
430.069	1158.5
430.292	1141.5
430.514	1133.5
430.736	1122.5
430.958	1145.5
431.18	1167.5
431.402	1123.5
431.624	1123.5
431.846	1119.5
432.068	1151.5
432.29	1145.5
432.512	1130.5
432.734	1203.5
432.956	1171.5
433.178	1180.5
433.4	1195.5
433.622	1155.5
433.844	1190.5
434.066	1152.5
434.287	1159.5
434.509	1169.5
434.731	1167.5
434.953	1196.5
435.175	1192.5
435.397	1189.5
435.618	1209.5
435.84	1157.5
436.062	1146.5
436.284	1133.5
436.505	1127.5
436.727	1173.5
436.949	1141.5
437.17	1111.5
437.392	1125.5
437.614	1137.5
437.835	1109.5
438.057	1138.5
438.278	1135.5
438.5	1144.5
438.721	1129.5
438.943	1119.5
439.165	1117.5
439.386	1138.5
439.608	1130.5
439.829	1120.5
440.05	1163.5
440.272	1127.5
440.493	1130.5
440.715	1187.5
440.936	1147.5
441.158	1138.5
441.379	1187.5
441.6	1208.5
441.822	1154.5
442.043	1185.5
442.264	1187.5
442.486	1155.5
442.707	1192.5
442.928	1169.5
443.149	1176.5
443.371	1161.5
443.592	1158.5
443.813	1160.5
444.034	1216.5
444.255	1180.5
444.476	1218.5
444.698	1224.5
444.919	1228.5
445.14	1340.5
445.361	1253.5
445.582	1213.5
445.803	1187.5
446.024	1196.5
446.245	1160.5
446.466	1186.5
446.687	1177.5
446.908	1149.5
447.129	1138.5
447.35	1138.5
447.571	1103.5
447.792	1084.5
448.013	1125.5
448.234	1048.5
448.455	1074.5
448.675	1043.5
448.896	1075.5
449.117	1056.5
449.338	1079.5
449.559	1075.5
449.779	1053.5
450	1047.5
450.221	1043.5
450.442	1037.5
450.662	1047.5
450.883	1045.5
451.104	1037.5
451.324	1048.5
451.545	1013.5
451.766	1047.5
451.986	1045.5
452.207	1038.5
452.428	1050.5
452.648	1059.5
452.869	1016.5
453.089	1030.5
453.31	1024.5
453.53	998.5
453.751	996.5
453.971	994.5
454.192	1028.5
454.412	979.5
454.633	1010.5
454.853	1007.5
455.073	990.5
455.294	1034.5
455.514	994.5
455.734	986.5
455.955	972.5
456.175	989.5
456.395	984.5
456.616	948.5
456.836	995.5
457.056	1028.5
457.276	1018.5
457.497	1012.5
457.717	1029.5
457.937	1024.5
458.157	1036.5
458.377	1033.5
458.598	1079.5
458.818	1060.5
459.038	1068.5
459.258	1085.5
459.478	1146.5
459.698	1124.5
459.918	1109.5
460.138	1183.5
460.358	1149.5
460.578	1210.5
460.798	1199.5
461.018	1218.5
461.238	1226.5
461.458	1192.5
461.678	1199.5
461.898	1228.5
462.118	1271.5
462.338	1308.5
462.558	1339.5
462.777	1314.5
462.997	1339.5
463.217	1347.5
463.437	1402.5
463.657	1365.5
463.876	1353.5
464.096	1331.5
464.316	1327.5
464.536	1294.5
464.755	1301.5
464.975	1309.5
465.195	1251.5
465.414	1219.5
465.634	1207.5
465.854	1181.5
466.073	1169.5
466.293	1168.5
466.512	1146.5
466.732	1161.5
466.951	1116.5
467.171	1083.5
467.391	1118.5
467.61	1107.5
467.829	1109.5
468.049	1110.5
468.268	1093.5
468.488	1085.5
468.707	1114.5
468.927	1111.5
469.146	1107.5
469.365	1126.5
469.585	1111.5
469.804	1120.5
470.023	1156.5
470.243	1086.5
470.462	1117.5
470.681	1114.5
470.901	1107.5
471.12	1133.5
471.339	1125.5
471.558	1128.5
471.777	1104.5
471.997	1111.5
472.216	1139.5
472.435	1122.5
472.654	1063.5
472.873	1097.5
473.092	1133.5
473.311	1119.5
473.53	1095.5
473.749	1085.5
473.968	1103.5
474.187	1083.5
474.406	1095.5
474.625	1124.5
474.844	1114.5
475.063	1129.5
475.282	1116.5
475.501	1111.5
475.72	1137.5
475.939	1144.5
476.158	1133.5
476.377	1168.5
476.596	1215.5
476.814	1229.5
477.033	1183.5
477.252	1211.5
477.471	1187.5
477.69	1207.5
477.908	1235.5
478.127	1239.5
478.346	1262.5
478.564	1279.5
478.783	1277.5
479.002	1285.5
479.22	1307.5
479.439	1359.5
479.658	1338.5
479.876	1325.5
480.095	1307.5
480.313	1338.5
480.532	1319.5
480.751	1337.5
480.969	1333.5
481.188	1321.5
481.406	1384.5
481.624	1344.5
481.843	1268.5
482.061	1274.5
482.28	1333.5
482.498	1326.5
482.717	1299.5
482.935	1353.5
483.153	1315.5
483.372	1312.5
483.59	1320.5
483.808	1315.5
484.027	1316.5
484.245	1291.5
484.463	1318.5
484.681	1337.5
484.9	1373.5
485.118	1349.5
485.336	1345.5
485.554	1317.5
485.772	1341.5
485.99	1350.5
486.209	1330.5
486.427	1331.5
486.645	1332.5
486.863	1363.5
487.081	1344.5
487.299	1349.5
487.517	1344.5
487.735	1351.5
487.953	1357.5
488.171	1370.5
488.389	1367.5
488.607	1331.5
488.825	1361.5
489.043	1333.5
489.261	1327.5
489.479	1353.5
489.696	1306.5
489.914	1343.5
490.132	1345.5
490.35	1351.5
490.568	1356.5
490.786	1345.5
491.003	1339.5
491.221	1379.5
491.439	1370.5
491.657	1364.5
491.874	1369.5
492.092	1402.5
492.31	1437.5
492.527	1378.5
492.745	1397.5
492.963	1382.5
493.18	1413.5
493.398	1405.5
493.615	1380.5
493.833	1393.5
494.05	1395.5
494.268	1383.5
494.485	1423.5
494.703	1371.5
494.92	1433.5
495.138	1434.5
495.355	1406.5
495.573	1422.5
495.79	1459.5
496.008	1468.5
496.225	1447.5
496.442	1453.5
496.66	1495.5
496.877	1498.5
497.094	1519.5
497.312	1517.5
497.529	1533.5
497.746	1562.5
497.963	1623.5
498.181	1659.5
498.398	1689.5
498.615	1721.5
498.832	1791.5
499.049	1857.5
499.267	1885.5
499.484	1970.5
499.701	2060.5
499.918	2117.5
500.135	2241.5
500.352	2293.5
500.569	2398.5
500.786	2328.5
501.003	2335.5
501.22	2279.5
501.437	2147.5
501.654	2027.5
501.871	1976.5
502.088	1882.5
502.305	1795.5
502.522	1750.5
502.739	1727.5
502.956	1643.5
503.172	1622.5
503.389	1564.5
503.606	1542.5
503.823	1532.5
504.04	1548.5
504.256	1520.5
504.473	1456.5
504.69	1482.5
504.907	1469.5
505.123	1419.5
505.34	1413.5
505.557	1386.5
505.773	1395.5
505.99	1369.5
506.207	1317.5
506.423	1290.5
506.64	1299.5
506.856	1274.5
507.073	1278.5
507.289	1246.5
507.506	1252.5
507.722	1227.5
507.939	1256.5
508.155	1244.5
508.372	1219.5
508.588	1207.5
508.805	1184.5
509.021	1178.5
509.238	1155.5
509.454	1153.5
509.67	1135.5
509.887	1119.5
510.103	1146.5
510.319	1159.5
510.536	1121.5
510.752	1109.5
510.968	1114.5
511.184	1074.5
511.401	1125.5
