Data from Fe(NO3)3@0.1M.TitratingCurve.Agarose3%dH2O.NegLispCup.LampEnergy10.LIBS07252019_HRD10591_16-39-25-332.txt Node
Date: Thu Jul 25 16:39:25 EDT 2019
User: cochatt
Spectrometer: HR+D1059
Trigger mode: 1
Integration Time (sec): 1.000000E-1
Scans to average: 1
Electric dark correction enabled: true
Nonlinearity correction enabled: false
Boxcar width: 0
XAxis mode: Wavelengths
Number of Pixels in Spectrum: 2048
>>>>>Begin Spectral Data<<<<<
223.165	-16.25
223.4	-16.25
223.635	-16.25
223.869	-28.25
224.104	-21.25
224.338	-11.25
224.573	-14.25
224.808	-9.25
225.042	1.75
225.277	-11.25
225.511	-2.25
225.746	2.75
225.98	2.75
226.215	20.75
226.449	9.75
226.683	21.75
226.918	24.75
227.152	29.75
227.387	40.75
227.621	32.75
227.856	26.75
228.09	47.75
228.324	43.75
228.559	50.75
228.793	67.75
229.027	78.75
229.262	80.75
229.496	77.75
229.73	88.75
229.964	89.75
230.199	91.75
230.433	105.75
230.667	94.75
230.901	89.75
231.136	92.75
231.37	101.75
231.604	92.75
231.838	100.75
232.072	114.75
232.306	104.75
232.541	82.75
232.775	103.75
233.009	106.75
233.243	106.75
233.477	84.75
233.711	98.75
233.945	98.75
234.179	104.75
234.413	107.75
234.647	91.75
234.881	109.75
235.115	84.75
235.349	104.75
235.583	110.75
235.817	94.75
236.051	106.75
236.285	93.75
236.519	95.75
236.753	105.75
236.987	110.75
237.221	101.75
237.455	102.75
237.689	96.75
237.922	97.75
238.156	98.75
238.39	106.75
238.624	91.75
238.858	100.75
239.091	92.75
239.325	95.75
239.559	121.75
239.793	95.75
240.027	106.75
240.26	106.75
240.494	113.75
240.728	117.75
240.961	112.75
241.195	107.75
241.429	113.75
241.662	111.75
241.896	106.75
242.13	117.75
242.363	97.75
242.597	116.75
242.83	126.75
243.064	110.75
243.298	113.75
243.531	123.75
243.765	116.75
243.998	110.75
244.232	125.75
244.465	122.75
244.699	114.75
244.932	101.75
245.166	119.75
245.399	95.75
245.633	113.75
245.866	115.75
246.099	117.75
246.333	121.75
246.566	120.75
246.8	125.75
247.033	117.75
247.266	122.75
247.5	127.75
247.733	132.75
247.966	129.75
248.2	125.75
248.433	125.75
248.666	137.75
248.899	120.75
249.133	116.75
249.366	133.75
249.599	118.75
249.832	114.75
250.066	140.75
250.299	135.75
250.532	120.75
250.765	121.75
250.998	128.75
251.231	125.75
251.465	139.75
251.698	135.75
251.931	138.75
252.164	127.75
252.397	125.75
252.63	128.75
252.863	126.75
253.096	132.75
253.329	133.75
253.562	150.75
253.795	142.75
254.028	144.75
254.261	130.75
254.494	147.75
254.727	133.75
254.96	142.75
255.193	126.75
255.426	122.75
255.659	120.75
255.892	138.75
256.124	127.75
256.357	148.75
256.59	137.75
256.823	141.75
257.056	145.75
257.289	145.75
257.521	150.75
257.754	148.75
257.987	140.75
258.22	153.75
258.452	135.75
258.685	160.75
258.918	158.75
259.151	143.75
259.383	135.75
259.616	136.75
259.849	149.75
260.081	144.75
260.314	167.75
260.547	159.75
260.779	167.75
261.012	156.75
261.244	149.75
261.477	147.75
261.71	171.75
261.942	145.75
262.175	161.75
262.407	148.75
262.64	159.75
262.872	157.75
263.105	150.75
263.337	150.75
263.57	147.75
263.802	146.75
264.035	138.75
264.267	136.75
264.499	166.75
264.732	165.75
264.964	150.75
265.197	167.75
265.429	158.75
265.661	163.75
265.894	170.75
266.126	160.75
266.358	162.75
266.591	151.75
266.823	160.75
267.055	173.75
267.287	183.75
267.52	158.75
267.752	159.75
267.984	167.75
268.216	173.75
268.448	168.75
268.681	162.75
268.913	161.75
269.145	165.75
269.377	155.75
269.609	161.75
269.841	174.75
270.073	162.75
270.306	161.75
270.538	182.75
270.77	188.75
271.002	173.75
271.234	166.75
271.466	171.75
271.698	181.75
271.93	159.75
272.162	177.75
272.394	156.75
272.626	172.75
272.858	187.75
273.09	188.75
273.322	168.75
273.553	174.75
273.785	175.75
274.017	168.75
274.249	173.75
274.481	194.75
274.713	184.75
274.945	189.75
275.176	181.75
275.408	190.75
275.64	196.75
275.872	173.75
276.104	181.75
276.335	178.75
276.567	189.75
276.799	198.75
277.031	209.75
277.262	177.75
277.494	189.75
277.726	181.75
277.957	176.75
278.189	173.75
278.421	191.75
278.652	189.75
278.884	182.75
279.115	189.75
279.347	190.75
279.579	186.75
279.81	182.75
280.042	191.75
280.273	182.75
280.505	208.75
280.736	195.75
280.968	200.75
281.199	196.75
281.431	199.75
281.662	202.75
281.894	190.75
282.125	185.75
282.356	214.75
282.588	200.75
282.819	200.75
283.051	199.75
283.282	198.75
283.513	176.75
283.745	193.75
283.976	214.75
284.207	187.75
284.439	197.75
284.67	193.75
284.901	212.75
285.132	213.75
285.364	194.75
285.595	199.75
285.826	211.75
286.057	206.75
286.288	201.75
286.52	211.75
286.751	209.75
286.982	206.75
287.213	197.75
287.444	217.75
287.675	216.75
287.906	224.75
288.138	210.75
288.369	209.75
288.6	233.75
288.831	205.75
289.062	200.75
289.293	244.75
289.524	207.75
289.755	222.75
289.986	218.75
290.217	217.75
290.448	208.75
290.679	226.75
290.91	210.75
291.141	232.75
291.371	211.75
291.602	218.75
291.833	206.75
292.064	236.75
292.295	209.75
292.526	223.75
292.757	209.75
292.987	219.75
293.218	227.75
293.449	222.75
293.68	222.75
293.91	206.75
294.141	224.75
294.372	232.75
294.603	207.75
294.833	214.75
295.064	214.75
295.295	217.75
295.525	240.75
295.756	214.75
295.987	226.75
296.217	225.75
296.448	224.75
296.679	221.75
296.909	240.75
297.14	223.75
297.37	246.75
297.601	224.75
297.831	223.75
298.062	224.75
298.292	241.75
298.523	215.75
298.753	231.75
298.984	248.75
299.214	241.75
299.445	237.75
299.675	231.75
299.905	234.75
300.136	233.75
300.366	215.75
300.597	245.75
300.827	231.75
301.057	233.75
301.288	250.75
301.518	244.75
301.748	244.75
301.979	264.75
302.209	246.75
302.439	241.75
302.669	227.75
302.9	233.75
303.13	238.75
303.36	253.75
303.59	241.75
303.82	229.75
304.051	247.75
304.281	244.75
304.511	233.75
304.741	229.75
304.971	258.75
305.201	253.75
305.431	232.75
305.661	253.75
305.891	248.75
306.121	242.75
306.352	227.75
306.582	239.75
306.812	237.75
307.042	255.75
307.272	244.75
307.502	250.75
307.731	240.75
307.961	239.75
308.191	235.75
308.421	265.75
308.651	242.75
308.881	232.75
309.111	243.75
309.341	246.75
309.571	244.75
309.8	224.75
310.03	237.75
310.26	241.75
310.49	231.75
310.72	249.75
310.949	245.75
311.179	244.75
311.409	242.75
311.639	253.75
311.868	267.75
312.098	255.75
312.328	251.75
312.557	245.75
312.787	257.75
313.017	274.75
313.246	259.75
313.476	261.75
313.706	259.75
313.935	260.75
314.165	245.75
314.394	262.75
314.624	245.75
314.853	277.75
315.083	251.75
315.312	281.75
315.542	257.75
315.771	243.75
316.001	268.75
316.23	256.75
316.46	263.75
316.689	263.75
316.919	248.75
317.148	247.75
317.377	256.75
317.607	241.75
317.836	241.75
318.065	247.75
318.295	260.75
318.524	256.75
318.753	240.75
318.983	255.75
319.212	258.75
319.441	256.75
319.67	244.75
319.9	261.75
320.129	264.75
320.358	243.75
320.587	260.75
320.816	255.75
321.046	261.75
321.275	247.75
321.504	277.75
321.733	257.75
321.962	267.75
322.191	245.75
322.42	260.75
322.649	264.75
322.878	274.75
323.108	257.75
323.337	275.75
323.566	267.75
323.795	288.75
324.024	282.75
324.253	277.75
324.482	269.75
324.71	270.75
324.939	247.75
325.168	276.75
325.397	273.75
325.626	258.75
325.855	263.75
326.084	270.75
326.313	277.75
326.542	287.75
326.77	277.75
326.999	286.75
327.228	270.75
327.457	273.75
327.686	285.75
327.914	275.75
328.143	280.75
328.372	297.75
328.6	290.75
328.829	280.75
329.058	296.75
329.287	267.75
329.515	284.75
329.744	294.75
329.972	301.75
330.201	269.75
330.43	296.75
330.658	293.75
330.887	296.75
331.115	294.75
331.344	301.75
331.572	279.75
331.801	298.75
332.03	296.75
332.258	317.75
332.486	313.75
332.715	328.75
332.943	345.75
333.172	345.75
333.4	360.75
333.629	366.75
333.857	369.75
334.085	374.75
334.314	358.75
334.542	341.75
334.771	356.75
334.999	343.75
335.227	330.75
335.455	334.75
335.684	344.75
335.912	324.75
336.14	325.75
336.369	334.75
336.597	316.75
336.825	329.75
337.053	330.75
337.281	313.75
337.51	310.75
337.738	314.75
337.966	304.75
338.194	309.75
338.422	329.75
338.65	303.75
338.878	308.75
339.106	289.75
339.334	315.75
339.562	314.75
339.79	283.75
340.018	295.75
340.246	274.75
340.474	282.75
340.702	297.75
340.93	306.75
341.158	285.75
341.386	293.75
341.614	290.75
341.842	305.75
342.07	300.75
342.298	308.75
342.526	302.75
342.754	277.75
342.981	306.75
343.209	310.75
343.437	316.75
343.665	328.75
343.893	350.75
344.12	358.75
344.348	333.75
344.576	316.75
344.804	305.75
345.031	326.75
345.259	291.75
345.487	303.75
345.714	298.75
345.942	290.75
346.17	284.75
346.397	278.75
346.625	286.75
346.853	278.75
347.08	293.75
347.308	283.75
347.535	280.75
347.763	276.75
347.99	291.75
348.218	286.75
348.445	287.75
348.673	279.75
348.9	256.75
349.128	287.75
349.355	277.75
349.583	288.75
349.81	280.75
350.037	290.75
350.265	283.75
350.492	281.75
350.72	287.75
350.947	266.75
351.174	297.75
351.402	293.75
351.629	283.75
351.856	281.75
352.083	294.75
352.311	280.75
352.538	250.75
352.765	283.75
352.992	277.75
353.22	268.75
353.447	284.75
353.674	277.75
353.901	271.75
354.128	283.75
354.355	261.75
354.583	274.75
354.81	270.75
355.037	270.75
355.264	286.75
355.491	293.75
355.718	289.75
355.945	288.75
356.172	304.75
356.399	288.75
356.626	272.75
356.853	282.75
357.08	284.75
357.307	277.75
357.534	294.75
357.761	281.75
357.988	291.75
358.215	280.75
358.441	273.75
358.668	288.75
358.895	266.75
359.122	279.75
359.349	275.75
359.576	298.75
359.802	270.75
360.029	262.75
360.256	270.75
360.483	294.75
360.709	299.75
360.936	295.75
361.163	285.75
361.39	287.75
361.616	289.75
361.843	272.75
362.07	282.75
362.296	297.75
362.523	275.75
362.749	275.75
362.976	293.75
363.203	285.75
363.429	282.75
363.656	282.75
363.882	281.75
364.109	287.75
364.335	285.75
364.562	281.75
364.788	279.75
365.015	273.75
365.241	289.75
365.468	287.75
365.694	288.75
365.92	285.75
366.147	273.75
366.373	288.75
366.599	266.75
366.826	276.75
367.052	287.75
367.278	261.75
367.505	290.75
367.731	271.75
367.957	299.75
368.184	275.75
368.41	294.75
368.636	276.75
368.862	298.75
369.089	299.75
369.315	306.75
369.541	289.75
369.767	316.75
369.993	313.75
370.219	317.75
370.445	302.75
370.672	297.75
370.898	287.75
371.124	295.75
371.35	299.75
371.576	313.75
371.802	311.75
372.028	321.75
372.254	311.75
372.48	317.75
372.706	328.75
372.932	326.75
373.158	325.75
373.384	331.75
373.61	299.75
373.835	314.75
374.061	323.75
374.287	322.75
374.513	338.75
374.739	334.75
374.965	305.75
375.191	346.75
375.416	340.75
375.642	340.75
375.868	350.75
376.094	331.75
376.319	317.75
376.545	316.75
376.771	310.75
376.997	321.75
377.222	320.75
377.448	321.75
377.674	289.75
377.899	289.75
378.125	313.75
378.35	303.75
378.576	309.75
378.802	316.75
379.027	312.75
379.253	310.75
379.478	330.75
379.704	318.75
379.929	325.75
380.155	314.75
380.38	313.75
380.606	308.75
380.831	309.75
381.057	307.75
381.282	302.75
381.507	307.75
381.733	328.75
381.958	313.75
382.184	321.75
382.409	305.75
382.634	330.75
382.86	345.75
383.085	325.75
383.31	331.75
383.535	377.75
383.761	336.75
383.986	350.75
384.211	341.75
384.436	350.75
384.662	361.75
384.887	370.75
385.112	376.75
385.337	363.75
385.562	381.75
385.787	359.75
386.013	375.75
386.238	377.75
386.463	368.75
386.688	363.75
386.913	373.75
387.138	344.75
387.363	378.75
387.588	366.75
387.813	365.75
388.038	383.75
388.263	375.75
388.488	368.75
388.713	352.75
388.938	366.75
389.163	369.75
389.387	372.75
389.612	376.75
389.837	373.75
390.062	361.75
390.287	387.75
390.512	381.75
390.736	362.75
390.961	367.75
391.186	392.75
391.411	416.75
391.636	409.75
391.86	400.75
392.085	424.75
392.31	401.75
392.534	405.75
392.759	398.75
392.984	419.75
393.208	401.75
393.433	394.75
393.658	410.75
393.882	395.75
394.107	399.75
394.331	385.75
394.556	405.75
394.78	405.75
395.005	406.75
395.229	409.75
395.454	426.75
395.678	400.75
395.903	421.75
396.127	401.75
396.352	411.75
396.576	399.75
396.801	396.75
397.025	398.75
397.249	410.75
397.474	441.75
397.698	449.75
397.922	433.75
398.147	406.75
398.371	439.75
398.595	463.75
398.82	468.75
399.044	509.75
399.268	541.75
399.492	587.75
399.717	652.75
399.941	626.75
400.165	593.75
400.389	538.75
400.613	493.75
400.837	470.75
401.062	474.75
401.286	475.75
401.51	481.75
401.734	459.75
401.958	470.75
402.182	483.75
402.406	480.75
402.63	470.75
402.854	471.75
403.078	502.75
403.302	532.75
403.526	511.75
403.75	505.75
403.974	515.75
404.198	540.75
404.422	518.75
404.645	500.75
404.869	521.75
405.093	528.75
405.317	492.75
405.541	504.75
405.765	515.75
405.988	513.75
406.212	515.75
406.436	503.75
406.66	523.75
406.883	520.75
407.107	539.75
407.331	561.75
407.555	589.75
407.778	596.75
408.002	574.75
408.226	567.75
408.449	566.75
408.673	551.75
408.896	527.75
409.12	534.75
409.344	502.75
409.567	515.75
409.791	543.75
410.014	525.75
410.238	522.75
410.461	520.75
410.685	513.75
410.908	499.75
411.132	524.75
411.355	497.75
411.578	491.75
411.802	478.75
412.025	499.75
412.249	515.75
412.472	493.75
412.695	480.75
412.919	488.75
413.142	467.75
413.365	486.75
413.589	478.75
413.812	457.75
414.035	494.75
414.258	484.75
414.482	506.75
414.705	477.75
414.928	489.75
415.151	497.75
415.374	464.75
415.597	462.75
415.821	466.75
416.044	464.75
416.267	484.75
416.49	467.75
416.713	473.75
416.936	459.75
417.159	463.75
417.382	461.75
417.605	456.75
417.828	476.75
418.051	466.75
418.274	474.75
418.497	453.75
418.72	486.75
418.943	480.75
419.166	497.75
419.389	548.75
419.611	519.75
419.834	497.75
420.057	479.75
420.28	454.75
420.503	480.75
420.726	457.75
420.948	479.75
421.171	478.75
421.394	507.75
421.617	445.75
421.839	469.75
422.062	466.75
422.285	481.75
422.507	468.75
422.73	496.75
422.953	485.75
423.175	484.75
423.398	494.75
423.621	517.75
423.843	497.75
424.066	494.75
424.288	485.75
424.511	477.75
424.733	485.75
424.956	468.75
425.178	482.75
425.401	463.75
425.623	470.75
425.846	450.75
426.068	457.75
426.291	469.75
426.513	461.75
426.735	451.75
426.958	453.75
427.18	434.75
427.402	443.75
427.625	439.75
427.847	433.75
428.069	417.75
428.292	429.75
428.514	427.75
428.736	426.75
428.958	420.75
429.181	433.75
429.403	423.75
429.625	422.75
429.847	411.75
430.069	432.75
430.292	427.75
430.514	426.75
430.736	414.75
430.958	419.75
431.18	423.75
431.402	436.75
431.624	441.75
431.846	419.75
432.068	409.75
432.29	444.75
432.512	451.75
432.734	434.75
432.956	444.75
433.178	457.75
433.4	458.75
433.622	452.75
433.844	441.75
434.066	426.75
434.287	441.75
434.509	465.75
434.731	469.75
434.953	478.75
435.175	480.75
435.397	476.75
435.618	452.75
435.84	449.75
436.062	449.75
436.284	442.75
436.505	427.75
436.727	452.75
436.949	424.75
437.17	429.75
437.392	412.75
437.614	400.75
437.835	419.75
438.057	413.75
438.278	404.75
438.5	414.75
438.721	421.75
438.943	446.75
439.165	415.75
439.386	416.75
439.608	447.75
439.829	443.75
440.05	446.75
440.272	450.75
440.493	437.75
440.715	449.75
440.936	443.75
441.158	465.75
441.379	458.75
441.6	493.75
441.822	496.75
442.043	489.75
442.264	462.75
442.486	473.75
442.707	483.75
442.928	482.75
443.149	495.75
443.371	479.75
443.592	471.75
443.813	478.75
444.034	475.75
444.255	513.75
444.476	538.75
444.698	548.75
444.919	565.75
445.14	656.75
445.361	587.75
445.582	493.75
445.803	469.75
446.024	451.75
446.245	472.75
446.466	465.75
446.687	446.75
446.908	441.75
447.129	446.75
447.35	425.75
447.571	442.75
447.792	438.75
448.013	431.75
448.234	409.75
448.455	404.75
448.675	404.75
448.896	405.75
449.117	417.75
449.338	387.75
449.559	384.75
449.779	394.75
450	414.75
450.221	383.75
450.442	400.75
450.662	416.75
450.883	433.75
451.104	419.75
451.324	418.75
451.545	422.75
451.766	415.75
451.986	403.75
452.207	432.75
452.428	406.75
452.648	413.75
452.869	407.75
453.089	407.75
453.31	400.75
453.53	392.75
453.751	393.75
453.971	379.75
454.192	389.75
454.412	384.75
454.633	395.75
454.853	370.75
455.073	376.75
455.294	389.75
455.514	378.75
455.734	379.75
455.955	362.75
456.175	381.75
456.395	370.75
456.616	354.75
456.836	370.75
457.056	363.75
457.276	375.75
457.497	362.75
457.717	363.75
457.937	380.75
458.157	383.75
458.377	379.75
458.598	410.75
458.818	403.75
459.038	389.75
459.258	430.75
459.478	446.75
459.698	450.75
459.918	450.75
460.138	449.75
460.358	479.75
460.578	482.75
460.798	518.75
461.018	520.75
461.238	481.75
461.458	491.75
461.678	507.75
461.898	486.75
462.118	509.75
462.338	536.75
462.558	541.75
462.777	544.75
462.997	610.75
463.217	634.75
463.437	640.75
463.657	601.75
463.876	561.75
464.096	575.75
464.316	571.75
464.536	582.75
464.755	584.75
464.975	515.75
465.195	502.75
465.414	467.75
465.634	469.75
465.854	446.75
466.073	439.75
466.293	424.75
466.512	415.75
466.732	443.75
466.951	437.75
467.171	431.75
467.391	410.75
467.61	415.75
467.829	423.75
468.049	407.75
468.268	418.75
468.488	419.75
468.707	398.75
468.927	380.75
469.146	396.75
469.365	389.75
469.585	389.75
469.804	424.75
470.023	424.75
470.243	417.75
470.462	432.75
470.681	410.75
470.901	404.75
471.12	429.75
471.339	408.75
471.558	421.75
471.777	426.75
471.997	406.75
472.216	393.75
472.435	408.75
472.654	394.75
472.873	402.75
473.092	399.75
473.311	391.75
473.53	388.75
473.749	409.75
473.968	390.75
474.187	380.75
474.406	382.75
474.625	381.75
474.844	400.75
475.063	373.75
475.282	388.75
475.501	389.75
475.72	402.75
475.939	396.75
476.158	400.75
476.377	408.75
476.596	403.75
476.814	422.75
477.033	422.75
477.252	398.75
477.471	408.75
477.69	423.75
477.908	420.75
478.127	442.75
478.346	459.75
478.564	450.75
478.783	464.75
479.002	475.75
479.22	465.75
479.439	480.75
479.658	479.75
479.876	482.75
480.095	477.75
480.313	485.75
480.532	519.75
480.751	495.75
480.969	483.75
481.188	474.75
481.406	448.75
481.624	434.75
481.843	431.75
482.061	427.75
482.28	415.75
482.498	428.75
482.717	410.75
482.935	432.75
483.153	439.75
483.372	429.75
483.59	438.75
483.808	439.75
484.027	423.75
484.245	448.75
484.463	445.75
484.681	448.75
484.9	459.75
485.118	438.75
485.336	443.75
485.554	459.75
485.772	433.75
485.99	454.75
486.209	458.75
486.427	469.75
486.645	451.75
486.863	457.75
487.081	457.75
487.299	467.75
487.517	465.75
487.735	451.75
487.953	469.75
488.171	447.75
488.389	457.75
488.607	444.75
488.825	452.75
489.043	447.75
489.261	437.75
489.479	435.75
489.696	460.75
489.914	450.75
490.132	439.75
490.35	456.75
490.568	456.75
490.786	433.75
491.003	474.75
491.221	448.75
491.439	469.75
491.657	470.75
491.874	448.75
492.092	454.75
492.31	475.75
492.527	468.75
492.745	447.75
492.963	488.75
493.18	464.75
493.398	482.75
493.615	503.75
493.833	472.75
494.05	470.75
494.268	468.75
494.485	483.75
494.703	495.75
494.92	479.75
495.138	449.75
495.355	510.75
495.573	500.75
495.79	501.75
496.008	496.75
496.225	485.75
496.442	495.75
496.66	517.75
496.877	501.75
497.094	521.75
497.312	541.75
497.529	523.75
497.746	563.75
497.963	518.75
498.181	567.75
498.398	595.75
498.615	642.75
498.832	663.75
499.049	687.75
499.267	752.75
499.484	832.75
499.701	907.75
499.918	986.75
500.135	1087.75
500.352	1237.75
500.569	1303.75
500.786	1272.75
501.003	1209.75
501.22	1086.75
501.437	967.75
501.654	858.75
501.871	760.75
