Data from Fe(NO3)3@0.05M.TitratingCurve.Agarose3%dH2O.NegLispCup.LampEnergy10.LIBS07252019_HRD10591_16-48-10-334.txt Node
Date: Thu Jul 25 16:48:10 EDT 2019
User: cochatt
Spectrometer: HR+D1059
Trigger mode: 1
Integration Time (sec): 1.000000E-1
Scans to average: 1
Electric dark correction enabled: true
Nonlinearity correction enabled: false
Boxcar width: 0
XAxis mode: Wavelengths
Number of Pixels in Spectrum: 2048
>>>>>Begin Spectral Data<<<<<
223.165	-13.06
223.4	-13.06
223.635	-13.06
223.869	-2.06
224.104	-18.06
224.338	-13.06
224.573	-35.06
224.808	-2.06
225.042	-4.06
225.277	5.94
225.511	-11.06
225.746	8.94
225.98	0.94
226.215	-1.06
226.449	11.94
226.683	16.94
226.918	25.94
227.152	28.94
227.387	28.94
227.621	33.94
227.856	35.94
228.09	48.94
228.324	45.94
228.559	47.94
228.793	75.94
229.027	70.94
229.262	60.94
229.496	69.94
229.73	65.94
229.964	69.94
230.199	70.94
230.433	92.94
230.667	77.94
230.901	74.94
231.136	87.94
231.37	74.94
231.604	89.94
231.838	80.94
232.072	86.94
232.306	92.94
232.541	80.94
232.775	91.94
233.009	83.94
233.243	84.94
233.477	80.94
233.711	90.94
233.945	93.94
234.179	81.94
234.413	95.94
234.647	93.94
234.881	76.94
235.115	90.94
235.349	87.94
235.583	99.94
235.817	103.94
236.051	88.94
236.285	95.94
236.519	95.94
236.753	89.94
236.987	98.94
237.221	101.94
237.455	93.94
237.689	96.94
237.922	90.94
238.156	93.94
238.39	96.94
238.624	104.94
238.858	81.94
239.091	85.94
239.325	99.94
239.559	79.94
239.793	81.94
240.027	101.94
240.26	102.94
240.494	80.94
240.728	81.94
240.961	100.94
241.195	108.94
241.429	111.94
241.662	85.94
241.896	85.94
242.13	83.94
242.363	103.94
242.597	96.94
242.83	93.94
243.064	100.94
243.298	104.94
243.531	101.94
243.765	92.94
243.998	104.94
244.232	103.94
244.465	104.94
244.699	85.94
244.932	110.94
245.166	98.94
245.399	90.94
245.633	100.94
245.866	102.94
246.099	117.94
246.333	97.94
246.566	100.94
246.8	82.94
247.033	98.94
247.266	104.94
247.5	110.94
247.733	125.94
247.966	114.94
248.2	117.94
248.433	109.94
248.666	111.94
248.899	106.94
249.133	103.94
249.366	103.94
249.599	102.94
249.832	110.94
250.066	121.94
250.299	123.94
250.532	99.94
250.765	123.94
250.998	112.94
251.231	119.94
251.465	102.94
251.698	98.94
251.931	110.94
252.164	118.94
252.397	104.94
252.63	107.94
252.863	117.94
253.096	121.94
253.329	123.94
253.562	118.94
253.795	116.94
254.028	111.94
254.261	123.94
254.494	121.94
254.727	119.94
254.96	118.94
255.193	118.94
255.426	107.94
255.659	103.94
255.892	119.94
256.124	115.94
256.357	111.94
256.59	118.94
256.823	129.94
257.056	105.94
257.289	115.94
257.521	109.94
257.754	101.94
257.987	85.94
258.22	117.94
258.452	115.94
258.685	119.94
258.918	116.94
259.151	127.94
259.383	123.94
259.616	130.94
259.849	114.94
260.081	131.94
260.314	124.94
260.547	120.94
260.779	133.94
261.012	123.94
261.244	127.94
261.477	125.94
261.71	129.94
261.942	119.94
262.175	118.94
262.407	128.94
262.64	131.94
262.872	127.94
263.105	125.94
263.337	143.94
263.57	124.94
263.802	144.94
264.035	111.94
264.267	118.94
264.499	121.94
264.732	129.94
264.964	128.94
265.197	119.94
265.429	135.94
265.661	114.94
265.894	141.94
266.126	133.94
266.358	126.94
266.591	117.94
266.823	122.94
267.055	131.94
267.287	140.94
267.52	125.94
267.752	133.94
267.984	135.94
268.216	125.94
268.448	140.94
268.681	119.94
268.913	130.94
269.145	138.94
269.377	129.94
269.609	154.94
269.841	127.94
270.073	129.94
270.306	138.94
270.538	138.94
270.77	135.94
271.002	145.94
271.234	136.94
271.466	142.94
271.698	142.94
271.93	136.94
272.162	146.94
272.394	138.94
272.626	139.94
272.858	137.94
273.09	125.94
273.322	133.94
273.553	141.94
273.785	150.94
274.017	151.94
274.249	146.94
274.481	166.94
274.713	151.94
274.945	158.94
275.176	147.94
275.408	151.94
275.64	135.94
275.872	149.94
276.104	147.94
276.335	145.94
276.567	148.94
276.799	138.94
277.031	144.94
277.262	139.94
277.494	137.94
277.726	130.94
277.957	139.94
278.189	137.94
278.421	137.94
278.652	146.94
278.884	139.94
279.115	167.94
279.347	154.94
279.579	157.94
279.81	146.94
280.042	146.94
280.273	152.94
280.505	169.94
280.736	145.94
280.968	153.94
281.199	147.94
281.431	163.94
281.662	150.94
281.894	151.94
282.125	132.94
282.356	163.94
282.588	138.94
282.819	140.94
283.051	126.94
283.282	156.94
283.513	154.94
283.745	160.94
283.976	155.94
284.207	146.94
284.439	150.94
284.67	149.94
284.901	155.94
285.132	151.94
285.364	157.94
285.595	161.94
285.826	163.94
286.057	163.94
286.288	155.94
286.52	155.94
286.751	169.94
286.982	162.94
287.213	162.94
287.444	154.94
287.675	159.94
287.906	150.94
288.138	156.94
288.369	152.94
288.6	164.94
288.831	150.94
289.062	163.94
289.293	162.94
289.524	163.94
289.755	164.94
289.986	173.94
290.217	167.94
290.448	155.94
290.679	161.94
290.91	164.94
291.141	166.94
291.371	166.94
291.602	159.94
291.833	154.94
292.064	173.94
292.295	168.94
292.526	161.94
292.757	154.94
292.987	151.94
293.218	162.94
293.449	160.94
293.68	152.94
293.91	157.94
294.141	154.94
294.372	167.94
294.603	168.94
294.833	160.94
295.064	161.94
295.295	165.94
295.525	179.94
295.756	171.94
295.987	182.94
296.217	173.94
296.448	178.94
296.679	154.94
296.909	168.94
297.14	178.94
297.37	182.94
297.601	175.94
297.831	165.94
298.062	182.94
298.292	178.94
298.523	177.94
298.753	165.94
298.984	168.94
299.214	169.94
299.445	184.94
299.675	164.94
299.905	162.94
300.136	187.94
300.366	192.94
300.597	168.94
300.827	169.94
301.057	181.94
301.288	184.94
301.518	157.94
301.748	183.94
301.979	169.94
302.209	190.94
302.439	194.94
302.669	175.94
302.9	158.94
303.13	174.94
303.36	179.94
303.59	183.94
303.82	205.94
304.051	174.94
304.281	166.94
304.511	182.94
304.741	181.94
304.971	175.94
305.201	181.94
305.431	186.94
305.661	187.94
305.891	184.94
306.121	176.94
306.352	161.94
306.582	171.94
306.812	168.94
307.042	182.94
307.272	181.94
307.502	157.94
307.731	182.94
307.961	162.94
308.191	173.94
308.421	168.94
308.651	183.94
308.881	163.94
309.111	176.94
309.341	174.94
309.571	177.94
309.8	177.94
310.03	181.94
310.26	171.94
310.49	176.94
310.72	178.94
310.949	187.94
311.179	171.94
311.409	190.94
311.639	170.94
311.868	185.94
312.098	186.94
312.328	187.94
312.557	186.94
312.787	185.94
313.017	185.94
313.246	176.94
313.476	194.94
313.706	196.94
313.935	197.94
314.165	198.94
314.394	188.94
314.624	171.94
314.853	166.94
315.083	200.94
315.312	181.94
315.542	193.94
315.771	198.94
316.001	190.94
316.23	190.94
316.46	197.94
316.689	174.94
316.919	181.94
317.148	177.94
317.377	174.94
317.607	189.94
317.836	192.94
318.065	199.94
318.295	183.94
318.524	189.94
318.753	173.94
318.983	192.94
319.212	180.94
319.441	183.94
319.67	183.94
319.9	174.94
320.129	179.94
320.358	171.94
320.587	182.94
320.816	183.94
321.046	181.94
321.275	206.94
321.504	185.94
321.733	200.94
321.962	170.94
322.191	197.94
322.42	188.94
322.649	184.94
322.878	198.94
323.108	185.94
323.337	199.94
323.566	177.94
323.795	198.94
324.024	192.94
324.253	204.94
324.482	179.94
324.71	193.94
324.939	185.94
325.168	195.94
325.397	197.94
325.626	194.94
325.855	186.94
326.084	202.94
326.313	182.94
326.542	212.94
326.77	191.94
326.999	200.94
327.228	195.94
327.457	194.94
327.686	204.94
327.914	217.94
328.143	196.94
328.372	190.94
328.6	191.94
328.829	200.94
329.058	187.94
329.287	204.94
329.515	204.94
329.744	208.94
329.972	184.94
330.201	200.94
330.43	197.94
330.658	210.94
330.887	207.94
331.115	192.94
331.344	202.94
331.572	204.94
331.801	210.94
332.03	206.94
332.258	215.94
332.486	204.94
332.715	207.94
332.943	206.94
333.172	232.94
333.4	233.94
333.629	233.94
333.857	262.94
334.085	241.94
334.314	250.94
334.542	223.94
334.771	243.94
334.999	230.94
335.227	223.94
335.455	223.94
335.684	241.94
335.912	219.94
336.14	241.94
336.369	235.94
336.597	202.94
336.825	225.94
337.053	226.94
337.281	219.94
337.51	226.94
337.738	214.94
337.966	219.94
338.194	201.94
338.422	218.94
338.65	210.94
338.878	200.94
339.106	202.94
339.334	226.94
339.562	206.94
339.79	208.94
340.018	216.94
340.246	207.94
340.474	192.94
340.702	214.94
340.93	184.94
341.158	200.94
341.386	204.94
341.614	210.94
341.842	209.94
342.07	203.94
342.298	196.94
342.526	195.94
342.754	203.94
342.981	211.94
343.209	209.94
343.437	211.94
343.665	213.94
343.893	231.94
344.12	245.94
344.348	217.94
344.576	234.94
344.804	210.94
345.031	198.94
345.259	200.94
345.487	197.94
345.714	216.94
345.942	198.94
346.17	194.94
346.397	209.94
346.625	203.94
346.853	209.94
347.08	207.94
347.308	214.94
347.535	206.94
347.763	209.94
347.99	203.94
348.218	207.94
348.445	211.94
348.673	193.94
348.9	195.94
349.128	204.94
349.355	191.94
349.583	193.94
349.81	195.94
350.037	193.94
350.265	193.94
350.492	196.94
350.72	193.94
350.947	197.94
351.174	201.94
351.402	199.94
351.629	209.94
351.856	197.94
352.083	202.94
352.311	205.94
352.538	193.94
352.765	194.94
352.992	198.94
353.22	185.94
353.447	210.94
353.674	194.94
353.901	209.94
354.128	201.94
354.355	198.94
354.583	191.94
354.81	203.94
355.037	207.94
355.264	200.94
355.491	205.94
355.718	195.94
355.945	210.94
356.172	198.94
356.399	190.94
356.626	216.94
356.853	215.94
357.08	206.94
357.307	215.94
357.534	223.94
357.761	208.94
357.988	207.94
358.215	229.94
358.441	206.94
358.668	208.94
358.895	200.94
359.122	202.94
359.349	214.94
359.576	203.94
359.802	197.94
360.029	223.94
360.256	214.94
360.483	210.94
360.709	207.94
360.936	221.94
361.163	208.94
361.39	206.94
361.616	206.94
361.843	201.94
362.07	219.94
362.296	205.94
362.523	192.94
362.749	195.94
362.976	194.94
363.203	207.94
363.429	201.94
363.656	194.94
363.882	196.94
364.109	206.94
364.335	193.94
364.562	191.94
364.788	193.94
365.015	202.94
365.241	203.94
365.468	193.94
365.694	184.94
365.92	208.94
366.147	213.94
366.373	200.94
366.599	218.94
366.826	202.94
367.052	197.94
367.278	214.94
367.505	213.94
367.731	207.94
367.957	196.94
368.184	214.94
368.41	211.94
368.636	219.94
368.862	210.94
369.089	198.94
369.315	201.94
369.541	202.94
369.767	212.94
369.993	213.94
370.219	213.94
370.445	217.94
370.672	212.94
370.898	229.94
371.124	210.94
371.35	231.94
371.576	214.94
371.802	221.94
372.028	229.94
372.254	221.94
372.48	221.94
372.706	229.94
372.932	227.94
373.158	234.94
373.384	247.94
373.61	243.94
373.835	230.94
374.061	233.94
374.287	245.94
374.513	245.94
374.739	246.94
374.965	218.94
375.191	233.94
375.416	247.94
375.642	244.94
375.868	242.94
376.094	239.94
376.319	213.94
376.545	218.94
376.771	216.94
376.997	236.94
377.222	221.94
377.448	221.94
377.674	230.94
377.899	209.94
378.125	237.94
378.35	213.94
378.576	223.94
378.802	215.94
379.027	210.94
379.253	211.94
379.478	221.94
379.704	216.94
379.929	224.94
380.155	232.94
380.38	214.94
380.606	222.94
380.831	224.94
381.057	241.94
381.282	230.94
381.507	249.94
381.733	250.94
381.958	253.94
382.184	235.94
382.409	257.94
382.634	256.94
382.86	249.94
383.085	253.94
383.31	240.94
383.535	250.94
383.761	241.94
383.986	259.94
384.211	262.94
384.436	267.94
384.662	262.94
384.887	264.94
385.112	248.94
385.337	249.94
385.562	262.94
385.787	245.94
386.013	269.94
386.238	286.94
386.463	279.94
386.688	282.94
386.913	247.94
387.138	272.94
387.363	264.94
387.588	257.94
387.813	264.94
388.038	276.94
388.263	262.94
388.488	265.94
388.713	276.94
388.938	279.94
389.163	286.94
389.387	259.94
389.612	257.94
389.837	265.94
390.062	260.94
390.287	266.94
390.512	262.94
390.736	277.94
390.961	278.94
391.186	248.94
391.411	273.94
391.636	275.94
391.86	290.94
392.085	310.94
392.31	299.94
392.534	297.94
392.759	282.94
392.984	272.94
393.208	289.94
393.433	278.94
393.658	298.94
393.882	276.94
394.107	293.94
394.331	314.94
394.556	303.94
394.78	277.94
395.005	271.94
395.229	273.94
395.454	289.94
395.678	290.94
395.903	297.94
396.127	308.94
396.352	289.94
396.576	289.94
396.801	277.94
397.025	303.94
397.249	295.94
397.474	308.94
397.698	285.94
397.922	305.94
398.147	315.94
398.371	320.94
398.595	325.94
398.82	330.94
399.044	349.94
399.268	331.94
399.492	426.94
399.717	441.94
399.941	425.94
400.165	392.94
400.389	370.94
400.613	369.94
400.837	329.94
401.062	350.94
401.286	312.94
401.51	335.94
401.734	334.94
401.958	313.94
402.182	330.94
402.406	342.94
402.63	325.94
402.854	352.94
403.078	335.94
403.302	356.94
403.526	355.94
403.75	365.94
403.974	378.94
404.198	387.94
404.422	375.94
404.645	377.94
404.869	369.94
405.093	369.94
405.317	358.94
405.541	362.94
405.765	358.94
405.988	367.94
406.212	377.94
406.436	349.94
406.66	358.94
406.883	379.94
407.107	375.94
407.331	376.94
407.555	388.94
407.778	399.94
408.002	385.94
408.226	388.94
408.449	373.94
408.673	393.94
408.896	373.94
409.12	368.94
409.344	387.94
409.567	351.94
409.791	352.94
410.014	390.94
410.238	377.94
410.461	365.94
410.685	382.94
410.908	360.94
411.132	346.94
411.355	338.94
411.578	343.94
411.802	337.94
412.025	339.94
412.249	357.94
412.472	350.94
412.695	343.94
412.919	339.94
413.142	334.94
413.365	343.94
413.589	350.94
413.812	361.94
414.035	339.94
414.258	342.94
414.482	342.94
414.705	342.94
414.928	336.94
415.151	369.94
415.374	343.94
415.597	353.94
415.821	328.94
416.044	323.94
416.267	353.94
416.49	351.94
416.713	344.94
416.936	349.94
417.159	329.94
417.382	337.94
417.605	350.94
417.828	345.94
418.051	347.94
418.274	348.94
418.497	344.94
418.72	333.94
418.943	341.94
419.166	369.94
419.389	387.94
419.611	370.94
419.834	370.94
420.057	370.94
420.28	356.94
420.503	353.94
420.726	334.94
420.948	337.94
421.171	338.94
421.394	362.94
421.617	336.94
421.839	345.94
422.062	357.94
422.285	342.94
422.507	342.94
422.73	351.94
422.953	357.94
423.175	355.94
423.398	364.94
423.621	367.94
423.843	370.94
424.066	343.94
424.288	367.94
424.511	370.94
424.733	366.94
424.956	339.94
425.178	347.94
425.401	341.94
425.623	359.94
425.846	337.94
426.068	322.94
426.291	335.94
426.513	322.94
426.735	321.94
426.958	320.94
427.18	328.94
427.402	333.94
427.625	320.94
427.847	327.94
428.069	335.94
428.292	323.94
428.514	328.94
428.736	327.94
428.958	313.94
429.181	306.94
429.403	297.94
429.625	327.94
429.847	313.94
430.069	326.94
430.292	305.94
430.514	309.94
430.736	305.94
430.958	325.94
431.18	313.94
431.402	318.94
431.624	338.94
431.846	318.94
432.068	316.94
432.29	344.94
432.512	305.94
432.734	318.94
432.956	329.94
433.178	346.94
433.4	332.94
433.622	349.94
433.844	337.94
434.066	342.94
434.287	331.94
434.509	341.94
434.731	337.94
434.953	327.94
435.175	355.94
435.397	360.94
435.618	334.94
435.84	339.94
436.062	310.94
436.284	321.94
436.505	316.94
436.727	332.94
436.949	330.94
437.17	333.94
437.392	323.94
437.614	330.94
437.835	320.94
438.057	320.94
438.278	310.94
438.5	317.94
438.721	343.94
438.943	317.94
439.165	317.94
439.386	326.94
439.608	336.94
439.829	335.94
440.05	335.94
440.272	347.94
440.493	342.94
440.715	350.94
440.936	350.94
441.158	349.94
441.379	354.94
441.6	383.94
441.822	381.94
442.043	373.94
442.264	355.94
442.486	339.94
442.707	353.94
442.928	381.94
443.149	361.94
443.371	356.94
443.592	371.94
443.813	369.94
444.034	365.94
444.255	358.94
444.476	368.94
444.698	387.94
444.919	416.94
445.14	539.94
445.361	441.94
445.582	373.94
445.803	360.94
446.024	352.94
446.245	352.94
446.466	355.94
446.687	350.94
446.908	330.94
447.129	334.94
447.35	369.94
447.571	337.94
447.792	346.94
448.013	328.94
448.234	343.94
448.455	342.94
448.675	327.94
448.896	332.94
449.117	334.94
449.338	331.94
449.559	321.94
449.779	313.94
450	338.94
450.221	319.94
450.442	311.94
450.662	314.94
450.883	327.94
451.104	323.94
451.324	316.94
451.545	319.94
451.766	312.94
451.986	306.94
452.207	294.94
452.428	295.94
452.648	322.94
452.869	303.94
453.089	313.94
453.31	293.94
453.53	303.94
453.751	295.94
453.971	306.94
454.192	302.94
454.412	313.94
454.633	305.94
454.853	310.94
455.073	301.94
455.294	303.94
455.514	308.94
455.734	312.94
455.955	287.94
456.175	283.94
456.395	279.94
456.616	307.94
456.836	309.94
457.056	291.94
457.276	307.94
457.497	304.94
457.717	298.94
457.937	303.94
458.157	289.94
458.377	293.94
458.598	319.94
458.818	319.94
459.038	323.94
459.258	317.94
459.478	319.94
459.698	328.94
459.918	353.94
460.138	351.94
460.358	353.94
460.578	379.94
460.798	381.94
461.018	393.94
461.238	384.94
461.458	376.94
461.678	358.94
461.898	385.94
462.118	371.94
462.338	393.94
462.558	394.94
462.777	407.94
462.997	447.94
463.217	461.94
463.437	455.94
463.657	434.94
463.876	406.94
464.096	413.94
464.316	418.94
464.536	426.94
464.755	409.94
464.975	390.94
465.195	399.94
465.414	368.94
465.634	374.94
465.854	349.94
466.073	337.94
466.293	339.94
466.512	338.94
466.732	307.94
466.951	326.94
467.171	322.94
467.391	320.94
467.61	326.94
467.829	314.94
468.049	327.94
468.268	326.94
468.488	315.94
468.707	319.94
468.927	317.94
469.146	315.94
469.365	329.94
469.585	325.94
469.804	329.94
470.023	328.94
470.243	327.94
470.462	340.94
470.681	336.94
470.901	335.94
471.12	351.94
471.339	327.94
471.558	307.94
471.777	331.94
471.997	321.94
472.216	318.94
472.435	325.94
472.654	314.94
472.873	326.94
473.092	317.94
473.311	308.94
473.53	329.94
473.749	310.94
473.968	339.94
474.187	320.94
474.406	309.94
474.625	312.94
474.844	330.94
475.063	321.94
475.282	315.94
475.501	322.94
475.72	317.94
475.939	325.94
476.158	317.94
476.377	337.94
476.596	327.94
476.814	333.94
477.033	334.94
477.252	348.94
477.471	337.94
477.69	345.94
477.908	359.94
478.127	358.94
478.346	358.94
478.564	363.94
478.783	366.94
479.002	387.94
479.22	392.94
479.439	383.94
479.658	370.94
479.876	367.94
480.095	392.94
480.313	398.94
480.532	398.94
480.751	398.94
480.969	374.94
481.188	381.94
481.406	368.94
481.624	359.94
481.843	350.94
482.061	345.94
482.28	362.94
482.498	360.94
482.717	336.94
482.935	362.94
483.153	350.94
483.372	353.94
483.59	351.94
483.808	361.94
484.027	353.94
484.245	343.94
484.463	367.94
484.681	369.94
484.9	378.94
485.118	387.94
485.336	354.94
485.554	354.94
485.772	363.94
485.99	354.94
486.209	373.94
486.427	365.94
486.645	375.94
486.863	376.94
487.081	358.94
487.299	361.94
487.517	373.94
487.735	369.94
487.953	370.94
488.171	384.94
488.389	379.94
488.607	385.94
488.825	344.94
489.043	339.94
489.261	354.94
489.479	363.94
489.696	349.94
489.914	365.94
490.132	367.94
490.35	366.94
490.568	394.94
490.786	371.94
491.003	391.94
491.221	355.94
491.439	387.94
491.657	374.94
491.874	378.94
492.092	372.94
492.31	381.94
492.527	390.94
492.745	406.94
492.963	382.94
493.18	389.94
493.398	404.94
493.615	389.94
493.833	387.94
494.05	398.94
494.268	383.94
494.485	390.94
494.703	382.94
494.92	401.94
495.138	375.94
495.355	397.94
495.573	386.94
495.79	388.94
496.008	404.94
496.225	378.94
496.442	401.94
496.66	407.94
496.877	418.94
497.094	420.94
497.312	403.94
497.529	399.94
497.746	413.94
497.963	430.94
498.181	450.94
498.398	465.94
498.615	471.94
498.832	493.94
499.049	516.94
499.267	553.94
499.484	587.94
499.701	633.94
499.918	717.94
500.135	778.94
500.352	862.94
500.569	878.94
500.786	896.94
501.003	814.94
501.22	775.94
501.437	669.94
501.654	597.94
501.871	589.94
502.088	561.94
502.305	511.94
502.522	496.94
