Data from Fe(NO3)3@0.0125M.TitratingCurve.Agarose3%dH2O.NegLispCup.LampEnergy10.LIBS07252019_HRD10591_17-01-14-346.txt Node
Date: Thu Jul 25 17:01:14 EDT 2019
User: cochatt
Spectrometer: HR+D1059
Trigger mode: 1
Integration Time (sec): 1.000000E-1
Scans to average: 1
Electric dark correction enabled: true
Nonlinearity correction enabled: false
Boxcar width: 0
XAxis mode: Wavelengths
Number of Pixels in Spectrum: 2048
>>>>>Begin Spectral Data<<<<<
223.165	-10
223.4	-10
223.635	-10
223.869	-18
224.104	-17
224.338	-16
224.573	-21
224.808	-24
225.042	4
225.277	-12
225.511	-5
225.746	11
225.98	7
226.215	11
226.449	10
226.683	19
226.918	39
227.152	22
227.387	39
227.621	33
227.856	42
228.09	56
228.324	54
228.559	71
228.793	64
229.027	86
229.262	76
229.496	73
229.73	91
229.964	90
230.199	96
230.433	80
230.667	90
230.901	89
231.136	95
231.37	83
231.604	90
231.838	102
232.072	90
232.306	86
232.541	89
232.775	103
233.009	103
233.243	99
233.477	95
233.711	104
233.945	103
234.179	94
234.413	108
234.647	106
234.881	96
235.115	100
235.349	97
235.583	119
235.817	114
236.051	87
236.285	105
236.519	107
236.753	107
236.987	93
237.221	101
237.455	99
237.689	116
237.922	103
238.156	90
238.39	102
238.624	104
238.858	90
239.091	112
239.325	107
239.559	101
239.793	104
240.027	119
240.26	103
240.494	111
240.728	107
240.961	116
241.195	117
241.429	98
241.662	118
241.896	115
242.13	97
242.363	115
242.597	107
242.83	98
243.064	111
243.298	118
243.531	128
243.765	113
243.998	115
244.232	124
244.465	126
244.699	128
244.932	117
245.166	116
245.399	106
245.633	120
245.866	132
246.099	130
246.333	128
246.566	135
246.8	123
247.033	133
247.266	111
247.5	116
247.733	135
247.966	135
248.2	134
248.433	116
248.666	119
248.899	132
249.133	139
249.366	136
249.599	144
249.832	123
250.066	129
250.299	119
250.532	130
250.765	124
250.998	139
251.231	150
251.465	126
251.698	135
251.931	128
252.164	138
252.397	135
252.63	136
252.863	146
253.096	136
253.329	141
253.562	153
253.795	133
254.028	150
254.261	144
254.494	155
254.727	145
254.96	145
255.193	137
255.426	143
255.659	125
255.892	143
256.124	138
256.357	158
256.59	148
256.823	147
257.056	157
257.289	151
257.521	142
257.754	148
257.987	147
258.22	147
258.452	159
258.685	140
258.918	155
259.151	147
259.383	153
259.616	157
259.849	146
260.081	147
260.314	168
260.547	159
260.779	164
261.012	156
261.244	169
261.477	163
261.71	155
261.942	167
262.175	156
262.407	152
262.64	143
262.872	140
263.105	166
263.337	166
263.57	164
263.802	178
264.035	160
264.267	154
264.499	161
264.732	168
264.964	163
265.197	168
265.429	170
265.661	171
265.894	158
266.126	175
266.358	163
266.591	165
266.823	163
267.055	177
267.287	150
267.52	166
267.752	170
267.984	180
268.216	184
268.448	189
268.681	180
268.913	183
269.145	168
269.377	170
269.609	182
269.841	181
270.073	188
270.306	175
270.538	176
270.77	199
271.002	178
271.234	182
271.466	181
271.698	187
271.93	189
272.162	199
272.394	180
272.626	194
272.858	178
273.09	184
273.322	181
273.553	192
273.785	193
274.017	188
274.249	197
274.481	204
274.713	199
274.945	207
275.176	209
275.408	210
275.64	199
275.872	203
276.104	200
276.335	193
276.567	208
276.799	206
277.031	194
277.262	180
277.494	186
277.726	181
277.957	204
278.189	199
278.421	211
278.652	202
278.884	202
279.115	213
279.347	212
279.579	207
279.81	201
280.042	222
280.273	203
280.505	200
280.736	222
280.968	204
281.199	211
281.431	209
281.662	226
281.894	216
282.125	215
282.356	200
282.588	219
282.819	220
283.051	226
283.282	215
283.513	233
283.745	208
283.976	234
284.207	216
284.439	204
284.67	216
284.901	220
285.132	219
285.364	212
285.595	215
285.826	215
286.057	228
286.288	233
286.52	227
286.751	210
286.982	216
287.213	224
287.444	227
287.675	228
287.906	230
288.138	223
288.369	233
288.6	239
288.831	265
289.062	230
289.293	215
289.524	224
289.755	218
289.986	227
290.217	242
290.448	230
290.679	241
290.91	230
291.141	238
291.371	239
291.602	228
291.833	244
292.064	248
292.295	243
292.526	228
292.757	250
292.987	220
293.218	238
293.449	240
293.68	258
293.91	241
294.141	256
294.372	227
294.603	268
294.833	244
295.064	231
295.295	240
295.525	228
295.756	243
295.987	235
296.217	250
296.448	242
296.679	260
296.909	263
297.14	244
297.37	231
297.601	262
297.831	248
298.062	266
298.292	254
298.523	268
298.753	269
298.984	274
299.214	246
299.445	264
299.675	243
299.905	250
300.136	251
300.366	241
300.597	258
300.827	266
301.057	265
301.288	265
301.518	273
301.748	262
301.979	272
302.209	270
302.439	283
302.669	265
302.9	295
303.13	257
303.36	257
303.59	279
303.82	272
304.051	282
304.281	279
304.511	258
304.741	261
304.971	273
305.201	267
305.431	276
305.661	278
305.891	269
306.121	272
306.352	287
306.582	271
306.812	284
307.042	273
307.272	271
307.502	264
307.731	272
307.961	276
308.191	273
308.421	294
308.651	271
308.881	263
309.111	277
309.341	273
309.571	280
309.8	262
310.03	295
310.26	288
310.49	285
310.72	282
310.949	280
311.179	277
311.409	285
311.639	286
311.868	269
312.098	295
312.328	299
312.557	300
312.787	288
313.017	299
313.246	300
313.476	277
313.706	281
313.935	290
314.165	294
314.394	294
314.624	307
314.853	298
315.083	304
315.312	314
315.542	298
315.771	318
316.001	292
316.23	304
316.46	305
316.689	305
316.919	313
317.148	293
317.377	305
317.607	303
317.836	316
318.065	311
318.295	304
318.524	293
318.753	300
318.983	313
319.212	322
319.441	306
319.67	294
319.9	300
320.129	321
320.358	310
320.587	298
320.816	307
321.046	313
321.275	305
321.504	321
321.733	304
321.962	316
322.191	313
322.42	306
322.649	318
322.878	310
323.108	298
323.337	318
323.566	329
323.795	324
324.024	330
324.253	319
324.482	322
324.71	328
324.939	337
325.168	320
325.397	340
325.626	316
325.855	312
326.084	349
326.313	338
326.542	355
326.77	333
326.999	337
327.228	336
327.457	328
327.686	320
327.914	326
328.143	347
328.372	351
328.6	350
328.829	340
329.058	316
329.287	348
329.515	359
329.744	335
329.972	347
330.201	354
330.43	330
330.658	335
330.887	348
331.115	342
331.344	351
331.572	339
331.801	357
332.03	346
332.258	360
332.486	384
332.715	355
332.943	362
333.172	362
333.4	365
333.629	388
333.857	378
334.085	383
334.314	402
334.542	406
334.771	404
334.999	383
335.227	394
335.455	389
335.684	393
335.912	372
336.14	384
336.369	375
336.597	361
336.825	386
337.053	390
337.281	383
337.51	401
337.738	370
337.966	367
338.194	369
338.422	350
338.65	375
338.878	377
339.106	379
339.334	367
339.562	359
339.79	370
340.018	370
340.246	371
340.474	382
340.702	346
340.93	373
341.158	350
341.386	368
341.614	366
341.842	360
342.07	344
342.298	353
342.526	362
342.754	377
342.981	368
343.209	361
343.437	362
343.665	366
343.893	362
344.12	400
344.348	402
344.576	360
344.804	365
345.031	375
345.259	378
345.487	358
345.714	363
345.942	351
346.17	338
346.397	361
346.625	347
346.853	350
347.08	344
347.308	356
347.535	347
347.763	339
347.99	361
348.218	341
348.445	354
348.673	339
348.9	357
349.128	370
349.355	359
349.583	353
349.81	352
350.037	351
350.265	354
350.492	339
350.72	344
350.947	343
351.174	361
351.402	350
351.629	342
351.856	340
352.083	332
352.311	352
352.538	353
352.765	340
352.992	329
353.22	353
353.447	347
353.674	372
353.901	352
354.128	361
354.355	363
354.583	356
354.81	369
355.037	358
355.264	328
355.491	341
355.718	341
355.945	343
356.172	343
356.399	373
356.626	368
356.853	372
357.08	358
357.307	351
357.534	353
357.761	346
357.988	354
358.215	369
358.441	343
358.668	363
358.895	354
359.122	344
359.349	348
359.576	355
359.802	356
360.029	351
360.256	370
360.483	367
360.709	348
360.936	347
361.163	351
361.39	350
361.616	344
361.843	371
362.07	336
362.296	359
362.523	367
362.749	356
362.976	344
363.203	354
363.429	356
363.656	336
363.882	352
364.109	361
364.335	344
364.562	368
364.788	352
365.015	363
365.241	354
365.468	357
365.694	350
365.92	349
366.147	357
366.373	351
366.599	340
366.826	347
367.052	370
367.278	375
367.505	366
367.731	355
367.957	376
368.184	351
368.41	370
368.636	378
368.862	391
369.089	375
369.315	356
369.541	364
369.767	373
369.993	366
370.219	357
370.445	363
370.672	367
370.898	382
371.124	363
371.35	380
371.576	378
371.802	387
372.028	385
372.254	395
372.48	395
372.706	386
372.932	395
373.158	392
373.384	399
373.61	396
373.835	394
374.061	414
374.287	399
374.513	388
374.739	399
374.965	397
375.191	392
375.416	407
375.642	403
375.868	402
376.094	393
376.319	388
376.545	379
376.771	400
376.997	390
377.222	378
377.448	397
377.674	382
377.899	366
378.125	391
378.35	382
378.576	381
378.802	390
379.027	383
379.253	367
379.478	386
379.704	393
379.929	375
380.155	380
380.38	380
380.606	367
380.831	380
381.057	387
381.282	400
381.507	387
381.733	387
381.958	392
382.184	392
382.409	401
382.634	406
382.86	395
383.085	391
383.31	398
383.535	405
383.761	394
383.986	410
384.211	396
384.436	409
384.662	414
384.887	399
385.112	423
385.337	421
385.562	423
385.787	411
386.013	451
386.238	421
386.463	437
386.688	437
386.913	437
387.138	438
387.363	441
387.588	431
387.813	438
388.038	425
388.263	446
388.488	432
388.713	430
388.938	449
389.163	426
389.387	446
389.612	426
389.837	450
390.062	436
390.287	455
390.512	466
390.736	452
390.961	460
391.186	439
391.411	446
391.636	461
391.86	450
392.085	457
392.31	490
392.534	455
392.759	453
392.984	449
393.208	462
393.433	461
393.658	459
393.882	469
394.107	447
394.331	456
394.556	451
394.78	464
395.005	480
395.229	497
395.454	484
395.678	460
395.903	451
396.127	473
396.352	487
396.576	474
396.801	487
397.025	477
397.249	506
397.474	485
397.698	484
397.922	494
398.147	506
398.371	500
398.595	513
398.82	528
399.044	532
399.268	522
399.492	571
399.717	599
399.941	613
400.165	596
400.389	578
400.613	562
400.837	552
401.062	537
401.286	538
401.51	530
401.734	515
401.958	518
402.182	535
402.406	529
402.63	544
402.854	528
403.078	540
403.302	515
403.526	503
403.75	520
403.974	540
404.198	534
404.422	542
404.645	535
404.869	546
405.093	542
405.317	550
405.541	550
405.765	538
405.988	552
406.212	530
406.436	537
406.66	552
406.883	554
407.107	569
407.331	614
407.555	591
407.778	576
408.002	594
408.226	587
408.449	582
408.673	565
408.896	561
409.12	562
409.344	568
409.567	562
409.791	587
410.014	560
410.238	549
410.461	566
410.685	549
410.908	578
411.132	539
411.355	528
411.578	535
411.802	538
412.025	528
412.249	530
412.472	544
412.695	540
412.919	520
413.142	536
413.365	526
413.589	523
413.812	518
414.035	525
414.258	526
414.482	530
414.705	532
414.928	548
415.151	507
415.374	528
415.597	520
415.821	490
416.044	521
416.267	500
416.49	495
416.713	502
416.936	530
417.159	501
417.382	504
417.605	494
417.828	509
418.051	495
418.274	499
418.497	495
418.72	505
418.943	497
419.166	524
419.389	548
419.611	531
419.834	528
420.057	525
420.28	517
420.503	498
420.726	500
420.948	474
421.171	481
421.394	491
421.617	484
421.839	501
422.062	500
422.285	502
422.507	491
422.73	500
422.953	508
423.175	500
423.398	499
423.621	494
423.843	485
424.066	474
424.288	507
424.511	506
424.733	500
424.956	498
425.178	482
425.401	471
425.623	499
425.846	475
426.068	478
426.291	501
426.513	502
426.735	489
426.958	497
427.18	483
427.402	471
427.625	474
427.847	474
428.069	469
428.292	478
428.514	508
428.736	475
428.958	475
429.181	487
429.403	454
429.625	467
429.847	460
430.069	462
430.292	495
430.514	460
430.736	479
430.958	491
431.18	473
431.402	465
431.624	470
431.846	452
432.068	458
432.29	463
432.512	491
432.734	481
432.956	481
433.178	487
433.4	478
433.622	473
433.844	482
434.066	485
434.287	497
434.509	497
434.731	466
434.953	477
435.175	482
435.397	481
435.618	456
435.84	472
436.062	486
436.284	478
436.505	467
436.727	469
436.949	471
437.17	466
437.392	453
437.614	471
437.835	462
438.057	449
438.278	459
438.5	447
438.721	460
438.943	466
439.165	486
439.386	449
439.608	448
439.829	472
440.05	467
440.272	459
440.493	468
440.715	484
440.936	473
441.158	454
441.379	470
441.6	477
441.822	501
442.043	497
442.264	476
442.486	506
442.707	461
442.928	470
443.149	469
443.371	475
443.592	476
443.813	491
444.034	486
444.255	483
444.476	501
444.698	490
444.919	524
445.14	618
445.361	520
445.582	490
445.803	470
446.024	466
446.245	471
446.466	493
446.687	456
446.908	454
447.129	472
447.35	450
447.571	469
447.792	443
448.013	437
448.234	429
448.455	458
448.675	440
448.896	423
449.117	422
449.338	440
449.559	417
449.779	420
450	433
450.221	430
450.442	441
450.662	422
450.883	412
451.104	411
451.324	422
451.545	417
451.766	441
451.986	430
452.207	426
452.428	420
452.648	455
452.869	426
453.089	405
453.31	440
453.53	426
453.751	428
453.971	423
454.192	422
454.412	425
454.633	389
454.853	425
455.073	419
455.294	417
455.514	426
455.734	420
455.955	410
456.175	431
456.395	417
456.616	422
456.836	418
457.056	432
457.276	411
457.497	417
457.717	433
457.937	426
458.157	451
458.377	437
458.598	416
458.818	433
459.038	430
459.258	456
459.478	467
459.698	477
459.918	475
460.138	490
460.358	473
460.578	496
460.798	480
461.018	507
461.238	498
461.458	500
461.678	504
461.898	524
462.118	527
462.338	528
462.558	560
462.777	552
462.997	574
463.217	579
463.437	576
463.657	559
463.876	561
464.096	578
464.316	556
464.536	546
464.755	543
464.975	544
465.195	526
465.414	522
465.634	485
465.854	497
466.073	467
466.293	485
466.512	477
466.732	470
466.951	474
467.171	487
467.391	463
467.61	444
467.829	459
468.049	450
468.268	431
468.488	440
468.707	449
468.927	451
469.146	464
469.365	463
469.585	452
469.804	443
470.023	464
470.243	465
470.462	455
470.681	471
470.901	450
471.12	475
471.339	464
471.558	448
471.777	450
471.997	460
472.216	441
472.435	455
472.654	441
472.873	451
473.092	466
473.311	451
473.53	457
473.749	452
473.968	438
474.187	448
474.406	459
474.625	454
474.844	444
475.063	450
475.282	460
475.501	468
475.72	473
475.939	464
476.158	472
476.377	474
476.596	491
476.814	490
477.033	486
477.252	491
477.471	507
477.69	510
477.908	518
478.127	520
478.346	511
478.564	524
478.783	509
479.002	508
479.22	514
479.439	549
479.658	552
479.876	558
480.095	536
480.313	565
480.532	554
480.751	523
480.969	533
481.188	536
481.406	529
481.624	553
481.843	533
482.061	542
482.28	543
482.498	530
482.717	527
482.935	516
483.153	532
483.372	534
483.59	560
483.808	555
484.027	518
484.245	527
484.463	546
484.681	563
484.9	536
485.118	570
485.336	548
485.554	558
485.772	539
485.99	540
486.209	577
486.427	537
486.645	547
486.863	549
487.081	555
487.299	553
487.517	556
487.735	551
487.953	563
488.171	588
488.389	552
488.607	568
488.825	560
489.043	559
489.261	572
489.479	555
489.696	558
489.914	546
490.132	542
490.35	562
490.568	570
490.786	563
491.003	549
491.221	545
491.439	564
491.657	573
491.874	566
492.092	574
492.31	603
492.527	576
492.745	556
492.963	584
493.18	561
493.398	568
493.615	586
493.833	585
494.05	587
494.268	593
494.485	560
494.703	584
494.92	586
495.138	593
495.355	582
495.573	586
495.79	574
496.008	598
496.225	594
496.442	619
496.66	612
496.877	632
497.094	640
497.312	635
497.529	656
497.746	652
497.963	678
498.181	675
498.398	680
498.615	733
498.832	737
499.049	771
499.267	799
499.484	816
499.701	854
499.918	915
500.135	961
500.352	1007
500.569	1012
500.786	1017
501.003	974
501.22	939
501.437	891
501.654	860
501.871	825
502.088	796
502.305	751
502.522	714
502.739	710
502.956	704
503.172	684
503.389	659
503.606	640
503.823	637
504.04	618
504.256	665
504.473	660
504.69	615
504.907	632
505.123	614
505.34	577
505.557	593
505.773	574
505.99	582
506.207	567
506.423	550
506.64	547
506.856	558
507.073	534
507.289	504
507.506	503
507.722	515
507.939	489
508.155	514
508.372	516
508.588	518
508.805	496
509.021	508
509.238	490
509.454	496
509.67	502
509.887	477
510.103	497
510.319	466
510.536	477
510.752	475
510.968	471
511.184	471
511.401	478
511.617	479
511.833	470
512.049	478
512.265	469
512.481	474
512.698	494
512.914	475
513.13	468
513.346	463
513.562	463
513.778	486
513.994	468
514.21	470
514.426	485
514.642	472
514.858	488
515.074	499
515.29	498
515.506	496
515.721	506
515.937	498
516.153	503
516.369	516
516.585	512
516.801	498
517.016	537
517.232	525
517.448	554
517.664	529
517.879	539
518.095	523
518.311	536
518.527	538
518.742	507
518.958	524
519.173	495
519.389	506
519.605	489
519.82	503
520.036	498
520.251	471
520.467	472
520.682	486
520.898	487
521.113	465
521.329	456
521.544	461
521.76	476
521.975	457
522.19	470
522.406	482
522.621	477
522.836	461
523.052	461
523.267	476
523.482	458
523.698	449
523.913	443
524.128	455
524.343	453
524.559	448
524.774	449
524.989	434
525.204	449
525.419	448
525.634	441
525.849	457
526.064	431
526.28	409
526.495	416
526.71	440
526.925	426
527.14	451
527.355	420
527.57	427
527.785	439
527.999	436
528.214	438
528.429	444
528.644	443
528.859	420
529.074	455
529.289	446
529.503	441
529.718	450
529.933	439
530.148	416
530.363	426
530.577	426
530.792	425
531.007	423
531.221	428
531.436	428
531.651	437
531.865	417
532.08	430
532.295	438
532.509	446
532.724	433
532.938	454
533.153	420
533.367	426
533.582	434
533.796	400
534.011	423
534.225	426
534.44	414
534.654	403
534.868	416
535.083	409
535.297	421
535.511	414
535.726	415
535.94	395
536.154	396
536.369	385
536.583	400
536.797	397
537.011	405
537.225	406
537.44	404
537.654	385
537.868	396
538.082	420
538.296	386
538.51	379
538.724	394
538.938	390
539.153	393
539.367	409
539.581	400
539.795	390
540.009	391
540.222	374
540.436	396
540.65	382
540.864	390
541.078	385
541.292	410
541.506	388
541.72	376
541.934	405
542.147	388
542.361	394
542.575	392
542.789	401
543.002	378
543.216	400
543.43	388
543.644	402
543.857	395
544.071	384
544.285	380
544.498	383
544.712	392
544.925	405
545.139	419
545.352	413
545.566	403
545.779	386
545.993	394
546.206	380
546.42	410
546.633	434
546.847	400
547.06	414
547.274	388
547.487	394
547.7	415
547.914	402
548.127	419
548.34	409
548.554	402
548.767	388
548.98	399
549.193	402
549.407	400
549.62	403
549.833	388
550.046	401
550.259	410
550.473	395
550.686	376
550.899	407
551.112	395
551.325	419
551.538	379
551.751	391
551.964	386
552.177	389
552.39	399
552.603	396
552.816	402
553.029	408
553.242	401
553.455	402
553.667	396
553.88	397
554.093	404
554.306	388
554.519	382
554.732	382
554.944	386
555.157	378
555.37	380
555.583	353
555.795	366
556.008	360
556.221	375
556.433	367
556.646	364
556.859	359
557.071	371
557.284	356
557.496	363
557.709	353
557.921	356
558.134	346
558.346	359
558.559	359
558.771	358
558.984	358
559.196	350
559.409	351
559.621	362
559.833	367
560.046	353
560.258	345
560.47	341
560.683	346
560.895	345
561.107	332
561.32	359
561.532	351
561.744	350
561.956	358
562.168	331
562.381	350
562.593	339
562.805	334
563.017	347
563.229	349
563.441	340
