Data from Fe(NO3)3@0.1M.TitratingCurve.Agarose3%dH2O.NegLispCup.LampEnergy10.LIBS07252019_HRD10591_16-42-15-333.txt Node
Date: Thu Jul 25 16:42:15 EDT 2019
User: cochatt
Spectrometer: HR+D1059
Trigger mode: 1
Integration Time (sec): 1.000000E-1
Scans to average: 1
Electric dark correction enabled: true
Nonlinearity correction enabled: false
Boxcar width: 0
XAxis mode: Wavelengths
Number of Pixels in Spectrum: 2048
>>>>>Begin Spectral Data<<<<<
223.165	-15.75
223.4	-15.75
223.635	-15.75
223.869	-9.75
224.104	-22.75
224.338	-8.75
224.573	-16.75
224.808	-7.75
225.042	-1.75
225.277	-10.75
225.511	10.25
225.746	-4.75
225.98	-10.75
226.215	9.25
226.449	7.25
226.683	20.25
226.918	30.25
227.152	32.25
227.387	19.25
227.621	47.25
227.856	37.25
228.09	34.25
228.324	51.25
228.559	58.25
228.793	49.25
229.027	63.25
229.262	57.25
229.496	68.25
229.73	75.25
229.964	84.25
230.199	87.25
230.433	70.25
230.667	84.25
230.901	93.25
231.136	101.25
231.37	84.25
231.604	71.25
231.838	92.25
232.072	82.25
232.306	88.25
232.541	83.25
232.775	85.25
233.009	76.25
233.243	95.25
233.477	93.25
233.711	87.25
233.945	85.25
234.179	85.25
234.413	93.25
234.647	91.25
234.881	86.25
235.115	100.25
235.349	102.25
235.583	112.25
235.817	81.25
236.051	83.25
236.285	94.25
236.519	89.25
236.753	88.25
236.987	94.25
237.221	84.25
237.455	82.25
237.689	80.25
237.922	91.25
238.156	87.25
238.39	87.25
238.624	107.25
238.858	92.25
239.091	81.25
239.325	88.25
239.559	91.25
239.793	89.25
240.027	100.25
240.26	83.25
240.494	97.25
240.728	86.25
240.961	83.25
241.195	87.25
241.429	92.25
241.662	96.25
241.896	94.25
242.13	92.25
242.363	95.25
242.597	88.25
242.83	96.25
243.064	98.25
243.298	80.25
243.531	93.25
243.765	93.25
243.998	101.25
244.232	89.25
244.465	77.25
244.699	101.25
244.932	88.25
245.166	90.25
245.399	103.25
245.633	100.25
245.866	95.25
246.099	98.25
246.333	99.25
246.566	98.25
246.8	104.25
247.033	102.25
247.266	102.25
247.5	107.25
247.733	114.25
247.966	108.25
248.2	106.25
248.433	101.25
248.666	76.25
248.899	102.25
249.133	105.25
249.366	107.25
249.599	92.25
249.832	115.25
250.066	116.25
250.299	108.25
250.532	113.25
250.765	99.25
250.998	104.25
251.231	107.25
251.465	95.25
251.698	97.25
251.931	114.25
252.164	108.25
252.397	96.25
252.63	106.25
252.863	120.25
253.096	104.25
253.329	121.25
253.562	113.25
253.795	108.25
254.028	112.25
254.261	104.25
254.494	105.25
254.727	107.25
254.96	100.25
255.193	116.25
255.426	122.25
255.659	124.25
255.892	117.25
256.124	101.25
256.357	88.25
256.59	122.25
256.823	104.25
257.056	116.25
257.289	120.25
257.521	119.25
257.754	106.25
257.987	118.25
258.22	115.25
258.452	115.25
258.685	108.25
258.918	120.25
259.151	115.25
259.383	113.25
259.616	120.25
259.849	102.25
260.081	108.25
260.314	108.25
260.547	118.25
260.779	113.25
261.012	110.25
261.244	129.25
261.477	119.25
261.71	104.25
261.942	109.25
262.175	117.25
262.407	125.25
262.64	112.25
262.872	109.25
263.105	117.25
263.337	117.25
263.57	110.25
263.802	131.25
264.035	119.25
264.267	116.25
264.499	124.25
264.732	129.25
264.964	120.25
265.197	119.25
265.429	134.25
265.661	130.25
265.894	116.25
266.126	109.25
266.358	128.25
266.591	119.25
266.823	121.25
267.055	95.25
267.287	117.25
267.52	129.25
267.752	119.25
267.984	122.25
268.216	132.25
268.448	126.25
268.681	120.25
268.913	115.25
269.145	122.25
269.377	118.25
269.609	111.25
269.841	128.25
270.073	127.25
270.306	135.25
270.538	131.25
270.77	130.25
271.002	119.25
271.234	123.25
271.466	127.25
271.698	123.25
271.93	118.25
272.162	122.25
272.394	136.25
272.626	122.25
272.858	117.25
273.09	125.25
273.322	139.25
273.553	127.25
273.785	145.25
274.017	126.25
274.249	135.25
274.481	140.25
274.713	135.25
274.945	136.25
275.176	120.25
275.408	122.25
275.64	135.25
275.872	129.25
276.104	128.25
276.335	125.25
276.567	144.25
276.799	133.25
277.031	137.25
277.262	133.25
277.494	145.25
277.726	126.25
277.957	143.25
278.189	126.25
278.421	129.25
278.652	139.25
278.884	150.25
279.115	113.25
279.347	148.25
279.579	122.25
279.81	127.25
280.042	150.25
280.273	130.25
280.505	135.25
280.736	145.25
280.968	128.25
281.199	132.25
281.431	147.25
281.662	146.25
281.894	140.25
282.125	139.25
282.356	151.25
282.588	139.25
282.819	152.25
283.051	142.25
283.282	137.25
283.513	142.25
283.745	145.25
283.976	152.25
284.207	160.25
284.439	142.25
284.67	166.25
284.901	150.25
285.132	138.25
285.364	136.25
285.595	133.25
285.826	146.25
286.057	147.25
286.288	157.25
286.52	154.25
286.751	144.25
286.982	147.25
287.213	148.25
287.444	147.25
287.675	153.25
287.906	151.25
288.138	137.25
288.369	134.25
288.6	139.25
288.831	160.25
289.062	155.25
289.293	144.25
289.524	136.25
289.755	152.25
289.986	140.25
290.217	162.25
290.448	157.25
290.679	153.25
290.91	142.25
291.141	149.25
291.371	140.25
291.602	156.25
291.833	149.25
292.064	176.25
292.295	141.25
292.526	151.25
292.757	156.25
292.987	140.25
293.218	140.25
293.449	160.25
293.68	149.25
293.91	148.25
294.141	148.25
294.372	147.25
294.603	147.25
294.833	153.25
295.064	152.25
295.295	154.25
295.525	153.25
295.756	167.25
295.987	178.25
296.217	159.25
296.448	142.25
296.679	164.25
296.909	151.25
297.14	154.25
297.37	177.25
297.601	164.25
297.831	161.25
298.062	168.25
298.292	152.25
298.523	165.25
298.753	166.25
298.984	164.25
299.214	164.25
299.445	159.25
299.675	164.25
299.905	160.25
300.136	165.25
300.366	171.25
300.597	164.25
300.827	158.25
301.057	168.25
301.288	172.25
301.518	178.25
301.748	168.25
301.979	157.25
302.209	179.25
302.439	172.25
302.669	168.25
302.9	169.25
303.13	181.25
303.36	153.25
303.59	167.25
303.82	164.25
304.051	170.25
304.281	154.25
304.511	169.25
304.741	169.25
304.971	157.25
305.201	150.25
305.431	159.25
305.661	172.25
305.891	171.25
306.121	168.25
306.352	152.25
306.582	164.25
306.812	171.25
307.042	158.25
307.272	164.25
307.502	180.25
307.731	168.25
307.961	164.25
308.191	164.25
308.421	168.25
308.651	176.25
308.881	183.25
309.111	171.25
309.341	159.25
309.571	179.25
309.8	172.25
310.03	181.25
310.26	169.25
310.49	156.25
310.72	175.25
310.949	170.25
311.179	173.25
311.409	154.25
311.639	155.25
311.868	175.25
312.098	162.25
312.328	170.25
312.557	184.25
312.787	170.25
313.017	169.25
313.246	177.25
313.476	182.25
313.706	185.25
313.935	178.25
314.165	160.25
314.394	185.25
314.624	187.25
314.853	191.25
315.083	180.25
315.312	180.25
315.542	177.25
315.771	152.25
316.001	163.25
316.23	171.25
316.46	182.25
316.689	179.25
316.919	181.25
317.148	187.25
317.377	195.25
317.607	184.25
317.836	182.25
318.065	173.25
318.295	181.25
318.524	183.25
318.753	184.25
318.983	173.25
319.212	181.25
319.441	185.25
319.67	171.25
319.9	175.25
320.129	179.25
320.358	181.25
320.587	199.25
320.816	184.25
321.046	179.25
321.275	181.25
321.504	164.25
321.733	180.25
321.962	173.25
322.191	161.25
322.42	173.25
322.649	192.25
322.878	184.25
323.108	186.25
323.337	180.25
323.566	190.25
323.795	175.25
324.024	185.25
324.253	196.25
324.482	186.25
324.71	180.25
324.939	193.25
325.168	177.25
325.397	193.25
325.626	216.25
325.855	175.25
326.084	197.25
326.313	195.25
326.542	191.25
326.77	196.25
326.999	189.25
327.228	183.25
327.457	188.25
327.686	190.25
327.914	199.25
328.143	192.25
328.372	202.25
328.6	191.25
328.829	193.25
329.058	187.25
329.287	188.25
329.515	204.25
329.744	202.25
329.972	211.25
330.201	194.25
330.43	201.25
330.658	212.25
330.887	198.25
331.115	199.25
331.344	193.25
331.572	201.25
331.801	230.25
332.03	215.25
332.258	216.25
332.486	210.25
332.715	204.25
332.943	220.25
333.172	209.25
333.4	220.25
333.629	223.25
333.857	246.25
334.085	239.25
334.314	226.25
334.542	239.25
334.771	223.25
334.999	207.25
335.227	231.25
335.455	228.25
335.684	223.25
335.912	212.25
336.14	220.25
336.369	227.25
336.597	221.25
336.825	212.25
337.053	215.25
337.281	213.25
337.51	218.25
337.738	210.25
337.966	219.25
338.194	198.25
338.422	209.25
338.65	189.25
338.878	216.25
339.106	215.25
339.334	201.25
339.562	212.25
339.79	196.25
340.018	185.25
340.246	206.25
340.474	195.25
340.702	196.25
340.93	194.25
341.158	188.25
341.386	196.25
341.614	202.25
341.842	192.25
342.07	189.25
342.298	206.25
342.526	191.25
342.754	216.25
342.981	207.25
343.209	204.25
343.437	205.25
343.665	216.25
343.893	211.25
344.12	231.25
344.348	245.25
344.576	233.25
344.804	215.25
345.031	210.25
345.259	200.25
345.487	214.25
345.714	192.25
345.942	196.25
346.17	207.25
346.397	204.25
346.625	201.25
346.853	188.25
347.08	217.25
347.308	195.25
347.535	205.25
347.763	202.25
347.99	188.25
348.218	182.25
348.445	194.25
348.673	202.25
348.9	198.25
349.128	198.25
349.355	200.25
349.583	204.25
349.81	189.25
350.037	183.25
350.265	185.25
350.492	196.25
350.72	203.25
350.947	187.25
351.174	234.25
351.402	194.25
351.629	195.25
351.856	195.25
352.083	195.25
352.311	193.25
352.538	202.25
352.765	189.25
352.992	189.25
353.22	188.25
353.447	189.25
353.674	210.25
353.901	185.25
354.128	197.25
354.355	180.25
354.583	212.25
354.81	198.25
355.037	183.25
355.264	191.25
355.491	201.25
355.718	188.25
355.945	194.25
356.172	191.25
356.399	196.25
356.626	197.25
356.853	191.25
357.08	193.25
357.307	193.25
357.534	187.25
357.761	184.25
357.988	194.25
358.215	205.25
358.441	214.25
358.668	186.25
358.895	194.25
359.122	209.25
359.349	184.25
359.576	193.25
359.802	204.25
360.029	184.25
360.256	191.25
360.483	193.25
360.709	209.25
360.936	195.25
361.163	217.25
361.39	205.25
361.616	205.25
361.843	196.25
362.07	187.25
362.296	202.25
362.523	189.25
362.749	185.25
362.976	199.25
363.203	207.25
363.429	195.25
363.656	201.25
363.882	192.25
364.109	192.25
364.335	209.25
364.562	217.25
364.788	190.25
365.015	195.25
365.241	195.25
365.468	194.25
365.694	182.25
365.92	199.25
366.147	204.25
366.373	208.25
366.599	199.25
366.826	203.25
367.052	203.25
367.278	190.25
367.505	204.25
367.731	216.25
367.957	188.25
368.184	202.25
368.41	204.25
368.636	215.25
368.862	195.25
369.089	202.25
369.315	198.25
369.541	195.25
369.767	211.25
369.993	213.25
370.219	197.25
370.445	198.25
370.672	221.25
370.898	211.25
371.124	205.25
371.35	210.25
371.576	203.25
371.802	210.25
372.028	203.25
372.254	210.25
372.48	209.25
372.706	210.25
372.932	205.25
373.158	211.25
373.384	216.25
373.61	224.25
373.835	219.25
374.061	211.25
374.287	219.25
374.513	225.25
374.739	220.25
374.965	228.25
375.191	219.25
375.416	233.25
375.642	225.25
375.868	211.25
376.094	223.25
376.319	213.25
376.545	208.25
376.771	215.25
376.997	202.25
377.222	210.25
377.448	198.25
377.674	204.25
377.899	211.25
378.125	205.25
378.35	207.25
378.576	209.25
378.802	212.25
379.027	210.25
379.253	217.25
379.478	213.25
379.704	213.25
379.929	213.25
380.155	210.25
380.38	216.25
380.606	218.25
380.831	214.25
381.057	230.25
381.282	200.25
381.507	236.25
381.733	216.25
381.958	229.25
382.184	225.25
382.409	226.25
382.634	229.25
382.86	223.25
383.085	225.25
383.31	231.25
383.535	244.25
383.761	227.25
383.986	239.25
384.211	257.25
384.436	235.25
384.662	258.25
384.887	251.25
385.112	235.25
385.337	229.25
385.562	231.25
385.787	255.25
386.013	260.25
386.238	249.25
386.463	247.25
386.688	242.25
386.913	254.25
387.138	236.25
387.363	245.25
387.588	233.25
387.813	242.25
388.038	261.25
388.263	224.25
388.488	251.25
388.713	248.25
388.938	248.25
389.163	234.25
389.387	236.25
389.612	226.25
389.837	249.25
390.062	236.25
390.287	251.25
390.512	247.25
390.736	243.25
390.961	242.25
391.186	259.25
391.411	262.25
391.636	272.25
391.86	255.25
392.085	277.25
392.31	266.25
392.534	268.25
392.759	255.25
392.984	262.25
393.208	245.25
393.433	249.25
393.658	260.25
393.882	243.25
394.107	266.25
394.331	282.25
394.556	265.25
394.78	267.25
395.005	262.25
395.229	264.25
395.454	274.25
395.678	269.25
395.903	259.25
396.127	250.25
396.352	279.25
396.576	275.25
396.801	268.25
397.025	255.25
397.249	277.25
397.474	250.25
397.698	272.25
397.922	290.25
398.147	281.25
398.371	266.25
398.595	286.25
398.82	293.25
399.044	317.25
399.268	342.25
399.492	356.25
399.717	392.25
399.941	397.25
400.165	355.25
400.389	325.25
400.613	304.25
400.837	323.25
401.062	313.25
401.286	298.25
401.51	287.25
401.734	292.25
401.958	307.25
402.182	314.25
402.406	319.25
402.63	315.25
402.854	315.25
403.078	296.25
403.302	307.25
403.526	309.25
403.75	336.25
403.974	323.25
404.198	326.25
404.422	324.25
404.645	305.25
404.869	306.25
405.093	332.25
405.317	338.25
405.541	324.25
405.765	324.25
405.988	303.25
406.212	305.25
406.436	320.25
406.66	331.25
406.883	343.25
407.107	352.25
407.331	348.25
407.555	363.25
407.778	348.25
408.002	363.25
408.226	343.25
408.449	347.25
408.673	342.25
408.896	335.25
409.12	308.25
409.344	333.25
409.567	344.25
409.791	320.25
410.014	321.25
410.238	332.25
410.461	337.25
410.685	323.25
410.908	332.25
411.132	303.25
411.355	322.25
411.578	304.25
411.802	321.25
412.025	321.25
412.249	313.25
412.472	308.25
412.695	305.25
412.919	300.25
413.142	293.25
413.365	298.25
413.589	311.25
413.812	305.25
414.035	310.25
414.258	302.25
414.482	302.25
414.705	310.25
414.928	297.25
415.151	294.25
415.374	297.25
415.597	291.25
415.821	307.25
416.044	307.25
416.267	313.25
416.49	298.25
416.713	300.25
416.936	321.25
417.159	300.25
417.382	299.25
417.605	290.25
417.828	305.25
418.051	303.25
418.274	301.25
418.497	294.25
418.72	309.25
418.943	337.25
419.166	321.25
419.389	330.25
419.611	319.25
419.834	310.25
420.057	315.25
420.28	301.25
420.503	284.25
420.726	309.25
420.948	312.25
421.171	323.25
421.394	321.25
421.617	312.25
421.839	308.25
422.062	319.25
422.285	311.25
422.507	298.25
422.73	307.25
422.953	313.25
423.175	306.25
423.398	308.25
423.621	320.25
423.843	311.25
424.066	339.25
424.288	316.25
424.511	303.25
424.733	302.25
424.956	307.25
425.178	317.25
425.401	306.25
425.623	300.25
425.846	285.25
426.068	305.25
426.291	309.25
426.513	303.25
426.735	296.25
426.958	290.25
427.18	281.25
427.402	279.25
427.625	297.25
427.847	275.25
428.069	269.25
428.292	299.25
428.514	274.25
428.736	287.25
428.958	277.25
429.181	278.25
429.403	292.25
429.625	298.25
429.847	280.25
430.069	283.25
430.292	296.25
430.514	283.25
430.736	283.25
430.958	282.25
431.18	285.25
431.402	289.25
431.624	297.25
431.846	299.25
432.068	306.25
432.29	299.25
432.512	281.25
432.734	291.25
432.956	274.25
433.178	267.25
433.4	301.25
433.622	308.25
433.844	296.25
434.066	291.25
434.287	311.25
434.509	295.25
434.731	311.25
434.953	314.25
435.175	300.25
435.397	312.25
435.618	303.25
435.84	289.25
436.062	279.25
436.284	289.25
436.505	303.25
436.727	273.25
436.949	299.25
437.17	301.25
437.392	276.25
437.614	290.25
437.835	264.25
438.057	269.25
438.278	288.25
438.5	274.25
438.721	287.25
438.943	278.25
439.165	281.25
439.386	295.25
439.608	299.25
439.829	308.25
440.05	303.25
440.272	291.25
440.493	326.25
440.715	309.25
440.936	316.25
441.158	310.25
441.379	314.25
441.6	325.25
441.822	329.25
442.043	305.25
442.264	324.25
442.486	324.25
442.707	327.25
442.928	325.25
443.149	338.25
443.371	307.25
443.592	320.25
443.813	334.25
444.034	328.25
444.255	331.25
444.476	330.25
444.698	353.25
444.919	361.25
445.14	424.25
445.361	356.25
445.582	330.25
445.803	325.25
446.024	304.25
446.245	303.25
446.466	319.25
446.687	309.25
446.908	314.25
447.129	301.25
447.35	288.25
447.571	291.25
447.792	307.25
448.013	312.25
448.234	293.25
448.455	292.25
448.675	294.25
448.896	301.25
449.117	286.25
449.338	282.25
449.559	283.25
449.779	298.25
450	292.25
450.221	289.25
450.442	284.25
450.662	277.25
450.883	291.25
451.104	291.25
451.324	290.25
451.545	288.25
451.766	278.25
451.986	290.25
452.207	291.25
452.428	279.25
452.648	280.25
452.869	287.25
453.089	290.25
453.31	267.25
453.53	270.25
453.751	252.25
453.971	272.25
454.192	260.25
454.412	250.25
454.633	263.25
454.853	262.25
455.073	280.25
455.294	273.25
455.514	277.25
455.734	247.25
455.955	263.25
456.175	262.25
456.395	276.25
456.616	255.25
456.836	253.25
457.056	261.25
457.276	269.25
457.497	264.25
457.717	263.25
457.937	282.25
458.157	256.25
458.377	260.25
458.598	252.25
458.818	262.25
459.038	270.25
459.258	293.25
459.478	291.25
459.698	295.25
459.918	284.25
460.138	314.25
460.358	324.25
460.578	329.25
460.798	309.25
461.018	313.25
461.238	329.25
461.458	308.25
461.678	333.25
461.898	332.25
462.118	326.25
462.338	346.25
462.558	350.25
462.777	341.25
462.997	385.25
463.217	389.25
463.437	417.25
463.657	372.25
463.876	368.25
464.096	343.25
464.316	339.25
464.536	371.25
464.755	358.25
464.975	356.25
465.195	344.25
465.414	329.25
465.634	292.25
465.854	301.25
466.073	287.25
466.293	308.25
466.512	292.25
466.732	295.25
466.951	297.25
467.171	276.25
467.391	303.25
467.61	288.25
467.829	297.25
468.049	280.25
468.268	279.25
468.488	261.25
468.707	284.25
468.927	299.25
469.146	293.25
469.365	291.25
469.585	265.25
469.804	308.25
470.023	284.25
470.243	295.25
470.462	287.25
470.681	296.25
470.901	285.25
471.12	300.25
471.339	296.25
471.558	279.25
471.777	290.25
471.997	294.25
472.216	284.25
472.435	285.25
472.654	268.25
472.873	272.25
473.092	265.25
473.311	249.25
473.53	276.25
473.749	275.25
473.968	273.25
474.187	247.25
474.406	274.25
474.625	276.25
474.844	275.25
475.063	269.25
475.282	280.25
475.501	240.25
475.72	263.25
475.939	279.25
476.158	272.25
476.377	273.25
476.596	281.25
476.814	294.25
477.033	273.25
477.252	263.25
477.471	287.25
477.69	307.25
477.908	321.25
478.127	311.25
478.346	291.25
478.564	310.25
478.783	305.25
479.002	314.25
479.22	309.25
479.439	340.25
479.658	310.25
479.876	299.25
480.095	300.25
480.313	329.25
480.532	319.25
480.751	351.25
480.969	305.25
481.188	298.25
481.406	291.25
481.624	285.25
481.843	294.25
482.061	305.25
482.28	284.25
482.498	272.25
482.717	293.25
482.935	282.25
483.153	300.25
483.372	291.25
483.59	300.25
483.808	296.25
484.027	303.25
484.245	299.25
484.463	315.25
484.681	312.25
484.9	321.25
485.118	315.25
485.336	308.25
485.554	297.25
485.772	309.25
485.99	299.25
486.209	311.25
486.427	314.25
486.645	295.25
486.863	292.25
487.081	319.25
487.299	307.25
487.517	312.25
487.735	324.25
487.953	330.25
488.171	323.25
488.389	313.25
488.607	315.25
488.825	297.25
489.043	296.25
489.261	297.25
489.479	308.25
489.696	290.25
489.914	288.25
490.132	315.25
490.35	316.25
490.568	329.25
490.786	320.25
491.003	296.25
491.221	310.25
491.439	311.25
491.657	320.25
491.874	322.25
492.092	314.25
492.31	346.25
492.527	342.25
492.745	320.25
492.963	332.25
493.18	325.25
493.398	312.25
493.615	312.25
493.833	332.25
494.05	324.25
494.268	328.25
494.485	319.25
494.703	315.25
494.92	310.25
495.138	322.25
495.355	320.25
495.573	317.25
495.79	350.25
496.008	317.25
496.225	326.25
496.442	348.25
496.66	328.25
496.877	332.25
497.094	363.25
497.312	358.25
497.529	341.25
497.746	365.25
497.963	364.25
498.181	377.25
498.398	376.25
498.615	396.25
498.832	429.25
499.049	457.25
499.267	463.25
499.484	488.25
499.701	568.25
499.918	583.25
500.135	665.25
500.352	719.25
500.569	769.25
500.786	708.25
501.003	679.25
501.22	633.25
501.437	572.25
501.654	507.25
501.871	470.25
502.088	441.25
502.305	429.25
502.522	403.25
