Data from Fe(NO3)3@0.025M.TitratingCurve.Agarose3%dH2O.NegLispCup.LampEnergy10.LIBS07252019_HRD10591_16-56-03-335.txt Node
Date: Thu Jul 25 16:56:03 EDT 2019
User: cochatt
Spectrometer: HR+D1059
Trigger mode: 1
Integration Time (sec): 1.000000E-1
Scans to average: 1
Electric dark correction enabled: true
Nonlinearity correction enabled: false
Boxcar width: 0
XAxis mode: Wavelengths
Number of Pixels in Spectrum: 2048
>>>>>Begin Spectral Data<<<<<
223.165	-15.31
223.4	-15.31
223.635	-15.31
223.869	-12.31
224.104	-22.31
224.338	-23.31
224.573	-3.31
224.808	-16.31
225.042	-6.31
225.277	-5.31
225.511	-1.31
225.746	0.69
225.98	10.69
226.215	5.69
226.449	3.69
226.683	15.69
226.918	39.69
227.152	29.69
227.387	50.69
227.621	25.69
227.856	34.69
228.09	47.69
228.324	49.69
228.559	51.69
228.793	51.69
229.027	65.69
229.262	81.69
229.496	68.69
229.73	75.69
229.964	80.69
230.199	85.69
230.433	90.69
230.667	95.69
230.901	98.69
231.136	101.69
231.37	79.69
231.604	93.69
231.838	90.69
232.072	78.69
232.306	107.69
232.541	88.69
232.775	92.69
233.009	91.69
233.243	97.69
233.477	101.69
233.711	107.69
233.945	104.69
234.179	87.69
234.413	99.69
234.647	96.69
234.881	91.69
235.115	99.69
235.349	100.69
235.583	84.69
235.817	100.69
236.051	105.69
236.285	84.69
236.519	85.69
236.753	96.69
236.987	92.69
237.221	87.69
237.455	101.69
237.689	98.69
237.922	100.69
238.156	108.69
238.39	102.69
238.624	93.69
238.858	98.69
239.091	91.69
239.325	90.69
239.559	94.69
239.793	104.69
240.027	102.69
240.26	92.69
240.494	100.69
240.728	110.69
240.961	115.69
241.195	92.69
241.429	101.69
241.662	110.69
241.896	93.69
242.13	99.69
242.363	87.69
242.597	112.69
242.83	105.69
243.064	106.69
243.298	103.69
243.531	108.69
243.765	115.69
243.998	110.69
244.232	102.69
244.465	113.69
244.699	103.69
244.932	127.69
245.166	117.69
245.399	117.69
245.633	106.69
245.866	113.69
246.099	115.69
246.333	113.69
246.566	111.69
246.8	117.69
247.033	118.69
247.266	129.69
247.5	105.69
247.733	112.69
247.966	119.69
248.2	117.69
248.433	113.69
248.666	122.69
248.899	124.69
249.133	115.69
249.366	123.69
249.599	106.69
249.832	129.69
250.066	125.69
250.299	119.69
250.532	117.69
250.765	115.69
250.998	131.69
251.231	128.69
251.465	123.69
251.698	127.69
251.931	119.69
252.164	123.69
252.397	122.69
252.63	100.69
252.863	119.69
253.096	125.69
253.329	130.69
253.562	139.69
253.795	134.69
254.028	135.69
254.261	128.69
254.494	133.69
254.727	120.69
254.96	138.69
255.193	135.69
255.426	118.69
255.659	129.69
255.892	129.69
256.124	125.69
256.357	138.69
256.59	147.69
256.823	120.69
257.056	129.69
257.289	108.69
257.521	139.69
257.754	132.69
257.987	130.69
258.22	131.69
258.452	139.69
258.685	140.69
258.918	129.69
259.151	133.69
259.383	140.69
259.616	137.69
259.849	158.69
260.081	137.69
260.314	149.69
260.547	133.69
260.779	147.69
261.012	131.69
261.244	125.69
261.477	136.69
261.71	145.69
261.942	141.69
262.175	145.69
262.407	142.69
262.64	145.69
262.872	147.69
263.105	141.69
263.337	146.69
263.57	139.69
263.802	140.69
264.035	139.69
264.267	142.69
264.499	137.69
264.732	147.69
264.964	146.69
265.197	145.69
265.429	141.69
265.661	151.69
265.894	163.69
266.126	153.69
266.358	158.69
266.591	143.69
266.823	147.69
267.055	156.69
267.287	141.69
267.52	152.69
267.752	165.69
267.984	163.69
268.216	175.69
268.448	154.69
268.681	149.69
268.913	161.69
269.145	152.69
269.377	142.69
269.609	147.69
269.841	155.69
270.073	164.69
270.306	163.69
270.538	154.69
270.77	149.69
271.002	150.69
271.234	150.69
271.466	160.69
271.698	159.69
271.93	147.69
272.162	177.69
272.394	168.69
272.626	151.69
272.858	146.69
273.09	170.69
273.322	167.69
273.553	149.69
273.785	159.69
274.017	152.69
274.249	157.69
274.481	165.69
274.713	168.69
274.945	166.69
275.176	171.69
275.408	161.69
275.64	155.69
275.872	159.69
276.104	163.69
276.335	171.69
276.567	173.69
276.799	168.69
277.031	169.69
277.262	160.69
277.494	155.69
277.726	169.69
277.957	169.69
278.189	170.69
278.421	177.69
278.652	160.69
278.884	165.69
279.115	169.69
279.347	180.69
279.579	180.69
279.81	181.69
280.042	177.69
280.273	195.69
280.505	186.69
280.736	162.69
280.968	175.69
281.199	172.69
281.431	186.69
281.662	184.69
281.894	184.69
282.125	197.69
282.356	182.69
282.588	191.69
282.819	183.69
283.051	196.69
283.282	195.69
283.513	191.69
283.745	187.69
283.976	192.69
284.207	189.69
284.439	194.69
284.67	186.69
284.901	177.69
285.132	178.69
285.364	196.69
285.595	199.69
285.826	191.69
286.057	183.69
286.288	187.69
286.52	196.69
286.751	194.69
286.982	200.69
287.213	207.69
287.444	203.69
287.675	216.69
287.906	198.69
288.138	198.69
288.369	190.69
288.6	191.69
288.831	211.69
289.062	203.69
289.293	189.69
289.524	204.69
289.755	187.69
289.986	218.69
290.217	208.69
290.448	185.69
290.679	203.69
290.91	207.69
291.141	205.69
291.371	204.69
291.602	203.69
291.833	203.69
292.064	212.69
292.295	216.69
292.526	205.69
292.757	201.69
292.987	211.69
293.218	195.69
293.449	193.69
293.68	231.69
293.91	201.69
294.141	215.69
294.372	207.69
294.603	205.69
294.833	195.69
295.064	207.69
295.295	205.69
295.525	225.69
295.756	201.69
295.987	220.69
296.217	213.69
296.448	207.69
296.679	207.69
296.909	209.69
297.14	198.69
297.37	224.69
297.601	231.69
297.831	222.69
298.062	228.69
298.292	222.69
298.523	228.69
298.753	240.69
298.984	215.69
299.214	220.69
299.445	232.69
299.675	232.69
299.905	209.69
300.136	227.69
300.366	224.69
300.597	259.69
300.827	219.69
301.057	219.69
301.288	220.69
301.518	241.69
301.748	220.69
301.979	242.69
302.209	237.69
302.439	213.69
302.669	227.69
302.9	230.69
303.13	225.69
303.36	227.69
303.59	234.69
303.82	230.69
304.051	232.69
304.281	243.69
304.511	241.69
304.741	229.69
304.971	221.69
305.201	238.69
305.431	225.69
305.661	236.69
305.891	235.69
306.121	234.69
306.352	233.69
306.582	249.69
306.812	237.69
307.042	252.69
307.272	224.69
307.502	235.69
307.731	242.69
307.961	233.69
308.191	232.69
308.421	222.69
308.651	223.69
308.881	245.69
309.111	227.69
309.341	239.69
309.571	237.69
309.8	223.69
310.03	241.69
310.26	229.69
310.49	219.69
310.72	251.69
310.949	247.69
311.179	246.69
311.409	235.69
311.639	255.69
311.868	236.69
312.098	250.69
312.328	239.69
312.557	240.69
312.787	241.69
313.017	247.69
313.246	229.69
313.476	257.69
313.706	241.69
313.935	249.69
314.165	246.69
314.394	252.69
314.624	253.69
314.853	251.69
315.083	254.69
315.312	262.69
315.542	250.69
315.771	244.69
316.001	240.69
316.23	252.69
316.46	242.69
316.689	236.69
316.919	235.69
317.148	238.69
317.377	259.69
317.607	242.69
317.836	243.69
318.065	262.69
318.295	263.69
318.524	239.69
318.753	253.69
318.983	253.69
319.212	240.69
319.441	255.69
319.67	253.69
319.9	231.69
320.129	242.69
320.358	252.69
320.587	248.69
320.816	261.69
321.046	252.69
321.275	257.69
321.504	261.69
321.733	256.69
321.962	264.69
322.191	273.69
322.42	256.69
322.649	267.69
322.878	272.69
323.108	260.69
323.337	279.69
323.566	261.69
323.795	265.69
324.024	243.69
324.253	260.69
324.482	269.69
324.71	264.69
324.939	277.69
325.168	254.69
325.397	264.69
325.626	247.69
325.855	273.69
326.084	277.69
326.313	284.69
326.542	268.69
326.77	279.69
326.999	275.69
327.228	273.69
327.457	274.69
327.686	290.69
327.914	269.69
328.143	268.69
328.372	271.69
328.6	279.69
328.829	269.69
329.058	283.69
329.287	291.69
329.515	274.69
329.744	279.69
329.972	273.69
330.201	284.69
330.43	282.69
330.658	283.69
330.887	279.69
331.115	285.69
331.344	294.69
331.572	298.69
331.801	305.69
332.03	299.69
332.258	305.69
332.486	305.69
332.715	306.69
332.943	323.69
333.172	327.69
333.4	348.69
333.629	340.69
333.857	331.69
334.085	330.69
334.314	343.69
334.542	337.69
334.771	326.69
334.999	331.69
335.227	323.69
335.455	319.69
335.684	304.69
335.912	344.69
336.14	324.69
336.369	323.69
336.597	338.69
336.825	320.69
337.053	317.69
337.281	313.69
337.51	320.69
337.738	314.69
337.966	309.69
338.194	312.69
338.422	305.69
338.65	316.69
338.878	297.69
339.106	293.69
339.334	318.69
339.562	298.69
339.79	287.69
340.018	281.69
340.246	289.69
340.474	296.69
340.702	290.69
340.93	309.69
341.158	295.69
341.386	297.69
341.614	308.69
341.842	287.69
342.07	294.69
342.298	286.69
342.526	295.69
342.754	319.69
342.981	293.69
343.209	294.69
343.437	301.69
343.665	324.69
343.893	344.69
344.12	341.69
344.348	314.69
344.576	303.69
344.804	323.69
345.031	307.69
345.259	294.69
345.487	319.69
345.714	294.69
345.942	287.69
346.17	284.69
346.397	279.69
346.625	301.69
346.853	293.69
347.08	298.69
347.308	299.69
347.535	303.69
347.763	305.69
347.99	293.69
348.218	279.69
348.445	294.69
348.673	293.69
348.9	284.69
349.128	288.69
349.355	285.69
349.583	295.69
349.81	281.69
350.037	279.69
350.265	296.69
350.492	286.69
350.72	277.69
350.947	289.69
351.174	293.69
351.402	293.69
351.629	282.69
351.856	297.69
352.083	277.69
352.311	284.69
352.538	282.69
352.765	263.69
352.992	268.69
353.22	284.69
353.447	296.69
353.674	273.69
353.901	276.69
354.128	287.69
354.355	283.69
354.583	285.69
354.81	283.69
355.037	276.69
355.264	280.69
355.491	292.69
355.718	276.69
355.945	275.69
356.172	292.69
356.399	284.69
356.626	288.69
356.853	298.69
357.08	293.69
357.307	278.69
357.534	291.69
357.761	274.69
357.988	296.69
358.215	279.69
358.441	269.69
358.668	296.69
358.895	287.69
359.122	281.69
359.349	275.69
359.576	292.69
359.802	288.69
360.029	298.69
360.256	288.69
360.483	307.69
360.709	283.69
360.936	280.69
361.163	287.69
361.39	281.69
361.616	287.69
361.843	273.69
362.07	291.69
362.296	281.69
362.523	275.69
362.749	283.69
362.976	299.69
363.203	293.69
363.429	296.69
363.656	293.69
363.882	297.69
364.109	289.69
364.335	291.69
364.562	307.69
364.788	288.69
365.015	277.69
365.241	294.69
365.468	275.69
365.694	283.69
365.92	272.69
366.147	281.69
366.373	281.69
366.599	289.69
366.826	276.69
367.052	288.69
367.278	312.69
367.505	303.69
367.731	282.69
367.957	279.69
368.184	285.69
368.41	293.69
368.636	301.69
368.862	306.69
369.089	299.69
369.315	281.69
369.541	291.69
369.767	311.69
369.993	282.69
370.219	296.69
370.445	303.69
370.672	309.69
370.898	309.69
371.124	297.69
371.35	313.69
371.576	316.69
371.802	324.69
372.028	305.69
372.254	320.69
372.48	323.69
372.706	319.69
372.932	321.69
373.158	323.69
373.384	327.69
373.61	320.69
373.835	317.69
374.061	325.69
374.287	336.69
374.513	307.69
374.739	309.69
374.965	339.69
375.191	317.69
375.416	312.69
375.642	338.69
375.868	320.69
376.094	313.69
376.319	316.69
376.545	316.69
376.771	314.69
376.997	330.69
377.222	335.69
377.448	318.69
377.674	311.69
377.899	303.69
378.125	321.69
378.35	290.69
378.576	303.69
378.802	311.69
379.027	322.69
379.253	316.69
379.478	293.69
379.704	303.69
379.929	319.69
380.155	316.69
380.38	315.69
380.606	314.69
380.831	314.69
381.057	327.69
381.282	304.69
381.507	326.69
381.733	332.69
381.958	309.69
382.184	315.69
382.409	330.69
382.634	332.69
382.86	316.69
383.085	320.69
383.31	329.69
383.535	346.69
383.761	346.69
383.986	325.69
384.211	332.69
384.436	347.69
384.662	354.69
384.887	361.69
385.112	359.69
385.337	368.69
385.562	361.69
385.787	353.69
386.013	368.69
386.238	364.69
386.463	354.69
386.688	367.69
386.913	364.69
387.138	365.69
387.363	365.69
387.588	356.69
387.813	353.69
388.038	349.69
388.263	371.69
388.488	377.69
388.713	379.69
388.938	374.69
389.163	359.69
389.387	351.69
389.612	364.69
389.837	364.69
390.062	359.69
390.287	367.69
390.512	355.69
390.736	354.69
390.961	373.69
391.186	350.69
391.411	419.69
391.636	385.69
391.86	402.69
392.085	397.69
392.31	383.69
392.534	383.69
392.759	410.69
392.984	381.69
393.208	374.69
393.433	368.69
393.658	376.69
393.882	376.69
394.107	385.69
394.331	389.69
394.556	387.69
394.78	395.69
395.005	374.69
395.229	395.69
395.454	407.69
395.678	392.69
395.903	404.69
396.127	392.69
396.352	405.69
396.576	394.69
396.801	382.69
397.025	391.69
397.249	400.69
397.474	398.69
397.698	415.69
397.922	405.69
398.147	412.69
398.371	401.69
398.595	436.69
398.82	461.69
399.044	469.69
399.268	507.69
399.492	540.69
399.717	560.69
399.941	559.69
400.165	543.69
400.389	511.69
400.613	485.69
400.837	457.69
401.062	469.69
401.286	451.69
401.51	431.69
401.734	439.69
401.958	459.69
402.182	439.69
402.406	445.69
402.63	451.69
402.854	459.69
403.078	453.69
403.302	440.69
403.526	443.69
403.75	458.69
403.974	467.69
404.198	457.69
404.422	459.69
404.645	471.69
404.869	484.69
405.093	460.69
405.317	453.69
405.541	473.69
405.765	465.69
405.988	458.69
406.212	467.69
406.436	475.69
406.66	481.69
406.883	495.69
407.107	503.69
407.331	523.69
407.555	543.69
407.778	529.69
408.002	506.69
408.226	519.69
408.449	505.69
408.673	514.69
408.896	489.69
409.12	456.69
409.344	472.69
409.567	457.69
409.791	477.69
410.014	473.69
410.238	481.69
410.461	452.69
410.685	463.69
410.908	458.69
411.132	455.69
411.355	417.69
411.578	436.69
411.802	441.69
412.025	455.69
412.249	461.69
412.472	447.69
412.695	426.69
412.919	430.69
413.142	450.69
413.365	441.69
413.589	459.69
413.812	434.69
414.035	411.69
414.258	424.69
414.482	432.69
414.705	431.69
414.928	439.69
415.151	444.69
415.374	457.69
415.597	449.69
415.821	419.69
416.044	421.69
416.267	443.69
416.49	389.69
416.713	436.69
416.936	426.69
417.159	418.69
417.382	428.69
417.605	403.69
417.828	413.69
418.051	413.69
418.274	426.69
418.497	437.69
418.72	431.69
418.943	431.69
419.166	448.69
419.389	457.69
419.611	446.69
419.834	425.69
420.057	427.69
420.28	452.69
420.503	435.69
420.726	423.69
420.948	400.69
421.171	402.69
421.394	412.69
421.617	407.69
421.839	418.69
422.062	422.69
422.285	412.69
422.507	416.69
422.73	408.69
422.953	390.69
423.175	419.69
423.398	421.69
423.621	427.69
423.843	440.69
424.066	439.69
424.288	425.69
424.511	407.69
424.733	421.69
424.956	431.69
425.178	421.69
425.401	435.69
425.623	411.69
425.846	410.69
426.068	424.69
426.291	400.69
426.513	401.69
426.735	401.69
426.958	395.69
427.18	413.69
427.402	402.69
427.625	401.69
427.847	385.69
428.069	379.69
428.292	401.69
428.514	401.69
428.736	381.69
428.958	390.69
429.181	369.69
429.403	378.69
429.625	386.69
429.847	374.69
430.069	381.69
430.292	385.69
430.514	365.69
430.736	385.69
430.958	396.69
431.18	383.69
431.402	377.69
431.624	395.69
431.846	387.69
432.068	394.69
432.29	384.69
432.512	375.69
432.734	391.69
432.956	404.69
433.178	400.69
433.4	379.69
433.622	387.69
433.844	396.69
434.066	377.69
434.287	383.69
434.509	420.69
434.731	423.69
434.953	404.69
435.175	418.69
435.397	408.69
435.618	381.69
435.84	390.69
436.062	395.69
436.284	398.69
436.505	379.69
436.727	403.69
436.949	392.69
437.17	392.69
437.392	371.69
437.614	381.69
437.835	370.69
438.057	369.69
438.278	372.69
438.5	359.69
438.721	375.69
438.943	371.69
439.165	365.69
439.386	375.69
439.608	357.69
439.829	387.69
440.05	393.69
440.272	390.69
440.493	378.69
440.715	417.69
440.936	400.69
441.158	391.69
441.379	406.69
441.6	429.69
441.822	396.69
442.043	415.69
442.264	396.69
442.486	394.69
442.707	405.69
442.928	419.69
443.149	415.69
443.371	413.69
443.592	397.69
443.813	415.69
444.034	423.69
444.255	410.69
444.476	421.69
444.698	467.69
444.919	450.69
445.14	528.69
445.361	467.69
445.582	419.69
445.803	402.69
446.024	398.69
446.245	397.69
446.466	383.69
446.687	368.69
446.908	384.69
447.129	355.69
447.35	383.69
447.571	376.69
447.792	377.69
448.013	365.69
448.234	356.69
448.455	348.69
448.675	357.69
448.896	362.69
449.117	359.69
449.338	362.69
449.559	355.69
449.779	354.69
450	365.69
450.221	359.69
450.442	372.69
450.662	375.69
450.883	362.69
451.104	379.69
451.324	353.69
451.545	357.69
451.766	370.69
451.986	336.69
452.207	341.69
452.428	347.69
452.648	348.69
452.869	352.69
453.089	347.69
453.31	332.69
453.53	341.69
453.751	359.69
453.971	350.69
454.192	328.69
454.412	340.69
454.633	332.69
454.853	346.69
455.073	336.69
455.294	342.69
455.514	328.69
455.734	326.69
455.955	346.69
456.175	332.69
456.395	346.69
456.616	325.69
456.836	348.69
457.056	339.69
457.276	338.69
457.497	350.69
457.717	340.69
457.937	341.69
458.157	358.69
458.377	362.69
458.598	360.69
458.818	376.69
459.038	387.69
459.258	376.69
459.478	390.69
459.698	383.69
459.918	397.69
460.138	406.69
460.358	433.69
460.578	411.69
460.798	438.69
461.018	445.69
461.238	437.69
461.458	431.69
461.678	436.69
461.898	437.69
462.118	444.69
462.338	467.69
462.558	481.69
462.777	501.69
462.997	510.69
463.217	509.69
463.437	509.69
463.657	480.69
463.876	473.69
464.096	487.69
464.316	456.69
464.536	475.69
464.755	459.69
464.975	445.69
465.195	437.69
465.414	401.69
465.634	404.69
465.854	392.69
466.073	399.69
466.293	381.69
466.512	389.69
466.732	377.69
466.951	379.69
467.171	393.69
467.391	387.69
467.61	371.69
467.829	370.69
468.049	355.69
468.268	373.69
468.488	381.69
468.707	362.69
468.927	369.69
469.146	357.69
469.365	387.69
469.585	362.69
469.804	362.69
470.023	380.69
470.243	391.69
470.462	373.69
470.681	368.69
470.901	380.69
471.12	393.69
471.339	364.69
471.558	391.69
471.777	363.69
471.997	357.69
472.216	362.69
472.435	370.69
472.654	383.69
472.873	367.69
473.092	375.69
473.311	358.69
473.53	347.69
473.749	355.69
473.968	375.69
474.187	367.69
474.406	373.69
474.625	374.69
474.844	383.69
475.063	381.69
475.282	375.69
475.501	371.69
475.72	363.69
475.939	363.69
476.158	372.69
476.377	391.69
476.596	389.69
476.814	370.69
477.033	412.69
477.252	387.69
477.471	415.69
477.69	405.69
477.908	411.69
478.127	403.69
478.346	419.69
478.564	417.69
478.783	427.69
479.002	433.69
479.22	429.69
479.439	428.69
479.658	425.69
479.876	430.69
480.095	434.69
480.313	439.69
480.532	456.69
480.751	445.69
480.969	428.69
481.188	472.69
481.406	429.69
481.624	427.69
481.843	415.69
482.061	421.69
482.28	423.69
482.498	421.69
482.717	404.69
482.935	414.69
483.153	426.69
483.372	430.69
483.59	451.69
483.808	411.69
484.027	415.69
484.245	405.69
484.463	421.69
484.681	428.69
484.9	437.69
485.118	437.69
485.336	426.69
485.554	427.69
485.772	435.69
485.99	437.69
486.209	432.69
486.427	425.69
486.645	413.69
486.863	430.69
487.081	413.69
487.299	429.69
487.517	422.69
487.735	436.69
487.953	421.69
488.171	426.69
488.389	435.69
488.607	409.69
488.825	416.69
489.043	426.69
489.261	419.69
489.479	417.69
489.696	432.69
489.914	449.69
490.132	434.69
490.35	417.69
490.568	443.69
490.786	434.69
491.003	411.69
491.221	442.69
491.439	441.69
491.657	419.69
491.874	428.69
492.092	444.69
492.31	440.69
492.527	424.69
492.745	460.69
492.963	459.69
493.18	448.69
493.398	425.69
493.615	419.69
493.833	438.69
494.05	437.69
494.268	463.69
494.485	459.69
494.703	424.69
494.92	458.69
495.138	455.69
495.355	450.69
495.573	481.69
495.79	496.69
496.008	460.69
496.225	461.69
496.442	485.69
496.66	488.69
496.877	491.69
497.094	512.69
497.312	504.69
497.529	518.69
497.746	528.69
497.963	554.69
498.181	539.69
498.398	555.69
498.615	576.69
498.832	627.69
499.049	639.69
499.267	664.69
499.484	728.69
499.701	801.69
499.918	843.69
500.135	897.69
500.352	986.69
500.569	992.69
500.786	973.69
501.003	947.69
501.22	855.69
501.437	805.69
501.654	748.69
501.871	732.69
502.088	676.69
