Data from Fe(NO3)3@0.1M.TitratingCurve.Agarose3%dH2O.NegLispCup.LampEnergy10.LIBS07252019_HRD10591_16-42-19-333.txt Node
Date: Thu Jul 25 16:42:19 EDT 2019
User: cochatt
Spectrometer: HR+D1059
Trigger mode: 1
Integration Time (sec): 1.000000E-1
Scans to average: 1
Electric dark correction enabled: true
Nonlinearity correction enabled: false
Boxcar width: 0
XAxis mode: Wavelengths
Number of Pixels in Spectrum: 2048
>>>>>Begin Spectral Data<<<<<
223.165	-13.19
223.4	-13.19
223.635	-13.19
223.869	-30.19
224.104	-22.19
224.338	-21.19
224.573	-12.19
224.808	-14.19
225.042	3.81
225.277	-7.19
225.511	-13.19
225.746	9.81
225.98	9.81
226.215	8.81
226.449	17.81
226.683	21.81
226.918	35.81
227.152	25.81
227.387	40.81
227.621	41.81
227.856	42.81
228.09	54.81
228.324	49.81
228.559	45.81
228.793	65.81
229.027	90.81
229.262	82.81
229.496	87.81
229.73	89.81
229.964	86.81
230.199	91.81
230.433	100.81
230.667	108.81
230.901	103.81
231.136	116.81
231.37	107.81
231.604	112.81
231.838	106.81
232.072	115.81
232.306	114.81
232.541	119.81
232.775	97.81
233.009	112.81
233.243	112.81
233.477	107.81
233.711	126.81
233.945	120.81
234.179	106.81
234.413	116.81
234.647	116.81
234.881	121.81
235.115	129.81
235.349	125.81
235.583	130.81
235.817	105.81
236.051	112.81
236.285	110.81
236.519	108.81
236.753	117.81
236.987	117.81
237.221	118.81
237.455	127.81
237.689	106.81
237.922	117.81
238.156	105.81
238.39	115.81
238.624	112.81
238.858	121.81
239.091	129.81
239.325	131.81
239.559	128.81
239.793	129.81
240.027	129.81
240.26	137.81
240.494	118.81
240.728	129.81
240.961	130.81
241.195	127.81
241.429	144.81
241.662	121.81
241.896	128.81
242.13	134.81
242.363	119.81
242.597	129.81
242.83	130.81
243.064	133.81
243.298	141.81
243.531	124.81
243.765	133.81
243.998	118.81
244.232	132.81
244.465	125.81
244.699	146.81
244.932	139.81
245.166	142.81
245.399	129.81
245.633	140.81
245.866	138.81
246.099	140.81
246.333	144.81
246.566	141.81
246.8	146.81
247.033	160.81
247.266	126.81
247.5	156.81
247.733	148.81
247.966	129.81
248.2	146.81
248.433	134.81
248.666	133.81
248.899	169.81
249.133	134.81
249.366	154.81
249.599	154.81
249.832	172.81
250.066	166.81
250.299	161.81
250.532	152.81
250.765	171.81
250.998	151.81
251.231	150.81
251.465	160.81
251.698	164.81
251.931	151.81
252.164	164.81
252.397	160.81
252.63	167.81
252.863	164.81
253.096	180.81
253.329	174.81
253.562	178.81
253.795	176.81
254.028	177.81
254.261	186.81
254.494	186.81
254.727	158.81
254.96	162.81
255.193	186.81
255.426	167.81
255.659	159.81
255.892	184.81
256.124	180.81
256.357	177.81
256.59	198.81
256.823	178.81
257.056	171.81
257.289	158.81
257.521	160.81
257.754	189.81
257.987	190.81
258.22	183.81
258.452	169.81
258.685	171.81
258.918	177.81
259.151	180.81
259.383	198.81
259.616	176.81
259.849	184.81
260.081	176.81
260.314	188.81
260.547	177.81
260.779	174.81
261.012	183.81
261.244	182.81
261.477	201.81
261.71	199.81
261.942	206.81
262.175	186.81
262.407	171.81
262.64	188.81
262.872	192.81
263.105	185.81
263.337	204.81
263.57	197.81
263.802	187.81
264.035	193.81
264.267	185.81
264.499	204.81
264.732	202.81
264.964	198.81
265.197	181.81
265.429	203.81
265.661	226.81
265.894	221.81
266.126	216.81
266.358	208.81
266.591	197.81
266.823	210.81
267.055	184.81
267.287	224.81
267.52	216.81
267.752	199.81
267.984	198.81
268.216	213.81
268.448	217.81
268.681	193.81
268.913	217.81
269.145	224.81
269.377	227.81
269.609	226.81
269.841	217.81
270.073	210.81
270.306	215.81
270.538	205.81
270.77	210.81
271.002	221.81
271.234	221.81
271.466	214.81
271.698	216.81
271.93	229.81
272.162	220.81
272.394	230.81
272.626	227.81
272.858	226.81
273.09	212.81
273.322	238.81
273.553	218.81
273.785	218.81
274.017	211.81
274.249	245.81
274.481	210.81
274.713	224.81
274.945	232.81
275.176	230.81
275.408	226.81
275.64	242.81
275.872	241.81
276.104	228.81
276.335	237.81
276.567	220.81
276.799	244.81
277.031	240.81
277.262	234.81
277.494	240.81
277.726	234.81
277.957	247.81
278.189	246.81
278.421	241.81
278.652	238.81
278.884	243.81
279.115	232.81
279.347	243.81
279.579	250.81
279.81	234.81
280.042	241.81
280.273	248.81
280.505	247.81
280.736	251.81
280.968	248.81
281.199	262.81
281.431	237.81
281.662	252.81
281.894	255.81
282.125	262.81
282.356	267.81
282.588	251.81
282.819	269.81
283.051	263.81
283.282	260.81
283.513	262.81
283.745	282.81
283.976	271.81
284.207	259.81
284.439	274.81
284.67	257.81
284.901	267.81
285.132	280.81
285.364	276.81
285.595	262.81
285.826	265.81
286.057	269.81
286.288	278.81
286.52	279.81
286.751	278.81
286.982	264.81
287.213	252.81
287.444	274.81
287.675	270.81
287.906	268.81
288.138	279.81
288.369	290.81
288.6	264.81
288.831	274.81
289.062	289.81
289.293	282.81
289.524	271.81
289.755	280.81
289.986	297.81
290.217	286.81
290.448	281.81
290.679	288.81
290.91	278.81
291.141	287.81
291.371	280.81
291.602	269.81
291.833	268.81
292.064	276.81
292.295	278.81
292.526	261.81
292.757	284.81
292.987	285.81
293.218	288.81
293.449	286.81
293.68	280.81
293.91	289.81
294.141	283.81
294.372	289.81
294.603	271.81
294.833	282.81
295.064	298.81
295.295	275.81
295.525	306.81
295.756	304.81
295.987	284.81
296.217	297.81
296.448	293.81
296.679	316.81
296.909	282.81
297.14	289.81
297.37	277.81
297.601	317.81
297.831	315.81
298.062	308.81
298.292	310.81
298.523	314.81
298.753	309.81
298.984	305.81
299.214	317.81
299.445	317.81
299.675	311.81
299.905	305.81
300.136	309.81
300.366	294.81
300.597	299.81
300.827	324.81
301.057	319.81
301.288	328.81
301.518	314.81
301.748	321.81
301.979	329.81
302.209	331.81
302.439	323.81
302.669	336.81
302.9	294.81
303.13	328.81
303.36	324.81
303.59	339.81
303.82	308.81
304.051	319.81
304.281	328.81
304.511	321.81
304.741	303.81
304.971	322.81
305.201	320.81
305.431	318.81
305.661	306.81
305.891	326.81
306.121	321.81
306.352	312.81
306.582	325.81
306.812	325.81
307.042	313.81
307.272	324.81
307.502	302.81
307.731	327.81
307.961	325.81
308.191	336.81
308.421	335.81
308.651	331.81
308.881	324.81
309.111	344.81
309.341	322.81
309.571	317.81
309.8	312.81
310.03	333.81
310.26	345.81
310.49	334.81
310.72	333.81
310.949	329.81
311.179	320.81
311.409	327.81
311.639	332.81
311.868	325.81
312.098	322.81
312.328	325.81
312.557	325.81
312.787	327.81
313.017	335.81
313.246	348.81
313.476	334.81
313.706	359.81
313.935	344.81
314.165	339.81
314.394	340.81
314.624	330.81
314.853	353.81
315.083	343.81
315.312	336.81
315.542	355.81
315.771	369.81
316.001	333.81
316.23	356.81
316.46	348.81
316.689	352.81
316.919	349.81
317.148	350.81
317.377	338.81
317.607	353.81
317.836	329.81
318.065	346.81
318.295	331.81
318.524	337.81
318.753	323.81
318.983	331.81
319.212	339.81
319.441	326.81
319.67	330.81
319.9	337.81
320.129	348.81
320.358	337.81
320.587	347.81
320.816	341.81
321.046	331.81
321.275	347.81
321.504	336.81
321.733	335.81
321.962	348.81
322.191	348.81
322.42	332.81
322.649	360.81
322.878	349.81
323.108	355.81
323.337	377.81
323.566	355.81
323.795	354.81
324.024	365.81
324.253	334.81
324.482	367.81
324.71	364.81
324.939	350.81
325.168	368.81
325.397	356.81
325.626	357.81
325.855	364.81
326.084	360.81
326.313	373.81
326.542	384.81
326.77	378.81
326.999	361.81
327.228	380.81
327.457	360.81
327.686	358.81
327.914	364.81
328.143	369.81
328.372	348.81
328.6	373.81
328.829	368.81
329.058	374.81
329.287	384.81
329.515	363.81
329.744	375.81
329.972	378.81
330.201	385.81
330.43	396.81
330.658	379.81
330.887	380.81
331.115	392.81
331.344	406.81
331.572	386.81
331.801	381.81
332.03	385.81
332.258	432.81
332.486	429.81
332.715	420.81
332.943	458.81
333.172	425.81
333.4	456.81
333.629	468.81
333.857	473.81
334.085	488.81
334.314	456.81
334.542	476.81
334.771	464.81
334.999	464.81
335.227	465.81
335.455	461.81
335.684	450.81
335.912	465.81
336.14	456.81
336.369	440.81
336.597	444.81
336.825	432.81
337.053	433.81
337.281	433.81
337.51	435.81
337.738	432.81
337.966	415.81
338.194	414.81
338.422	420.81
338.65	431.81
338.878	405.81
339.106	402.81
339.334	397.81
339.562	393.81
339.79	412.81
340.018	394.81
340.246	388.81
340.474	393.81
340.702	391.81
340.93	406.81
341.158	398.81
341.386	388.81
341.614	397.81
341.842	404.81
342.07	390.81
342.298	380.81
342.526	398.81
342.754	385.81
342.981	412.81
343.209	386.81
343.437	414.81
343.665	436.81
343.893	436.81
344.12	458.81
344.348	445.81
344.576	425.81
344.804	422.81
345.031	410.81
345.259	398.81
345.487	394.81
345.714	377.81
345.942	379.81
346.17	381.81
346.397	382.81
346.625	357.81
346.853	386.81
347.08	373.81
347.308	379.81
347.535	401.81
347.763	376.81
347.99	373.81
348.218	383.81
348.445	387.81
348.673	378.81
348.9	396.81
349.128	386.81
349.355	378.81
349.583	364.81
349.81	390.81
350.037	385.81
350.265	370.81
350.492	359.81
350.72	378.81
350.947	378.81
351.174	385.81
351.402	370.81
351.629	381.81
351.856	364.81
352.083	362.81
352.311	368.81
352.538	371.81
352.765	377.81
352.992	383.81
353.22	358.81
353.447	372.81
353.674	354.81
353.901	366.81
354.128	329.81
354.355	360.81
354.583	375.81
354.81	384.81
355.037	399.81
355.264	381.81
355.491	351.81
355.718	380.81
355.945	384.81
356.172	356.81
356.399	369.81
356.626	370.81
356.853	373.81
357.08	391.81
357.307	392.81
357.534	354.81
357.761	360.81
357.988	375.81
358.215	359.81
358.441	378.81
358.668	360.81
358.895	376.81
359.122	359.81
359.349	378.81
359.576	376.81
359.802	360.81
360.029	345.81
360.256	374.81
360.483	364.81
360.709	373.81
360.936	362.81
361.163	372.81
361.39	376.81
361.616	361.81
361.843	366.81
362.07	380.81
362.296	365.81
362.523	360.81
362.749	388.81
362.976	376.81
363.203	375.81
363.429	373.81
363.656	399.81
363.882	384.81
364.109	368.81
364.335	374.81
364.562	373.81
364.788	371.81
365.015	372.81
365.241	371.81
365.468	372.81
365.694	384.81
365.92	352.81
366.147	380.81
366.373	365.81
366.599	376.81
366.826	381.81
367.052	389.81
367.278	388.81
367.505	387.81
367.731	384.81
367.957	375.81
368.184	382.81
368.41	360.81
368.636	378.81
368.862	372.81
369.089	397.81
369.315	389.81
369.541	402.81
369.767	397.81
369.993	387.81
370.219	384.81
370.445	402.81
370.672	407.81
370.898	396.81
371.124	388.81
371.35	407.81
371.576	409.81
371.802	399.81
372.028	391.81
372.254	417.81
372.48	396.81
372.706	434.81
372.932	426.81
373.158	420.81
373.384	417.81
373.61	393.81
373.835	408.81
374.061	429.81
374.287	420.81
374.513	427.81
374.739	453.81
374.965	429.81
375.191	438.81
375.416	450.81
375.642	436.81
375.868	424.81
376.094	429.81
376.319	432.81
376.545	403.81
376.771	398.81
376.997	433.81
377.222	388.81
377.448	397.81
377.674	394.81
377.899	413.81
378.125	432.81
378.35	409.81
378.576	422.81
378.802	414.81
379.027	392.81
379.253	402.81
379.478	402.81
379.704	396.81
379.929	397.81
380.155	391.81
380.38	411.81
380.606	399.81
380.831	420.81
381.057	410.81
381.282	395.81
381.507	403.81
381.733	426.81
381.958	417.81
382.184	429.81
382.409	428.81
382.634	432.81
382.86	438.81
383.085	437.81
383.31	440.81
383.535	443.81
383.761	444.81
383.986	461.81
384.211	455.81
384.436	461.81
384.662	467.81
384.887	468.81
385.112	462.81
385.337	468.81
385.562	460.81
385.787	484.81
386.013	490.81
386.238	497.81
386.463	493.81
386.688	509.81
386.913	486.81
387.138	469.81
387.363	486.81
387.588	473.81
387.813	477.81
388.038	475.81
388.263	476.81
388.488	478.81
388.713	484.81
388.938	491.81
389.163	473.81
389.387	477.81
389.612	484.81
389.837	478.81
390.062	475.81
390.287	504.81
390.512	485.81
390.736	474.81
390.961	503.81
391.186	501.81
391.411	503.81
391.636	516.81
391.86	524.81
392.085	553.81
392.31	537.81
392.534	492.81
392.759	536.81
392.984	517.81
393.208	538.81
393.433	500.81
393.658	486.81
393.882	488.81
394.107	517.81
394.331	507.81
394.556	527.81
394.78	541.81
395.005	526.81
395.229	550.81
395.454	517.81
395.678	527.81
395.903	534.81
396.127	520.81
396.352	531.81
396.576	536.81
396.801	530.81
397.025	522.81
397.249	542.81
397.474	542.81
397.698	540.81
397.922	541.81
398.147	552.81
398.371	534.81
398.595	562.81
398.82	594.81
399.044	627.81
399.268	684.81
399.492	736.81
399.717	801.81
399.941	812.81
400.165	748.81
400.389	653.81
400.613	624.81
400.837	634.81
401.062	617.81
401.286	608.81
401.51	598.81
401.734	625.81
401.958	597.81
402.182	609.81
402.406	613.81
402.63	611.81
402.854	618.81
403.078	601.81
403.302	632.81
403.526	641.81
403.75	645.81
403.974	648.81
404.198	651.81
404.422	672.81
404.645	670.81
404.869	636.81
405.093	636.81
405.317	651.81
405.541	657.81
405.765	650.81
405.988	647.81
406.212	635.81
406.436	662.81
406.66	660.81
406.883	648.81
407.107	702.81
407.331	704.81
407.555	728.81
407.778	714.81
408.002	715.81
408.226	704.81
408.449	685.81
408.673	669.81
408.896	669.81
409.12	665.81
409.344	653.81
409.567	658.81
409.791	647.81
410.014	648.81
410.238	659.81
410.461	644.81
410.685	637.81
410.908	637.81
411.132	654.81
411.355	625.81
411.578	606.81
411.802	615.81
412.025	636.81
412.249	620.81
412.472	623.81
412.695	616.81
412.919	610.81
413.142	602.81
413.365	596.81
413.589	610.81
413.812	609.81
414.035	611.81
414.258	596.81
414.482	605.81
414.705	608.81
414.928	632.81
415.151	605.81
415.374	613.81
415.597	599.81
415.821	573.81
416.044	606.81
416.267	594.81
416.49	579.81
416.713	597.81
416.936	597.81
417.159	603.81
417.382	600.81
417.605	589.81
417.828	581.81
418.051	591.81
418.274	604.81
418.497	571.81
418.72	608.81
418.943	611.81
419.166	641.81
419.389	655.81
419.611	631.81
419.834	630.81
420.057	610.81
420.28	607.81
420.503	598.81
420.726	605.81
420.948	576.81
421.171	597.81
421.394	604.81
421.617	577.81
421.839	576.81
422.062	585.81
422.285	587.81
422.507	600.81
422.73	618.81
422.953	599.81
423.175	597.81
423.398	596.81
423.621	597.81
423.843	618.81
424.066	603.81
424.288	591.81
424.511	580.81
424.733	601.81
424.956	594.81
425.178	581.81
425.401	590.81
425.623	595.81
425.846	581.81
426.068	595.81
426.291	596.81
426.513	572.81
426.735	576.81
426.958	574.81
427.18	542.81
427.402	576.81
427.625	537.81
427.847	532.81
428.069	515.81
428.292	537.81
428.514	549.81
428.736	526.81
428.958	540.81
429.181	549.81
429.403	529.81
429.625	524.81
429.847	534.81
430.069	544.81
430.292	521.81
430.514	528.81
430.736	544.81
430.958	546.81
431.18	565.81
431.402	562.81
431.624	545.81
431.846	542.81
432.068	550.81
432.29	544.81
432.512	538.81
432.734	536.81
432.956	546.81
433.178	576.81
433.4	547.81
433.622	568.81
433.844	549.81
434.066	554.81
434.287	562.81
434.509	575.81
434.731	566.81
434.953	592.81
435.175	584.81
435.397	595.81
435.618	563.81
435.84	563.81
436.062	556.81
436.284	534.81
436.505	554.81
436.727	581.81
436.949	550.81
437.17	520.81
437.392	529.81
437.614	536.81
437.835	536.81
438.057	531.81
438.278	529.81
438.5	522.81
438.721	535.81
438.943	540.81
439.165	525.81
439.386	550.81
439.608	546.81
439.829	538.81
440.05	541.81
440.272	550.81
440.493	542.81
440.715	570.81
440.936	572.81
441.158	581.81
441.379	578.81
441.6	600.81
441.822	600.81
442.043	617.81
442.264	602.81
442.486	571.81
442.707	609.81
442.928	601.81
443.149	600.81
443.371	596.81
443.592	586.81
443.813	610.81
444.034	619.81
444.255	629.81
444.476	646.81
444.698	675.81
444.919	678.81
445.14	733.81
445.361	668.81
445.582	608.81
445.803	588.81
446.024	586.81
446.245	604.81
446.466	580.81
446.687	561.81
446.908	570.81
447.129	565.81
447.35	543.81
447.571	547.81
447.792	532.81
448.013	556.81
448.234	515.81
448.455	526.81
448.675	522.81
448.896	518.81
449.117	490.81
449.338	526.81
449.559	505.81
449.779	537.81
450	525.81
450.221	520.81
450.442	531.81
450.662	510.81
450.883	524.81
451.104	534.81
451.324	530.81
451.545	511.81
451.766	531.81
451.986	524.81
452.207	504.81
452.428	505.81
452.648	489.81
452.869	488.81
453.089	492.81
453.31	480.81
453.53	488.81
453.751	501.81
453.971	488.81
454.192	490.81
454.412	477.81
454.633	465.81
454.853	475.81
455.073	491.81
455.294	502.81
455.514	471.81
455.734	474.81
455.955	452.81
456.175	474.81
456.395	485.81
456.616	472.81
456.836	480.81
457.056	474.81
457.276	484.81
457.497	482.81
457.717	470.81
457.937	456.81
458.157	473.81
458.377	480.81
458.598	512.81
458.818	484.81
459.038	499.81
459.258	522.81
459.478	532.81
459.698	558.81
459.918	566.81
460.138	584.81
460.358	618.81
460.578	638.81
460.798	593.81
461.018	626.81
461.238	604.81
461.458	639.81
461.678	612.81
461.898	606.81
462.118	645.81
462.338	658.81
462.558	670.81
462.777	702.81
462.997	722.81
463.217	784.81
463.437	750.81
463.657	730.81
463.876	701.81
464.096	704.81
464.316	695.81
464.536	700.81
464.755	676.81
464.975	650.81
465.195	627.81
465.414	618.81
465.634	587.81
465.854	550.81
466.073	554.81
466.293	541.81
466.512	540.81
466.732	531.81
466.951	544.81
467.171	534.81
467.391	548.81
467.61	523.81
467.829	529.81
468.049	516.81
468.268	503.81
468.488	504.81
468.707	504.81
468.927	500.81
469.146	514.81
469.365	518.81
469.585	518.81
469.804	528.81
470.023	536.81
470.243	540.81
470.462	514.81
470.681	516.81
470.901	547.81
471.12	533.81
471.339	522.81
471.558	506.81
471.777	520.81
471.997	507.81
472.216	503.81
472.435	509.81
472.654	484.81
472.873	484.81
473.092	486.81
473.311	502.81
473.53	494.81
473.749	511.81
473.968	476.81
474.187	473.81
474.406	484.81
474.625	496.81
474.844	493.81
475.063	508.81
475.282	513.81
475.501	503.81
475.72	504.81
475.939	492.81
476.158	514.81
476.377	508.81
476.596	508.81
476.814	540.81
477.033	514.81
477.252	520.81
477.471	554.81
477.69	557.81
477.908	567.81
478.127	563.81
478.346	567.81
478.564	573.81
478.783	570.81
479.002	600.81
479.22	594.81
479.439	569.81
479.658	588.81
479.876	583.81
480.095	595.81
480.313	606.81
480.532	602.81
480.751	612.81
480.969	602.81
481.188	578.81
481.406	562.81
481.624	569.81
481.843	560.81
482.061	580.81
482.28	533.81
482.498	567.81
482.717	553.81
482.935	554.81
483.153	533.81
483.372	569.81
483.59	554.81
483.808	547.81
484.027	557.81
484.245	554.81
484.463	562.81
484.681	570.81
484.9	550.81
485.118	556.81
485.336	549.81
485.554	590.81
485.772	567.81
485.99	574.81
486.209	562.81
486.427	565.81
486.645	588.81
486.863	576.81
487.081	570.81
487.299	550.81
487.517	572.81
487.735	558.81
487.953	582.81
488.171	584.81
488.389	579.81
488.607	562.81
488.825	550.81
489.043	555.81
489.261	550.81
489.479	574.81
489.696	585.81
489.914	570.81
490.132	564.81
490.35	588.81
490.568	573.81
490.786	572.81
491.003	579.81
491.221	594.81
491.439	613.81
491.657	597.81
491.874	590.81
492.092	584.81
492.31	589.81
492.527	603.81
492.745	576.81
492.963	587.81
493.18	585.81
493.398	600.81
493.615	589.81
493.833	598.81
494.05	610.81
494.268	614.81
494.485	566.81
494.703	613.81
494.92	612.81
495.138	610.81
495.355	620.81
495.573	628.81
495.79	629.81
496.008	618.81
496.225	618.81
496.442	632.81
496.66	627.81
496.877	616.81
497.094	622.81
497.312	658.81
497.529	650.81
497.746	665.81
497.963	676.81
498.181	714.81
498.398	769.81
498.615	792.81
498.832	818.81
499.049	894.81
499.267	961.81
499.484	1026.81
499.701	1111.81
499.918	1190.81
500.135	1302.81
500.352	1405.81
500.569	1446.81
500.786	1426.81
501.003	1376.81
501.22	1253.81
501.437	1131.81
