Data from Fe(NO3)3@0.025M.TitratingCurve.Agarose3%dH2O.NegLispCup.LampEnergy10.LIBS07252019_HRD10591_16-55-08-335.txt Node
Date: Thu Jul 25 16:55:08 EDT 2019
User: cochatt
Spectrometer: HR+D1059
Trigger mode: 1
Integration Time (sec): 1.000000E-1
Scans to average: 1
Electric dark correction enabled: true
Nonlinearity correction enabled: false
Boxcar width: 0
XAxis mode: Wavelengths
Number of Pixels in Spectrum: 2048
>>>>>Begin Spectral Data<<<<<
223.165	-18.19
223.4	-18.19
223.635	-18.19
223.869	-11.19
224.104	-23.19
224.338	-19.19
224.573	-11.19
224.808	0.81
225.042	-13.19
225.277	-6.19
225.511	-1.19
225.746	7.81
225.98	4.81
226.215	-5.19
226.449	19.81
226.683	18.81
226.918	17.81
227.152	38.81
227.387	33.81
227.621	23.81
227.856	34.81
228.09	60.81
228.324	56.81
228.559	43.81
228.793	64.81
229.027	65.81
229.262	62.81
229.496	75.81
229.73	79.81
229.964	74.81
230.199	76.81
230.433	90.81
230.667	80.81
230.901	86.81
231.136	87.81
231.37	86.81
231.604	86.81
231.838	92.81
232.072	85.81
232.306	100.81
232.541	81.81
232.775	88.81
233.009	92.81
233.243	102.81
233.477	84.81
233.711	97.81
233.945	84.81
234.179	77.81
234.413	91.81
234.647	94.81
234.881	88.81
235.115	81.81
235.349	85.81
235.583	92.81
235.817	94.81
236.051	89.81
236.285	88.81
236.519	87.81
236.753	87.81
236.987	95.81
237.221	92.81
237.455	94.81
237.689	81.81
237.922	85.81
238.156	91.81
238.39	74.81
238.624	84.81
238.858	105.81
239.091	96.81
239.325	97.81
239.559	89.81
239.793	86.81
240.027	86.81
240.26	86.81
240.494	99.81
240.728	80.81
240.961	92.81
241.195	78.81
241.429	100.81
241.662	70.81
241.896	87.81
242.13	94.81
242.363	98.81
242.597	91.81
242.83	93.81
243.064	81.81
243.298	96.81
243.531	94.81
243.765	85.81
243.998	85.81
244.232	93.81
244.465	100.81
244.699	95.81
244.932	87.81
245.166	98.81
245.399	98.81
245.633	80.81
245.866	110.81
246.099	100.81
246.333	113.81
246.566	97.81
246.8	100.81
247.033	94.81
247.266	103.81
247.5	104.81
247.733	101.81
247.966	85.81
248.2	107.81
248.433	109.81
248.666	104.81
248.899	105.81
249.133	101.81
249.366	107.81
249.599	92.81
249.832	103.81
250.066	108.81
250.299	111.81
250.532	112.81
250.765	113.81
250.998	90.81
251.231	99.81
251.465	123.81
251.698	106.81
251.931	98.81
252.164	102.81
252.397	103.81
252.63	102.81
252.863	128.81
253.096	96.81
253.329	115.81
253.562	94.81
253.795	110.81
254.028	98.81
254.261	127.81
254.494	120.81
254.727	116.81
254.96	96.81
255.193	119.81
255.426	114.81
255.659	86.81
255.892	96.81
256.124	107.81
256.357	128.81
256.59	126.81
256.823	104.81
257.056	108.81
257.289	112.81
257.521	116.81
257.754	102.81
257.987	106.81
258.22	112.81
258.452	114.81
258.685	123.81
258.918	114.81
259.151	89.81
259.383	114.81
259.616	108.81
259.849	115.81
260.081	120.81
260.314	113.81
260.547	121.81
260.779	110.81
261.012	133.81
261.244	120.81
261.477	124.81
261.71	127.81
261.942	112.81
262.175	126.81
262.407	119.81
262.64	120.81
262.872	121.81
263.105	121.81
263.337	112.81
263.57	110.81
263.802	110.81
264.035	114.81
264.267	122.81
264.499	129.81
264.732	118.81
264.964	118.81
265.197	123.81
265.429	128.81
265.661	120.81
265.894	124.81
266.126	127.81
266.358	123.81
266.591	135.81
266.823	142.81
267.055	121.81
267.287	120.81
267.52	134.81
267.752	132.81
267.984	126.81
268.216	119.81
268.448	138.81
268.681	129.81
268.913	138.81
269.145	115.81
269.377	134.81
269.609	124.81
269.841	122.81
270.073	126.81
270.306	115.81
270.538	115.81
270.77	138.81
271.002	127.81
271.234	133.81
271.466	136.81
271.698	130.81
271.93	122.81
272.162	142.81
272.394	134.81
272.626	136.81
272.858	130.81
273.09	149.81
273.322	144.81
273.553	128.81
273.785	135.81
274.017	128.81
274.249	138.81
274.481	150.81
274.713	152.81
274.945	127.81
275.176	131.81
275.408	145.81
275.64	143.81
275.872	132.81
276.104	136.81
276.335	150.81
276.567	140.81
276.799	135.81
277.031	155.81
277.262	144.81
277.494	134.81
277.726	133.81
277.957	140.81
278.189	139.81
278.421	146.81
278.652	164.81
278.884	146.81
279.115	142.81
279.347	145.81
279.579	147.81
279.81	131.81
280.042	154.81
280.273	138.81
280.505	135.81
280.736	160.81
280.968	150.81
281.199	158.81
281.431	155.81
281.662	141.81
281.894	160.81
282.125	161.81
282.356	159.81
282.588	139.81
282.819	140.81
283.051	164.81
283.282	156.81
283.513	167.81
283.745	159.81
283.976	139.81
284.207	148.81
284.439	168.81
284.67	161.81
284.901	160.81
285.132	158.81
285.364	160.81
285.595	155.81
285.826	150.81
286.057	163.81
286.288	163.81
286.52	163.81
286.751	164.81
286.982	163.81
287.213	151.81
287.444	152.81
287.675	155.81
287.906	166.81
288.138	158.81
288.369	157.81
288.6	167.81
288.831	151.81
289.062	148.81
289.293	176.81
289.524	172.81
289.755	167.81
289.986	169.81
290.217	163.81
290.448	156.81
290.679	160.81
290.91	163.81
291.141	147.81
291.371	171.81
291.602	160.81
291.833	163.81
292.064	174.81
292.295	146.81
292.526	164.81
292.757	148.81
292.987	149.81
293.218	164.81
293.449	158.81
293.68	158.81
293.91	160.81
294.141	168.81
294.372	170.81
294.603	143.81
294.833	167.81
295.064	168.81
295.295	178.81
295.525	174.81
295.756	165.81
295.987	170.81
296.217	166.81
296.448	167.81
296.679	180.81
296.909	167.81
297.14	180.81
297.37	178.81
297.601	187.81
297.831	166.81
298.062	176.81
298.292	166.81
298.523	164.81
298.753	182.81
298.984	166.81
299.214	172.81
299.445	165.81
299.675	177.81
299.905	187.81
300.136	178.81
300.366	198.81
300.597	171.81
300.827	177.81
301.057	190.81
301.288	189.81
301.518	170.81
301.748	164.81
301.979	179.81
302.209	169.81
302.439	181.81
302.669	179.81
302.9	204.81
303.13	180.81
303.36	182.81
303.59	191.81
303.82	185.81
304.051	187.81
304.281	182.81
304.511	193.81
304.741	189.81
304.971	180.81
305.201	182.81
305.431	201.81
305.661	190.81
305.891	191.81
306.121	197.81
306.352	195.81
306.582	181.81
306.812	200.81
307.042	198.81
307.272	191.81
307.502	196.81
307.731	186.81
307.961	178.81
308.191	186.81
308.421	174.81
308.651	191.81
308.881	192.81
309.111	179.81
309.341	186.81
309.571	196.81
309.8	169.81
310.03	176.81
310.26	179.81
310.49	187.81
310.72	187.81
310.949	191.81
311.179	200.81
311.409	195.81
311.639	182.81
311.868	204.81
312.098	187.81
312.328	193.81
312.557	183.81
312.787	197.81
313.017	204.81
313.246	196.81
313.476	202.81
313.706	202.81
313.935	202.81
314.165	210.81
314.394	192.81
314.624	198.81
314.853	193.81
315.083	221.81
315.312	210.81
315.542	196.81
315.771	187.81
316.001	194.81
316.23	190.81
316.46	196.81
316.689	196.81
316.919	195.81
317.148	198.81
317.377	207.81
317.607	200.81
317.836	194.81
318.065	210.81
318.295	208.81
318.524	217.81
318.753	198.81
318.983	209.81
319.212	198.81
319.441	207.81
319.67	203.81
319.9	221.81
320.129	207.81
320.358	195.81
320.587	190.81
320.816	194.81
321.046	195.81
321.275	200.81
321.504	223.81
321.733	205.81
321.962	210.81
322.191	195.81
322.42	215.81
322.649	194.81
322.878	208.81
323.108	213.81
323.337	212.81
323.566	202.81
323.795	204.81
324.024	227.81
324.253	220.81
324.482	188.81
324.71	202.81
324.939	204.81
325.168	215.81
325.397	211.81
325.626	225.81
325.855	221.81
326.084	219.81
326.313	243.81
326.542	210.81
326.77	218.81
326.999	211.81
327.228	218.81
327.457	205.81
327.686	232.81
327.914	218.81
328.143	226.81
328.372	210.81
328.6	210.81
328.829	220.81
329.058	216.81
329.287	215.81
329.515	227.81
329.744	204.81
329.972	211.81
330.201	224.81
330.43	232.81
330.658	229.81
330.887	242.81
331.115	240.81
331.344	227.81
331.572	228.81
331.801	218.81
332.03	241.81
332.258	231.81
332.486	238.81
332.715	232.81
332.943	256.81
333.172	246.81
333.4	267.81
333.629	266.81
333.857	276.81
334.085	268.81
334.314	268.81
334.542	261.81
334.771	242.81
334.999	254.81
335.227	245.81
335.455	235.81
335.684	261.81
335.912	240.81
336.14	253.81
336.369	263.81
336.597	246.81
336.825	245.81
337.053	249.81
337.281	251.81
337.51	261.81
337.738	253.81
337.966	252.81
338.194	233.81
338.422	249.81
338.65	246.81
338.878	252.81
339.106	236.81
339.334	242.81
339.562	251.81
339.79	239.81
340.018	215.81
340.246	233.81
340.474	234.81
340.702	248.81
340.93	219.81
341.158	241.81
341.386	241.81
341.614	246.81
341.842	236.81
342.07	238.81
342.298	215.81
342.526	226.81
342.754	242.81
342.981	222.81
343.209	227.81
343.437	255.81
343.665	256.81
343.893	254.81
344.12	279.81
344.348	243.81
344.576	258.81
344.804	236.81
345.031	229.81
345.259	244.81
345.487	221.81
345.714	248.81
345.942	236.81
346.17	228.81
346.397	239.81
346.625	254.81
346.853	239.81
347.08	227.81
347.308	239.81
347.535	249.81
347.763	238.81
347.99	229.81
348.218	233.81
348.445	221.81
348.673	228.81
348.9	231.81
349.128	234.81
349.355	217.81
349.583	235.81
349.81	223.81
350.037	249.81
350.265	229.81
350.492	227.81
350.72	220.81
350.947	237.81
351.174	230.81
351.402	215.81
351.629	224.81
351.856	235.81
352.083	227.81
352.311	225.81
352.538	228.81
352.765	227.81
352.992	221.81
353.22	223.81
353.447	218.81
353.674	244.81
353.901	227.81
354.128	235.81
354.355	222.81
354.583	232.81
354.81	231.81
355.037	235.81
355.264	221.81
355.491	236.81
355.718	224.81
355.945	243.81
356.172	249.81
356.399	243.81
356.626	229.81
356.853	243.81
357.08	220.81
357.307	242.81
357.534	230.81
357.761	236.81
357.988	250.81
358.215	234.81
358.441	233.81
358.668	224.81
358.895	250.81
359.122	218.81
359.349	223.81
359.576	231.81
359.802	256.81
360.029	231.81
360.256	222.81
360.483	234.81
360.709	239.81
360.936	227.81
361.163	254.81
361.39	254.81
361.616	218.81
361.843	230.81
362.07	235.81
362.296	232.81
362.523	259.81
362.749	224.81
362.976	217.81
363.203	235.81
363.429	244.81
363.656	232.81
363.882	228.81
364.109	242.81
364.335	238.81
364.562	236.81
364.788	215.81
365.015	238.81
365.241	226.81
365.468	256.81
365.694	236.81
365.92	230.81
366.147	246.81
366.373	235.81
366.599	250.81
366.826	222.81
367.052	242.81
367.278	248.81
367.505	230.81
367.731	225.81
367.957	228.81
368.184	254.81
368.41	244.81
368.636	230.81
368.862	238.81
369.089	241.81
369.315	247.81
369.541	235.81
369.767	242.81
369.993	250.81
370.219	231.81
370.445	249.81
370.672	240.81
370.898	242.81
371.124	256.81
371.35	263.81
371.576	249.81
371.802	259.81
372.028	244.81
372.254	235.81
372.48	260.81
372.706	263.81
372.932	256.81
373.158	268.81
373.384	249.81
373.61	258.81
373.835	255.81
374.061	256.81
374.287	269.81
374.513	268.81
374.739	272.81
374.965	271.81
375.191	288.81
375.416	274.81
375.642	274.81
375.868	265.81
376.094	270.81
376.319	254.81
376.545	243.81
376.771	261.81
376.997	260.81
377.222	254.81
377.448	245.81
377.674	265.81
377.899	250.81
378.125	256.81
378.35	260.81
378.576	243.81
378.802	241.81
379.027	271.81
379.253	271.81
379.478	243.81
379.704	235.81
379.929	270.81
380.155	286.81
380.38	256.81
380.606	255.81
380.831	238.81
381.057	261.81
381.282	258.81
381.507	259.81
381.733	263.81
381.958	258.81
382.184	252.81
382.409	273.81
382.634	265.81
382.86	277.81
383.085	278.81
383.31	279.81
383.535	267.81
383.761	277.81
383.986	272.81
384.211	274.81
384.436	297.81
384.662	261.81
384.887	289.81
385.112	280.81
385.337	283.81
385.562	302.81
385.787	296.81
386.013	292.81
386.238	290.81
386.463	295.81
386.688	297.81
386.913	286.81
387.138	299.81
387.363	289.81
387.588	283.81
387.813	286.81
388.038	289.81
388.263	297.81
388.488	276.81
388.713	291.81
388.938	297.81
389.163	295.81
389.387	282.81
389.612	288.81
389.837	314.81
390.062	305.81
390.287	309.81
390.512	280.81
390.736	297.81
390.961	306.81
391.186	312.81
391.411	302.81
391.636	296.81
391.86	307.81
392.085	331.81
392.31	304.81
392.534	306.81
392.759	304.81
392.984	302.81
393.208	304.81
393.433	304.81
393.658	311.81
393.882	302.81
394.107	299.81
394.331	311.81
394.556	299.81
394.78	293.81
395.005	338.81
395.229	329.81
395.454	328.81
395.678	316.81
395.903	319.81
396.127	329.81
396.352	321.81
396.576	298.81
396.801	320.81
397.025	323.81
397.249	341.81
397.474	326.81
397.698	307.81
397.922	329.81
398.147	327.81
398.371	328.81
398.595	341.81
398.82	353.81
399.044	371.81
399.268	367.81
399.492	407.81
399.717	436.81
399.941	416.81
400.165	416.81
400.389	409.81
400.613	374.81
400.837	377.81
401.062	370.81
401.286	366.81
401.51	353.81
401.734	345.81
401.958	373.81
402.182	353.81
402.406	354.81
402.63	353.81
402.854	344.81
403.078	355.81
403.302	358.81
403.526	354.81
403.75	350.81
403.974	359.81
404.198	358.81
404.422	382.81
404.645	363.81
404.869	346.81
405.093	359.81
405.317	352.81
405.541	369.81
405.765	370.81
405.988	367.81
406.212	364.81
406.436	376.81
406.66	374.81
406.883	366.81
407.107	394.81
407.331	402.81
407.555	413.81
407.778	399.81
408.002	407.81
408.226	384.81
408.449	400.81
408.673	404.81
408.896	381.81
409.12	352.81
409.344	376.81
409.567	368.81
409.791	374.81
410.014	369.81
410.238	368.81
410.461	385.81
410.685	358.81
410.908	372.81
411.132	357.81
411.355	357.81
411.578	353.81
411.802	364.81
412.025	375.81
412.249	355.81
412.472	354.81
412.695	359.81
412.919	362.81
413.142	352.81
413.365	349.81
413.589	340.81
413.812	360.81
414.035	366.81
414.258	347.81
414.482	347.81
414.705	353.81
414.928	354.81
415.151	344.81
415.374	342.81
415.597	317.81
415.821	338.81
416.044	334.81
416.267	329.81
416.49	315.81
416.713	348.81
416.936	340.81
417.159	347.81
417.382	337.81
417.605	325.81
417.828	326.81
418.051	327.81
418.274	328.81
418.497	327.81
418.72	330.81
418.943	336.81
419.166	359.81
419.389	371.81
419.611	358.81
419.834	347.81
420.057	339.81
420.28	346.81
420.503	332.81
420.726	321.81
420.948	338.81
421.171	351.81
421.394	324.81
421.617	339.81
421.839	341.81
422.062	338.81
422.285	328.81
422.507	345.81
422.73	347.81
422.953	334.81
423.175	330.81
423.398	329.81
423.621	332.81
423.843	326.81
424.066	332.81
424.288	319.81
424.511	343.81
424.733	323.81
424.956	320.81
425.178	341.81
425.401	338.81
425.623	341.81
425.846	336.81
426.068	316.81
426.291	316.81
426.513	326.81
426.735	353.81
426.958	323.81
427.18	322.81
427.402	332.81
427.625	318.81
427.847	318.81
428.069	336.81
428.292	310.81
428.514	313.81
428.736	302.81
428.958	305.81
429.181	307.81
429.403	322.81
429.625	323.81
429.847	323.81
430.069	319.81
430.292	312.81
430.514	319.81
430.736	319.81
430.958	323.81
431.18	322.81
431.402	322.81
431.624	323.81
431.846	316.81
432.068	336.81
432.29	335.81
432.512	320.81
432.734	325.81
432.956	322.81
433.178	325.81
433.4	308.81
433.622	311.81
433.844	320.81
434.066	321.81
434.287	318.81
434.509	333.81
434.731	353.81
434.953	340.81
435.175	336.81
435.397	344.81
435.618	335.81
435.84	348.81
436.062	329.81
436.284	330.81
436.505	315.81
436.727	311.81
436.949	335.81
437.17	319.81
437.392	328.81
437.614	312.81
437.835	302.81
438.057	313.81
438.278	309.81
438.5	304.81
438.721	322.81
438.943	329.81
439.165	302.81
439.386	326.81
439.608	304.81
439.829	292.81
440.05	323.81
440.272	319.81
440.493	322.81
440.715	305.81
440.936	310.81
441.158	331.81
441.379	325.81
441.6	333.81
441.822	321.81
442.043	344.81
442.264	337.81
442.486	321.81
442.707	330.81
442.928	332.81
443.149	345.81
443.371	324.81
443.592	319.81
443.813	341.81
444.034	332.81
444.255	353.81
444.476	328.81
444.698	359.81
444.919	352.81
445.14	419.81
445.361	386.81
445.582	366.81
445.803	341.81
446.024	334.81
446.245	320.81
446.466	344.81
446.687	317.81
446.908	330.81
447.129	307.81
447.35	304.81
447.571	293.81
447.792	304.81
448.013	326.81
448.234	306.81
448.455	303.81
448.675	305.81
448.896	303.81
449.117	309.81
449.338	294.81
449.559	304.81
449.779	284.81
450	299.81
450.221	291.81
450.442	279.81
450.662	284.81
450.883	292.81
451.104	306.81
451.324	298.81
451.545	280.81
451.766	290.81
451.986	306.81
452.207	291.81
452.428	293.81
452.648	291.81
452.869	289.81
453.089	276.81
453.31	296.81
453.53	291.81
453.751	285.81
453.971	298.81
454.192	289.81
454.412	276.81
454.633	272.81
454.853	275.81
455.073	276.81
455.294	288.81
455.514	314.81
455.734	270.81
455.955	292.81
456.175	286.81
456.395	297.81
456.616	290.81
456.836	302.81
457.056	274.81
457.276	263.81
457.497	274.81
457.717	267.81
457.937	291.81
458.157	280.81
458.377	286.81
458.598	313.81
458.818	282.81
459.038	317.81
459.258	310.81
459.478	314.81
459.698	327.81
459.918	329.81
460.138	324.81
460.358	349.81
460.578	357.81
460.798	358.81
461.018	346.81
461.238	330.81
461.458	344.81
461.678	346.81
461.898	377.81
462.118	382.81
462.338	367.81
462.558	395.81
462.777	395.81
462.997	377.81
463.217	402.81
463.437	399.81
463.657	394.81
463.876	381.81
464.096	394.81
464.316	386.81
464.536	399.81
464.755	358.81
464.975	364.81
465.195	374.81
465.414	354.81
465.634	352.81
465.854	339.81
466.073	331.81
466.293	350.81
466.512	312.81
466.732	311.81
466.951	314.81
467.171	320.81
467.391	302.81
467.61	326.81
467.829	299.81
468.049	308.81
468.268	314.81
468.488	311.81
468.707	306.81
468.927	300.81
469.146	299.81
469.365	303.81
469.585	295.81
469.804	308.81
470.023	304.81
470.243	312.81
470.462	300.81
470.681	324.81
470.901	314.81
471.12	313.81
471.339	315.81
471.558	322.81
471.777	312.81
471.997	318.81
472.216	313.81
472.435	317.81
472.654	302.81
472.873	313.81
473.092	314.81
473.311	306.81
473.53	323.81
473.749	320.81
473.968	320.81
474.187	327.81
474.406	306.81
474.625	306.81
474.844	319.81
475.063	315.81
475.282	308.81
475.501	299.81
475.72	327.81
475.939	337.81
476.158	317.81
476.377	329.81
476.596	312.81
476.814	338.81
477.033	318.81
477.252	339.81
477.471	327.81
477.69	352.81
477.908	335.81
478.127	352.81
478.346	352.81
478.564	342.81
478.783	343.81
479.002	353.81
479.22	359.81
479.439	354.81
479.658	371.81
479.876	358.81
480.095	378.81
480.313	366.81
480.532	373.81
480.751	384.81
480.969	378.81
481.188	379.81
481.406	367.81
481.624	358.81
481.843	367.81
482.061	356.81
482.28	352.81
482.498	345.81
482.717	348.81
482.935	361.81
483.153	350.81
483.372	342.81
483.59	348.81
483.808	331.81
484.027	351.81
484.245	355.81
484.463	371.81
484.681	354.81
484.9	343.81
485.118	358.81
485.336	348.81
485.554	360.81
485.772	369.81
485.99	361.81
486.209	368.81
486.427	352.81
486.645	370.81
486.863	376.81
487.081	355.81
487.299	351.81
487.517	353.81
487.735	355.81
487.953	348.81
488.171	360.81
488.389	372.81
488.607	382.81
488.825	346.81
489.043	356.81
489.261	344.81
489.479	363.81
489.696	349.81
489.914	384.81
490.132	378.81
490.35	345.81
490.568	348.81
490.786	363.81
491.003	364.81
491.221	363.81
491.439	355.81
491.657	362.81
491.874	382.81
492.092	372.81
492.31	370.81
492.527	370.81
492.745	358.81
492.963	371.81
493.18	370.81
493.398	382.81
493.615	372.81
493.833	383.81
494.05	378.81
494.268	369.81
494.485	400.81
494.703	390.81
494.92	380.81
495.138	383.81
495.355	390.81
495.573	380.81
495.79	395.81
496.008	404.81
496.225	378.81
496.442	416.81
496.66	400.81
496.877	426.81
497.094	411.81
497.312	427.81
497.529	439.81
497.746	437.81
497.963	443.81
498.181	460.81
498.398	474.81
498.615	483.81
498.832	506.81
499.049	528.81
499.267	563.81
499.484	566.81
499.701	624.81
499.918	664.81
500.135	672.81
500.352	687.81
500.569	716.81
500.786	712.81
501.003	724.81
501.22	674.81
501.437	652.81
501.654	591.81
501.871	564.81
502.088	549.81
502.305	510.81
502.522	504.81
502.739	505.81
