Data from Fe(NO3)3@0.1M.TitratingCurve.Agarose3%dH2O.NegLispCup.LampEnergy10.LIBS07252019_HRD10591_16-38-07-332.txt Node
Date: Thu Jul 25 16:38:07 EDT 2019
User: cochatt
Spectrometer: HR+D1059
Trigger mode: 1
Integration Time (sec): 1.000000E-1
Scans to average: 1
Electric dark correction enabled: true
Nonlinearity correction enabled: false
Boxcar width: 0
XAxis mode: Wavelengths
Number of Pixels in Spectrum: 2048
>>>>>Begin Spectral Data<<<<<
223.165	1.75
223.4	1.75
223.635	1.75
223.869	1.75
224.104	-22.25
224.338	-14.25
224.573	-21.25
224.808	-21.25
225.042	-13.25
225.277	-10.25
225.511	-8.25
225.746	9.75
225.98	-2.25
226.215	-0.25
226.449	20.75
226.683	16.75
226.918	18.75
227.152	43.75
227.387	33.75
227.621	37.75
227.856	47.75
228.09	39.75
228.324	47.75
228.559	62.75
228.793	53.75
229.027	62.75
229.262	78.75
229.496	77.75
229.73	74.75
229.964	75.75
230.199	81.75
230.433	105.75
230.667	70.75
230.901	76.75
231.136	87.75
231.37	95.75
231.604	87.75
231.838	107.75
232.072	109.75
232.306	99.75
232.541	110.75
232.775	116.75
233.009	108.75
233.243	107.75
233.477	100.75
233.711	95.75
233.945	108.75
234.179	97.75
234.413	84.75
234.647	87.75
234.881	85.75
235.115	95.75
235.349	100.75
235.583	101.75
235.817	103.75
236.051	79.75
236.285	101.75
236.519	100.75
236.753	102.75
236.987	101.75
237.221	91.75
237.455	99.75
237.689	95.75
237.922	115.75
238.156	106.75
238.39	102.75
238.624	93.75
238.858	86.75
239.091	108.75
239.325	90.75
239.559	99.75
239.793	100.75
240.027	83.75
240.26	101.75
240.494	104.75
240.728	92.75
240.961	99.75
241.195	111.75
241.429	115.75
241.662	100.75
241.896	113.75
242.13	105.75
242.363	90.75
242.597	100.75
242.83	102.75
243.064	99.75
243.298	111.75
243.531	94.75
243.765	107.75
243.998	116.75
244.232	117.75
244.465	102.75
244.699	108.75
244.932	121.75
245.166	94.75
245.399	108.75
245.633	108.75
245.866	109.75
246.099	107.75
246.333	103.75
246.566	111.75
246.8	110.75
247.033	111.75
247.266	95.75
247.5	124.75
247.733	107.75
247.966	110.75
248.2	117.75
248.433	115.75
248.666	111.75
248.899	111.75
249.133	114.75
249.366	125.75
249.599	129.75
249.832	113.75
250.066	112.75
250.299	123.75
250.532	118.75
250.765	131.75
250.998	115.75
251.231	119.75
251.465	111.75
251.698	113.75
251.931	133.75
252.164	127.75
252.397	101.75
252.63	131.75
252.863	111.75
253.096	132.75
253.329	139.75
253.562	134.75
253.795	138.75
254.028	117.75
254.261	131.75
254.494	133.75
254.727	108.75
254.96	120.75
255.193	126.75
255.426	119.75
255.659	119.75
255.892	130.75
256.124	127.75
256.357	130.75
256.59	137.75
256.823	125.75
257.056	119.75
257.289	127.75
257.521	144.75
257.754	131.75
257.987	149.75
258.22	142.75
258.452	131.75
258.685	128.75
258.918	130.75
259.151	131.75
259.383	138.75
259.616	138.75
259.849	135.75
260.081	137.75
260.314	145.75
260.547	137.75
260.779	141.75
261.012	125.75
261.244	129.75
261.477	139.75
261.71	139.75
261.942	132.75
262.175	131.75
262.407	122.75
262.64	137.75
262.872	141.75
263.105	152.75
263.337	144.75
263.57	137.75
263.802	131.75
264.035	155.75
264.267	140.75
264.499	155.75
264.732	154.75
264.964	150.75
265.197	149.75
265.429	154.75
265.661	135.75
265.894	142.75
266.126	153.75
266.358	136.75
266.591	150.75
266.823	161.75
267.055	151.75
267.287	143.75
267.52	135.75
267.752	134.75
267.984	155.75
268.216	143.75
268.448	146.75
268.681	158.75
268.913	170.75
269.145	148.75
269.377	156.75
269.609	140.75
269.841	139.75
270.073	145.75
270.306	155.75
270.538	159.75
270.77	154.75
271.002	148.75
271.234	160.75
271.466	170.75
271.698	154.75
271.93	153.75
272.162	158.75
272.394	154.75
272.626	139.75
272.858	159.75
273.09	161.75
273.322	149.75
273.553	149.75
273.785	161.75
274.017	157.75
274.249	164.75
274.481	164.75
274.713	163.75
274.945	167.75
275.176	157.75
275.408	158.75
275.64	165.75
275.872	177.75
276.104	154.75
276.335	156.75
276.567	165.75
276.799	151.75
277.031	150.75
277.262	160.75
277.494	152.75
277.726	163.75
277.957	157.75
278.189	180.75
278.421	153.75
278.652	162.75
278.884	177.75
279.115	169.75
279.347	165.75
279.579	155.75
279.81	177.75
280.042	159.75
280.273	148.75
280.505	163.75
280.736	174.75
280.968	186.75
281.199	170.75
281.431	161.75
281.662	178.75
281.894	178.75
282.125	181.75
282.356	168.75
282.588	179.75
282.819	189.75
283.051	174.75
283.282	191.75
283.513	171.75
283.745	178.75
283.976	163.75
284.207	173.75
284.439	170.75
284.67	179.75
284.901	178.75
285.132	186.75
285.364	185.75
285.595	179.75
285.826	181.75
286.057	192.75
286.288	198.75
286.52	183.75
286.751	179.75
286.982	187.75
287.213	171.75
287.444	179.75
287.675	189.75
287.906	174.75
288.138	175.75
288.369	200.75
288.6	174.75
288.831	193.75
289.062	184.75
289.293	162.75
289.524	177.75
289.755	191.75
289.986	180.75
290.217	203.75
290.448	196.75
290.679	198.75
290.91	177.75
291.141	192.75
291.371	198.75
291.602	181.75
291.833	196.75
292.064	178.75
292.295	175.75
292.526	177.75
292.757	189.75
292.987	205.75
293.218	187.75
293.449	184.75
293.68	188.75
293.91	192.75
294.141	205.75
294.372	211.75
294.603	175.75
294.833	202.75
295.064	198.75
295.295	190.75
295.525	192.75
295.756	190.75
295.987	203.75
296.217	191.75
296.448	196.75
296.679	185.75
296.909	202.75
297.14	194.75
297.37	202.75
297.601	202.75
297.831	201.75
298.062	214.75
298.292	202.75
298.523	213.75
298.753	213.75
298.984	198.75
299.214	203.75
299.445	188.75
299.675	200.75
299.905	219.75
300.136	202.75
300.366	199.75
300.597	205.75
300.827	208.75
301.057	221.75
301.288	202.75
301.518	201.75
301.748	205.75
301.979	212.75
302.209	220.75
302.439	223.75
302.669	204.75
302.9	211.75
303.13	207.75
303.36	205.75
303.59	215.75
303.82	196.75
304.051	211.75
304.281	215.75
304.511	221.75
304.741	213.75
304.971	213.75
305.201	207.75
305.431	203.75
305.661	207.75
305.891	202.75
306.121	206.75
306.352	215.75
306.582	214.75
306.812	215.75
307.042	221.75
307.272	200.75
307.502	217.75
307.731	202.75
307.961	205.75
308.191	211.75
308.421	210.75
308.651	201.75
308.881	200.75
309.111	200.75
309.341	223.75
309.571	216.75
309.8	207.75
310.03	197.75
310.26	199.75
310.49	202.75
310.72	223.75
310.949	203.75
311.179	203.75
311.409	213.75
311.639	202.75
311.868	205.75
312.098	211.75
312.328	222.75
312.557	205.75
312.787	214.75
313.017	226.75
313.246	218.75
313.476	224.75
313.706	202.75
313.935	231.75
314.165	205.75
314.394	214.75
314.624	217.75
314.853	221.75
315.083	225.75
315.312	240.75
315.542	222.75
315.771	230.75
316.001	222.75
316.23	218.75
316.46	222.75
316.689	217.75
316.919	226.75
317.148	225.75
317.377	226.75
317.607	226.75
317.836	217.75
318.065	220.75
318.295	217.75
318.524	223.75
318.753	227.75
318.983	234.75
319.212	203.75
319.441	208.75
319.67	219.75
319.9	208.75
320.129	233.75
320.358	216.75
320.587	216.75
320.816	210.75
321.046	222.75
321.275	224.75
321.504	234.75
321.733	251.75
321.962	222.75
322.191	204.75
322.42	232.75
322.649	219.75
322.878	225.75
323.108	237.75
323.337	235.75
323.566	216.75
323.795	214.75
324.024	243.75
324.253	226.75
324.482	236.75
324.71	231.75
324.939	225.75
325.168	198.75
325.397	231.75
325.626	233.75
325.855	235.75
326.084	246.75
326.313	236.75
326.542	228.75
326.77	244.75
326.999	231.75
327.228	214.75
327.457	250.75
327.686	245.75
327.914	225.75
328.143	242.75
328.372	229.75
328.6	245.75
328.829	232.75
329.058	229.75
329.287	246.75
329.515	245.75
329.744	266.75
329.972	223.75
330.201	244.75
330.43	238.75
330.658	259.75
330.887	237.75
331.115	240.75
331.344	243.75
331.572	255.75
331.801	248.75
332.03	244.75
332.258	265.75
332.486	260.75
332.715	269.75
332.943	275.75
333.172	292.75
333.4	302.75
333.629	299.75
333.857	296.75
334.085	298.75
334.314	293.75
334.542	285.75
334.771	291.75
334.999	285.75
335.227	298.75
335.455	288.75
335.684	270.75
335.912	284.75
336.14	273.75
336.369	297.75
336.597	286.75
336.825	273.75
337.053	265.75
337.281	268.75
337.51	274.75
337.738	276.75
337.966	270.75
338.194	259.75
338.422	271.75
338.65	270.75
338.878	259.75
339.106	254.75
339.334	261.75
339.562	249.75
339.79	254.75
340.018	251.75
340.246	263.75
340.474	237.75
340.702	241.75
340.93	242.75
341.158	259.75
341.386	250.75
341.614	250.75
341.842	244.75
342.07	228.75
342.298	250.75
342.526	230.75
342.754	253.75
342.981	275.75
343.209	271.75
343.437	269.75
343.665	287.75
343.893	290.75
344.12	294.75
344.348	274.75
344.576	259.75
344.804	250.75
345.031	249.75
345.259	246.75
345.487	257.75
345.714	252.75
345.942	245.75
346.17	249.75
346.397	254.75
346.625	245.75
346.853	245.75
347.08	231.75
347.308	220.75
347.535	241.75
347.763	240.75
347.99	235.75
348.218	236.75
348.445	222.75
348.673	227.75
348.9	246.75
349.128	252.75
349.355	250.75
349.583	247.75
349.81	241.75
350.037	242.75
350.265	251.75
350.492	238.75
350.72	257.75
350.947	237.75
351.174	249.75
351.402	233.75
351.629	231.75
351.856	228.75
352.083	238.75
352.311	246.75
352.538	234.75
352.765	243.75
352.992	242.75
353.22	228.75
353.447	225.75
353.674	238.75
353.901	234.75
354.128	260.75
354.355	237.75
354.583	243.75
354.81	229.75
355.037	246.75
355.264	257.75
355.491	245.75
355.718	257.75
355.945	230.75
356.172	228.75
356.399	257.75
356.626	252.75
356.853	226.75
357.08	225.75
357.307	243.75
357.534	238.75
357.761	242.75
357.988	255.75
358.215	242.75
358.441	251.75
358.668	241.75
358.895	249.75
359.122	239.75
359.349	221.75
359.576	244.75
359.802	257.75
360.029	247.75
360.256	264.75
360.483	244.75
360.709	246.75
360.936	247.75
361.163	247.75
361.39	245.75
361.616	234.75
361.843	259.75
362.07	245.75
362.296	246.75
362.523	257.75
362.749	249.75
362.976	243.75
363.203	257.75
363.429	241.75
363.656	233.75
363.882	247.75
364.109	238.75
364.335	230.75
364.562	249.75
364.788	243.75
365.015	248.75
365.241	259.75
365.468	249.75
365.694	239.75
365.92	241.75
366.147	239.75
366.373	239.75
366.599	251.75
366.826	247.75
367.052	232.75
367.278	267.75
367.505	238.75
367.731	245.75
367.957	246.75
368.184	233.75
368.41	251.75
368.636	260.75
368.862	246.75
369.089	250.75
369.315	247.75
369.541	249.75
369.767	253.75
369.993	263.75
370.219	258.75
370.445	265.75
370.672	250.75
370.898	266.75
371.124	254.75
371.35	274.75
371.576	260.75
371.802	270.75
372.028	266.75
372.254	277.75
372.48	259.75
372.706	264.75
372.932	279.75
373.158	262.75
373.384	269.75
373.61	262.75
373.835	274.75
374.061	257.75
374.287	253.75
374.513	280.75
374.739	265.75
374.965	264.75
375.191	293.75
375.416	280.75
375.642	264.75
375.868	277.75
376.094	270.75
376.319	268.75
376.545	265.75
376.771	267.75
376.997	274.75
377.222	267.75
377.448	277.75
377.674	261.75
377.899	262.75
378.125	243.75
378.35	268.75
378.576	252.75
378.802	254.75
379.027	265.75
379.253	271.75
379.478	251.75
379.704	262.75
379.929	257.75
380.155	275.75
380.38	259.75
380.606	268.75
380.831	259.75
381.057	290.75
381.282	262.75
381.507	259.75
381.733	261.75
381.958	280.75
382.184	284.75
382.409	299.75
382.634	286.75
382.86	290.75
383.085	290.75
383.31	282.75
383.535	285.75
383.761	290.75
383.986	303.75
384.211	296.75
384.436	316.75
384.662	296.75
384.887	305.75
385.112	317.75
385.337	315.75
385.562	326.75
385.787	303.75
386.013	326.75
386.238	306.75
386.463	325.75
386.688	334.75
386.913	311.75
387.138	326.75
387.363	308.75
387.588	311.75
387.813	309.75
388.038	318.75
388.263	319.75
388.488	319.75
388.713	303.75
388.938	310.75
389.163	306.75
389.387	312.75
389.612	301.75
389.837	311.75
390.062	321.75
390.287	316.75
390.512	319.75
390.736	318.75
390.961	292.75
391.186	336.75
391.411	346.75
391.636	345.75
391.86	344.75
392.085	357.75
392.31	356.75
392.534	321.75
392.759	319.75
392.984	326.75
393.208	337.75
393.433	327.75
393.658	347.75
393.882	321.75
394.107	335.75
394.331	319.75
394.556	326.75
394.78	339.75
395.005	346.75
395.229	322.75
395.454	349.75
395.678	343.75
395.903	356.75
396.127	348.75
396.352	332.75
396.576	313.75
396.801	331.75
397.025	328.75
397.249	345.75
397.474	357.75
397.698	341.75
397.922	354.75
398.147	359.75
398.371	351.75
398.595	354.75
398.82	363.75
399.044	412.75
399.268	425.75
399.492	469.75
399.717	534.75
399.941	502.75
400.165	477.75
400.389	426.75
400.613	389.75
400.837	398.75
401.062	376.75
401.286	388.75
401.51	369.75
401.734	376.75
401.958	375.75
402.182	376.75
402.406	382.75
402.63	387.75
402.854	389.75
403.078	403.75
403.302	403.75
403.526	431.75
403.75	429.75
403.974	415.75
404.198	413.75
404.422	442.75
404.645	429.75
404.869	419.75
405.093	423.75
405.317	388.75
405.541	416.75
405.765	419.75
405.988	418.75
406.212	402.75
406.436	411.75
406.66	429.75
406.883	416.75
407.107	459.75
407.331	454.75
407.555	474.75
407.778	470.75
408.002	454.75
408.226	430.75
408.449	441.75
408.673	429.75
408.896	449.75
409.12	420.75
409.344	436.75
409.567	433.75
409.791	418.75
410.014	401.75
410.238	422.75
410.461	403.75
410.685	415.75
410.908	402.75
411.132	429.75
411.355	405.75
411.578	406.75
411.802	395.75
412.025	415.75
412.249	413.75
412.472	404.75
412.695	396.75
412.919	396.75
413.142	394.75
413.365	408.75
413.589	405.75
413.812	387.75
414.035	399.75
414.258	385.75
414.482	383.75
414.705	399.75
414.928	397.75
415.151	393.75
415.374	400.75
415.597	371.75
415.821	393.75
416.044	360.75
416.267	357.75
416.49	358.75
416.713	376.75
416.936	377.75
417.159	386.75
417.382	399.75
417.605	381.75
417.828	381.75
418.051	386.75
418.274	395.75
418.497	388.75
418.72	393.75
418.943	396.75
419.166	405.75
419.389	447.75
419.611	382.75
419.834	394.75
420.057	393.75
420.28	406.75
420.503	392.75
420.726	385.75
420.948	377.75
421.171	370.75
421.394	390.75
421.617	395.75
421.839	382.75
422.062	383.75
422.285	382.75
422.507	393.75
422.73	401.75
422.953	393.75
423.175	413.75
423.398	402.75
423.621	402.75
423.843	403.75
424.066	394.75
424.288	397.75
424.511	409.75
424.733	399.75
424.956	392.75
425.178	373.75
425.401	373.75
425.623	376.75
425.846	372.75
426.068	352.75
426.291	353.75
426.513	363.75
426.735	348.75
426.958	359.75
427.18	360.75
427.402	370.75
427.625	362.75
427.847	347.75
428.069	347.75
428.292	371.75
428.514	361.75
428.736	340.75
428.958	337.75
429.181	343.75
429.403	357.75
429.625	348.75
429.847	355.75
430.069	340.75
430.292	347.75
430.514	338.75
430.736	350.75
430.958	339.75
431.18	347.75
431.402	338.75
431.624	352.75
431.846	367.75
432.068	353.75
432.29	340.75
432.512	363.75
432.734	348.75
432.956	365.75
433.178	348.75
433.4	342.75
433.622	357.75
433.844	376.75
434.066	367.75
434.287	366.75
434.509	367.75
434.731	371.75
434.953	375.75
435.175	377.75
435.397	384.75
435.618	367.75
435.84	364.75
436.062	348.75
436.284	365.75
436.505	369.75
436.727	342.75
436.949	359.75
437.17	356.75
437.392	355.75
437.614	315.75
437.835	330.75
438.057	350.75
438.278	328.75
438.5	349.75
438.721	336.75
438.943	332.75
439.165	329.75
439.386	341.75
439.608	348.75
439.829	355.75
440.05	339.75
440.272	349.75
440.493	348.75
440.715	367.75
440.936	372.75
441.158	358.75
441.379	375.75
441.6	381.75
441.822	382.75
442.043	387.75
442.264	389.75
442.486	387.75
442.707	386.75
442.928	387.75
443.149	391.75
443.371	372.75
443.592	369.75
443.813	375.75
444.034	386.75
444.255	407.75
444.476	423.75
444.698	436.75
444.919	451.75
445.14	533.75
445.361	451.75
445.582	404.75
445.803	387.75
446.024	381.75
446.245	357.75
446.466	364.75
446.687	367.75
446.908	371.75
447.129	332.75
447.35	353.75
447.571	338.75
447.792	334.75
448.013	345.75
448.234	335.75
448.455	346.75
448.675	331.75
448.896	329.75
449.117	318.75
449.338	329.75
449.559	330.75
449.779	309.75
450	331.75
450.221	325.75
450.442	334.75
450.662	353.75
450.883	345.75
451.104	353.75
451.324	334.75
451.545	333.75
451.766	357.75
451.986	351.75
452.207	299.75
452.428	327.75
452.648	340.75
452.869	309.75
453.089	325.75
453.31	310.75
453.53	318.75
453.751	303.75
453.971	313.75
454.192	313.75
454.412	303.75
454.633	310.75
454.853	315.75
455.073	307.75
455.294	289.75
455.514	308.75
455.734	308.75
455.955	313.75
456.175	303.75
456.395	305.75
456.616	299.75
456.836	324.75
457.056	313.75
457.276	295.75
457.497	309.75
457.717	293.75
457.937	329.75
458.157	317.75
458.377	329.75
458.598	330.75
458.818	333.75
459.038	330.75
459.258	352.75
459.478	339.75
459.698	362.75
459.918	368.75
460.138	377.75
460.358	398.75
460.578	383.75
460.798	405.75
461.018	412.75
461.238	398.75
461.458	408.75
461.678	397.75
461.898	382.75
462.118	395.75
462.338	414.75
462.558	427.75
462.777	446.75
462.997	483.75
463.217	492.75
463.437	491.75
463.657	459.75
463.876	466.75
464.096	455.75
464.316	453.75
464.536	455.75
464.755	459.75
464.975	423.75
465.195	408.75
465.414	390.75
465.634	365.75
465.854	385.75
466.073	366.75
466.293	360.75
466.512	363.75
466.732	352.75
466.951	344.75
467.171	333.75
467.391	338.75
467.61	348.75
467.829	338.75
468.049	342.75
468.268	341.75
468.488	338.75
468.707	324.75
468.927	335.75
469.146	315.75
469.365	339.75
469.585	343.75
469.804	340.75
470.023	369.75
470.243	358.75
470.462	363.75
470.681	360.75
470.901	335.75
471.12	337.75
471.339	353.75
471.558	342.75
471.777	334.75
471.997	340.75
472.216	340.75
472.435	332.75
472.654	336.75
472.873	332.75
473.092	330.75
473.311	319.75
473.53	311.75
473.749	331.75
473.968	330.75
474.187	347.75
474.406	328.75
474.625	321.75
474.844	304.75
475.063	337.75
475.282	350.75
475.501	336.75
475.72	315.75
475.939	342.75
476.158	336.75
476.377	360.75
476.596	339.75
476.814	349.75
477.033	334.75
477.252	353.75
477.471	360.75
477.69	358.75
477.908	378.75
478.127	369.75
478.346	375.75
478.564	381.75
478.783	405.75
479.002	374.75
479.22	381.75
479.439	389.75
479.658	378.75
479.876	373.75
480.095	376.75
480.313	404.75
480.532	409.75
480.751	414.75
480.969	373.75
481.188	377.75
481.406	378.75
481.624	377.75
481.843	358.75
482.061	357.75
482.28	386.75
482.498	355.75
482.717	362.75
482.935	366.75
483.153	364.75
483.372	370.75
483.59	370.75
483.808	356.75
484.027	373.75
484.245	356.75
484.463	353.75
484.681	356.75
484.9	381.75
485.118	361.75
485.336	359.75
485.554	366.75
485.772	354.75
485.99	367.75
486.209	385.75
486.427	377.75
486.645	373.75
486.863	385.75
487.081	390.75
487.299	378.75
487.517	381.75
487.735	386.75
487.953	398.75
488.171	365.75
488.389	374.75
488.607	383.75
488.825	366.75
489.043	353.75
489.261	367.75
489.479	375.75
489.696	373.75
489.914	359.75
490.132	385.75
490.35	387.75
490.568	359.75
490.786	381.75
491.003	372.75
491.221	393.75
491.439	391.75
491.657	380.75
491.874	381.75
492.092	405.75
492.31	397.75
492.527	380.75
492.745	375.75
492.963	389.75
493.18	397.75
493.398	385.75
493.615	400.75
493.833	393.75
494.05	406.75
494.268	391.75
494.485	417.75
494.703	422.75
494.92	415.75
495.138	399.75
495.355	398.75
495.573	402.75
495.79	405.75
496.008	404.75
496.225	407.75
496.442	405.75
496.66	397.75
496.877	414.75
497.094	426.75
497.312	419.75
497.529	425.75
497.746	442.75
497.963	457.75
498.181	467.75
498.398	481.75
498.615	530.75
498.832	536.75
499.049	546.75
499.267	606.75
499.484	666.75
499.701	699.75
499.918	764.75
500.135	866.75
500.352	933.75
500.569	999.75
500.786	959.75
501.003	916.75
501.22	819.75
501.437	748.75
501.654	679.75
501.871	603.75
502.088	570.75
