Data from Fe(NO3)3@0.1M.TitratingCurve.Agarose3%dH2O.NegLispCup.LampEnergy10.LIBS07252019_HRD10591_16-41-09-332.txt Node
Date: Thu Jul 25 16:41:09 EDT 2019
User: cochatt
Spectrometer: HR+D1059
Trigger mode: 1
Integration Time (sec): 1.000000E-1
Scans to average: 1
Electric dark correction enabled: true
Nonlinearity correction enabled: false
Boxcar width: 0
XAxis mode: Wavelengths
Number of Pixels in Spectrum: 2048
>>>>>Begin Spectral Data<<<<<
223.165	-11.69
223.4	-11.69
223.635	-11.69
223.869	2.31
224.104	-13.69
224.338	-35.69
224.573	-24.69
224.808	-14.69
225.042	-7.69
225.277	-4.69
225.511	1.31
225.746	-2.69
225.98	0.31
226.215	13.31
226.449	17.31
226.683	22.31
226.918	36.31
227.152	22.31
227.387	31.31
227.621	42.31
227.856	39.31
228.09	41.31
228.324	46.31
228.559	40.31
228.793	58.31
229.027	78.31
229.262	88.31
229.496	79.31
229.73	98.31
229.964	72.31
230.199	86.31
230.433	105.31
230.667	104.31
230.901	91.31
231.136	80.31
231.37	83.31
231.604	96.31
231.838	101.31
232.072	107.31
232.306	110.31
232.541	86.31
232.775	103.31
233.009	105.31
233.243	107.31
233.477	101.31
233.711	105.31
233.945	107.31
234.179	97.31
234.413	95.31
234.647	125.31
234.881	112.31
235.115	114.31
235.349	108.31
235.583	122.31
235.817	111.31
236.051	100.31
236.285	103.31
236.519	99.31
236.753	103.31
236.987	115.31
237.221	95.31
237.455	98.31
237.689	115.31
237.922	105.31
238.156	114.31
238.39	115.31
238.624	102.31
238.858	114.31
239.091	103.31
239.325	109.31
239.559	99.31
239.793	118.31
240.027	116.31
240.26	99.31
240.494	116.31
240.728	118.31
240.961	112.31
241.195	110.31
241.429	106.31
241.662	116.31
241.896	110.31
242.13	110.31
242.363	107.31
242.597	109.31
242.83	103.31
243.064	108.31
243.298	116.31
243.531	132.31
243.765	127.31
243.998	123.31
244.232	125.31
244.465	129.31
244.699	114.31
244.932	123.31
245.166	129.31
245.399	118.31
245.633	116.31
245.866	114.31
246.099	132.31
246.333	127.31
246.566	139.31
246.8	132.31
247.033	122.31
247.266	130.31
247.5	127.31
247.733	134.31
247.966	134.31
248.2	132.31
248.433	127.31
248.666	144.31
248.899	128.31
249.133	123.31
249.366	146.31
249.599	145.31
249.832	130.31
250.066	140.31
250.299	140.31
250.532	133.31
250.765	138.31
250.998	156.31
251.231	135.31
251.465	153.31
251.698	134.31
251.931	138.31
252.164	132.31
252.397	140.31
252.63	149.31
252.863	125.31
253.096	139.31
253.329	128.31
253.562	134.31
253.795	153.31
254.028	138.31
254.261	142.31
254.494	149.31
254.727	137.31
254.96	151.31
255.193	153.31
255.426	132.31
255.659	135.31
255.892	131.31
256.124	157.31
256.357	152.31
256.59	138.31
256.823	166.31
257.056	164.31
257.289	147.31
257.521	145.31
257.754	151.31
257.987	162.31
258.22	156.31
258.452	146.31
258.685	153.31
258.918	158.31
259.151	144.31
259.383	168.31
259.616	169.31
259.849	158.31
260.081	163.31
260.314	164.31
260.547	163.31
260.779	153.31
261.012	173.31
261.244	173.31
261.477	149.31
261.71	159.31
261.942	153.31
262.175	164.31
262.407	162.31
262.64	163.31
262.872	161.31
263.105	156.31
263.337	178.31
263.57	169.31
263.802	157.31
264.035	165.31
264.267	171.31
264.499	166.31
264.732	173.31
264.964	162.31
265.197	166.31
265.429	164.31
265.661	157.31
265.894	178.31
266.126	172.31
266.358	167.31
266.591	169.31
266.823	174.31
267.055	175.31
267.287	175.31
267.52	163.31
267.752	180.31
267.984	181.31
268.216	171.31
268.448	184.31
268.681	160.31
268.913	162.31
269.145	166.31
269.377	192.31
269.609	163.31
269.841	172.31
270.073	172.31
270.306	177.31
270.538	168.31
270.77	184.31
271.002	180.31
271.234	183.31
271.466	184.31
271.698	170.31
271.93	172.31
272.162	198.31
272.394	172.31
272.626	189.31
272.858	185.31
273.09	182.31
273.322	179.31
273.553	185.31
273.785	180.31
274.017	191.31
274.249	194.31
274.481	201.31
274.713	195.31
274.945	216.31
275.176	199.31
275.408	195.31
275.64	173.31
275.872	203.31
276.104	205.31
276.335	198.31
276.567	195.31
276.799	205.31
277.031	210.31
277.262	199.31
277.494	189.31
277.726	210.31
277.957	176.31
278.189	180.31
278.421	197.31
278.652	200.31
278.884	200.31
279.115	206.31
279.347	216.31
279.579	210.31
279.81	206.31
280.042	194.31
280.273	203.31
280.505	211.31
280.736	202.31
280.968	218.31
281.199	200.31
281.431	193.31
281.662	212.31
281.894	226.31
282.125	208.31
282.356	211.31
282.588	202.31
282.819	216.31
283.051	221.31
283.282	211.31
283.513	231.31
283.745	224.31
283.976	223.31
284.207	229.31
284.439	209.31
284.67	215.31
284.901	214.31
285.132	218.31
285.364	203.31
285.595	237.31
285.826	215.31
286.057	233.31
286.288	217.31
286.52	233.31
286.751	227.31
286.982	217.31
287.213	225.31
287.444	221.31
287.675	234.31
287.906	227.31
288.138	227.31
288.369	219.31
288.6	233.31
288.831	226.31
289.062	219.31
289.293	233.31
289.524	227.31
289.755	231.31
289.986	237.31
290.217	231.31
290.448	231.31
290.679	224.31
290.91	228.31
291.141	214.31
291.371	242.31
291.602	226.31
291.833	239.31
292.064	228.31
292.295	220.31
292.526	221.31
292.757	222.31
292.987	208.31
293.218	232.31
293.449	222.31
293.68	223.31
293.91	239.31
294.141	243.31
294.372	218.31
294.603	239.31
294.833	235.31
295.064	230.31
295.295	252.31
295.525	235.31
295.756	251.31
295.987	226.31
296.217	228.31
296.448	239.31
296.679	238.31
296.909	243.31
297.14	248.31
297.37	245.31
297.601	240.31
297.831	237.31
298.062	260.31
298.292	266.31
298.523	239.31
298.753	240.31
298.984	244.31
299.214	266.31
299.445	253.31
299.675	248.31
299.905	239.31
300.136	250.31
300.366	244.31
300.597	250.31
300.827	254.31
301.057	246.31
301.288	266.31
301.518	250.31
301.748	245.31
301.979	259.31
302.209	269.31
302.439	238.31
302.669	266.31
302.9	249.31
303.13	258.31
303.36	259.31
303.59	280.31
303.82	272.31
304.051	264.31
304.281	264.31
304.511	265.31
304.741	266.31
304.971	279.31
305.201	263.31
305.431	255.31
305.661	262.31
305.891	246.31
306.121	271.31
306.352	276.31
306.582	260.31
306.812	266.31
307.042	262.31
307.272	262.31
307.502	260.31
307.731	249.31
307.961	256.31
308.191	256.31
308.421	269.31
308.651	272.31
308.881	268.31
309.111	267.31
309.341	259.31
309.571	264.31
309.8	258.31
310.03	260.31
310.26	274.31
310.49	260.31
310.72	267.31
310.949	273.31
311.179	270.31
311.409	266.31
311.639	256.31
311.868	262.31
312.098	271.31
312.328	284.31
312.557	294.31
312.787	262.31
313.017	283.31
313.246	276.31
313.476	289.31
313.706	290.31
313.935	297.31
314.165	279.31
314.394	283.31
314.624	296.31
314.853	296.31
315.083	285.31
315.312	283.31
315.542	278.31
315.771	278.31
316.001	268.31
316.23	284.31
316.46	275.31
316.689	281.31
316.919	292.31
317.148	290.31
317.377	275.31
317.607	260.31
317.836	282.31
318.065	301.31
318.295	299.31
318.524	267.31
318.753	280.31
318.983	278.31
319.212	261.31
319.441	270.31
319.67	266.31
319.9	286.31
320.129	285.31
320.358	279.31
320.587	276.31
320.816	264.31
321.046	264.31
321.275	296.31
321.504	282.31
321.733	288.31
321.962	289.31
322.191	280.31
322.42	288.31
322.649	288.31
322.878	309.31
323.108	286.31
323.337	292.31
323.566	293.31
323.795	301.31
324.024	288.31
324.253	299.31
324.482	269.31
324.71	290.31
324.939	269.31
325.168	298.31
325.397	291.31
325.626	302.31
325.855	303.31
326.084	323.31
326.313	306.31
326.542	313.31
326.77	304.31
326.999	293.31
327.228	292.31
327.457	303.31
327.686	325.31
327.914	314.31
328.143	306.31
328.372	313.31
328.6	291.31
328.829	294.31
329.058	298.31
329.287	308.31
329.515	316.31
329.744	299.31
329.972	310.31
330.201	306.31
330.43	324.31
330.658	322.31
330.887	335.31
331.115	310.31
331.344	315.31
331.572	324.31
331.801	334.31
332.03	326.31
332.258	337.31
332.486	350.31
332.715	345.31
332.943	354.31
333.172	365.31
333.4	366.31
333.629	356.31
333.857	365.31
334.085	378.31
334.314	384.31
334.542	384.31
334.771	354.31
334.999	368.31
335.227	359.31
335.455	371.31
335.684	370.31
335.912	360.31
336.14	364.31
336.369	353.31
336.597	370.31
336.825	374.31
337.053	345.31
337.281	348.31
337.51	335.31
337.738	341.31
337.966	347.31
338.194	346.31
338.422	319.31
338.65	327.31
338.878	347.31
339.106	332.31
339.334	312.31
339.562	330.31
339.79	334.31
340.018	319.31
340.246	330.31
340.474	329.31
340.702	327.31
340.93	326.31
341.158	328.31
341.386	334.31
341.614	328.31
341.842	330.31
342.07	312.31
342.298	311.31
342.526	312.31
342.754	309.31
342.981	319.31
343.209	325.31
343.437	359.31
343.665	355.31
343.893	378.31
344.12	386.31
344.348	359.31
344.576	344.31
344.804	331.31
345.031	349.31
345.259	317.31
345.487	319.31
345.714	315.31
345.942	322.31
346.17	306.31
346.397	329.31
346.625	314.31
346.853	304.31
347.08	325.31
347.308	307.31
347.535	309.31
347.763	319.31
347.99	311.31
348.218	310.31
348.445	296.31
348.673	301.31
348.9	303.31
349.128	335.31
349.355	317.31
349.583	311.31
349.81	324.31
350.037	312.31
350.265	299.31
350.492	292.31
350.72	308.31
350.947	307.31
351.174	328.31
351.402	318.31
351.629	323.31
351.856	297.31
352.083	304.31
352.311	298.31
352.538	292.31
352.765	302.31
352.992	306.31
353.22	311.31
353.447	317.31
353.674	316.31
353.901	313.31
354.128	322.31
354.355	317.31
354.583	302.31
354.81	318.31
355.037	295.31
355.264	313.31
355.491	316.31
355.718	304.31
355.945	316.31
356.172	297.31
356.399	291.31
356.626	310.31
356.853	320.31
357.08	312.31
357.307	319.31
357.534	331.31
357.761	330.31
357.988	318.31
358.215	305.31
358.441	296.31
358.668	301.31
358.895	301.31
359.122	311.31
359.349	295.31
359.576	308.31
359.802	296.31
360.029	317.31
360.256	312.31
360.483	310.31
360.709	327.31
360.936	324.31
361.163	309.31
361.39	324.31
361.616	316.31
361.843	311.31
362.07	311.31
362.296	292.31
362.523	311.31
362.749	323.31
362.976	321.31
363.203	315.31
363.429	308.31
363.656	303.31
363.882	328.31
364.109	310.31
364.335	319.31
364.562	306.31
364.788	306.31
365.015	306.31
365.241	309.31
365.468	303.31
365.694	316.31
365.92	318.31
366.147	311.31
366.373	312.31
366.599	309.31
366.826	304.31
367.052	308.31
367.278	318.31
367.505	327.31
367.731	316.31
367.957	316.31
368.184	312.31
368.41	334.31
368.636	334.31
368.862	330.31
369.089	298.31
369.315	327.31
369.541	312.31
369.767	314.31
369.993	335.31
370.219	328.31
370.445	309.31
370.672	334.31
370.898	330.31
371.124	346.31
371.35	328.31
371.576	331.31
371.802	338.31
372.028	346.31
372.254	344.31
372.48	334.31
372.706	345.31
372.932	356.31
373.158	356.31
373.384	356.31
373.61	350.31
373.835	334.31
374.061	355.31
374.287	340.31
374.513	356.31
374.739	348.31
374.965	353.31
375.191	359.31
375.416	361.31
375.642	365.31
375.868	343.31
376.094	335.31
376.319	343.31
376.545	372.31
376.771	334.31
376.997	350.31
377.222	347.31
377.448	343.31
377.674	358.31
377.899	331.31
378.125	360.31
378.35	329.31
378.576	307.31
378.802	327.31
379.027	349.31
379.253	333.31
379.478	326.31
379.704	317.31
379.929	319.31
380.155	342.31
380.38	331.31
380.606	322.31
380.831	363.31
381.057	336.31
381.282	329.31
381.507	328.31
381.733	338.31
381.958	347.31
382.184	336.31
382.409	355.31
382.634	340.31
382.86	354.31
383.085	348.31
383.31	351.31
383.535	346.31
383.761	362.31
383.986	382.31
384.211	392.31
384.436	380.31
384.662	373.31
384.887	392.31
385.112	392.31
385.337	390.31
385.562	392.31
385.787	390.31
386.013	409.31
386.238	383.31
386.463	414.31
386.688	397.31
386.913	395.31
387.138	396.31
387.363	403.31
387.588	401.31
387.813	403.31
388.038	400.31
388.263	399.31
388.488	389.31
388.713	382.31
388.938	373.31
389.163	380.31
389.387	374.31
389.612	394.31
389.837	389.31
390.062	376.31
390.287	383.31
390.512	397.31
390.736	397.31
390.961	410.31
391.186	402.31
391.411	416.31
391.636	426.31
391.86	441.31
392.085	424.31
392.31	437.31
392.534	428.31
392.759	434.31
392.984	410.31
393.208	407.31
393.433	414.31
393.658	420.31
393.882	420.31
394.107	418.31
394.331	413.31
394.556	428.31
394.78	411.31
395.005	419.31
395.229	408.31
395.454	444.31
395.678	449.31
395.903	422.31
396.127	416.31
396.352	406.31
396.576	421.31
396.801	421.31
397.025	417.31
397.249	422.31
397.474	437.31
397.698	443.31
397.922	455.31
398.147	460.31
398.371	454.31
398.595	460.31
398.82	498.31
399.044	522.31
399.268	556.31
399.492	611.31
399.717	626.31
399.941	628.31
400.165	581.31
400.389	549.31
400.613	559.31
400.837	518.31
401.062	486.31
401.286	500.31
401.51	491.31
401.734	483.31
401.958	463.31
402.182	476.31
402.406	491.31
402.63	511.31
402.854	504.31
403.078	496.31
403.302	502.31
403.526	505.31
403.75	515.31
403.974	516.31
404.198	524.31
404.422	508.31
404.645	531.31
404.869	522.31
405.093	527.31
405.317	522.31
405.541	519.31
405.765	522.31
405.988	499.31
406.212	508.31
406.436	499.31
406.66	534.31
406.883	533.31
407.107	560.31
407.331	577.31
407.555	572.31
407.778	589.31
408.002	572.31
408.226	566.31
408.449	549.31
408.673	559.31
408.896	565.31
409.12	551.31
409.344	557.31
409.567	527.31
409.791	544.31
410.014	536.31
410.238	510.31
410.461	487.31
410.685	524.31
410.908	504.31
411.132	522.31
411.355	496.31
411.578	505.31
411.802	502.31
412.025	517.31
412.249	518.31
412.472	510.31
412.695	476.31
412.919	483.31
413.142	479.31
413.365	493.31
413.589	504.31
413.812	492.31
414.035	505.31
414.258	492.31
414.482	520.31
414.705	489.31
414.928	496.31
415.151	493.31
415.374	487.31
415.597	477.31
415.821	480.31
416.044	475.31
416.267	483.31
416.49	459.31
416.713	475.31
416.936	472.31
417.159	502.31
417.382	467.31
417.605	474.31
417.828	485.31
418.051	470.31
418.274	488.31
418.497	499.31
418.72	483.31
418.943	478.31
419.166	506.31
419.389	544.31
419.611	536.31
419.834	508.31
420.057	490.31
420.28	483.31
420.503	487.31
420.726	509.31
420.948	497.31
421.171	475.31
421.394	480.31
421.617	487.31
421.839	486.31
422.062	490.31
422.285	477.31
422.507	501.31
422.73	491.31
422.953	476.31
423.175	496.31
423.398	472.31
423.621	510.31
423.843	507.31
424.066	514.31
424.288	479.31
424.511	456.31
424.733	484.31
424.956	474.31
425.178	471.31
425.401	482.31
425.623	479.31
425.846	478.31
426.068	473.31
426.291	468.31
426.513	473.31
426.735	459.31
426.958	476.31
427.18	465.31
427.402	464.31
427.625	472.31
427.847	448.31
428.069	426.31
428.292	440.31
428.514	443.31
428.736	449.31
428.958	454.31
429.181	423.31
429.403	431.31
429.625	415.31
429.847	441.31
430.069	447.31
430.292	436.31
430.514	447.31
430.736	446.31
430.958	440.31
431.18	451.31
431.402	450.31
431.624	430.31
431.846	446.31
432.068	438.31
432.29	442.31
432.512	476.31
432.734	449.31
432.956	454.31
433.178	441.31
433.4	442.31
433.622	440.31
433.844	453.31
434.066	464.31
434.287	442.31
434.509	444.31
434.731	477.31
434.953	507.31
435.175	491.31
435.397	489.31
435.618	454.31
435.84	470.31
436.062	456.31
436.284	453.31
436.505	452.31
436.727	476.31
436.949	459.31
437.17	446.31
437.392	434.31
437.614	438.31
437.835	433.31
438.057	424.31
438.278	434.31
438.5	420.31
438.721	430.31
438.943	434.31
439.165	442.31
439.386	460.31
439.608	471.31
439.829	454.31
440.05	444.31
440.272	445.31
440.493	462.31
440.715	454.31
440.936	453.31
441.158	476.31
441.379	471.31
441.6	512.31
441.822	473.31
442.043	491.31
442.264	498.31
442.486	464.31
442.707	474.31
442.928	486.31
443.149	495.31
443.371	475.31
443.592	490.31
443.813	488.31
444.034	495.31
444.255	505.31
444.476	521.31
444.698	554.31
444.919	553.31
445.14	644.31
445.361	544.31
445.582	504.31
445.803	475.31
446.024	478.31
446.245	468.31
446.466	487.31
446.687	471.31
446.908	453.31
447.129	477.31
447.35	448.31
447.571	452.31
447.792	442.31
448.013	436.31
448.234	434.31
448.455	439.31
448.675	415.31
448.896	423.31
449.117	407.31
449.338	401.31
449.559	398.31
449.779	419.31
450	421.31
450.221	419.31
450.442	445.31
450.662	427.31
450.883	390.31
451.104	418.31
451.324	430.31
451.545	425.31
451.766	426.31
451.986	424.31
452.207	414.31
452.428	435.31
452.648	412.31
452.869	409.31
453.089	406.31
453.31	405.31
453.53	384.31
453.751	409.31
453.971	403.31
454.192	402.31
454.412	400.31
454.633	390.31
454.853	381.31
455.073	404.31
455.294	404.31
455.514	381.31
455.734	374.31
455.955	397.31
456.175	384.31
456.395	388.31
456.616	390.31
456.836	400.31
457.056	414.31
457.276	403.31
457.497	388.31
457.717	408.31
457.937	394.31
458.157	402.31
458.377	391.31
458.598	412.31
458.818	412.31
459.038	398.31
459.258	427.31
459.478	444.31
459.698	460.31
459.918	457.31
460.138	478.31
460.358	504.31
460.578	488.31
460.798	515.31
461.018	501.31
461.238	518.31
461.458	525.31
461.678	490.31
461.898	523.31
462.118	523.31
462.338	550.31
462.558	544.31
462.777	564.31
462.997	582.31
463.217	617.31
463.437	620.31
463.657	592.31
463.876	582.31
464.096	577.31
464.316	554.31
464.536	584.31
464.755	530.31
464.975	507.31
465.195	504.31
465.414	482.31
465.634	457.31
465.854	455.31
466.073	439.31
466.293	435.31
466.512	442.31
466.732	420.31
466.951	442.31
467.171	440.31
467.391	439.31
467.61	451.31
467.829	440.31
468.049	412.31
468.268	420.31
468.488	416.31
468.707	403.31
468.927	395.31
469.146	428.31
469.365	429.31
469.585	435.31
469.804	438.31
470.023	432.31
470.243	428.31
470.462	445.31
470.681	442.31
470.901	423.31
471.12	428.31
471.339	423.31
471.558	424.31
471.777	426.31
471.997	418.31
472.216	426.31
472.435	408.31
472.654	404.31
472.873	402.31
473.092	406.31
473.311	397.31
473.53	395.31
473.749	396.31
473.968	394.31
474.187	404.31
474.406	396.31
474.625	430.31
474.844	412.31
475.063	412.31
475.282	397.31
475.501	381.31
475.72	414.31
475.939	411.31
476.158	412.31
476.377	434.31
476.596	419.31
476.814	454.31
477.033	422.31
477.252	450.31
477.471	448.31
477.69	422.31
477.908	450.31
478.127	471.31
478.346	462.31
478.564	480.31
478.783	479.31
479.002	486.31
479.22	475.31
479.439	485.31
479.658	485.31
479.876	492.31
480.095	515.31
480.313	485.31
480.532	510.31
480.751	498.31
480.969	484.31
481.188	456.31
481.406	464.31
481.624	450.31
481.843	443.31
482.061	453.31
482.28	458.31
482.498	463.31
482.717	463.31
482.935	450.31
483.153	460.31
483.372	456.31
483.59	472.31
483.808	454.31
484.027	449.31
484.245	455.31
484.463	475.31
484.681	478.31
484.9	453.31
485.118	459.31
485.336	461.31
485.554	452.31
485.772	468.31
485.99	464.31
486.209	468.31
486.427	479.31
486.645	455.31
486.863	470.31
487.081	468.31
487.299	459.31
487.517	460.31
487.735	464.31
487.953	449.31
488.171	499.31
488.389	460.31
488.607	458.31
488.825	467.31
489.043	457.31
489.261	472.31
489.479	464.31
489.696	476.31
489.914	478.31
490.132	454.31
490.35	464.31
490.568	450.31
490.786	471.31
491.003	495.31
491.221	480.31
491.439	474.31
491.657	480.31
491.874	493.31
492.092	482.31
492.31	474.31
492.527	488.31
492.745	480.31
492.963	487.31
493.18	487.31
493.398	477.31
493.615	482.31
493.833	476.31
494.05	483.31
494.268	486.31
494.485	502.31
494.703	504.31
494.92	508.31
495.138	506.31
495.355	497.31
495.573	495.31
495.79	499.31
496.008	503.31
496.225	525.31
496.442	536.31
496.66	527.31
496.877	528.31
497.094	552.31
497.312	551.31
497.529	540.31
497.746	562.31
497.963	584.31
498.181	599.31
498.398	604.31
498.615	654.31
498.832	674.31
499.049	725.31
499.267	765.31
499.484	836.31
499.701	866.31
499.918	925.31
500.135	1026.31
500.352	1153.31
500.569	1142.31
500.786	1125.31
501.003	1080.31
501.22	997.31
501.437	914.31
501.654	822.31
501.871	787.31
