Data from Fe(NO3)3@0.0125M.TitratingCurve.Agarose3%dH2O.NegLispCup.LampEnergy10.LIBS07252019_HRD10591_17-00-46-337.txt Node
Date: Thu Jul 25 17:00:46 EDT 2019
User: cochatt
Spectrometer: HR+D1059
Trigger mode: 1
Integration Time (sec): 1.000000E-1
Scans to average: 1
Electric dark correction enabled: true
Nonlinearity correction enabled: false
Boxcar width: 0
XAxis mode: Wavelengths
Number of Pixels in Spectrum: 2048
>>>>>Begin Spectral Data<<<<<
223.165	-23.31
223.4	-23.31
223.635	-23.31
223.869	-21.31
224.104	-4.31
224.338	-9.31
224.573	2.69
224.808	-4.31
225.042	-16.31
225.277	-12.31
225.511	-3.31
225.746	1.69
225.98	-6.31
226.215	-0.31
226.449	20.69
226.683	28.69
226.918	18.69
227.152	28.69
227.387	33.69
227.621	31.69
227.856	43.69
228.09	46.69
228.324	48.69
228.559	58.69
228.793	57.69
229.027	76.69
229.262	81.69
229.496	91.69
229.73	82.69
229.964	103.69
230.199	94.69
230.433	81.69
230.667	72.69
230.901	103.69
231.136	90.69
231.37	101.69
231.604	108.69
231.838	93.69
232.072	106.69
232.306	96.69
232.541	104.69
232.775	102.69
233.009	98.69
233.243	108.69
233.477	82.69
233.711	113.69
233.945	102.69
234.179	102.69
234.413	112.69
234.647	117.69
234.881	100.69
235.115	104.69
235.349	119.69
235.583	106.69
235.817	103.69
236.051	111.69
236.285	107.69
236.519	106.69
236.753	98.69
236.987	115.69
237.221	108.69
237.455	110.69
237.689	111.69
237.922	113.69
238.156	120.69
238.39	115.69
238.624	99.69
238.858	116.69
239.091	113.69
239.325	114.69
239.559	107.69
239.793	111.69
240.027	123.69
240.26	120.69
240.494	123.69
240.728	113.69
240.961	123.69
241.195	113.69
241.429	116.69
241.662	104.69
241.896	111.69
242.13	115.69
242.363	130.69
242.597	122.69
242.83	108.69
243.064	111.69
243.298	99.69
243.531	117.69
243.765	124.69
243.998	117.69
244.232	129.69
244.465	132.69
244.699	121.69
244.932	113.69
245.166	109.69
245.399	113.69
245.633	117.69
245.866	117.69
246.099	133.69
246.333	122.69
246.566	111.69
246.8	149.69
247.033	133.69
247.266	124.69
247.5	137.69
247.733	129.69
247.966	130.69
248.2	135.69
248.433	131.69
248.666	134.69
248.899	127.69
249.133	133.69
249.366	138.69
249.599	141.69
249.832	140.69
250.066	129.69
250.299	143.69
250.532	143.69
250.765	143.69
250.998	137.69
251.231	128.69
251.465	125.69
251.698	131.69
251.931	126.69
252.164	134.69
252.397	155.69
252.63	150.69
252.863	139.69
253.096	143.69
253.329	139.69
253.562	149.69
253.795	137.69
254.028	148.69
254.261	163.69
254.494	140.69
254.727	131.69
254.96	133.69
255.193	139.69
255.426	150.69
255.659	155.69
255.892	156.69
256.124	147.69
256.357	137.69
256.59	153.69
256.823	159.69
257.056	160.69
257.289	150.69
257.521	150.69
257.754	161.69
257.987	172.69
258.22	159.69
258.452	154.69
258.685	191.69
258.918	162.69
259.151	169.69
259.383	174.69
259.616	151.69
259.849	152.69
260.081	190.69
260.314	205.69
260.547	182.69
260.779	174.69
261.012	180.69
261.244	157.69
261.477	194.69
261.71	183.69
261.942	167.69
262.175	166.69
262.407	180.69
262.64	165.69
262.872	163.69
263.105	166.69
263.337	178.69
263.57	170.69
263.802	175.69
264.035	191.69
264.267	147.69
264.499	161.69
264.732	180.69
264.964	175.69
265.197	166.69
265.429	166.69
265.661	172.69
265.894	159.69
266.126	185.69
266.358	172.69
266.591	164.69
266.823	183.69
267.055	188.69
267.287	184.69
267.52	167.69
267.752	171.69
267.984	176.69
268.216	176.69
268.448	189.69
268.681	196.69
268.913	189.69
269.145	191.69
269.377	181.69
269.609	186.69
269.841	180.69
270.073	202.69
270.306	191.69
270.538	166.69
270.77	170.69
271.002	187.69
271.234	202.69
271.466	196.69
271.698	185.69
271.93	190.69
272.162	199.69
272.394	202.69
272.626	194.69
272.858	196.69
273.09	199.69
273.322	197.69
273.553	195.69
273.785	217.69
274.017	213.69
274.249	208.69
274.481	216.69
274.713	237.69
274.945	224.69
275.176	219.69
275.408	221.69
275.64	212.69
275.872	210.69
276.104	202.69
276.335	202.69
276.567	189.69
276.799	194.69
277.031	210.69
277.262	212.69
277.494	210.69
277.726	207.69
277.957	204.69
278.189	205.69
278.421	213.69
278.652	215.69
278.884	216.69
279.115	209.69
279.347	223.69
279.579	212.69
279.81	217.69
280.042	206.69
280.273	230.69
280.505	212.69
280.736	217.69
280.968	224.69
281.199	230.69
281.431	195.69
281.662	225.69
281.894	222.69
282.125	223.69
282.356	211.69
282.588	213.69
282.819	220.69
283.051	207.69
283.282	214.69
283.513	211.69
283.745	225.69
283.976	234.69
284.207	228.69
284.439	212.69
284.67	208.69
284.901	225.69
285.132	226.69
285.364	236.69
285.595	231.69
285.826	229.69
286.057	221.69
286.288	237.69
286.52	218.69
286.751	231.69
286.982	218.69
287.213	233.69
287.444	242.69
287.675	251.69
287.906	213.69
288.138	228.69
288.369	237.69
288.6	240.69
288.831	243.69
289.062	225.69
289.293	235.69
289.524	211.69
289.755	242.69
289.986	247.69
290.217	240.69
290.448	244.69
290.679	234.69
290.91	237.69
291.141	238.69
291.371	235.69
291.602	243.69
291.833	247.69
292.064	240.69
292.295	251.69
292.526	262.69
292.757	247.69
292.987	227.69
293.218	260.69
293.449	250.69
293.68	257.69
293.91	255.69
294.141	271.69
294.372	243.69
294.603	259.69
294.833	247.69
295.064	249.69
295.295	251.69
295.525	260.69
295.756	254.69
295.987	257.69
296.217	259.69
296.448	244.69
296.679	249.69
296.909	262.69
297.14	246.69
297.37	283.69
297.601	261.69
297.831	268.69
298.062	281.69
298.292	259.69
298.523	263.69
298.753	265.69
298.984	273.69
299.214	256.69
299.445	273.69
299.675	264.69
299.905	264.69
300.136	249.69
300.366	264.69
300.597	267.69
300.827	266.69
301.057	269.69
301.288	269.69
301.518	273.69
301.748	274.69
301.979	285.69
302.209	277.69
302.439	278.69
302.669	289.69
302.9	269.69
303.13	267.69
303.36	280.69
303.59	269.69
303.82	272.69
304.051	289.69
304.281	299.69
304.511	291.69
304.741	293.69
304.971	275.69
305.201	279.69
305.431	297.69
305.661	323.69
305.891	290.69
306.121	293.69
306.352	291.69
306.582	274.69
306.812	280.69
307.042	278.69
307.272	307.69
307.502	292.69
307.731	290.69
307.961	281.69
308.191	278.69
308.421	278.69
308.651	293.69
308.881	291.69
309.111	278.69
309.341	292.69
309.571	294.69
309.8	282.69
310.03	290.69
310.26	306.69
310.49	312.69
310.72	303.69
310.949	291.69
311.179	297.69
311.409	290.69
311.639	289.69
311.868	297.69
312.098	293.69
312.328	327.69
312.557	291.69
312.787	300.69
313.017	296.69
313.246	304.69
313.476	291.69
313.706	305.69
313.935	313.69
314.165	313.69
314.394	307.69
314.624	316.69
314.853	310.69
315.083	299.69
315.312	310.69
315.542	318.69
315.771	317.69
316.001	327.69
316.23	315.69
316.46	322.69
316.689	325.69
316.919	316.69
317.148	300.69
317.377	316.69
317.607	310.69
317.836	327.69
318.065	321.69
318.295	321.69
318.524	329.69
318.753	319.69
318.983	315.69
319.212	311.69
319.441	321.69
319.67	320.69
319.9	331.69
320.129	326.69
320.358	325.69
320.587	330.69
320.816	325.69
321.046	334.69
321.275	328.69
321.504	319.69
321.733	318.69
321.962	328.69
322.191	327.69
322.42	330.69
322.649	324.69
322.878	317.69
323.108	320.69
323.337	314.69
323.566	318.69
323.795	327.69
324.024	315.69
324.253	330.69
324.482	356.69
324.71	337.69
324.939	327.69
325.168	351.69
325.397	355.69
325.626	320.69
325.855	333.69
326.084	322.69
326.313	344.69
326.542	345.69
326.77	353.69
326.999	341.69
327.228	343.69
327.457	360.69
327.686	347.69
327.914	347.69
328.143	358.69
328.372	340.69
328.6	348.69
328.829	336.69
329.058	339.69
329.287	348.69
329.515	356.69
329.744	349.69
329.972	352.69
330.201	353.69
330.43	344.69
330.658	349.69
330.887	333.69
331.115	353.69
331.344	359.69
331.572	360.69
331.801	352.69
332.03	355.69
332.258	364.69
332.486	352.69
332.715	371.69
332.943	389.69
333.172	378.69
333.4	376.69
333.629	378.69
333.857	361.69
334.085	390.69
334.314	380.69
334.542	372.69
334.771	401.69
334.999	391.69
335.227	375.69
335.455	390.69
335.684	375.69
335.912	376.69
336.14	384.69
336.369	384.69
336.597	384.69
336.825	385.69
337.053	392.69
337.281	391.69
337.51	395.69
337.738	380.69
337.966	377.69
338.194	382.69
338.422	376.69
338.65	375.69
338.878	369.69
339.106	355.69
339.334	359.69
339.562	363.69
339.79	358.69
340.018	376.69
340.246	374.69
340.474	389.69
340.702	375.69
340.93	377.69
341.158	378.69
341.386	361.69
341.614	383.69
341.842	372.69
342.07	376.69
342.298	374.69
342.526	381.69
342.754	387.69
342.981	359.69
343.209	373.69
343.437	368.69
343.665	402.69
343.893	396.69
344.12	395.69
344.348	388.69
344.576	408.69
344.804	376.69
345.031	367.69
345.259	387.69
345.487	393.69
345.714	363.69
345.942	348.69
346.17	372.69
346.397	387.69
346.625	350.69
346.853	369.69
347.08	381.69
347.308	367.69
347.535	379.69
347.763	348.69
347.99	369.69
348.218	397.69
348.445	356.69
348.673	352.69
348.9	358.69
349.128	348.69
349.355	354.69
349.583	362.69
349.81	354.69
350.037	357.69
350.265	357.69
350.492	375.69
350.72	354.69
350.947	332.69
351.174	357.69
351.402	348.69
351.629	352.69
351.856	362.69
352.083	347.69
352.311	341.69
352.538	351.69
352.765	347.69
352.992	375.69
353.22	352.69
353.447	353.69
353.674	367.69
353.901	355.69
354.128	368.69
354.355	377.69
354.583	357.69
354.81	370.69
355.037	351.69
355.264	360.69
355.491	367.69
355.718	362.69
355.945	355.69
356.172	360.69
356.399	371.69
356.626	376.69
356.853	364.69
357.08	361.69
357.307	361.69
357.534	359.69
357.761	365.69
357.988	375.69
358.215	372.69
358.441	362.69
358.668	375.69
358.895	369.69
359.122	358.69
359.349	351.69
359.576	353.69
359.802	377.69
360.029	356.69
360.256	377.69
360.483	370.69
360.709	376.69
360.936	377.69
361.163	361.69
361.39	343.69
361.616	353.69
361.843	391.69
362.07	367.69
362.296	349.69
362.523	373.69
362.749	356.69
362.976	363.69
363.203	370.69
363.429	389.69
363.656	367.69
363.882	362.69
364.109	367.69
364.335	362.69
364.562	385.69
364.788	379.69
365.015	361.69
365.241	377.69
365.468	384.69
365.694	356.69
365.92	379.69
366.147	369.69
366.373	376.69
366.599	373.69
366.826	387.69
367.052	377.69
367.278	368.69
367.505	363.69
367.731	377.69
367.957	381.69
368.184	379.69
368.41	380.69
368.636	374.69
368.862	379.69
369.089	388.69
369.315	393.69
369.541	376.69
369.767	386.69
369.993	371.69
370.219	376.69
370.445	385.69
370.672	378.69
370.898	399.69
371.124	396.69
371.35	387.69
371.576	391.69
371.802	380.69
372.028	416.69
372.254	415.69
372.48	409.69
372.706	408.69
372.932	392.69
373.158	419.69
373.384	395.69
373.61	412.69
373.835	433.69
374.061	420.69
374.287	395.69
374.513	417.69
374.739	416.69
374.965	411.69
375.191	425.69
375.416	431.69
375.642	416.69
375.868	423.69
376.094	416.69
376.319	428.69
376.545	405.69
376.771	409.69
376.997	385.69
377.222	389.69
377.448	398.69
377.674	417.69
377.899	384.69
378.125	394.69
378.35	402.69
378.576	396.69
378.802	379.69
379.027	388.69
379.253	391.69
379.478	374.69
379.704	401.69
379.929	407.69
380.155	396.69
380.38	413.69
380.606	408.69
380.831	412.69
381.057	401.69
381.282	387.69
381.507	400.69
381.733	411.69
381.958	404.69
382.184	423.69
382.409	404.69
382.634	415.69
382.86	421.69
383.085	416.69
383.31	397.69
383.535	436.69
383.761	437.69
383.986	435.69
384.211	429.69
384.436	431.69
384.662	400.69
384.887	407.69
385.112	420.69
385.337	415.69
385.562	427.69
385.787	429.69
386.013	443.69
386.238	451.69
386.463	454.69
386.688	451.69
386.913	439.69
387.138	456.69
387.363	445.69
387.588	431.69
387.813	445.69
388.038	433.69
388.263	449.69
388.488	429.69
388.713	458.69
388.938	459.69
389.163	455.69
389.387	464.69
389.612	439.69
389.837	443.69
390.062	448.69
390.287	435.69
390.512	435.69
390.736	456.69
390.961	459.69
391.186	450.69
391.411	470.69
391.636	464.69
391.86	445.69
392.085	459.69
392.31	458.69
392.534	461.69
392.759	469.69
392.984	469.69
393.208	480.69
393.433	492.69
393.658	489.69
393.882	453.69
394.107	454.69
394.331	470.69
394.556	481.69
394.78	478.69
395.005	458.69
395.229	479.69
395.454	466.69
395.678	497.69
395.903	501.69
396.127	489.69
396.352	479.69
396.576	491.69
396.801	484.69
397.025	487.69
397.249	481.69
397.474	476.69
397.698	492.69
397.922	498.69
398.147	487.69
398.371	503.69
398.595	525.69
398.82	505.69
399.044	523.69
399.268	535.69
399.492	536.69
399.717	561.69
399.941	592.69
400.165	583.69
400.389	551.69
400.613	559.69
400.837	540.69
401.062	521.69
401.286	520.69
401.51	521.69
401.734	527.69
401.958	523.69
402.182	528.69
402.406	521.69
402.63	509.69
402.854	514.69
403.078	519.69
403.302	538.69
403.526	528.69
403.75	516.69
403.974	528.69
404.198	521.69
404.422	551.69
404.645	541.69
404.869	537.69
405.093	510.69
405.317	540.69
405.541	529.69
405.765	545.69
405.988	559.69
406.212	521.69
406.436	549.69
406.66	564.69
406.883	554.69
407.107	570.69
407.331	581.69
407.555	571.69
407.778	571.69
408.002	560.69
408.226	564.69
408.449	554.69
408.673	577.69
408.896	545.69
409.12	539.69
409.344	567.69
409.567	564.69
409.791	541.69
410.014	535.69
410.238	535.69
410.461	521.69
410.685	549.69
410.908	542.69
411.132	538.69
411.355	535.69
411.578	531.69
411.802	529.69
412.025	522.69
412.249	548.69
412.472	534.69
412.695	513.69
412.919	504.69
413.142	541.69
413.365	518.69
413.589	520.69
413.812	507.69
414.035	522.69
414.258	524.69
414.482	536.69
414.705	532.69
414.928	530.69
415.151	516.69
415.374	501.69
415.597	523.69
415.821	492.69
416.044	516.69
416.267	501.69
416.49	497.69
416.713	501.69
416.936	473.69
417.159	524.69
417.382	495.69
417.605	477.69
417.828	499.69
418.051	529.69
418.274	514.69
418.497	491.69
418.72	501.69
418.943	471.69
419.166	531.69
419.389	539.69
419.611	530.69
419.834	519.69
420.057	522.69
420.28	489.69
420.503	491.69
420.726	475.69
420.948	489.69
421.171	481.69
421.394	467.69
421.617	490.69
421.839	488.69
422.062	506.69
422.285	490.69
422.507	489.69
422.73	488.69
422.953	509.69
423.175	476.69
423.398	498.69
423.621	510.69
423.843	525.69
424.066	489.69
424.288	484.69
424.511	476.69
424.733	471.69
424.956	498.69
425.178	498.69
425.401	496.69
425.623	495.69
425.846	510.69
426.068	490.69
426.291	461.69
426.513	482.69
426.735	491.69
426.958	477.69
427.18	478.69
427.402	495.69
427.625	485.69
427.847	483.69
428.069	480.69
428.292	474.69
428.514	473.69
428.736	502.69
428.958	495.69
429.181	457.69
429.403	447.69
429.625	480.69
429.847	461.69
430.069	468.69
430.292	481.69
430.514	478.69
430.736	482.69
430.958	478.69
431.18	451.69
431.402	473.69
431.624	489.69
431.846	460.69
432.068	465.69
432.29	463.69
432.512	458.69
432.734	470.69
432.956	480.69
433.178	484.69
433.4	492.69
433.622	463.69
433.844	484.69
434.066	482.69
434.287	477.69
434.509	467.69
434.731	470.69
434.953	476.69
435.175	493.69
435.397	484.69
435.618	480.69
435.84	497.69
436.062	470.69
436.284	471.69
436.505	491.69
436.727	461.69
436.949	465.69
437.17	467.69
437.392	486.69
437.614	482.69
437.835	465.69
438.057	464.69
438.278	479.69
438.5	452.69
438.721	469.69
438.943	471.69
439.165	455.69
439.386	451.69
439.608	458.69
439.829	463.69
440.05	475.69
440.272	458.69
440.493	477.69
440.715	504.69
440.936	491.69
441.158	464.69
441.379	481.69
441.6	483.69
441.822	483.69
442.043	497.69
442.264	479.69
442.486	492.69
442.707	506.69
442.928	486.69
443.149	495.69
443.371	497.69
443.592	488.69
443.813	472.69
444.034	479.69
444.255	482.69
444.476	500.69
444.698	500.69
444.919	524.69
445.14	591.69
445.361	553.69
445.582	497.69
445.803	492.69
446.024	482.69
446.245	467.69
446.466	475.69
446.687	467.69
446.908	474.69
447.129	456.69
447.35	453.69
447.571	464.69
447.792	460.69
448.013	458.69
448.234	463.69
448.455	452.69
448.675	458.69
448.896	442.69
449.117	442.69
449.338	465.69
449.559	437.69
449.779	461.69
450	456.69
450.221	475.69
450.442	422.69
450.662	433.69
450.883	438.69
451.104	448.69
451.324	431.69
451.545	452.69
451.766	429.69
451.986	432.69
452.207	437.69
452.428	442.69
452.648	427.69
452.869	437.69
453.089	422.69
453.31	415.69
453.53	434.69
453.751	413.69
453.971	441.69
454.192	437.69
454.412	438.69
454.633	434.69
454.853	417.69
455.073	433.69
455.294	416.69
455.514	433.69
455.734	429.69
455.955	435.69
456.175	434.69
456.395	434.69
456.616	422.69
456.836	428.69
457.056	434.69
457.276	423.69
457.497	444.69
457.717	439.69
457.937	442.69
458.157	445.69
458.377	458.69
458.598	429.69
458.818	455.69
459.038	447.69
459.258	457.69
459.478	468.69
459.698	490.69
459.918	479.69
460.138	440.69
460.358	464.69
460.578	509.69
460.798	513.69
461.018	502.69
461.238	524.69
461.458	503.69
461.678	499.69
461.898	517.69
462.118	520.69
462.338	521.69
462.558	545.69
462.777	531.69
462.997	556.69
463.217	547.69
463.437	553.69
463.657	555.69
463.876	559.69
464.096	534.69
464.316	533.69
464.536	531.69
464.755	520.69
464.975	532.69
465.195	529.69
465.414	516.69
465.634	515.69
465.854	490.69
466.073	490.69
466.293	501.69
466.512	489.69
466.732	475.69
466.951	477.69
467.171	483.69
467.391	475.69
467.61	496.69
467.829	462.69
468.049	469.69
468.268	446.69
468.488	447.69
468.707	469.69
468.927	469.69
469.146	472.69
469.365	475.69
469.585	460.69
469.804	463.69
470.023	464.69
470.243	500.69
470.462	484.69
470.681	466.69
470.901	472.69
471.12	478.69
471.339	491.69
471.558	445.69
471.777	473.69
471.997	468.69
472.216	467.69
472.435	476.69
472.654	455.69
472.873	476.69
473.092	477.69
473.311	477.69
473.53	467.69
473.749	481.69
473.968	479.69
474.187	451.69
474.406	498.69
474.625	484.69
474.844	490.69
475.063	479.69
475.282	506.69
475.501	482.69
475.72	487.69
475.939	476.69
476.158	482.69
476.377	499.69
476.596	489.69
476.814	520.69
477.033	512.69
477.252	503.69
477.471	504.69
477.69	508.69
477.908	534.69
478.127	560.69
478.346	539.69
478.564	545.69
478.783	535.69
479.002	555.69
479.22	559.69
479.439	566.69
479.658	569.69
479.876	541.69
480.095	563.69
480.313	588.69
480.532	574.69
480.751	568.69
480.969	581.69
481.188	569.69
481.406	555.69
481.624	567.69
481.843	550.69
482.061	556.69
482.28	580.69
482.498	588.69
482.717	571.69
482.935	594.69
483.153	575.69
483.372	570.69
483.59	567.69
483.808	568.69
484.027	568.69
484.245	597.69
484.463	555.69
484.681	591.69
484.9	563.69
485.118	552.69
485.336	580.69
485.554	563.69
485.772	573.69
485.99	592.69
486.209	571.69
486.427	587.69
486.645	563.69
486.863	569.69
487.081	577.69
487.299	585.69
487.517	582.69
487.735	584.69
487.953	580.69
488.171	593.69
488.389	599.69
488.607	589.69
488.825	555.69
489.043	569.69
489.261	572.69
489.479	578.69
489.696	608.69
489.914	589.69
490.132	589.69
490.35	597.69
490.568	563.69
490.786	590.69
491.003	588.69
491.221	588.69
491.439	575.69
491.657	591.69
491.874	577.69
492.092	623.69
492.31	623.69
492.527	616.69
492.745	597.69
492.963	603.69
493.18	593.69
493.398	618.69
493.615	592.69
493.833	614.69
494.05	604.69
494.268	608.69
494.485	608.69
494.703	602.69
494.92	585.69
495.138	603.69
495.355	619.69
495.573	614.69
495.79	621.69
496.008	642.69
496.225	635.69
496.442	636.69
496.66	638.69
496.877	662.69
497.094	635.69
497.312	647.69
497.529	670.69
497.746	674.69
497.963	671.69
498.181	697.69
498.398	726.69
498.615	730.69
498.832	743.69
499.049	756.69
499.267	780.69
499.484	825.69
499.701	826.69
499.918	865.69
500.135	888.69
500.352	905.69
500.569	929.69
500.786	939.69
501.003	922.69
501.22	896.69
501.437	857.69
501.654	810.69
501.871	801.69
