Data from Fe(NO3)3@0.1M.TitratingCurve.Agarose3%dH2O.NegLispCup.LampEnergy10.LIBS07252019_HRD10591_16-39-36-332.txt Node
Date: Thu Jul 25 16:39:36 EDT 2019
User: cochatt
Spectrometer: HR+D1059
Trigger mode: 1
Integration Time (sec): 1.000000E-1
Scans to average: 1
Electric dark correction enabled: true
Nonlinearity correction enabled: false
Boxcar width: 0
XAxis mode: Wavelengths
Number of Pixels in Spectrum: 2048
>>>>>Begin Spectral Data<<<<<
223.165	-3.06
223.4	-3.06
223.635	-3.06
223.869	-18.06
224.104	-14.06
224.338	-17.06
224.573	-32.06
224.808	-1.06
225.042	1.94
225.277	-7.06
225.511	-3.06
225.746	-12.06
225.98	16.94
226.215	16.94
226.449	13.94
226.683	6.94
226.918	25.94
227.152	24.94
227.387	33.94
227.621	48.94
227.856	41.94
228.09	36.94
228.324	64.94
228.559	52.94
228.793	57.94
229.027	95.94
229.262	73.94
229.496	83.94
229.73	85.94
229.964	100.94
230.199	97.94
230.433	80.94
230.667	98.94
230.901	91.94
231.136	102.94
231.37	113.94
231.604	89.94
231.838	89.94
232.072	113.94
232.306	104.94
232.541	103.94
232.775	109.94
233.009	106.94
233.243	116.94
233.477	99.94
233.711	110.94
233.945	104.94
234.179	117.94
234.413	105.94
234.647	112.94
234.881	120.94
235.115	109.94
235.349	108.94
235.583	112.94
235.817	112.94
236.051	115.94
236.285	105.94
236.519	121.94
236.753	104.94
236.987	134.94
237.221	115.94
237.455	125.94
237.689	118.94
237.922	110.94
238.156	114.94
238.39	122.94
238.624	106.94
238.858	121.94
239.091	108.94
239.325	124.94
239.559	118.94
239.793	108.94
240.027	106.94
240.26	128.94
240.494	126.94
240.728	121.94
240.961	122.94
241.195	128.94
241.429	125.94
241.662	105.94
241.896	120.94
242.13	112.94
242.363	130.94
242.597	144.94
242.83	145.94
243.064	118.94
243.298	136.94
243.531	137.94
243.765	113.94
243.998	147.94
244.232	136.94
244.465	120.94
244.699	133.94
244.932	137.94
245.166	135.94
245.399	132.94
245.633	133.94
245.866	141.94
246.099	157.94
246.333	147.94
246.566	148.94
246.8	137.94
247.033	143.94
247.266	150.94
247.5	140.94
247.733	151.94
247.966	152.94
248.2	157.94
248.433	139.94
248.666	154.94
248.899	154.94
249.133	154.94
249.366	155.94
249.599	162.94
249.832	130.94
250.066	160.94
250.299	141.94
250.532	157.94
250.765	162.94
250.998	153.94
251.231	159.94
251.465	169.94
251.698	158.94
251.931	157.94
252.164	169.94
252.397	161.94
252.63	175.94
252.863	167.94
253.096	165.94
253.329	168.94
253.562	165.94
253.795	182.94
254.028	158.94
254.261	158.94
254.494	181.94
254.727	177.94
254.96	179.94
255.193	161.94
255.426	167.94
255.659	158.94
255.892	191.94
256.124	168.94
256.357	168.94
256.59	181.94
256.823	185.94
257.056	184.94
257.289	167.94
257.521	176.94
257.754	186.94
257.987	180.94
258.22	183.94
258.452	170.94
258.685	198.94
258.918	192.94
259.151	181.94
259.383	175.94
259.616	193.94
259.849	186.94
260.081	186.94
260.314	200.94
260.547	191.94
260.779	192.94
261.012	204.94
261.244	165.94
261.477	188.94
261.71	182.94
261.942	193.94
262.175	201.94
262.407	185.94
262.64	201.94
262.872	179.94
263.105	207.94
263.337	197.94
263.57	215.94
263.802	203.94
264.035	199.94
264.267	191.94
264.499	212.94
264.732	212.94
264.964	197.94
265.197	202.94
265.429	213.94
265.661	208.94
265.894	194.94
266.126	205.94
266.358	202.94
266.591	197.94
266.823	205.94
267.055	219.94
267.287	215.94
267.52	215.94
267.752	216.94
267.984	222.94
268.216	205.94
268.448	199.94
268.681	205.94
268.913	227.94
269.145	235.94
269.377	215.94
269.609	214.94
269.841	223.94
270.073	214.94
270.306	207.94
270.538	227.94
270.77	231.94
271.002	219.94
271.234	220.94
271.466	212.94
271.698	217.94
271.93	214.94
272.162	231.94
272.394	224.94
272.626	229.94
272.858	238.94
273.09	238.94
273.322	238.94
273.553	233.94
273.785	245.94
274.017	231.94
274.249	238.94
274.481	224.94
274.713	244.94
274.945	246.94
275.176	235.94
275.408	234.94
275.64	246.94
275.872	240.94
276.104	240.94
276.335	243.94
276.567	250.94
276.799	228.94
277.031	236.94
277.262	241.94
277.494	226.94
277.726	233.94
277.957	244.94
278.189	234.94
278.421	233.94
278.652	254.94
278.884	243.94
279.115	234.94
279.347	249.94
279.579	258.94
279.81	257.94
280.042	257.94
280.273	256.94
280.505	244.94
280.736	277.94
280.968	253.94
281.199	288.94
281.431	244.94
281.662	262.94
281.894	269.94
282.125	268.94
282.356	253.94
282.588	269.94
282.819	268.94
283.051	257.94
283.282	260.94
283.513	261.94
283.745	266.94
283.976	266.94
284.207	262.94
284.439	259.94
284.67	270.94
284.901	279.94
285.132	259.94
285.364	283.94
285.595	281.94
285.826	278.94
286.057	282.94
286.288	274.94
286.52	275.94
286.751	264.94
286.982	277.94
287.213	276.94
287.444	290.94
287.675	274.94
287.906	277.94
288.138	284.94
288.369	282.94
288.6	279.94
288.831	306.94
289.062	277.94
289.293	291.94
289.524	296.94
289.755	283.94
289.986	284.94
290.217	295.94
290.448	284.94
290.679	287.94
290.91	296.94
291.141	298.94
291.371	295.94
291.602	300.94
291.833	273.94
292.064	289.94
292.295	282.94
292.526	302.94
292.757	281.94
292.987	279.94
293.218	286.94
293.449	301.94
293.68	307.94
293.91	305.94
294.141	279.94
294.372	296.94
294.603	279.94
294.833	287.94
295.064	296.94
295.295	286.94
295.525	296.94
295.756	308.94
295.987	293.94
296.217	313.94
296.448	300.94
296.679	304.94
296.909	304.94
297.14	305.94
297.37	311.94
297.601	306.94
297.831	307.94
298.062	319.94
298.292	318.94
298.523	321.94
298.753	309.94
298.984	312.94
299.214	317.94
299.445	326.94
299.675	317.94
299.905	313.94
300.136	315.94
300.366	300.94
300.597	319.94
300.827	323.94
301.057	321.94
301.288	321.94
301.518	325.94
301.748	333.94
301.979	337.94
302.209	332.94
302.439	340.94
302.669	343.94
302.9	312.94
303.13	320.94
303.36	325.94
303.59	325.94
303.82	318.94
304.051	326.94
304.281	323.94
304.511	313.94
304.741	321.94
304.971	319.94
305.201	341.94
305.431	326.94
305.661	336.94
305.891	325.94
306.121	300.94
306.352	323.94
306.582	326.94
306.812	327.94
307.042	328.94
307.272	326.94
307.502	320.94
307.731	340.94
307.961	342.94
308.191	324.94
308.421	318.94
308.651	331.94
308.881	335.94
309.111	327.94
309.341	329.94
309.571	334.94
309.8	333.94
310.03	327.94
310.26	328.94
310.49	343.94
310.72	361.94
310.949	329.94
311.179	340.94
311.409	350.94
311.639	329.94
311.868	311.94
312.098	341.94
312.328	340.94
312.557	355.94
312.787	329.94
313.017	344.94
313.246	339.94
313.476	355.94
313.706	330.94
313.935	337.94
314.165	345.94
314.394	348.94
314.624	343.94
314.853	350.94
315.083	347.94
315.312	361.94
315.542	367.94
315.771	352.94
316.001	329.94
316.23	354.94
316.46	358.94
316.689	353.94
316.919	319.94
317.148	346.94
317.377	342.94
317.607	333.94
317.836	337.94
318.065	351.94
318.295	350.94
318.524	349.94
318.753	344.94
318.983	337.94
319.212	348.94
319.441	337.94
319.67	341.94
319.9	357.94
320.129	351.94
320.358	361.94
320.587	348.94
320.816	340.94
321.046	347.94
321.275	350.94
321.504	351.94
321.733	342.94
321.962	349.94
322.191	369.94
322.42	369.94
322.649	335.94
322.878	353.94
323.108	373.94
323.337	371.94
323.566	367.94
323.795	355.94
324.024	368.94
324.253	347.94
324.482	354.94
324.71	353.94
324.939	361.94
325.168	381.94
325.397	378.94
325.626	381.94
325.855	362.94
326.084	376.94
326.313	382.94
326.542	386.94
326.77	395.94
326.999	386.94
327.228	386.94
327.457	392.94
327.686	384.94
327.914	371.94
328.143	357.94
328.372	375.94
328.6	387.94
328.829	392.94
329.058	384.94
329.287	384.94
329.515	393.94
329.744	402.94
329.972	387.94
330.201	393.94
330.43	401.94
330.658	384.94
330.887	372.94
331.115	400.94
331.344	387.94
331.572	384.94
331.801	400.94
332.03	421.94
332.258	408.94
332.486	437.94
332.715	423.94
332.943	444.94
333.172	476.94
333.4	447.94
333.629	480.94
333.857	492.94
334.085	488.94
334.314	473.94
334.542	453.94
334.771	472.94
334.999	470.94
335.227	450.94
335.455	468.94
335.684	503.94
335.912	474.94
336.14	456.94
336.369	463.94
336.597	483.94
336.825	467.94
337.053	445.94
337.281	434.94
337.51	437.94
337.738	444.94
337.966	437.94
338.194	426.94
338.422	420.94
338.65	410.94
338.878	420.94
339.106	401.94
339.334	435.94
339.562	392.94
339.79	421.94
340.018	399.94
340.246	407.94
340.474	377.94
340.702	413.94
340.93	390.94
341.158	391.94
341.386	407.94
341.614	406.94
341.842	385.94
342.07	383.94
342.298	399.94
342.526	407.94
342.754	401.94
342.981	397.94
343.209	401.94
343.437	423.94
343.665	446.94
343.893	468.94
344.12	464.94
344.348	458.94
344.576	436.94
344.804	450.94
345.031	419.94
345.259	431.94
345.487	401.94
345.714	408.94
345.942	406.94
346.17	395.94
346.397	419.94
346.625	395.94
346.853	377.94
347.08	385.94
347.308	399.94
347.535	381.94
347.763	400.94
347.99	405.94
348.218	389.94
348.445	416.94
348.673	385.94
348.9	400.94
349.128	392.94
349.355	392.94
349.583	375.94
349.81	391.94
350.037	403.94
350.265	394.94
350.492	377.94
350.72	389.94
350.947	382.94
351.174	401.94
351.402	379.94
351.629	371.94
351.856	373.94
352.083	392.94
352.311	380.94
352.538	387.94
352.765	380.94
352.992	390.94
353.22	362.94
353.447	375.94
353.674	383.94
353.901	388.94
354.128	383.94
354.355	377.94
354.583	391.94
354.81	385.94
355.037	395.94
355.264	388.94
355.491	376.94
355.718	397.94
355.945	395.94
356.172	385.94
356.399	402.94
356.626	382.94
356.853	380.94
357.08	373.94
357.307	371.94
357.534	404.94
357.761	390.94
357.988	391.94
358.215	384.94
358.441	372.94
358.668	374.94
358.895	380.94
359.122	364.94
359.349	354.94
359.576	370.94
359.802	365.94
360.029	370.94
360.256	385.94
360.483	365.94
360.709	396.94
360.936	391.94
361.163	388.94
361.39	391.94
361.616	378.94
361.843	390.94
362.07	391.94
362.296	378.94
362.523	401.94
362.749	374.94
362.976	391.94
363.203	369.94
363.429	353.94
363.656	377.94
363.882	386.94
364.109	382.94
364.335	374.94
364.562	397.94
364.788	380.94
365.015	409.94
365.241	373.94
365.468	402.94
365.694	404.94
365.92	378.94
366.147	376.94
366.373	386.94
366.599	394.94
366.826	387.94
367.052	391.94
367.278	408.94
367.505	393.94
367.731	405.94
367.957	390.94
368.184	392.94
368.41	396.94
368.636	388.94
368.862	378.94
369.089	421.94
369.315	407.94
369.541	408.94
369.767	423.94
369.993	407.94
370.219	416.94
370.445	402.94
370.672	423.94
370.898	394.94
371.124	413.94
371.35	418.94
371.576	410.94
371.802	415.94
372.028	425.94
372.254	425.94
372.48	432.94
372.706	430.94
372.932	432.94
373.158	441.94
373.384	441.94
373.61	424.94
373.835	437.94
374.061	421.94
374.287	435.94
374.513	438.94
374.739	452.94
374.965	438.94
375.191	456.94
375.416	462.94
375.642	454.94
375.868	462.94
376.094	450.94
376.319	439.94
376.545	433.94
376.771	413.94
376.997	438.94
377.222	425.94
377.448	414.94
377.674	408.94
377.899	418.94
378.125	405.94
378.35	442.94
378.576	412.94
378.802	413.94
379.027	434.94
379.253	428.94
379.478	414.94
379.704	434.94
379.929	429.94
380.155	412.94
380.38	438.94
380.606	420.94
380.831	440.94
381.057	452.94
381.282	429.94
381.507	436.94
381.733	429.94
381.958	425.94
382.184	447.94
382.409	437.94
382.634	451.94
382.86	465.94
383.085	444.94
383.31	453.94
383.535	452.94
383.761	474.94
383.986	467.94
384.211	486.94
384.436	495.94
384.662	487.94
384.887	466.94
385.112	486.94
385.337	513.94
385.562	511.94
385.787	496.94
386.013	502.94
386.238	504.94
386.463	505.94
386.688	504.94
386.913	517.94
387.138	496.94
387.363	486.94
387.588	493.94
387.813	492.94
388.038	499.94
388.263	497.94
388.488	511.94
388.713	503.94
388.938	523.94
389.163	493.94
389.387	520.94
389.612	503.94
389.837	502.94
390.062	509.94
390.287	535.94
390.512	524.94
390.736	543.94
390.961	523.94
391.186	538.94
391.411	538.94
391.636	565.94
391.86	564.94
392.085	550.94
392.31	564.94
392.534	564.94
392.759	558.94
392.984	562.94
393.208	540.94
393.433	542.94
393.658	542.94
393.882	540.94
394.107	553.94
394.331	556.94
394.556	550.94
394.78	540.94
395.005	568.94
395.229	537.94
395.454	574.94
395.678	545.94
395.903	558.94
396.127	572.94
396.352	535.94
396.576	551.94
396.801	567.94
397.025	548.94
397.249	579.94
397.474	589.94
397.698	583.94
397.922	607.94
398.147	580.94
398.371	612.94
398.595	605.94
398.82	634.94
399.044	660.94
399.268	709.94
399.492	796.94
399.717	838.94
399.941	845.94
400.165	796.94
400.389	733.94
400.613	696.94
400.837	666.94
401.062	659.94
401.286	641.94
401.51	651.94
401.734	658.94
401.958	650.94
402.182	646.94
402.406	665.94
402.63	649.94
402.854	638.94
403.078	639.94
403.302	657.94
403.526	670.94
403.75	680.94
403.974	683.94
404.198	693.94
404.422	670.94
404.645	691.94
404.869	689.94
405.093	693.94
405.317	709.94
405.541	693.94
405.765	693.94
405.988	686.94
406.212	695.94
406.436	682.94
406.66	704.94
406.883	695.94
407.107	732.94
407.331	762.94
407.555	788.94
407.778	779.94
408.002	781.94
408.226	744.94
408.449	753.94
408.673	727.94
408.896	701.94
409.12	707.94
409.344	713.94
409.567	711.94
409.791	714.94
410.014	711.94
410.238	698.94
410.461	716.94
410.685	708.94
410.908	704.94
411.132	689.94
411.355	677.94
411.578	681.94
411.802	673.94
412.025	677.94
412.249	686.94
412.472	672.94
412.695	672.94
412.919	662.94
413.142	688.94
413.365	640.94
413.589	646.94
413.812	644.94
414.035	624.94
414.258	632.94
414.482	650.94
414.705	664.94
414.928	657.94
415.151	657.94
415.374	659.94
415.597	661.94
415.821	648.94
416.044	645.94
416.267	600.94
416.49	630.94
416.713	643.94
416.936	620.94
417.159	632.94
417.382	644.94
417.605	614.94
417.828	632.94
418.051	626.94
418.274	635.94
418.497	638.94
418.72	657.94
418.943	640.94
419.166	677.94
419.389	704.94
419.611	693.94
419.834	660.94
420.057	639.94
420.28	646.94
420.503	625.94
420.726	601.94
420.948	631.94
421.171	634.94
421.394	628.94
421.617	650.94
421.839	628.94
422.062	634.94
422.285	636.94
422.507	656.94
422.73	637.94
422.953	634.94
423.175	622.94
423.398	659.94
423.621	650.94
423.843	646.94
424.066	649.94
424.288	631.94
424.511	646.94
424.733	640.94
424.956	620.94
425.178	636.94
425.401	651.94
425.623	633.94
425.846	636.94
426.068	605.94
426.291	609.94
426.513	608.94
426.735	597.94
426.958	598.94
427.18	599.94
427.402	596.94
427.625	587.94
427.847	590.94
428.069	585.94
428.292	598.94
428.514	568.94
428.736	596.94
428.958	583.94
429.181	582.94
429.403	574.94
429.625	591.94
429.847	567.94
430.069	567.94
430.292	582.94
430.514	567.94
430.736	587.94
430.958	572.94
431.18	573.94
431.402	602.94
431.624	577.94
431.846	574.94
432.068	567.94
432.29	582.94
432.512	572.94
432.734	614.94
432.956	571.94
433.178	586.94
433.4	593.94
433.622	608.94
433.844	605.94
434.066	609.94
434.287	608.94
434.509	599.94
434.731	629.94
434.953	624.94
435.175	621.94
435.397	640.94
435.618	600.94
435.84	604.94
436.062	602.94
436.284	596.94
436.505	582.94
436.727	582.94
436.949	600.94
437.17	586.94
437.392	580.94
437.614	581.94
437.835	582.94
438.057	573.94
438.278	569.94
438.5	574.94
438.721	566.94
438.943	592.94
439.165	563.94
439.386	573.94
439.608	577.94
439.829	580.94
440.05	553.94
440.272	576.94
440.493	574.94
440.715	593.94
440.936	606.94
441.158	611.94
441.379	630.94
441.6	669.94
441.822	646.94
442.043	636.94
442.264	616.94
442.486	600.94
442.707	631.94
442.928	636.94
443.149	637.94
443.371	633.94
443.592	637.94
443.813	630.94
444.034	653.94
444.255	650.94
444.476	677.94
444.698	696.94
444.919	714.94
445.14	792.94
445.361	742.94
445.582	684.94
445.803	669.94
446.024	640.94
446.245	615.94
446.466	616.94
446.687	581.94
446.908	597.94
447.129	601.94
447.35	595.94
447.571	575.94
447.792	587.94
448.013	572.94
448.234	560.94
448.455	549.94
448.675	542.94
448.896	554.94
449.117	528.94
449.338	560.94
449.559	515.94
449.779	549.94
450	518.94
450.221	545.94
450.442	547.94
450.662	552.94
450.883	566.94
451.104	547.94
451.324	537.94
451.545	548.94
451.766	533.94
451.986	513.94
452.207	524.94
452.428	540.94
452.648	526.94
452.869	532.94
453.089	508.94
453.31	513.94
453.53	523.94
453.751	512.94
453.971	516.94
454.192	507.94
454.412	520.94
454.633	510.94
454.853	512.94
455.073	516.94
455.294	532.94
455.514	503.94
455.734	506.94
455.955	502.94
456.175	497.94
456.395	486.94
456.616	508.94
456.836	528.94
457.056	531.94
457.276	512.94
457.497	533.94
457.717	520.94
457.937	514.94
458.157	534.94
458.377	537.94
458.598	536.94
458.818	531.94
459.038	553.94
459.258	566.94
459.478	572.94
459.698	607.94
459.918	613.94
460.138	623.94
460.358	642.94
460.578	641.94
460.798	668.94
461.018	663.94
461.238	671.94
461.458	661.94
461.678	669.94
461.898	680.94
462.118	684.94
462.338	710.94
462.558	714.94
462.777	729.94
462.997	797.94
463.217	797.94
463.437	808.94
463.657	794.94
463.876	782.94
464.096	759.94
464.316	770.94
464.536	754.94
464.755	738.94
464.975	720.94
465.195	701.94
465.414	641.94
465.634	651.94
465.854	629.94
466.073	598.94
466.293	586.94
466.512	567.94
466.732	579.94
466.951	558.94
467.171	567.94
467.391	559.94
467.61	562.94
467.829	547.94
468.049	545.94
468.268	563.94
468.488	538.94
468.707	539.94
468.927	551.94
469.146	536.94
469.365	537.94
469.585	539.94
469.804	561.94
470.023	567.94
470.243	567.94
470.462	573.94
470.681	595.94
470.901	567.94
471.12	568.94
471.339	573.94
471.558	540.94
471.777	538.94
471.997	548.94
472.216	548.94
472.435	534.94
472.654	549.94
472.873	530.94
473.092	529.94
473.311	530.94
473.53	549.94
473.749	527.94
473.968	545.94
474.187	546.94
474.406	538.94
474.625	534.94
474.844	512.94
475.063	510.94
475.282	513.94
475.501	523.94
475.72	525.94
475.939	536.94
476.158	542.94
476.377	556.94
476.596	550.94
476.814	569.94
477.033	525.94
477.252	552.94
477.471	586.94
477.69	585.94
477.908	609.94
478.127	632.94
478.346	600.94
478.564	616.94
478.783	616.94
479.002	628.94
479.22	628.94
479.439	613.94
479.658	633.94
479.876	646.94
480.095	638.94
480.313	662.94
480.532	673.94
480.751	688.94
480.969	640.94
481.188	636.94
481.406	612.94
481.624	622.94
481.843	603.94
482.061	595.94
482.28	597.94
482.498	597.94
482.717	593.94
482.935	607.94
483.153	610.94
483.372	609.94
483.59	602.94
483.808	624.94
484.027	605.94
484.245	618.94
484.463	587.94
484.681	624.94
484.9	624.94
485.118	626.94
485.336	620.94
485.554	618.94
485.772	620.94
485.99	638.94
486.209	626.94
486.427	630.94
486.645	631.94
486.863	621.94
487.081	646.94
487.299	617.94
487.517	603.94
487.735	634.94
487.953	625.94
488.171	601.94
488.389	640.94
488.607	626.94
488.825	610.94
489.043	607.94
489.261	599.94
489.479	615.94
489.696	625.94
489.914	608.94
490.132	646.94
490.35	617.94
490.568	617.94
490.786	597.94
491.003	616.94
491.221	644.94
491.439	634.94
491.657	658.94
491.874	661.94
492.092	642.94
492.31	651.94
492.527	624.94
492.745	646.94
492.963	656.94
493.18	656.94
493.398	650.94
493.615	639.94
493.833	654.94
494.05	648.94
494.268	648.94
494.485	663.94
494.703	646.94
494.92	663.94
495.138	655.94
495.355	652.94
495.573	674.94
495.79	676.94
496.008	675.94
496.225	679.94
496.442	686.94
496.66	697.94
496.877	686.94
497.094	682.94
497.312	713.94
497.529	723.94
497.746	783.94
497.963	743.94
498.181	784.94
498.398	825.94
498.615	863.94
498.832	921.94
499.049	965.94
499.267	1029.94
499.484	1102.94
499.701	1208.94
499.918	1283.94
500.135	1409.94
500.352	1550.94
500.569	1563.94
500.786	1564.94
501.003	1495.94
501.22	1388.94
501.437	1222.94
501.654	1137.94
