Data from Fe(NO3)3@0.0125M.TitratingCurve.Agarose3%dH2O.NegLispCup.LampEnergy10.LIBS07252019_HRD10591_16-59-12-336.txt Node
Date: Thu Jul 25 16:59:12 EDT 2019
User: cochatt
Spectrometer: HR+D1059
Trigger mode: 1
Integration Time (sec): 1.000000E-1
Scans to average: 1
Electric dark correction enabled: true
Nonlinearity correction enabled: false
Boxcar width: 0
XAxis mode: Wavelengths
Number of Pixels in Spectrum: 2048
>>>>>Begin Spectral Data<<<<<
223.165	-27.44
223.4	-27.44
223.635	-27.44
223.869	-16.44
224.104	-8.44
224.338	-17.44
224.573	-9.44
224.808	-21.44
225.042	-16.44
225.277	11.56
225.511	-1.44
225.746	7.56
225.98	8.56
226.215	14.56
226.449	12.56
226.683	18.56
226.918	19.56
227.152	25.56
227.387	23.56
227.621	35.56
227.856	42.56
228.09	30.56
228.324	61.56
228.559	57.56
228.793	72.56
229.027	86.56
229.262	90.56
229.496	93.56
229.73	94.56
229.964	92.56
230.199	98.56
230.433	110.56
230.667	115.56
230.901	109.56
231.136	109.56
231.37	99.56
231.604	100.56
231.838	110.56
232.072	114.56
232.306	92.56
232.541	114.56
232.775	116.56
233.009	117.56
233.243	133.56
233.477	111.56
233.711	121.56
233.945	121.56
234.179	111.56
234.413	124.56
234.647	127.56
234.881	105.56
235.115	121.56
235.349	118.56
235.583	133.56
235.817	101.56
236.051	106.56
236.285	123.56
236.519	121.56
236.753	118.56
236.987	130.56
237.221	129.56
237.455	121.56
237.689	119.56
237.922	125.56
238.156	138.56
238.39	134.56
238.624	126.56
238.858	120.56
239.091	122.56
239.325	125.56
239.559	131.56
239.793	138.56
240.027	133.56
240.26	131.56
240.494	149.56
240.728	125.56
240.961	136.56
241.195	130.56
241.429	143.56
241.662	145.56
241.896	147.56
242.13	143.56
242.363	142.56
242.597	144.56
242.83	144.56
243.064	167.56
243.298	129.56
243.531	131.56
243.765	154.56
243.998	153.56
244.232	168.56
244.465	159.56
244.699	149.56
244.932	141.56
245.166	165.56
245.399	151.56
245.633	142.56
245.866	151.56
246.099	144.56
246.333	139.56
246.566	157.56
246.8	159.56
247.033	158.56
247.266	159.56
247.5	161.56
247.733	147.56
247.966	163.56
248.2	170.56
248.433	178.56
248.666	164.56
248.899	177.56
249.133	173.56
249.366	184.56
249.599	154.56
249.832	173.56
250.066	167.56
250.299	168.56
250.532	164.56
250.765	173.56
250.998	169.56
251.231	167.56
251.465	187.56
251.698	189.56
251.931	170.56
252.164	167.56
252.397	180.56
252.63	183.56
252.863	171.56
253.096	201.56
253.329	183.56
253.562	180.56
253.795	206.56
254.028	186.56
254.261	194.56
254.494	171.56
254.727	194.56
254.96	188.56
255.193	204.56
255.426	201.56
255.659	176.56
255.892	190.56
256.124	188.56
256.357	201.56
256.59	185.56
256.823	203.56
257.056	206.56
257.289	205.56
257.521	194.56
257.754	192.56
257.987	204.56
258.22	192.56
258.452	196.56
258.685	194.56
258.918	200.56
259.151	210.56
259.383	204.56
259.616	195.56
259.849	221.56
260.081	249.56
260.314	201.56
260.547	215.56
260.779	215.56
261.012	216.56
261.244	208.56
261.477	227.56
261.71	215.56
261.942	223.56
262.175	210.56
262.407	214.56
262.64	210.56
262.872	220.56
263.105	208.56
263.337	214.56
263.57	217.56
263.802	215.56
264.035	238.56
264.267	226.56
264.499	218.56
264.732	235.56
264.964	232.56
265.197	231.56
265.429	241.56
265.661	234.56
265.894	222.56
266.126	243.56
266.358	230.56
266.591	241.56
266.823	245.56
267.055	222.56
267.287	245.56
267.52	245.56
267.752	219.56
267.984	243.56
268.216	234.56
268.448	249.56
268.681	259.56
268.913	241.56
269.145	252.56
269.377	257.56
269.609	257.56
269.841	263.56
270.073	254.56
270.306	273.56
270.538	247.56
270.77	266.56
271.002	254.56
271.234	262.56
271.466	262.56
271.698	247.56
271.93	267.56
272.162	270.56
272.394	277.56
272.626	262.56
272.858	262.56
273.09	277.56
273.322	288.56
273.553	283.56
273.785	274.56
274.017	274.56
274.249	283.56
274.481	281.56
274.713	305.56
274.945	300.56
275.176	300.56
275.408	286.56
275.64	291.56
275.872	287.56
276.104	278.56
276.335	290.56
276.567	282.56
276.799	303.56
277.031	265.56
277.262	281.56
277.494	310.56
277.726	307.56
277.957	297.56
278.189	295.56
278.421	307.56
278.652	295.56
278.884	307.56
279.115	299.56
279.347	319.56
279.579	302.56
279.81	305.56
280.042	305.56
280.273	309.56
280.505	316.56
280.736	314.56
280.968	314.56
281.199	313.56
281.431	339.56
281.662	323.56
281.894	331.56
282.125	312.56
282.356	328.56
282.588	332.56
282.819	310.56
283.051	323.56
283.282	310.56
283.513	327.56
283.745	320.56
283.976	326.56
284.207	325.56
284.439	338.56
284.67	340.56
284.901	345.56
285.132	342.56
285.364	345.56
285.595	340.56
285.826	314.56
286.057	343.56
286.288	347.56
286.52	336.56
286.751	343.56
286.982	351.56
287.213	325.56
287.444	354.56
287.675	360.56
287.906	360.56
288.138	348.56
288.369	353.56
288.6	361.56
288.831	363.56
289.062	358.56
289.293	348.56
289.524	343.56
289.755	370.56
289.986	348.56
290.217	367.56
290.448	361.56
290.679	350.56
290.91	353.56
291.141	356.56
291.371	371.56
291.602	387.56
291.833	373.56
292.064	377.56
292.295	359.56
292.526	364.56
292.757	352.56
292.987	380.56
293.218	371.56
293.449	373.56
293.68	364.56
293.91	387.56
294.141	377.56
294.372	366.56
294.603	371.56
294.833	363.56
295.064	371.56
295.295	380.56
295.525	398.56
295.756	385.56
295.987	381.56
296.217	388.56
296.448	384.56
296.679	385.56
296.909	387.56
297.14	403.56
297.37	407.56
297.601	394.56
297.831	393.56
298.062	394.56
298.292	388.56
298.523	396.56
298.753	398.56
298.984	387.56
299.214	397.56
299.445	395.56
299.675	390.56
299.905	405.56
300.136	391.56
300.366	400.56
300.597	392.56
300.827	419.56
301.057	404.56
301.288	405.56
301.518	403.56
301.748	412.56
301.979	431.56
302.209	438.56
302.439	426.56
302.669	434.56
302.9	420.56
303.13	422.56
303.36	422.56
303.59	443.56
303.82	437.56
304.051	428.56
304.281	454.56
304.511	445.56
304.741	436.56
304.971	400.56
305.201	426.56
305.431	434.56
305.661	426.56
305.891	419.56
306.121	442.56
306.352	467.56
306.582	433.56
306.812	439.56
307.042	446.56
307.272	453.56
307.502	469.56
307.731	445.56
307.961	440.56
308.191	439.56
308.421	440.56
308.651	443.56
308.881	436.56
309.111	444.56
309.341	417.56
309.571	461.56
309.8	450.56
310.03	446.56
310.26	438.56
310.49	439.56
310.72	458.56
310.949	461.56
311.179	449.56
311.409	419.56
311.639	462.56
311.868	458.56
312.098	460.56
312.328	468.56
312.557	471.56
312.787	485.56
313.017	457.56
313.246	474.56
313.476	465.56
313.706	477.56
313.935	482.56
314.165	466.56
314.394	479.56
314.624	490.56
314.853	465.56
315.083	461.56
315.312	478.56
315.542	489.56
315.771	479.56
316.001	466.56
316.23	476.56
316.46	494.56
316.689	497.56
316.919	496.56
317.148	502.56
317.377	497.56
317.607	492.56
317.836	497.56
318.065	517.56
318.295	486.56
318.524	531.56
318.753	517.56
318.983	497.56
319.212	526.56
319.441	519.56
319.67	505.56
319.9	501.56
320.129	511.56
320.358	502.56
320.587	513.56
320.816	506.56
321.046	523.56
321.275	511.56
321.504	500.56
321.733	521.56
321.962	513.56
322.191	516.56
322.42	515.56
322.649	519.56
322.878	539.56
323.108	513.56
323.337	525.56
323.566	531.56
323.795	523.56
324.024	546.56
324.253	524.56
324.482	549.56
324.71	551.56
324.939	533.56
325.168	527.56
325.397	519.56
325.626	535.56
325.855	554.56
326.084	531.56
326.313	530.56
326.542	520.56
326.77	570.56
326.999	561.56
327.228	576.56
327.457	550.56
327.686	556.56
327.914	556.56
328.143	558.56
328.372	545.56
328.6	550.56
328.829	549.56
329.058	560.56
329.287	545.56
329.515	557.56
329.744	549.56
329.972	551.56
330.201	541.56
330.43	548.56
330.658	572.56
330.887	585.56
331.115	564.56
331.344	565.56
331.572	565.56
331.801	561.56
332.03	566.56
332.258	565.56
332.486	572.56
332.715	586.56
332.943	565.56
333.172	562.56
333.4	557.56
333.629	597.56
333.857	588.56
334.085	591.56
334.314	601.56
334.542	604.56
334.771	582.56
334.999	583.56
335.227	597.56
335.455	598.56
335.684	585.56
335.912	598.56
336.14	608.56
336.369	595.56
336.597	602.56
336.825	588.56
337.053	605.56
337.281	575.56
337.51	580.56
337.738	582.56
337.966	587.56
338.194	605.56
338.422	599.56
338.65	587.56
338.878	583.56
339.106	596.56
339.334	589.56
339.562	586.56
339.79	582.56
340.018	584.56
340.246	573.56
340.474	602.56
340.702	589.56
340.93	597.56
341.158	596.56
341.386	595.56
341.614	603.56
341.842	583.56
342.07	591.56
342.298	594.56
342.526	595.56
342.754	588.56
342.981	594.56
343.209	579.56
343.437	585.56
343.665	576.56
343.893	592.56
344.12	601.56
344.348	605.56
344.576	612.56
344.804	596.56
345.031	592.56
345.259	588.56
345.487	593.56
345.714	563.56
345.942	587.56
346.17	599.56
346.397	602.56
346.625	568.56
346.853	573.56
347.08	572.56
347.308	555.56
347.535	581.56
347.763	570.56
347.99	580.56
348.218	596.56
348.445	581.56
348.673	595.56
348.9	580.56
349.128	585.56
349.355	584.56
349.583	585.56
349.81	579.56
350.037	569.56
350.265	576.56
350.492	556.56
350.72	586.56
350.947	579.56
351.174	581.56
351.402	603.56
351.629	576.56
351.856	582.56
352.083	586.56
352.311	561.56
352.538	583.56
352.765	578.56
352.992	568.56
353.22	580.56
353.447	575.56
353.674	574.56
353.901	556.56
354.128	578.56
354.355	565.56
354.583	571.56
354.81	579.56
355.037	577.56
355.264	596.56
355.491	581.56
355.718	571.56
355.945	571.56
356.172	586.56
356.399	573.56
356.626	605.56
356.853	600.56
357.08	593.56
357.307	581.56
357.534	586.56
357.761	585.56
357.988	588.56
358.215	573.56
358.441	577.56
358.668	570.56
358.895	589.56
359.122	580.56
359.349	573.56
359.576	570.56
359.802	558.56
360.029	595.56
360.256	601.56
360.483	580.56
360.709	596.56
360.936	570.56
361.163	571.56
361.39	571.56
361.616	572.56
361.843	566.56
362.07	607.56
362.296	579.56
362.523	595.56
362.749	595.56
362.976	604.56
363.203	589.56
363.429	615.56
363.656	592.56
363.882	595.56
364.109	607.56
364.335	607.56
364.562	587.56
364.788	587.56
365.015	615.56
365.241	585.56
365.468	583.56
365.694	609.56
365.92	593.56
366.147	617.56
366.373	584.56
366.599	576.56
366.826	601.56
367.052	589.56
367.278	590.56
367.505	608.56
367.731	613.56
367.957	613.56
368.184	607.56
368.41	611.56
368.636	626.56
368.862	606.56
369.089	606.56
369.315	621.56
369.541	609.56
369.767	620.56
369.993	622.56
370.219	607.56
370.445	620.56
370.672	634.56
370.898	619.56
371.124	617.56
371.35	646.56
371.576	627.56
371.802	624.56
372.028	633.56
372.254	610.56
372.48	637.56
372.706	605.56
372.932	629.56
373.158	619.56
373.384	627.56
373.61	630.56
373.835	641.56
374.061	637.56
374.287	626.56
374.513	629.56
374.739	639.56
374.965	633.56
375.191	626.56
375.416	632.56
375.642	627.56
375.868	642.56
376.094	615.56
376.319	630.56
376.545	634.56
376.771	616.56
376.997	632.56
377.222	645.56
377.448	632.56
377.674	633.56
377.899	603.56
378.125	629.56
378.35	649.56
378.576	616.56
378.802	611.56
379.027	622.56
379.253	653.56
379.478	622.56
379.704	638.56
379.929	621.56
380.155	605.56
380.38	637.56
380.606	619.56
380.831	623.56
381.057	641.56
381.282	639.56
381.507	636.56
381.733	637.56
381.958	637.56
382.184	638.56
382.409	631.56
382.634	654.56
382.86	618.56
383.085	635.56
383.31	620.56
383.535	654.56
383.761	654.56
383.986	643.56
384.211	645.56
384.436	648.56
384.662	645.56
384.887	661.56
385.112	668.56
385.337	668.56
385.562	659.56
385.787	663.56
386.013	673.56
386.238	677.56
386.463	680.56
386.688	665.56
386.913	638.56
387.138	657.56
387.363	689.56
387.588	666.56
387.813	700.56
388.038	676.56
388.263	681.56
388.488	658.56
388.713	693.56
388.938	691.56
389.163	659.56
389.387	665.56
389.612	668.56
389.837	690.56
390.062	671.56
390.287	683.56
390.512	659.56
390.736	687.56
390.961	672.56
391.186	671.56
391.411	704.56
391.636	671.56
391.86	701.56
392.085	699.56
392.31	702.56
392.534	684.56
392.759	682.56
392.984	696.56
393.208	696.56
393.433	699.56
393.658	692.56
393.882	670.56
394.107	686.56
394.331	681.56
394.556	695.56
394.78	683.56
395.005	685.56
395.229	707.56
395.454	692.56
395.678	682.56
395.903	685.56
396.127	706.56
396.352	687.56
396.576	710.56
396.801	733.56
397.025	718.56
397.249	700.56
397.474	717.56
397.698	702.56
397.922	713.56
398.147	709.56
398.371	738.56
398.595	713.56
398.82	715.56
399.044	737.56
399.268	744.56
399.492	742.56
399.717	765.56
399.941	782.56
400.165	791.56
400.389	771.56
400.613	738.56
400.837	741.56
401.062	759.56
401.286	740.56
401.51	759.56
401.734	748.56
401.958	761.56
402.182	743.56
402.406	721.56
402.63	733.56
402.854	729.56
403.078	748.56
403.302	733.56
403.526	753.56
403.75	714.56
403.974	722.56
404.198	731.56
404.422	737.56
404.645	714.56
404.869	726.56
405.093	756.56
405.317	732.56
405.541	759.56
405.765	744.56
405.988	746.56
406.212	758.56
406.436	767.56
406.66	777.56
406.883	741.56
407.107	792.56
407.331	792.56
407.555	795.56
407.778	770.56
408.002	760.56
408.226	785.56
408.449	818.56
408.673	767.56
408.896	786.56
409.12	781.56
409.344	778.56
409.567	768.56
409.791	761.56
410.014	776.56
410.238	748.56
410.461	753.56
410.685	759.56
410.908	759.56
411.132	749.56
411.355	756.56
411.578	734.56
411.802	753.56
412.025	740.56
412.249	743.56
412.472	759.56
412.695	733.56
412.919	737.56
413.142	720.56
413.365	733.56
413.589	725.56
413.812	720.56
414.035	737.56
414.258	732.56
414.482	725.56
414.705	719.56
414.928	724.56
415.151	716.56
415.374	743.56
415.597	733.56
415.821	718.56
416.044	700.56
416.267	729.56
416.49	726.56
416.713	726.56
416.936	716.56
417.159	714.56
417.382	714.56
417.605	717.56
417.828	713.56
418.051	726.56
418.274	708.56
418.497	701.56
418.72	702.56
418.943	672.56
419.166	723.56
419.389	743.56
419.611	741.56
419.834	741.56
420.057	715.56
420.28	694.56
420.503	694.56
420.726	707.56
420.948	686.56
421.171	685.56
421.394	717.56
421.617	704.56
421.839	689.56
422.062	689.56
422.285	680.56
422.507	693.56
422.73	697.56
422.953	679.56
423.175	692.56
423.398	710.56
423.621	694.56
423.843	710.56
424.066	702.56
424.288	677.56
424.511	675.56
424.733	694.56
424.956	684.56
425.178	695.56
425.401	675.56
425.623	699.56
425.846	670.56
426.068	685.56
426.291	693.56
426.513	683.56
426.735	689.56
426.958	686.56
427.18	682.56
427.402	704.56
427.625	698.56
427.847	677.56
428.069	699.56
428.292	691.56
428.514	697.56
428.736	701.56
428.958	697.56
429.181	678.56
429.403	696.56
429.625	699.56
429.847	685.56
430.069	713.56
430.292	673.56
430.514	684.56
430.736	695.56
430.958	699.56
431.18	652.56
431.402	687.56
431.624	685.56
431.846	676.56
432.068	670.56
432.29	700.56
432.512	681.56
432.734	708.56
432.956	670.56
433.178	687.56
433.4	700.56
433.622	677.56
433.844	705.56
434.066	677.56
434.287	676.56
434.509	687.56
434.731	682.56
434.953	679.56
435.175	691.56
435.397	681.56
435.618	679.56
435.84	690.56
436.062	671.56
436.284	675.56
436.505	679.56
436.727	683.56
436.949	687.56
437.17	671.56
437.392	670.56
437.614	669.56
437.835	666.56
438.057	687.56
438.278	671.56
438.5	668.56
438.721	642.56
438.943	662.56
439.165	655.56
439.386	685.56
439.608	680.56
439.829	654.56
440.05	672.56
440.272	705.56
440.493	681.56
440.715	667.56
440.936	671.56
441.158	664.56
441.379	677.56
441.6	681.56
441.822	669.56
442.043	686.56
442.264	670.56
442.486	666.56
442.707	682.56
442.928	697.56
443.149	712.56
443.371	649.56
443.592	670.56
443.813	656.56
444.034	683.56
444.255	650.56
444.476	677.56
444.698	674.56
444.919	692.56
445.14	778.56
445.361	705.56
445.582	675.56
445.803	659.56
446.024	665.56
446.245	683.56
446.466	668.56
446.687	655.56
446.908	675.56
447.129	642.56
447.35	661.56
447.571	652.56
447.792	645.56
448.013	654.56
448.234	632.56
448.455	629.56
448.675	631.56
448.896	631.56
449.117	642.56
449.338	641.56
449.559	656.56
449.779	637.56
450	618.56
450.221	624.56
450.442	661.56
450.662	637.56
450.883	627.56
451.104	622.56
451.324	599.56
451.545	632.56
451.766	613.56
451.986	652.56
452.207	621.56
452.428	622.56
452.648	635.56
452.869	627.56
453.089	637.56
453.31	603.56
453.53	641.56
453.751	617.56
453.971	647.56
454.192	641.56
454.412	602.56
454.633	603.56
454.853	613.56
455.073	609.56
455.294	611.56
455.514	627.56
455.734	638.56
455.955	631.56
456.175	615.56
456.395	614.56
456.616	601.56
456.836	610.56
457.056	609.56
457.276	614.56
457.497	647.56
457.717	611.56
457.937	633.56
458.157	603.56
458.377	605.56
458.598	651.56
458.818	637.56
459.038	635.56
459.258	618.56
459.478	629.56
459.698	641.56
459.918	648.56
460.138	642.56
460.358	653.56
460.578	650.56
460.798	660.56
461.018	684.56
461.238	683.56
461.458	684.56
461.678	663.56
461.898	683.56
462.118	689.56
462.338	661.56
462.558	721.56
462.777	713.56
462.997	730.56
463.217	708.56
463.437	707.56
463.657	702.56
463.876	690.56
464.096	703.56
464.316	715.56
464.536	695.56
464.755	702.56
464.975	690.56
465.195	674.56
465.414	679.56
465.634	687.56
465.854	669.56
466.073	648.56
466.293	669.56
466.512	683.56
466.732	661.56
466.951	664.56
467.171	657.56
467.391	676.56
467.61	651.56
467.829	664.56
468.049	674.56
468.268	655.56
468.488	633.56
468.707	637.56
468.927	655.56
469.146	670.56
469.365	672.56
469.585	641.56
469.804	660.56
470.023	667.56
470.243	664.56
470.462	654.56
470.681	662.56
470.901	667.56
471.12	699.56
471.339	689.56
471.558	679.56
471.777	675.56
471.997	661.56
472.216	672.56
472.435	674.56
472.654	683.56
472.873	680.56
473.092	694.56
473.311	675.56
473.53	679.56
473.749	700.56
473.968	698.56
474.187	701.56
474.406	702.56
474.625	698.56
474.844	706.56
475.063	697.56
475.282	700.56
475.501	737.56
475.72	723.56
475.939	721.56
476.158	727.56
476.377	738.56
476.596	722.56
476.814	746.56
477.033	719.56
477.252	727.56
477.471	750.56
477.69	751.56
477.908	749.56
478.127	756.56
478.346	755.56
478.564	772.56
478.783	799.56
479.002	782.56
479.22	773.56
479.439	791.56
479.658	779.56
479.876	778.56
480.095	769.56
480.313	814.56
480.532	802.56
480.751	804.56
480.969	797.56
481.188	777.56
481.406	798.56
481.624	808.56
481.843	802.56
482.061	811.56
482.28	809.56
482.498	821.56
482.717	810.56
482.935	799.56
483.153	813.56
483.372	811.56
483.59	828.56
483.808	819.56
484.027	818.56
484.245	833.56
484.463	810.56
484.681	817.56
484.9	853.56
485.118	814.56
485.336	824.56
485.554	831.56
485.772	834.56
485.99	833.56
486.209	852.56
486.427	832.56
486.645	831.56
486.863	841.56
487.081	829.56
487.299	817.56
487.517	853.56
487.735	828.56
487.953	856.56
488.171	835.56
488.389	812.56
488.607	823.56
488.825	834.56
489.043	849.56
489.261	834.56
489.479	840.56
489.696	820.56
489.914	831.56
490.132	869.56
490.35	872.56
490.568	846.56
490.786	823.56
491.003	847.56
491.221	844.56
491.439	851.56
491.657	862.56
491.874	870.56
492.092	863.56
492.31	860.56
492.527	867.56
492.745	873.56
492.963	840.56
493.18	870.56
493.398	861.56
493.615	857.56
493.833	862.56
494.05	858.56
494.268	868.56
494.485	882.56
494.703	894.56
494.92	855.56
495.138	877.56
495.355	874.56
495.573	860.56
495.79	896.56
496.008	889.56
496.225	884.56
496.442	896.56
496.66	899.56
496.877	920.56
497.094	933.56
497.312	934.56
497.529	916.56
497.746	924.56
497.963	949.56
498.181	933.56
498.398	912.56
498.615	975.56
498.832	955.56
499.049	972.56
499.267	961.56
499.484	1002.56
499.701	996.56
499.918	1021.56
500.135	1041.56
500.352	1053.56
500.569	1062.56
500.786	1036.56
501.003	1046.56
501.22	1033.56
501.437	1009.56
