Data from Fe(NO3)3@0.025M.TitratingCurve.Agarose3%dH2O.NegLispCup.LampEnergy10.LIBS07252019_HRD10591_16-53-45-335.txt Node
Date: Thu Jul 25 16:53:45 EDT 2019
User: cochatt
Spectrometer: HR+D1059
Trigger mode: 1
Integration Time (sec): 1.000000E-1
Scans to average: 1
Electric dark correction enabled: true
Nonlinearity correction enabled: false
Boxcar width: 0
XAxis mode: Wavelengths
Number of Pixels in Spectrum: 2048
>>>>>Begin Spectral Data<<<<<
223.165	-18.31
223.4	-18.31
223.635	-18.31
223.869	-10.31
224.104	-24.31
224.338	-8.31
224.573	-17.31
224.808	0.69
225.042	-20.31
225.277	-5.31
225.511	4.69
225.746	4.69
225.98	1.69
226.215	20.69
226.449	20.69
226.683	-1.31
226.918	14.69
227.152	37.69
227.387	35.69
227.621	53.69
227.856	52.69
228.09	40.69
228.324	48.69
228.559	64.69
228.793	76.69
229.027	84.69
229.262	78.69
229.496	91.69
229.73	107.69
229.964	113.69
230.199	109.69
230.433	97.69
230.667	96.69
230.901	104.69
231.136	99.69
231.37	98.69
231.604	115.69
231.838	102.69
232.072	122.69
232.306	114.69
232.541	102.69
232.775	118.69
233.009	120.69
233.243	116.69
233.477	115.69
233.711	109.69
233.945	125.69
234.179	110.69
234.413	114.69
234.647	125.69
234.881	123.69
235.115	125.69
235.349	133.69
235.583	114.69
235.817	129.69
236.051	123.69
236.285	117.69
236.519	130.69
236.753	125.69
236.987	118.69
237.221	123.69
237.455	123.69
237.689	123.69
237.922	120.69
238.156	128.69
238.39	128.69
238.624	118.69
238.858	128.69
239.091	127.69
239.325	118.69
239.559	126.69
239.793	136.69
240.027	122.69
240.26	134.69
240.494	120.69
240.728	134.69
240.961	138.69
241.195	136.69
241.429	143.69
241.662	136.69
241.896	133.69
242.13	136.69
242.363	152.69
242.597	134.69
242.83	130.69
243.064	139.69
243.298	152.69
243.531	150.69
243.765	146.69
243.998	146.69
244.232	145.69
244.465	136.69
244.699	139.69
244.932	140.69
245.166	143.69
245.399	155.69
245.633	164.69
245.866	162.69
246.099	167.69
246.333	151.69
246.566	135.69
246.8	153.69
247.033	150.69
247.266	138.69
247.5	158.69
247.733	156.69
247.966	170.69
248.2	160.69
248.433	151.69
248.666	136.69
248.899	159.69
249.133	138.69
249.366	174.69
249.599	196.69
249.832	152.69
250.066	179.69
250.299	159.69
250.532	160.69
250.765	170.69
250.998	173.69
251.231	172.69
251.465	170.69
251.698	175.69
251.931	167.69
252.164	181.69
252.397	191.69
252.63	172.69
252.863	178.69
253.096	183.69
253.329	193.69
253.562	182.69
253.795	174.69
254.028	190.69
254.261	196.69
254.494	184.69
254.727	182.69
254.96	180.69
255.193	181.69
255.426	166.69
255.659	188.69
255.892	190.69
256.124	182.69
256.357	196.69
256.59	182.69
256.823	205.69
257.056	205.69
257.289	195.69
257.521	206.69
257.754	182.69
257.987	204.69
258.22	185.69
258.452	191.69
258.685	206.69
258.918	196.69
259.151	215.69
259.383	190.69
259.616	193.69
259.849	205.69
260.081	221.69
260.314	211.69
260.547	199.69
260.779	205.69
261.012	216.69
261.244	200.69
261.477	219.69
261.71	203.69
261.942	207.69
262.175	212.69
262.407	221.69
262.64	211.69
262.872	219.69
263.105	214.69
263.337	200.69
263.57	219.69
263.802	219.69
264.035	214.69
264.267	212.69
264.499	207.69
264.732	222.69
264.964	224.69
265.197	236.69
265.429	240.69
265.661	217.69
265.894	249.69
266.126	222.69
266.358	227.69
266.591	234.69
266.823	219.69
267.055	228.69
267.287	235.69
267.52	244.69
267.752	239.69
267.984	226.69
268.216	244.69
268.448	237.69
268.681	229.69
268.913	240.69
269.145	230.69
269.377	246.69
269.609	249.69
269.841	235.69
270.073	234.69
270.306	236.69
270.538	247.69
270.77	230.69
271.002	237.69
271.234	244.69
271.466	256.69
271.698	266.69
271.93	262.69
272.162	267.69
272.394	256.69
272.626	235.69
272.858	236.69
273.09	236.69
273.322	256.69
273.553	258.69
273.785	268.69
274.017	252.69
274.249	286.69
274.481	267.69
274.713	260.69
274.945	278.69
275.176	270.69
275.408	277.69
275.64	271.69
275.872	253.69
276.104	272.69
276.335	266.69
276.567	278.69
276.799	269.69
277.031	255.69
277.262	256.69
277.494	283.69
277.726	290.69
277.957	250.69
278.189	292.69
278.421	273.69
278.652	280.69
278.884	284.69
279.115	271.69
279.347	276.69
279.579	277.69
279.81	283.69
280.042	292.69
280.273	278.69
280.505	299.69
280.736	284.69
280.968	287.69
281.199	288.69
281.431	290.69
281.662	294.69
281.894	290.69
282.125	293.69
282.356	307.69
282.588	288.69
282.819	303.69
283.051	302.69
283.282	311.69
283.513	294.69
283.745	302.69
283.976	300.69
284.207	302.69
284.439	308.69
284.67	308.69
284.901	320.69
285.132	310.69
285.364	314.69
285.595	316.69
285.826	314.69
286.057	324.69
286.288	288.69
286.52	311.69
286.751	310.69
286.982	315.69
287.213	317.69
287.444	313.69
287.675	334.69
287.906	329.69
288.138	312.69
288.369	298.69
288.6	334.69
288.831	316.69
289.062	311.69
289.293	336.69
289.524	338.69
289.755	328.69
289.986	316.69
290.217	310.69
290.448	324.69
290.679	335.69
290.91	332.69
291.141	340.69
291.371	335.69
291.602	330.69
291.833	328.69
292.064	330.69
292.295	344.69
292.526	332.69
292.757	330.69
292.987	318.69
293.218	323.69
293.449	331.69
293.68	354.69
293.91	333.69
294.141	334.69
294.372	325.69
294.603	336.69
294.833	337.69
295.064	347.69
295.295	347.69
295.525	343.69
295.756	343.69
295.987	353.69
296.217	329.69
296.448	337.69
296.679	353.69
296.909	348.69
297.14	332.69
297.37	357.69
297.601	363.69
297.831	371.69
298.062	362.69
298.292	351.69
298.523	365.69
298.753	363.69
298.984	365.69
299.214	350.69
299.445	343.69
299.675	343.69
299.905	364.69
300.136	360.69
300.366	354.69
300.597	362.69
300.827	372.69
301.057	378.69
301.288	383.69
301.518	390.69
301.748	374.69
301.979	381.69
302.209	368.69
302.439	380.69
302.669	378.69
302.9	382.69
303.13	376.69
303.36	388.69
303.59	385.69
303.82	387.69
304.051	379.69
304.281	390.69
304.511	387.69
304.741	392.69
304.971	383.69
305.201	378.69
305.431	391.69
305.661	388.69
305.891	364.69
306.121	349.69
306.352	382.69
306.582	362.69
306.812	370.69
307.042	393.69
307.272	367.69
307.502	392.69
307.731	377.69
307.961	399.69
308.191	374.69
308.421	374.69
308.651	385.69
308.881	400.69
309.111	380.69
309.341	384.69
309.571	377.69
309.8	397.69
310.03	386.69
310.26	390.69
310.49	386.69
310.72	401.69
310.949	382.69
311.179	382.69
311.409	395.69
311.639	379.69
311.868	380.69
312.098	398.69
312.328	394.69
312.557	389.69
312.787	398.69
313.017	401.69
313.246	390.69
313.476	400.69
313.706	384.69
313.935	397.69
314.165	404.69
314.394	408.69
314.624	421.69
314.853	429.69
315.083	420.69
315.312	400.69
315.542	410.69
315.771	407.69
316.001	402.69
316.23	408.69
316.46	417.69
316.689	411.69
316.919	405.69
317.148	430.69
317.377	410.69
317.607	417.69
317.836	396.69
318.065	449.69
318.295	406.69
318.524	452.69
318.753	408.69
318.983	432.69
319.212	407.69
319.441	409.69
319.67	421.69
319.9	418.69
320.129	412.69
320.358	426.69
320.587	414.69
320.816	431.69
321.046	436.69
321.275	436.69
321.504	422.69
321.733	418.69
321.962	408.69
322.191	447.69
322.42	426.69
322.649	422.69
322.878	434.69
323.108	412.69
323.337	431.69
323.566	434.69
323.795	432.69
324.024	448.69
324.253	446.69
324.482	432.69
324.71	431.69
324.939	434.69
325.168	436.69
325.397	442.69
325.626	441.69
325.855	429.69
326.084	457.69
326.313	448.69
326.542	427.69
326.77	491.69
326.999	471.69
327.228	476.69
327.457	452.69
327.686	457.69
327.914	448.69
328.143	450.69
328.372	461.69
328.6	430.69
328.829	460.69
329.058	453.69
329.287	457.69
329.515	467.69
329.744	460.69
329.972	448.69
330.201	468.69
330.43	475.69
330.658	462.69
330.887	463.69
331.115	470.69
331.344	477.69
331.572	471.69
331.801	479.69
332.03	475.69
332.258	480.69
332.486	478.69
332.715	486.69
332.943	498.69
333.172	495.69
333.4	491.69
333.629	491.69
333.857	522.69
334.085	514.69
334.314	526.69
334.542	520.69
334.771	533.69
334.999	513.69
335.227	531.69
335.455	525.69
335.684	558.69
335.912	539.69
336.14	527.69
336.369	534.69
336.597	511.69
336.825	538.69
337.053	527.69
337.281	518.69
337.51	541.69
337.738	537.69
337.966	506.69
338.194	526.69
338.422	495.69
338.65	546.69
338.878	498.69
339.106	507.69
339.334	513.69
339.562	492.69
339.79	508.69
340.018	472.69
340.246	495.69
340.474	480.69
340.702	507.69
340.93	491.69
341.158	482.69
341.386	489.69
341.614	482.69
341.842	468.69
342.07	482.69
342.298	498.69
342.526	484.69
342.754	492.69
342.981	495.69
343.209	500.69
343.437	503.69
343.665	490.69
343.893	530.69
344.12	524.69
344.348	534.69
344.576	539.69
344.804	550.69
345.031	534.69
345.259	502.69
345.487	486.69
345.714	474.69
345.942	485.69
346.17	485.69
346.397	486.69
346.625	476.69
346.853	487.69
347.08	474.69
347.308	475.69
347.535	457.69
347.763	464.69
347.99	472.69
348.218	471.69
348.445	488.69
348.673	472.69
348.9	456.69
349.128	474.69
349.355	484.69
349.583	434.69
349.81	464.69
350.037	468.69
350.265	468.69
350.492	458.69
350.72	457.69
350.947	461.69
351.174	459.69
351.402	458.69
351.629	470.69
351.856	473.69
352.083	454.69
352.311	478.69
352.538	440.69
352.765	462.69
352.992	448.69
353.22	459.69
353.447	470.69
353.674	463.69
353.901	455.69
354.128	465.69
354.355	468.69
354.583	467.69
354.81	437.69
355.037	471.69
355.264	474.69
355.491	469.69
355.718	470.69
355.945	464.69
356.172	476.69
356.399	461.69
356.626	474.69
356.853	491.69
357.08	474.69
357.307	455.69
357.534	480.69
357.761	458.69
357.988	469.69
358.215	472.69
358.441	475.69
358.668	470.69
358.895	480.69
359.122	478.69
359.349	478.69
359.576	454.69
359.802	474.69
360.029	455.69
360.256	484.69
360.483	478.69
360.709	476.69
360.936	487.69
361.163	456.69
361.39	495.69
361.616	464.69
361.843	480.69
362.07	487.69
362.296	479.69
362.523	475.69
362.749	449.69
362.976	472.69
363.203	473.69
363.429	463.69
363.656	462.69
363.882	462.69
364.109	457.69
364.335	459.69
364.562	463.69
364.788	470.69
365.015	490.69
365.241	484.69
365.468	480.69
365.694	480.69
365.92	487.69
366.147	501.69
366.373	458.69
366.599	478.69
366.826	490.69
367.052	470.69
367.278	461.69
367.505	497.69
367.731	483.69
367.957	484.69
368.184	483.69
368.41	478.69
368.636	507.69
368.862	482.69
369.089	503.69
369.315	491.69
369.541	507.69
369.767	513.69
369.993	491.69
370.219	495.69
370.445	499.69
370.672	498.69
370.898	511.69
371.124	516.69
371.35	518.69
371.576	520.69
371.802	526.69
372.028	507.69
372.254	533.69
372.48	530.69
372.706	507.69
372.932	492.69
373.158	504.69
373.384	532.69
373.61	524.69
373.835	518.69
374.061	498.69
374.287	506.69
374.513	526.69
374.739	538.69
374.965	529.69
375.191	551.69
375.416	531.69
375.642	528.69
375.868	539.69
376.094	544.69
376.319	550.69
376.545	527.69
376.771	512.69
376.997	506.69
377.222	515.69
377.448	498.69
377.674	480.69
377.899	507.69
378.125	518.69
378.35	509.69
378.576	507.69
378.802	506.69
379.027	527.69
379.253	508.69
379.478	510.69
379.704	514.69
379.929	494.69
380.155	523.69
380.38	520.69
380.606	536.69
380.831	500.69
381.057	527.69
381.282	526.69
381.507	517.69
381.733	522.69
381.958	526.69
382.184	520.69
382.409	540.69
382.634	518.69
382.86	546.69
383.085	532.69
383.31	521.69
383.535	543.69
383.761	537.69
383.986	541.69
384.211	533.69
384.436	559.69
384.662	568.69
384.887	558.69
385.112	576.69
385.337	547.69
385.562	557.69
385.787	550.69
386.013	594.69
386.238	575.69
386.463	604.69
386.688	571.69
386.913	580.69
387.138	587.69
387.363	576.69
387.588	569.69
387.813	582.69
388.038	603.69
388.263	594.69
388.488	593.69
388.713	606.69
388.938	590.69
389.163	587.69
389.387	568.69
389.612	606.69
389.837	596.69
390.062	585.69
390.287	603.69
390.512	586.69
390.736	615.69
390.961	606.69
391.186	598.69
391.411	608.69
391.636	615.69
391.86	610.69
392.085	631.69
392.31	615.69
392.534	616.69
392.759	616.69
392.984	611.69
393.208	628.69
393.433	626.69
393.658	650.69
393.882	618.69
394.107	609.69
394.331	635.69
394.556	640.69
394.78	632.69
395.005	620.69
395.229	628.69
395.454	622.69
395.678	650.69
395.903	635.69
396.127	650.69
396.352	630.69
396.576	651.69
396.801	623.69
397.025	640.69
397.249	649.69
397.474	634.69
397.698	647.69
397.922	663.69
398.147	670.69
398.371	661.69
398.595	660.69
398.82	694.69
399.044	702.69
399.268	720.69
399.492	756.69
399.717	776.69
399.941	795.69
400.165	772.69
400.389	774.69
400.613	726.69
400.837	706.69
401.062	707.69
401.286	701.69
401.51	732.69
401.734	711.69
401.958	692.69
402.182	706.69
402.406	688.69
402.63	706.69
402.854	682.69
403.078	687.69
403.302	706.69
403.526	697.69
403.75	724.69
403.974	699.69
404.198	714.69
404.422	720.69
404.645	710.69
404.869	668.69
405.093	709.69
405.317	723.69
405.541	717.69
405.765	730.69
405.988	724.69
406.212	724.69
406.436	733.69
406.66	748.69
406.883	724.69
407.107	771.69
407.331	798.69
407.555	786.69
407.778	790.69
408.002	806.69
408.226	785.69
408.449	792.69
408.673	761.69
408.896	769.69
409.12	764.69
409.344	746.69
409.567	743.69
409.791	768.69
410.014	760.69
410.238	736.69
410.461	744.69
410.685	743.69
410.908	714.69
411.132	731.69
411.355	716.69
411.578	756.69
411.802	718.69
412.025	722.69
412.249	719.69
412.472	723.69
412.695	723.69
412.919	690.69
413.142	694.69
413.365	697.69
413.589	686.69
413.812	706.69
414.035	690.69
414.258	696.69
414.482	710.69
414.705	725.69
414.928	700.69
415.151	712.69
415.374	685.69
415.597	700.69
415.821	686.69
416.044	695.69
416.267	681.69
416.49	662.69
416.713	669.69
416.936	691.69
417.159	675.69
417.382	650.69
417.605	658.69
417.828	663.69
418.051	672.69
418.274	644.69
418.497	663.69
418.72	666.69
418.943	665.69
419.166	694.69
419.389	731.69
419.611	726.69
419.834	687.69
420.057	687.69
420.28	678.69
420.503	657.69
420.726	655.69
420.948	652.69
421.171	656.69
421.394	636.69
421.617	663.69
421.839	662.69
422.062	655.69
422.285	637.69
422.507	676.69
422.73	682.69
422.953	650.69
423.175	668.69
423.398	665.69
423.621	657.69
423.843	663.69
424.066	655.69
424.288	655.69
424.511	659.69
424.733	636.69
424.956	660.69
425.178	668.69
425.401	673.69
425.623	668.69
425.846	639.69
426.068	638.69
426.291	672.69
426.513	656.69
426.735	616.69
426.958	646.69
427.18	622.69
427.402	637.69
427.625	620.69
427.847	648.69
428.069	629.69
428.292	632.69
428.514	637.69
428.736	629.69
428.958	631.69
429.181	629.69
429.403	622.69
429.625	639.69
429.847	620.69
430.069	630.69
430.292	617.69
430.514	623.69
430.736	631.69
430.958	621.69
431.18	631.69
431.402	617.69
431.624	626.69
431.846	606.69
432.068	618.69
432.29	651.69
432.512	638.69
432.734	632.69
432.956	611.69
433.178	646.69
433.4	650.69
433.622	644.69
433.844	646.69
434.066	626.69
434.287	607.69
434.509	652.69
434.731	649.69
434.953	659.69
435.175	661.69
435.397	660.69
435.618	650.69
435.84	633.69
436.062	642.69
436.284	616.69
436.505	615.69
436.727	610.69
436.949	622.69
437.17	627.69
437.392	633.69
437.614	619.69
437.835	622.69
438.057	604.69
438.278	619.69
438.5	628.69
438.721	606.69
438.943	592.69
439.165	593.69
439.386	616.69
439.608	626.69
439.829	604.69
440.05	615.69
440.272	599.69
440.493	624.69
440.715	618.69
440.936	643.69
441.158	602.69
441.379	633.69
441.6	639.69
441.822	654.69
442.043	648.69
442.264	615.69
442.486	622.69
442.707	642.69
442.928	654.69
443.149	650.69
443.371	660.69
443.592	650.69
443.813	629.69
444.034	628.69
444.255	649.69
444.476	639.69
444.698	656.69
444.919	681.69
445.14	760.69
445.361	678.69
445.582	648.69
445.803	630.69
446.024	616.69
446.245	628.69
446.466	624.69
446.687	600.69
446.908	615.69
447.129	612.69
447.35	614.69
447.571	590.69
447.792	569.69
448.013	592.69
448.234	562.69
448.455	597.69
448.675	600.69
448.896	572.69
449.117	582.69
449.338	587.69
449.559	597.69
449.779	571.69
450	574.69
450.221	587.69
450.442	562.69
450.662	575.69
450.883	569.69
451.104	589.69
451.324	565.69
451.545	575.69
451.766	591.69
451.986	566.69
452.207	571.69
452.428	569.69
452.648	575.69
452.869	564.69
453.089	553.69
453.31	556.69
453.53	560.69
453.751	556.69
453.971	587.69
454.192	542.69
454.412	541.69
454.633	558.69
454.853	574.69
455.073	562.69
455.294	562.69
455.514	559.69
455.734	564.69
455.955	546.69
456.175	562.69
456.395	547.69
456.616	543.69
456.836	573.69
457.056	569.69
457.276	535.69
457.497	584.69
457.717	566.69
457.937	571.69
458.157	573.69
458.377	566.69
458.598	566.69
458.818	582.69
459.038	587.69
459.258	607.69
459.478	601.69
459.698	608.69
459.918	608.69
460.138	629.69
460.358	646.69
460.578	661.69
460.798	628.69
461.018	676.69
461.238	686.69
461.458	692.69
461.678	683.69
461.898	669.69
462.118	648.69
462.338	688.69
462.558	711.69
462.777	700.69
462.997	741.69
463.217	746.69
463.437	749.69
463.657	738.69
463.876	704.69
464.096	733.69
464.316	711.69
464.536	712.69
464.755	684.69
464.975	684.69
465.195	682.69
465.414	656.69
465.634	646.69
465.854	642.69
466.073	641.69
466.293	605.69
466.512	620.69
466.732	610.69
466.951	619.69
467.171	594.69
467.391	611.69
467.61	611.69
467.829	607.69
468.049	611.69
468.268	615.69
468.488	603.69
468.707	586.69
468.927	610.69
469.146	615.69
469.365	605.69
469.585	610.69
469.804	608.69
470.023	609.69
470.243	607.69
470.462	608.69
470.681	605.69
470.901	595.69
471.12	583.69
471.339	600.69
471.558	588.69
471.777	589.69
471.997	574.69
472.216	631.69
472.435	587.69
472.654	611.69
472.873	602.69
473.092	623.69
473.311	584.69
473.53	590.69
473.749	613.69
473.968	626.69
474.187	598.69
474.406	627.69
474.625	626.69
474.844	598.69
475.063	588.69
475.282	605.69
475.501	612.69
475.72	601.69
475.939	600.69
476.158	631.69
476.377	646.69
476.596	656.69
476.814	629.69
477.033	645.69
477.252	648.69
477.471	648.69
477.69	683.69
477.908	662.69
478.127	654.69
478.346	660.69
478.564	660.69
478.783	662.69
479.002	688.69
479.22	694.69
479.439	682.69
479.658	677.69
479.876	677.69
480.095	692.69
480.313	700.69
480.532	707.69
480.751	709.69
480.969	710.69
481.188	708.69
481.406	707.69
481.624	694.69
481.843	682.69
482.061	703.69
482.28	699.69
482.498	724.69
482.717	684.69
482.935	696.69
483.153	680.69
483.372	690.69
483.59	707.69
483.808	700.69
484.027	688.69
484.245	706.69
484.463	708.69
484.681	707.69
484.9	731.69
485.118	715.69
485.336	736.69
485.554	722.69
485.772	720.69
485.99	722.69
486.209	726.69
486.427	708.69
486.645	706.69
486.863	729.69
487.081	712.69
487.299	719.69
487.517	740.69
487.735	734.69
487.953	734.69
488.171	715.69
488.389	708.69
488.607	707.69
488.825	703.69
489.043	715.69
489.261	706.69
489.479	712.69
489.696	707.69
489.914	731.69
490.132	735.69
490.35	721.69
490.568	736.69
490.786	723.69
491.003	735.69
491.221	729.69
491.439	759.69
491.657	750.69
491.874	730.69
492.092	766.69
492.31	730.69
492.527	739.69
492.745	763.69
492.963	711.69
493.18	751.69
493.398	758.69
493.615	754.69
493.833	724.69
494.05	761.69
494.268	738.69
494.485	778.69
494.703	740.69
494.92	744.69
495.138	769.69
495.355	780.69
495.573	779.69
495.79	743.69
496.008	788.69
496.225	797.69
496.442	809.69
496.66	800.69
496.877	814.69
497.094	806.69
497.312	824.69
497.529	825.69
497.746	854.69
497.963	872.69
498.181	879.69
498.398	908.69
498.615	910.69
498.832	938.69
499.049	965.69
499.267	998.69
499.484	1049.69
499.701	1083.69
499.918	1142.69
500.135	1179.69
500.352	1221.69
500.569	1222.69
500.786	1229.69
501.003	1207.69
501.22	1199.69
501.437	1126.69
