Data from Fe(NO3)3@0.05M.TitratingCurve.Agarose3%dH2O.NegLispCup.LampEnergy10.LIBS07252019_HRD10591_16-46-43-334.txt Node
Date: Thu Jul 25 16:46:43 EDT 2019
User: cochatt
Spectrometer: HR+D1059
Trigger mode: 1
Integration Time (sec): 1.000000E-1
Scans to average: 1
Electric dark correction enabled: true
Nonlinearity correction enabled: false
Boxcar width: 0
XAxis mode: Wavelengths
Number of Pixels in Spectrum: 2048
>>>>>Begin Spectral Data<<<<<
223.165	-23.19
223.4	-23.19
223.635	-23.19
223.869	-19.19
224.104	-23.19
224.338	-8.19
224.573	-7.19
224.808	-18.19
225.042	-9.19
225.277	-10.19
225.511	-3.19
225.746	0.81
225.98	7.81
226.215	10.81
226.449	18.81
226.683	18.81
226.918	28.81
227.152	35.81
227.387	44.81
227.621	43.81
227.856	44.81
228.09	44.81
228.324	46.81
228.559	61.81
228.793	69.81
229.027	122.81
229.262	124.81
229.496	126.81
229.73	129.81
229.964	130.81
230.199	147.81
230.433	138.81
230.667	151.81
230.901	156.81
231.136	152.81
231.37	145.81
231.604	152.81
231.838	154.81
232.072	160.81
232.306	155.81
232.541	146.81
232.775	166.81
233.009	177.81
233.243	165.81
233.477	153.81
233.711	186.81
233.945	164.81
234.179	176.81
234.413	172.81
234.647	169.81
234.881	184.81
235.115	178.81
235.349	178.81
235.583	171.81
235.817	163.81
236.051	183.81
236.285	182.81
236.519	180.81
236.753	197.81
236.987	190.81
237.221	183.81
237.455	183.81
237.689	206.81
237.922	194.81
238.156	183.81
238.39	191.81
238.624	237.81
238.858	216.81
239.091	194.81
239.325	207.81
239.559	205.81
239.793	214.81
240.027	221.81
240.26	213.81
240.494	230.81
240.728	230.81
240.961	234.81
241.195	218.81
241.429	232.81
241.662	227.81
241.896	207.81
242.13	220.81
242.363	220.81
242.597	232.81
242.83	228.81
243.064	229.81
243.298	250.81
243.531	237.81
243.765	228.81
243.998	236.81
244.232	241.81
244.465	256.81
244.699	242.81
244.932	261.81
245.166	250.81
245.399	248.81
245.633	243.81
245.866	258.81
246.099	252.81
246.333	249.81
246.566	269.81
246.8	245.81
247.033	275.81
247.266	263.81
247.5	260.81
247.733	272.81
247.966	256.81
248.2	286.81
248.433	292.81
248.666	265.81
248.899	281.81
249.133	280.81
249.366	288.81
249.599	300.81
249.832	301.81
250.066	283.81
250.299	308.81
250.532	310.81
250.765	294.81
250.998	290.81
251.231	297.81
251.465	283.81
251.698	296.81
251.931	308.81
252.164	304.81
252.397	325.81
252.63	336.81
252.863	319.81
253.096	320.81
253.329	337.81
253.562	322.81
253.795	335.81
254.028	360.81
254.261	347.81
254.494	341.81
254.727	330.81
254.96	333.81
255.193	328.81
255.426	341.81
255.659	342.81
255.892	337.81
256.124	331.81
256.357	358.81
256.59	350.81
256.823	344.81
257.056	347.81
257.289	348.81
257.521	341.81
257.754	319.81
257.987	349.81
258.22	361.81
258.452	341.81
258.685	364.81
258.918	379.81
259.151	376.81
259.383	378.81
259.616	347.81
259.849	392.81
260.081	421.81
260.314	452.81
260.547	394.81
260.779	398.81
261.012	402.81
261.244	406.81
261.477	416.81
261.71	426.81
261.942	394.81
262.175	386.81
262.407	382.81
262.64	385.81
262.872	410.81
263.105	417.81
263.337	412.81
263.57	426.81
263.802	408.81
264.035	382.81
264.267	388.81
264.499	376.81
264.732	394.81
264.964	396.81
265.197	398.81
265.429	396.81
265.661	387.81
265.894	397.81
266.126	405.81
266.358	414.81
266.591	423.81
266.823	429.81
267.055	410.81
267.287	420.81
267.52	427.81
267.752	412.81
267.984	408.81
268.216	424.81
268.448	419.81
268.681	451.81
268.913	433.81
269.145	438.81
269.377	429.81
269.609	440.81
269.841	448.81
270.073	423.81
270.306	424.81
270.538	457.81
270.77	439.81
271.002	432.81
271.234	430.81
271.466	443.81
271.698	458.81
271.93	468.81
272.162	448.81
272.394	448.81
272.626	468.81
272.858	463.81
273.09	461.81
273.322	470.81
273.553	478.81
273.785	492.81
274.017	515.81
274.249	566.81
274.481	548.81
274.713	554.81
274.945	608.81
275.176	587.81
275.408	557.81
275.64	566.81
275.872	540.81
276.104	502.81
276.335	498.81
276.567	490.81
276.799	514.81
277.031	520.81
277.262	486.81
277.494	498.81
277.726	475.81
277.957	481.81
278.189	521.81
278.421	524.81
278.652	525.81
278.884	522.81
279.115	514.81
279.347	515.81
279.579	536.81
279.81	512.81
280.042	522.81
280.273	517.81
280.505	523.81
280.736	516.81
280.968	515.81
281.199	520.81
281.431	509.81
281.662	523.81
281.894	528.81
282.125	530.81
282.356	542.81
282.588	541.81
282.819	540.81
283.051	550.81
283.282	554.81
283.513	559.81
283.745	564.81
283.976	545.81
284.207	568.81
284.439	552.81
284.67	573.81
284.901	562.81
285.132	552.81
285.364	564.81
285.595	580.81
285.826	551.81
286.057	557.81
286.288	575.81
286.52	576.81
286.751	575.81
286.982	591.81
287.213	565.81
287.444	580.81
287.675	576.81
287.906	586.81
288.138	571.81
288.369	568.81
288.6	590.81
288.831	589.81
289.062	588.81
289.293	591.81
289.524	607.81
289.755	611.81
289.986	590.81
290.217	598.81
290.448	586.81
290.679	586.81
290.91	583.81
291.141	585.81
291.371	587.81
291.602	600.81
291.833	570.81
292.064	591.81
292.295	589.81
292.526	581.81
292.757	577.81
292.987	581.81
293.218	586.81
293.449	600.81
293.68	586.81
293.91	605.81
294.141	598.81
294.372	594.81
294.603	600.81
294.833	617.81
295.064	598.81
295.295	605.81
295.525	610.81
295.756	614.81
295.987	611.81
296.217	620.81
296.448	621.81
296.679	604.81
296.909	615.81
297.14	629.81
297.37	654.81
297.601	637.81
297.831	615.81
298.062	666.81
298.292	637.81
298.523	640.81
298.753	673.81
298.984	650.81
299.214	644.81
299.445	654.81
299.675	653.81
299.905	653.81
300.136	644.81
300.366	668.81
300.597	647.81
300.827	661.81
301.057	666.81
301.288	679.81
301.518	669.81
301.748	697.81
301.979	705.81
302.209	692.81
302.439	685.81
302.669	693.81
302.9	690.81
303.13	669.81
303.36	653.81
303.59	678.81
303.82	683.81
304.051	689.81
304.281	703.81
304.511	697.81
304.741	682.81
304.971	701.81
305.201	682.81
305.431	679.81
305.661	685.81
305.891	700.81
306.121	696.81
306.352	706.81
306.582	704.81
306.812	670.81
307.042	697.81
307.272	688.81
307.502	684.81
307.731	701.81
307.961	695.81
308.191	695.81
308.421	672.81
308.651	692.81
308.881	692.81
309.111	708.81
309.341	677.81
309.571	702.81
309.8	693.81
310.03	700.81
310.26	692.81
310.49	683.81
310.72	725.81
310.949	702.81
311.179	691.81
311.409	716.81
311.639	717.81
311.868	693.81
312.098	703.81
312.328	730.81
312.557	721.81
312.787	725.81
313.017	734.81
313.246	756.81
313.476	739.81
313.706	713.81
313.935	737.81
314.165	746.81
314.394	744.81
314.624	727.81
314.853	741.81
315.083	706.81
315.312	739.81
315.542	734.81
315.771	761.81
316.001	770.81
316.23	755.81
316.46	742.81
316.689	756.81
316.919	748.81
317.148	740.81
317.377	740.81
317.607	728.81
317.836	756.81
318.065	746.81
318.295	747.81
318.524	765.81
318.753	754.81
318.983	752.81
319.212	732.81
319.441	784.81
319.67	768.81
319.9	762.81
320.129	778.81
320.358	769.81
320.587	755.81
320.816	776.81
321.046	738.81
321.275	772.81
321.504	768.81
321.733	760.81
321.962	760.81
322.191	804.81
322.42	790.81
322.649	787.81
322.878	779.81
323.108	766.81
323.337	765.81
323.566	793.81
323.795	774.81
324.024	807.81
324.253	795.81
324.482	814.81
324.71	812.81
324.939	786.81
325.168	799.81
325.397	795.81
325.626	794.81
325.855	804.81
326.084	786.81
326.313	788.81
326.542	810.81
326.77	836.81
326.999	800.81
327.228	802.81
327.457	818.81
327.686	823.81
327.914	837.81
328.143	827.81
328.372	828.81
328.6	821.81
328.829	794.81
329.058	847.81
329.287	844.81
329.515	825.81
329.744	842.81
329.972	839.81
330.201	822.81
330.43	828.81
330.658	835.81
330.887	828.81
331.115	858.81
331.344	859.81
331.572	858.81
331.801	884.81
332.03	888.81
332.258	894.81
332.486	898.81
332.715	922.81
332.943	910.81
333.172	916.81
333.4	952.81
333.629	969.81
333.857	950.81
334.085	985.81
334.314	982.81
334.542	946.81
334.771	982.81
334.999	970.81
335.227	982.81
335.455	968.81
335.684	988.81
335.912	992.81
336.14	952.81
336.369	963.81
336.597	966.81
336.825	967.81
337.053	934.81
337.281	934.81
337.51	948.81
337.738	928.81
337.966	890.81
338.194	914.81
338.422	939.81
338.65	917.81
338.878	905.81
339.106	902.81
339.334	908.81
339.562	885.81
339.79	887.81
340.018	879.81
340.246	860.81
340.474	892.81
340.702	879.81
340.93	854.81
341.158	873.81
341.386	875.81
341.614	910.81
341.842	880.81
342.07	889.81
342.298	864.81
342.526	880.81
342.754	877.81
342.981	885.81
343.209	894.81
343.437	925.81
343.665	922.81
343.893	955.81
344.12	971.81
344.348	958.81
344.576	953.81
344.804	936.81
345.031	900.81
345.259	914.81
345.487	894.81
345.714	883.81
345.942	870.81
346.17	870.81
346.397	863.81
346.625	868.81
346.853	858.81
347.08	868.81
347.308	877.81
347.535	822.81
347.763	854.81
347.99	811.81
348.218	865.81
348.445	837.81
348.673	833.81
348.9	852.81
349.128	862.81
349.355	830.81
349.583	810.81
349.81	836.81
350.037	834.81
350.265	849.81
350.492	841.81
350.72	833.81
350.947	804.81
351.174	841.81
351.402	843.81
351.629	812.81
351.856	821.81
352.083	842.81
352.311	857.81
352.538	830.81
352.765	821.81
352.992	830.81
353.22	826.81
353.447	809.81
353.674	796.81
353.901	836.81
354.128	835.81
354.355	826.81
354.583	835.81
354.81	819.81
355.037	841.81
355.264	810.81
355.491	827.81
355.718	854.81
355.945	846.81
356.172	839.81
356.399	816.81
356.626	839.81
356.853	837.81
357.08	843.81
357.307	856.81
357.534	861.81
357.761	831.81
357.988	866.81
358.215	874.81
358.441	859.81
358.668	840.81
358.895	849.81
359.122	822.81
359.349	844.81
359.576	825.81
359.802	879.81
360.029	854.81
360.256	856.81
360.483	836.81
360.709	832.81
360.936	874.81
361.163	869.81
361.39	848.81
361.616	856.81
361.843	828.81
362.07	838.81
362.296	874.81
362.523	858.81
362.749	832.81
362.976	852.81
363.203	863.81
363.429	852.81
363.656	872.81
363.882	845.81
364.109	865.81
364.335	846.81
364.562	862.81
364.788	882.81
365.015	890.81
365.241	852.81
365.468	850.81
365.694	840.81
365.92	860.81
366.147	836.81
366.373	852.81
366.599	861.81
366.826	852.81
367.052	877.81
367.278	864.81
367.505	852.81
367.731	870.81
367.957	877.81
368.184	868.81
368.41	857.81
368.636	871.81
368.862	873.81
369.089	907.81
369.315	893.81
369.541	905.81
369.767	880.81
369.993	891.81
370.219	900.81
370.445	904.81
370.672	916.81
370.898	915.81
371.124	929.81
371.35	928.81
371.576	924.81
371.802	923.81
372.028	933.81
372.254	933.81
372.48	938.81
372.706	969.81
372.932	945.81
373.158	950.81
373.384	973.81
373.61	953.81
373.835	979.81
374.061	980.81
374.287	937.81
374.513	936.81
374.739	997.81
374.965	999.81
375.191	1021.81
375.416	970.81
375.642	967.81
375.868	984.81
376.094	952.81
376.319	969.81
376.545	963.81
376.771	968.81
376.997	929.81
377.222	937.81
377.448	919.81
377.674	932.81
377.899	929.81
378.125	915.81
378.35	937.81
378.576	938.81
378.802	914.81
379.027	945.81
379.253	958.81
379.478	927.81
379.704	927.81
379.929	936.81
380.155	954.81
380.38	922.81
380.606	971.81
380.831	944.81
381.057	958.81
381.282	924.81
381.507	948.81
381.733	963.81
381.958	968.81
382.184	984.81
382.409	988.81
382.634	987.81
382.86	1008.81
383.085	1015.81
383.31	980.81
383.535	1016.81
383.761	992.81
383.986	1046.81
384.211	1016.81
384.436	1039.81
384.662	1049.81
384.887	1058.81
385.112	1030.81
385.337	1072.81
385.562	1076.81
385.787	1076.81
386.013	1111.81
386.238	1104.81
386.463	1102.81
386.688	1113.81
386.913	1074.81
387.138	1127.81
387.363	1107.81
387.588	1104.81
387.813	1096.81
388.038	1099.81
388.263	1126.81
388.488	1102.81
388.713	1112.81
388.938	1093.81
389.163	1096.81
389.387	1112.81
389.612	1111.81
389.837	1112.81
390.062	1124.81
390.287	1118.81
390.512	1121.81
390.736	1127.81
390.961	1156.81
391.186	1140.81
391.411	1139.81
391.636	1170.81
391.86	1217.81
392.085	1188.81
392.31	1170.81
392.534	1188.81
392.759	1159.81
392.984	1189.81
393.208	1173.81
393.433	1151.81
393.658	1168.81
393.882	1156.81
394.107	1167.81
394.331	1210.81
394.556	1145.81
394.78	1183.81
395.005	1156.81
395.229	1181.81
395.454	1210.81
395.678	1208.81
395.903	1217.81
396.127	1187.81
396.352	1204.81
396.576	1202.81
396.801	1198.81
397.025	1226.81
397.249	1220.81
397.474	1280.81
397.698	1214.81
397.922	1255.81
398.147	1249.81
398.371	1291.81
398.595	1335.81
398.82	1333.81
399.044	1449.81
399.268	1469.81
399.492	1579.81
399.717	1662.81
399.941	1658.81
400.165	1655.81
400.389	1562.81
400.613	1450.81
400.837	1454.81
401.062	1428.81
401.286	1351.81
401.51	1368.81
401.734	1356.81
401.958	1348.81
402.182	1374.81
402.406	1370.81
402.63	1381.81
402.854	1374.81
403.078	1383.81
403.302	1416.81
403.526	1412.81
403.75	1390.81
403.974	1430.81
404.198	1402.81
404.422	1431.81
404.645	1417.81
404.869	1413.81
405.093	1418.81
405.317	1392.81
405.541	1420.81
405.765	1439.81
405.988	1426.81
406.212	1457.81
406.436	1437.81
406.66	1485.81
406.883	1494.81
407.107	1509.81
407.331	1577.81
407.555	1585.81
407.778	1584.81
408.002	1567.81
408.226	1551.81
408.449	1591.81
408.673	1493.81
408.896	1525.81
409.12	1500.81
409.344	1519.81
409.567	1442.81
409.791	1464.81
410.014	1432.81
410.238	1429.81
410.461	1449.81
410.685	1432.81
410.908	1416.81
411.132	1422.81
411.355	1403.81
411.578	1418.81
411.802	1376.81
412.025	1402.81
412.249	1428.81
412.472	1435.81
412.695	1384.81
412.919	1396.81
413.142	1394.81
413.365	1398.81
413.589	1373.81
413.812	1362.81
414.035	1366.81
414.258	1343.81
414.482	1360.81
414.705	1366.81
414.928	1378.81
415.151	1354.81
415.374	1372.81
415.597	1309.81
415.821	1344.81
416.044	1312.81
416.267	1296.81
416.49	1309.81
416.713	1304.81
416.936	1340.81
417.159	1307.81
417.382	1322.81
417.605	1270.81
417.828	1328.81
418.051	1334.81
418.274	1323.81
418.497	1307.81
418.72	1307.81
418.943	1342.81
419.166	1357.81
419.389	1475.81
419.611	1462.81
419.834	1420.81
420.057	1388.81
420.28	1318.81
420.503	1274.81
420.726	1277.81
420.948	1291.81
421.171	1266.81
421.394	1318.81
421.617	1279.81
421.839	1280.81
422.062	1277.81
422.285	1290.81
422.507	1284.81
422.73	1316.81
422.953	1307.81
423.175	1312.81
423.398	1302.81
423.621	1297.81
423.843	1316.81
424.066	1331.81
424.288	1316.81
424.511	1316.81
424.733	1309.81
424.956	1297.81
425.178	1302.81
425.401	1302.81
425.623	1340.81
425.846	1281.81
426.068	1275.81
426.291	1314.81
426.513	1287.81
426.735	1258.81
426.958	1291.81
427.18	1228.81
427.402	1275.81
427.625	1258.81
427.847	1238.81
428.069	1248.81
428.292	1231.81
428.514	1225.81
428.736	1206.81
428.958	1204.81
429.181	1214.81
429.403	1217.81
429.625	1227.81
429.847	1216.81
430.069	1214.81
430.292	1218.81
430.514	1223.81
430.736	1226.81
430.958	1243.81
431.18	1206.81
431.402	1220.81
431.624	1188.81
431.846	1235.81
432.068	1247.81
432.29	1278.81
432.512	1257.81
432.734	1280.81
432.956	1236.81
433.178	1243.81
433.4	1230.81
433.622	1260.81
433.844	1262.81
434.066	1246.81
434.287	1225.81
434.509	1272.81
434.731	1314.81
434.953	1317.81
435.175	1320.81
435.397	1292.81
435.618	1265.81
435.84	1233.81
436.062	1241.81
436.284	1214.81
436.505	1212.81
436.727	1220.81
436.949	1217.81
437.17	1252.81
437.392	1206.81
437.614	1239.81
437.835	1176.81
438.057	1216.81
438.278	1166.81
438.5	1189.81
438.721	1226.81
438.943	1168.81
439.165	1190.81
439.386	1196.81
439.608	1234.81
439.829	1234.81
440.05	1189.81
440.272	1226.81
440.493	1210.81
440.715	1216.81
440.936	1241.81
441.158	1279.81
441.379	1296.81
441.6	1291.81
441.822	1279.81
442.043	1318.81
442.264	1304.81
442.486	1251.81
442.707	1280.81
442.928	1299.81
443.149	1297.81
443.371	1272.81
443.592	1312.81
443.813	1275.81
444.034	1300.81
444.255	1318.81
444.476	1359.81
444.698	1373.81
444.919	1403.81
445.14	1499.81
445.361	1409.81
445.582	1366.81
445.803	1306.81
446.024	1274.81
446.245	1260.81
446.466	1258.81
446.687	1242.81
446.908	1229.81
447.129	1198.81
447.35	1188.81
447.571	1220.81
447.792	1156.81
448.013	1153.81
448.234	1164.81
448.455	1139.81
448.675	1163.81
448.896	1132.81
449.117	1119.81
449.338	1152.81
449.559	1130.81
449.779	1152.81
450	1141.81
450.221	1116.81
450.442	1123.81
450.662	1099.81
450.883	1129.81
451.104	1129.81
451.324	1098.81
451.545	1100.81
451.766	1133.81
451.986	1095.81
452.207	1106.81
452.428	1063.81
452.648	1109.81
452.869	1104.81
453.089	1046.81
453.31	1082.81
453.53	1057.81
453.751	1075.81
453.971	1093.81
454.192	1081.81
454.412	1058.81
454.633	1042.81
454.853	1062.81
455.073	1084.81
455.294	1061.81
455.514	1042.81
455.734	1056.81
455.955	1051.81
456.175	1046.81
456.395	1064.81
456.616	1079.81
456.836	1067.81
457.056	1104.81
457.276	1064.81
457.497	1082.81
457.717	1090.81
457.937	1077.81
458.157	1112.81
458.377	1123.81
458.598	1116.81
458.818	1162.81
459.038	1167.81
459.258	1156.81
459.478	1199.81
459.698	1245.81
459.918	1289.81
460.138	1284.81
460.358	1300.81
460.578	1331.81
460.798	1361.81
461.018	1353.81
461.238	1352.81
461.458	1368.81
461.678	1341.81
461.898	1352.81
462.118	1358.81
462.338	1401.81
462.558	1442.81
462.777	1461.81
462.997	1540.81
463.217	1561.81
463.437	1592.81
463.657	1541.81
463.876	1508.81
464.096	1514.81
464.316	1475.81
464.536	1491.81
464.755	1461.81
464.975	1425.81
465.195	1387.81
465.414	1360.81
465.634	1311.81
465.854	1276.81
466.073	1237.81
466.293	1251.81
466.512	1224.81
466.732	1217.81
466.951	1212.81
467.171	1151.81
467.391	1151.81
467.61	1171.81
467.829	1160.81
468.049	1168.81
468.268	1157.81
468.488	1149.81
468.707	1165.81
468.927	1170.81
469.146	1168.81
469.365	1163.81
469.585	1185.81
469.804	1228.81
470.023	1187.81
470.243	1185.81
470.462	1216.81
470.681	1204.81
470.901	1209.81
471.12	1206.81
471.339	1210.81
471.558	1186.81
471.777	1181.81
471.997	1177.81
472.216	1192.81
472.435	1210.81
472.654	1164.81
472.873	1142.81
473.092	1194.81
473.311	1169.81
473.53	1164.81
473.749	1180.81
473.968	1191.81
474.187	1156.81
474.406	1174.81
474.625	1218.81
474.844	1190.81
475.063	1208.81
475.282	1194.81
475.501	1204.81
475.72	1180.81
475.939	1223.81
476.158	1239.81
476.377	1213.81
476.596	1293.81
476.814	1299.81
477.033	1241.81
477.252	1261.81
477.471	1263.81
477.69	1306.81
477.908	1318.81
478.127	1379.81
478.346	1323.81
478.564	1352.81
478.783	1384.81
479.002	1420.81
479.22	1414.81
479.439	1435.81
479.658	1405.81
479.876	1430.81
480.095	1448.81
480.313	1465.81
480.532	1431.81
480.751	1465.81
480.969	1445.81
481.188	1426.81
481.406	1413.81
481.624	1410.81
481.843	1402.81
482.061	1387.81
482.28	1390.81
482.498	1351.81
482.717	1397.81
482.935	1408.81
483.153	1368.81
483.372	1378.81
483.59	1397.81
483.808	1382.81
484.027	1386.81
484.245	1358.81
484.463	1362.81
484.681	1402.81
484.9	1422.81
485.118	1451.81
485.336	1404.81
485.554	1426.81
485.772	1412.81
485.99	1390.81
486.209	1472.81
486.427	1424.81
486.645	1416.81
486.863	1388.81
487.081	1449.81
487.299	1424.81
487.517	1403.81
487.735	1448.81
487.953	1416.81
488.171	1440.81
488.389	1429.81
488.607	1426.81
488.825	1403.81
489.043	1412.81
489.261	1417.81
489.479	1417.81
489.696	1406.81
489.914	1431.81
490.132	1435.81
490.35	1429.81
490.568	1433.81
490.786	1426.81
491.003	1441.81
491.221	1447.81
491.439	1473.81
491.657	1438.81
491.874	1462.81
492.092	1442.81
492.31	1465.81
492.527	1471.81
492.745	1502.81
492.963	1462.81
493.18	1463.81
493.398	1449.81
493.615	1496.81
493.833	1476.81
494.05	1482.81
494.268	1528.81
494.485	1513.81
494.703	1506.81
