Data from Fe(NO3)3@0.05M.TitratingCurve.Agarose3%dH2O.NegLispCup.LampEnergy10.LIBS07252019_HRD10591_16-47-06-334.txt Node
Date: Thu Jul 25 16:47:06 EDT 2019
User: cochatt
Spectrometer: HR+D1059
Trigger mode: 1
Integration Time (sec): 1.000000E-1
Scans to average: 1
Electric dark correction enabled: true
Nonlinearity correction enabled: false
Boxcar width: 0
XAxis mode: Wavelengths
Number of Pixels in Spectrum: 2048
>>>>>Begin Spectral Data<<<<<
223.165	-8.25
223.4	-8.25
223.635	-8.25
223.869	-26.25
224.104	-17.25
224.338	-20.25
224.573	-3.25
224.808	-4.25
225.042	-16.25
225.277	-11.25
225.511	-2.25
225.746	-12.25
225.98	6.75
226.215	21.75
226.449	14.75
226.683	11.75
226.918	22.75
227.152	43.75
227.387	29.75
227.621	30.75
227.856	38.75
228.09	41.75
228.324	46.75
228.559	52.75
228.793	86.75
229.027	97.75
229.262	105.75
229.496	103.75
229.73	117.75
229.964	151.75
230.199	134.75
230.433	142.75
230.667	144.75
230.901	130.75
231.136	138.75
231.37	149.75
231.604	151.75
231.838	132.75
232.072	142.75
232.306	150.75
232.541	159.75
232.775	154.75
233.009	161.75
233.243	166.75
233.477	161.75
233.711	150.75
233.945	179.75
234.179	148.75
234.413	168.75
234.647	173.75
234.881	177.75
235.115	171.75
235.349	179.75
235.583	174.75
235.817	162.75
236.051	176.75
236.285	168.75
236.519	158.75
236.753	172.75
236.987	182.75
237.221	176.75
237.455	201.75
237.689	198.75
237.922	174.75
238.156	200.75
238.39	202.75
238.624	221.75
238.858	213.75
239.091	191.75
239.325	196.75
239.559	198.75
239.793	215.75
240.027	231.75
240.26	202.75
240.494	213.75
240.728	208.75
240.961	237.75
241.195	229.75
241.429	219.75
241.662	236.75
241.896	221.75
242.13	221.75
242.363	212.75
242.597	208.75
242.83	215.75
243.064	217.75
243.298	224.75
243.531	209.75
243.765	232.75
243.998	242.75
244.232	238.75
244.465	255.75
244.699	237.75
244.932	263.75
245.166	245.75
245.399	250.75
245.633	241.75
245.866	252.75
246.099	255.75
246.333	256.75
246.566	258.75
246.8	262.75
247.033	258.75
247.266	273.75
247.5	260.75
247.733	246.75
247.966	264.75
248.2	284.75
248.433	272.75
248.666	270.75
248.899	286.75
249.133	277.75
249.366	295.75
249.599	300.75
249.832	298.75
250.066	316.75
250.299	291.75
250.532	290.75
250.765	303.75
250.998	293.75
251.231	286.75
251.465	307.75
251.698	302.75
251.931	316.75
252.164	309.75
252.397	295.75
252.63	306.75
252.863	318.75
253.096	332.75
253.329	321.75
253.562	334.75
253.795	342.75
254.028	340.75
254.261	357.75
254.494	344.75
254.727	326.75
254.96	350.75
255.193	347.75
255.426	331.75
255.659	326.75
255.892	336.75
256.124	340.75
256.357	356.75
256.59	355.75
256.823	346.75
257.056	333.75
257.289	355.75
257.521	343.75
257.754	350.75
257.987	353.75
258.22	355.75
258.452	349.75
258.685	364.75
258.918	394.75
259.151	376.75
259.383	350.75
259.616	386.75
259.849	395.75
260.081	433.75
260.314	457.75
260.547	396.75
260.779	382.75
261.012	395.75
261.244	416.75
261.477	426.75
261.71	425.75
261.942	368.75
262.175	383.75
262.407	403.75
262.64	416.75
262.872	421.75
263.105	432.75
263.337	447.75
263.57	424.75
263.802	404.75
264.035	385.75
264.267	366.75
264.499	387.75
264.732	377.75
264.964	387.75
265.197	397.75
265.429	402.75
265.661	402.75
265.894	405.75
266.126	390.75
266.358	427.75
266.591	418.75
266.823	398.75
267.055	414.75
267.287	410.75
267.52	406.75
267.752	405.75
267.984	415.75
268.216	402.75
268.448	429.75
268.681	432.75
268.913	410.75
269.145	434.75
269.377	417.75
269.609	451.75
269.841	443.75
270.073	433.75
270.306	443.75
270.538	438.75
270.77	438.75
271.002	453.75
271.234	451.75
271.466	467.75
271.698	453.75
271.93	456.75
272.162	461.75
272.394	474.75
272.626	468.75
272.858	496.75
273.09	471.75
273.322	490.75
273.553	492.75
273.785	498.75
274.017	527.75
274.249	551.75
274.481	548.75
274.713	552.75
274.945	597.75
275.176	584.75
275.408	581.75
275.64	570.75
275.872	549.75
276.104	539.75
276.335	500.75
276.567	519.75
276.799	497.75
277.031	528.75
277.262	510.75
277.494	516.75
277.726	518.75
277.957	537.75
278.189	527.75
278.421	508.75
278.652	508.75
278.884	502.75
279.115	512.75
279.347	513.75
279.579	530.75
279.81	528.75
280.042	528.75
280.273	517.75
280.505	522.75
280.736	544.75
280.968	518.75
281.199	556.75
281.431	524.75
281.662	502.75
281.894	539.75
282.125	538.75
282.356	542.75
282.588	534.75
282.819	534.75
283.051	549.75
283.282	558.75
283.513	574.75
283.745	572.75
283.976	568.75
284.207	568.75
284.439	583.75
284.67	559.75
284.901	586.75
285.132	570.75
285.364	561.75
285.595	568.75
285.826	564.75
286.057	585.75
286.288	570.75
286.52	558.75
286.751	571.75
286.982	583.75
287.213	591.75
287.444	592.75
287.675	589.75
287.906	593.75
288.138	589.75
288.369	587.75
288.6	604.75
288.831	575.75
289.062	592.75
289.293	583.75
289.524	595.75
289.755	589.75
289.986	598.75
290.217	593.75
290.448	585.75
290.679	593.75
290.91	605.75
291.141	606.75
291.371	584.75
291.602	611.75
291.833	594.75
292.064	589.75
292.295	585.75
292.526	587.75
292.757	612.75
292.987	616.75
293.218	617.75
293.449	608.75
293.68	608.75
293.91	599.75
294.141	570.75
294.372	612.75
294.603	618.75
294.833	630.75
295.064	626.75
295.295	630.75
295.525	615.75
295.756	616.75
295.987	630.75
296.217	630.75
296.448	643.75
296.679	630.75
296.909	630.75
297.14	621.75
297.37	644.75
297.601	618.75
297.831	648.75
298.062	645.75
298.292	636.75
298.523	664.75
298.753	654.75
298.984	664.75
299.214	678.75
299.445	664.75
299.675	666.75
299.905	655.75
300.136	649.75
300.366	670.75
300.597	675.75
300.827	645.75
301.057	669.75
301.288	673.75
301.518	664.75
301.748	686.75
301.979	694.75
302.209	678.75
302.439	656.75
302.669	666.75
302.9	693.75
303.13	673.75
303.36	694.75
303.59	728.75
303.82	721.75
304.051	719.75
304.281	709.75
304.511	698.75
304.741	692.75
304.971	679.75
305.201	684.75
305.431	688.75
305.661	683.75
305.891	711.75
306.121	704.75
306.352	696.75
306.582	687.75
306.812	689.75
307.042	702.75
307.272	707.75
307.502	696.75
307.731	706.75
307.961	695.75
308.191	698.75
308.421	688.75
308.651	671.75
308.881	689.75
309.111	697.75
309.341	676.75
309.571	692.75
309.8	703.75
310.03	729.75
310.26	699.75
310.49	714.75
310.72	702.75
310.949	723.75
311.179	734.75
311.409	711.75
311.639	723.75
311.868	733.75
312.098	727.75
312.328	737.75
312.557	721.75
312.787	723.75
313.017	736.75
313.246	739.75
313.476	735.75
313.706	743.75
313.935	772.75
314.165	739.75
314.394	741.75
314.624	749.75
314.853	757.75
315.083	756.75
315.312	782.75
315.542	765.75
315.771	766.75
316.001	766.75
316.23	752.75
316.46	756.75
316.689	741.75
316.919	751.75
317.148	764.75
317.377	767.75
317.607	773.75
317.836	774.75
318.065	767.75
318.295	796.75
318.524	782.75
318.753	769.75
318.983	765.75
319.212	739.75
319.441	778.75
319.67	766.75
319.9	763.75
320.129	743.75
320.358	795.75
320.587	781.75
320.816	774.75
321.046	781.75
321.275	801.75
321.504	776.75
321.733	783.75
321.962	786.75
322.191	823.75
322.42	792.75
322.649	797.75
322.878	777.75
323.108	774.75
323.337	790.75
323.566	810.75
323.795	792.75
324.024	799.75
324.253	802.75
324.482	807.75
324.71	800.75
324.939	832.75
325.168	800.75
325.397	788.75
325.626	815.75
325.855	829.75
326.084	827.75
326.313	832.75
326.542	826.75
326.77	854.75
326.999	830.75
327.228	816.75
327.457	820.75
327.686	845.75
327.914	845.75
328.143	852.75
328.372	838.75
328.6	838.75
328.829	839.75
329.058	834.75
329.287	830.75
329.515	889.75
329.744	842.75
329.972	862.75
330.201	865.75
330.43	892.75
330.658	875.75
330.887	872.75
331.115	874.75
331.344	852.75
331.572	851.75
331.801	860.75
332.03	883.75
332.258	932.75
332.486	945.75
332.715	903.75
332.943	930.75
333.172	946.75
333.4	949.75
333.629	957.75
333.857	987.75
334.085	1022.75
334.314	971.75
334.542	1013.75
334.771	1019.75
334.999	1015.75
335.227	1014.75
335.455	994.75
335.684	978.75
335.912	997.75
336.14	979.75
336.369	972.75
336.597	1000.75
336.825	967.75
337.053	971.75
337.281	977.75
337.51	944.75
337.738	953.75
337.966	964.75
338.194	944.75
338.422	946.75
338.65	925.75
338.878	938.75
339.106	919.75
339.334	918.75
339.562	918.75
339.79	910.75
340.018	917.75
340.246	904.75
340.474	916.75
340.702	888.75
340.93	887.75
341.158	888.75
341.386	914.75
341.614	932.75
341.842	904.75
342.07	892.75
342.298	895.75
342.526	892.75
342.754	925.75
342.981	905.75
343.209	897.75
343.437	946.75
343.665	948.75
343.893	974.75
344.12	1015.75
344.348	983.75
344.576	970.75
344.804	959.75
345.031	918.75
345.259	922.75
345.487	922.75
345.714	911.75
345.942	920.75
346.17	876.75
346.397	896.75
346.625	855.75
346.853	856.75
347.08	847.75
347.308	854.75
347.535	846.75
347.763	851.75
347.99	868.75
348.218	855.75
348.445	874.75
348.673	868.75
348.9	865.75
349.128	846.75
349.355	836.75
349.583	836.75
349.81	827.75
350.037	867.75
350.265	855.75
350.492	859.75
350.72	851.75
350.947	850.75
351.174	870.75
351.402	857.75
351.629	858.75
351.856	839.75
352.083	829.75
352.311	839.75
352.538	836.75
352.765	854.75
352.992	866.75
353.22	836.75
353.447	849.75
353.674	855.75
353.901	844.75
354.128	847.75
354.355	829.75
354.583	854.75
354.81	862.75
355.037	824.75
355.264	822.75
355.491	844.75
355.718	822.75
355.945	833.75
356.172	841.75
356.399	869.75
356.626	881.75
356.853	871.75
357.08	867.75
357.307	859.75
357.534	864.75
357.761	856.75
357.988	877.75
358.215	868.75
358.441	866.75
358.668	891.75
358.895	868.75
359.122	842.75
359.349	839.75
359.576	862.75
359.802	824.75
360.029	838.75
360.256	860.75
360.483	840.75
360.709	880.75
360.936	860.75
361.163	832.75
361.39	852.75
361.616	849.75
361.843	867.75
362.07	887.75
362.296	868.75
362.523	868.75
362.749	860.75
362.976	877.75
363.203	884.75
363.429	869.75
363.656	867.75
363.882	868.75
364.109	864.75
364.335	876.75
364.562	870.75
364.788	867.75
365.015	886.75
365.241	874.75
365.468	869.75
365.694	858.75
365.92	888.75
366.147	896.75
366.373	862.75
366.599	854.75
366.826	853.75
367.052	896.75
367.278	882.75
367.505	916.75
367.731	924.75
367.957	876.75
368.184	892.75
368.41	886.75
368.636	885.75
368.862	916.75
369.089	892.75
369.315	902.75
369.541	899.75
369.767	917.75
369.993	908.75
370.219	903.75
370.445	924.75
370.672	938.75
370.898	936.75
371.124	928.75
371.35	931.75
371.576	927.75
371.802	949.75
372.028	948.75
372.254	976.75
372.48	1006.75
372.706	942.75
372.932	955.75
373.158	957.75
373.384	977.75
373.61	987.75
373.835	987.75
374.061	955.75
374.287	973.75
374.513	962.75
374.739	990.75
374.965	1006.75
375.191	1006.75
375.416	1008.75
375.642	986.75
375.868	983.75
376.094	972.75
376.319	956.75
376.545	954.75
376.771	964.75
376.997	964.75
377.222	930.75
377.448	952.75
377.674	940.75
377.899	953.75
378.125	929.75
378.35	942.75
378.576	919.75
378.802	932.75
379.027	924.75
379.253	948.75
379.478	934.75
379.704	950.75
379.929	962.75
380.155	960.75
380.38	958.75
380.606	970.75
380.831	943.75
381.057	961.75
381.282	959.75
381.507	958.75
381.733	989.75
381.958	977.75
382.184	1002.75
382.409	1017.75
382.634	1043.75
382.86	1021.75
383.085	1011.75
383.31	1055.75
383.535	1008.75
383.761	1024.75
383.986	1031.75
384.211	1058.75
384.436	1030.75
384.662	1088.75
384.887	1095.75
385.112	1063.75
385.337	1088.75
385.562	1113.75
385.787	1101.75
386.013	1082.75
386.238	1099.75
386.463	1117.75
386.688	1147.75
386.913	1123.75
387.138	1107.75
387.363	1109.75
387.588	1115.75
387.813	1107.75
388.038	1117.75
388.263	1151.75
388.488	1160.75
388.713	1136.75
388.938	1142.75
389.163	1115.75
389.387	1150.75
389.612	1108.75
389.837	1150.75
390.062	1086.75
390.287	1103.75
390.512	1144.75
390.736	1152.75
390.961	1117.75
391.186	1142.75
391.411	1204.75
391.636	1205.75
391.86	1190.75
392.085	1220.75
392.31	1204.75
392.534	1189.75
392.759	1229.75
392.984	1209.75
393.208	1183.75
393.433	1160.75
393.658	1186.75
393.882	1202.75
394.107	1174.75
394.331	1168.75
394.556	1169.75
394.78	1206.75
395.005	1181.75
395.229	1253.75
395.454	1202.75
395.678	1241.75
395.903	1229.75
396.127	1191.75
396.352	1208.75
396.576	1237.75
396.801	1226.75
397.025	1219.75
397.249	1310.75
397.474	1290.75
397.698	1243.75
397.922	1282.75
398.147	1281.75
398.371	1298.75
398.595	1355.75
398.82	1371.75
399.044	1431.75
399.268	1467.75
399.492	1582.75
399.717	1653.75
399.941	1649.75
400.165	1633.75
400.389	1615.75
400.613	1505.75
400.837	1453.75
401.062	1445.75
401.286	1393.75
401.51	1424.75
401.734	1368.75
401.958	1404.75
402.182	1357.75
402.406	1349.75
402.63	1372.75
402.854	1376.75
403.078	1392.75
403.302	1432.75
403.526	1401.75
403.75	1402.75
403.974	1393.75
404.198	1368.75
404.422	1413.75
404.645	1428.75
404.869	1423.75
405.093	1403.75
405.317	1418.75
405.541	1424.75
405.765	1435.75
405.988	1425.75
406.212	1436.75
406.436	1455.75
406.66	1480.75
406.883	1511.75
407.107	1528.75
407.331	1568.75
407.555	1618.75
407.778	1598.75
408.002	1580.75
408.226	1587.75
408.449	1561.75
408.673	1528.75
408.896	1506.75
409.12	1529.75
409.344	1497.75
409.567	1450.75
409.791	1431.75
410.014	1478.75
410.238	1448.75
410.461	1457.75
410.685	1426.75
410.908	1422.75
411.132	1434.75
411.355	1413.75
411.578	1406.75
411.802	1408.75
412.025	1383.75
412.249	1419.75
412.472	1456.75
412.695	1436.75
412.919	1402.75
413.142	1399.75
413.365	1386.75
413.589	1394.75
413.812	1343.75
414.035	1384.75
414.258	1373.75
414.482	1388.75
414.705	1386.75
414.928	1365.75
415.151	1358.75
415.374	1384.75
415.597	1313.75
415.821	1335.75
416.044	1360.75
416.267	1337.75
416.49	1324.75
416.713	1316.75
416.936	1294.75
417.159	1284.75
417.382	1236.75
417.605	1322.75
417.828	1280.75
418.051	1341.75
418.274	1318.75
418.497	1294.75
418.72	1343.75
418.943	1327.75
419.166	1373.75
419.389	1477.75
419.611	1444.75
419.834	1415.75
420.057	1405.75
420.28	1352.75
420.503	1290.75
420.726	1312.75
420.948	1292.75
421.171	1291.75
421.394	1307.75
421.617	1311.75
421.839	1312.75
422.062	1314.75
422.285	1274.75
422.507	1346.75
422.73	1300.75
422.953	1328.75
423.175	1355.75
423.398	1302.75
423.621	1289.75
423.843	1301.75
424.066	1346.75
424.288	1299.75
424.511	1315.75
424.733	1308.75
424.956	1313.75
425.178	1285.75
425.401	1289.75
425.623	1294.75
425.846	1276.75
426.068	1248.75
426.291	1286.75
426.513	1276.75
426.735	1260.75
426.958	1288.75
427.18	1266.75
427.402	1267.75
427.625	1266.75
427.847	1236.75
428.069	1241.75
428.292	1246.75
428.514	1239.75
428.736	1184.75
428.958	1243.75
429.181	1227.75
429.403	1191.75
429.625	1224.75
429.847	1228.75
430.069	1197.75
430.292	1227.75
430.514	1230.75
430.736	1234.75
430.958	1232.75
431.18	1219.75
431.402	1233.75
431.624	1211.75
431.846	1234.75
432.068	1234.75
432.29	1269.75
432.512	1259.75
432.734	1305.75
432.956	1243.75
433.178	1240.75
433.4	1247.75
433.622	1265.75
433.844	1261.75
434.066	1276.75
434.287	1288.75
434.509	1274.75
434.731	1283.75
434.953	1283.75
435.175	1299.75
435.397	1352.75
435.618	1282.75
435.84	1274.75
436.062	1292.75
436.284	1242.75
436.505	1235.75
436.727	1221.75
436.949	1232.75
437.17	1240.75
437.392	1202.75
437.614	1194.75
437.835	1214.75
438.057	1223.75
438.278	1210.75
438.5	1237.75
438.721	1196.75
438.943	1208.75
439.165	1175.75
439.386	1191.75
439.608	1208.75
439.829	1208.75
440.05	1204.75
440.272	1204.75
440.493	1219.75
440.715	1237.75
440.936	1216.75
441.158	1258.75
441.379	1262.75
441.6	1301.75
441.822	1282.75
442.043	1315.75
442.264	1277.75
442.486	1255.75
442.707	1310.75
442.928	1253.75
443.149	1295.75
443.371	1268.75
443.592	1266.75
443.813	1304.75
444.034	1292.75
444.255	1360.75
444.476	1324.75
444.698	1366.75
444.919	1375.75
445.14	1467.75
445.361	1368.75
445.582	1315.75
445.803	1295.75
446.024	1250.75
446.245	1279.75
446.466	1253.75
446.687	1230.75
446.908	1249.75
447.129	1200.75
447.35	1198.75
447.571	1194.75
447.792	1207.75
448.013	1167.75
448.234	1184.75
448.455	1160.75
448.675	1125.75
448.896	1150.75
449.117	1137.75
449.338	1124.75
449.559	1121.75
449.779	1113.75
450	1115.75
450.221	1110.75
450.442	1121.75
450.662	1103.75
450.883	1114.75
451.104	1139.75
451.324	1114.75
451.545	1111.75
451.766	1104.75
451.986	1085.75
452.207	1095.75
452.428	1080.75
452.648	1114.75
452.869	1090.75
453.089	1095.75
453.31	1069.75
453.53	1077.75
453.751	1089.75
453.971	1049.75
454.192	1088.75
454.412	1064.75
454.633	1088.75
454.853	1090.75
455.073	1062.75
455.294	1085.75
455.514	1034.75
455.734	1080.75
455.955	1088.75
456.175	1068.75
456.395	1072.75
456.616	1080.75
456.836	1053.75
457.056	1088.75
457.276	1036.75
457.497	1121.75
457.717	1073.75
457.937	1079.75
458.157	1099.75
458.377	1106.75
458.598	1133.75
458.818	1122.75
459.038	1151.75
459.258	1180.75
459.478	1224.75
459.698	1235.75
459.918	1242.75
460.138	1243.75
460.358	1315.75
460.578	1341.75
460.798	1324.75
461.018	1345.75
461.238	1376.75
461.458	1365.75
461.678	1356.75
461.898	1397.75
462.118	1374.75
462.338	1398.75
462.558	1420.75
462.777	1470.75
462.997	1526.75
463.217	1562.75
463.437	1587.75
463.657	1526.75
463.876	1533.75
464.096	1490.75
464.316	1506.75
464.536	1447.75
464.755	1455.75
464.975	1410.75
465.195	1389.75
465.414	1356.75
465.634	1292.75
465.854	1267.75
466.073	1259.75
466.293	1258.75
466.512	1248.75
466.732	1226.75
466.951	1214.75
467.171	1232.75
467.391	1206.75
467.61	1194.75
467.829	1173.75
468.049	1207.75
468.268	1168.75
468.488	1186.75
468.707	1158.75
468.927	1178.75
469.146	1185.75
469.365	1222.75
469.585	1187.75
469.804	1176.75
470.023	1216.75
470.243	1168.75
470.462	1199.75
470.681	1228.75
470.901	1196.75
471.12	1231.75
471.339	1232.75
471.558	1181.75
471.777	1233.75
471.997	1158.75
472.216	1178.75
472.435	1187.75
472.654	1160.75
472.873	1172.75
473.092	1213.75
473.311	1182.75
473.53	1176.75
473.749	1183.75
473.968	1180.75
474.187	1145.75
474.406	1199.75
474.625	1180.75
474.844	1188.75
475.063	1195.75
475.282	1210.75
475.501	1220.75
475.72	1207.75
475.939	1210.75
476.158	1224.75
476.377	1226.75
476.596	1274.75
476.814	1322.75
477.033	1286.75
477.252	1292.75
477.471	1286.75
477.69	1327.75
477.908	1351.75
478.127	1376.75
478.346	1342.75
478.564	1386.75
478.783	1400.75
479.002	1400.75
479.22	1392.75
479.439	1506.75
479.658	1423.75
479.876	1412.75
480.095	1475.75
480.313	1474.75
480.532	1478.75
480.751	1467.75
480.969	1458.75
481.188	1457.75
481.406	1449.75
481.624	1429.75
481.843	1391.75
482.061	1433.75
482.28	1416.75
482.498	1409.75
482.717	1381.75
482.935	1386.75
483.153	1428.75
483.372	1410.75
483.59	1413.75
483.808	1386.75
484.027	1402.75
484.245	1434.75
484.463	1400.75
484.681	1471.75
484.9	1460.75
485.118	1431.75
485.336	1403.75
485.554	1463.75
485.772	1436.75
485.99	1432.75
486.209	1395.75
486.427	1412.75
486.645	1424.75
486.863	1419.75
487.081	1424.75
487.299	1446.75
487.517	1450.75
487.735	1440.75
487.953	1454.75
488.171	1469.75
488.389	1471.75
488.607	1425.75
488.825	1440.75
489.043	1410.75
489.261	1425.75
489.479	1451.75
489.696	1418.75
489.914	1428.75
490.132	1429.75
490.35	1450.75
490.568	1452.75
490.786	1442.75
491.003	1474.75
491.221	1476.75
491.439	1479.75
491.657	1480.75
491.874	1467.75
492.092	1453.75
492.31	1455.75
492.527	1496.75
492.745	1496.75
492.963	1496.75
493.18	1500.75
493.398	1492.75
493.615	1491.75
493.833	1496.75
494.05	1503.75
494.268	1519.75
494.485	1517.75
