Data from Fe(NO3)3@0.1M.TitratingCurve.Agarose3%dH2O.NegLispCup.LampEnergy10.LIBS07252019_HRD10591_16-37-59-331.txt Node
Date: Thu Jul 25 16:37:59 EDT 2019
User: cochatt
Spectrometer: HR+D1059
Trigger mode: 1
Integration Time (sec): 1.000000E-1
Scans to average: 1
Electric dark correction enabled: true
Nonlinearity correction enabled: false
Boxcar width: 0
XAxis mode: Wavelengths
Number of Pixels in Spectrum: 2048
>>>>>Begin Spectral Data<<<<<
223.165	-6.19
223.4	-6.19
223.635	-6.19
223.869	-21.19
224.104	-13.19
224.338	-18.19
224.573	-25.19
224.808	-6.19
225.042	-11.19
225.277	8.81
225.511	-4.19
225.746	7.81
225.98	-5.19
226.215	4.81
226.449	19.81
226.683	9.81
226.918	16.81
227.152	42.81
227.387	39.81
227.621	30.81
227.856	47.81
228.09	43.81
228.324	49.81
228.559	57.81
228.793	57.81
229.027	80.81
229.262	113.81
229.496	97.81
229.73	85.81
229.964	105.81
230.199	109.81
230.433	98.81
230.667	113.81
230.901	118.81
231.136	120.81
231.37	102.81
231.604	117.81
231.838	100.81
232.072	98.81
232.306	123.81
232.541	123.81
232.775	118.81
233.009	115.81
233.243	134.81
233.477	125.81
233.711	134.81
233.945	128.81
234.179	127.81
234.413	123.81
234.647	106.81
234.881	117.81
235.115	135.81
235.349	121.81
235.583	142.81
235.817	127.81
236.051	109.81
236.285	126.81
236.519	127.81
236.753	121.81
236.987	122.81
237.221	129.81
237.455	135.81
237.689	137.81
237.922	133.81
238.156	133.81
238.39	136.81
238.624	141.81
238.858	133.81
239.091	137.81
239.325	132.81
239.559	142.81
239.793	135.81
240.027	141.81
240.26	133.81
240.494	136.81
240.728	154.81
240.961	150.81
241.195	137.81
241.429	132.81
241.662	143.81
241.896	135.81
242.13	139.81
242.363	137.81
242.597	152.81
242.83	141.81
243.064	144.81
243.298	147.81
243.531	158.81
243.765	155.81
243.998	157.81
244.232	159.81
244.465	154.81
244.699	157.81
244.932	154.81
245.166	157.81
245.399	174.81
245.633	185.81
245.866	162.81
246.099	149.81
246.333	163.81
246.566	153.81
246.8	162.81
247.033	185.81
247.266	163.81
247.5	155.81
247.733	170.81
247.966	157.81
248.2	177.81
248.433	168.81
248.666	167.81
248.899	162.81
249.133	170.81
249.366	177.81
249.599	173.81
249.832	186.81
250.066	191.81
250.299	164.81
250.532	180.81
250.765	185.81
250.998	179.81
251.231	192.81
251.465	166.81
251.698	189.81
251.931	185.81
252.164	185.81
252.397	190.81
252.63	193.81
252.863	200.81
253.096	199.81
253.329	189.81
253.562	183.81
253.795	195.81
254.028	202.81
254.261	204.81
254.494	195.81
254.727	206.81
254.96	197.81
255.193	208.81
255.426	212.81
255.659	208.81
255.892	206.81
256.124	197.81
256.357	193.81
256.59	203.81
256.823	209.81
257.056	205.81
257.289	204.81
257.521	217.81
257.754	201.81
257.987	197.81
258.22	207.81
258.452	197.81
258.685	209.81
258.918	219.81
259.151	216.81
259.383	220.81
259.616	227.81
259.849	217.81
260.081	223.81
260.314	251.81
260.547	231.81
260.779	223.81
261.012	224.81
261.244	222.81
261.477	224.81
261.71	219.81
261.942	215.81
262.175	229.81
262.407	221.81
262.64	218.81
262.872	238.81
263.105	229.81
263.337	242.81
263.57	244.81
263.802	235.81
264.035	221.81
264.267	219.81
264.499	235.81
264.732	236.81
264.964	233.81
265.197	221.81
265.429	233.81
265.661	237.81
265.894	236.81
266.126	235.81
266.358	243.81
266.591	223.81
266.823	255.81
267.055	245.81
267.287	246.81
267.52	233.81
267.752	236.81
267.984	255.81
268.216	265.81
268.448	243.81
268.681	248.81
268.913	262.81
269.145	251.81
269.377	252.81
269.609	264.81
269.841	253.81
270.073	269.81
270.306	267.81
270.538	262.81
270.77	274.81
271.002	261.81
271.234	269.81
271.466	268.81
271.698	270.81
271.93	280.81
272.162	284.81
272.394	277.81
272.626	262.81
272.858	275.81
273.09	270.81
273.322	271.81
273.553	282.81
273.785	292.81
274.017	285.81
274.249	282.81
274.481	295.81
274.713	300.81
274.945	300.81
275.176	292.81
275.408	294.81
275.64	284.81
275.872	299.81
276.104	282.81
276.335	287.81
276.567	292.81
276.799	282.81
277.031	291.81
277.262	293.81
277.494	279.81
277.726	295.81
277.957	299.81
278.189	300.81
278.421	300.81
278.652	289.81
278.884	293.81
279.115	300.81
279.347	290.81
279.579	302.81
279.81	299.81
280.042	322.81
280.273	319.81
280.505	286.81
280.736	302.81
280.968	293.81
281.199	295.81
281.431	325.81
281.662	309.81
281.894	309.81
282.125	289.81
282.356	306.81
282.588	315.81
282.819	321.81
283.051	310.81
283.282	294.81
283.513	327.81
283.745	314.81
283.976	291.81
284.207	333.81
284.439	324.81
284.67	335.81
284.901	322.81
285.132	322.81
285.364	348.81
285.595	330.81
285.826	323.81
286.057	333.81
286.288	326.81
286.52	341.81
286.751	322.81
286.982	329.81
287.213	341.81
287.444	339.81
287.675	338.81
287.906	327.81
288.138	335.81
288.369	337.81
288.6	345.81
288.831	327.81
289.062	357.81
289.293	350.81
289.524	322.81
289.755	330.81
289.986	336.81
290.217	353.81
290.448	356.81
290.679	344.81
290.91	350.81
291.141	345.81
291.371	348.81
291.602	348.81
291.833	349.81
292.064	332.81
292.295	334.81
292.526	356.81
292.757	341.81
292.987	334.81
293.218	354.81
293.449	336.81
293.68	332.81
293.91	339.81
294.141	338.81
294.372	354.81
294.603	330.81
294.833	342.81
295.064	341.81
295.295	352.81
295.525	338.81
295.756	351.81
295.987	352.81
296.217	373.81
296.448	343.81
296.679	339.81
296.909	356.81
297.14	357.81
297.37	369.81
297.601	371.81
297.831	376.81
298.062	372.81
298.292	350.81
298.523	356.81
298.753	378.81
298.984	379.81
299.214	373.81
299.445	367.81
299.675	369.81
299.905	369.81
300.136	360.81
300.366	377.81
300.597	369.81
300.827	372.81
301.057	398.81
301.288	388.81
301.518	372.81
301.748	397.81
301.979	373.81
302.209	384.81
302.439	386.81
302.669	412.81
302.9	381.81
303.13	385.81
303.36	352.81
303.59	388.81
303.82	404.81
304.051	399.81
304.281	393.81
304.511	377.81
304.741	392.81
304.971	386.81
305.201	391.81
305.431	390.81
305.661	395.81
305.891	380.81
306.121	390.81
306.352	371.81
306.582	387.81
306.812	388.81
307.042	371.81
307.272	369.81
307.502	381.81
307.731	374.81
307.961	374.81
308.191	389.81
308.421	398.81
308.651	391.81
308.881	387.81
309.111	387.81
309.341	392.81
309.571	399.81
309.8	383.81
310.03	400.81
310.26	397.81
310.49	383.81
310.72	394.81
310.949	386.81
311.179	395.81
311.409	404.81
311.639	403.81
311.868	389.81
312.098	379.81
312.328	397.81
312.557	393.81
312.787	405.81
313.017	388.81
313.246	386.81
313.476	383.81
313.706	412.81
313.935	429.81
314.165	414.81
314.394	432.81
314.624	435.81
314.853	398.81
315.083	408.81
315.312	421.81
315.542	437.81
315.771	411.81
316.001	427.81
316.23	420.81
316.46	406.81
316.689	415.81
316.919	400.81
317.148	410.81
317.377	405.81
317.607	409.81
317.836	403.81
318.065	396.81
318.295	419.81
318.524	411.81
318.753	437.81
318.983	417.81
319.212	423.81
319.441	413.81
319.67	417.81
319.9	403.81
320.129	415.81
320.358	408.81
320.587	412.81
320.816	400.81
321.046	417.81
321.275	407.81
321.504	425.81
321.733	420.81
321.962	413.81
322.191	407.81
322.42	406.81
322.649	433.81
322.878	408.81
323.108	414.81
323.337	435.81
323.566	419.81
323.795	417.81
324.024	438.81
324.253	423.81
324.482	420.81
324.71	419.81
324.939	441.81
325.168	420.81
325.397	446.81
325.626	440.81
325.855	437.81
326.084	440.81
326.313	445.81
326.542	459.81
326.77	463.81
326.999	456.81
327.228	449.81
327.457	446.81
327.686	441.81
327.914	448.81
328.143	443.81
328.372	439.81
328.6	441.81
328.829	430.81
329.058	467.81
329.287	454.81
329.515	467.81
329.744	455.81
329.972	462.81
330.201	455.81
330.43	464.81
330.658	439.81
330.887	465.81
331.115	463.81
331.344	461.81
331.572	474.81
331.801	485.81
332.03	485.81
332.258	481.81
332.486	499.81
332.715	509.81
332.943	539.81
333.172	550.81
333.4	565.81
333.629	579.81
333.857	575.81
334.085	557.81
334.314	548.81
334.542	559.81
334.771	539.81
334.999	540.81
335.227	553.81
335.455	553.81
335.684	557.81
335.912	562.81
336.14	541.81
336.369	540.81
336.597	543.81
336.825	538.81
337.053	549.81
337.281	523.81
337.51	525.81
337.738	510.81
337.966	502.81
338.194	505.81
338.422	478.81
338.65	496.81
338.878	492.81
339.106	492.81
339.334	495.81
339.562	506.81
339.79	466.81
340.018	493.81
340.246	483.81
340.474	478.81
340.702	458.81
340.93	476.81
341.158	484.81
341.386	485.81
341.614	482.81
341.842	489.81
342.07	479.81
342.298	461.81
342.526	475.81
342.754	490.81
342.981	465.81
343.209	493.81
343.437	501.81
343.665	515.81
343.893	509.81
344.12	543.81
344.348	538.81
344.576	526.81
344.804	504.81
345.031	492.81
345.259	493.81
345.487	471.81
345.714	472.81
345.942	467.81
346.17	479.81
346.397	471.81
346.625	451.81
346.853	456.81
347.08	447.81
347.308	451.81
347.535	449.81
347.763	458.81
347.99	460.81
348.218	462.81
348.445	452.81
348.673	461.81
348.9	468.81
349.128	445.81
349.355	459.81
349.583	463.81
349.81	475.81
350.037	446.81
350.265	431.81
350.492	443.81
350.72	424.81
350.947	431.81
351.174	442.81
351.402	455.81
351.629	452.81
351.856	461.81
352.083	445.81
352.311	442.81
352.538	437.81
352.765	452.81
352.992	451.81
353.22	458.81
353.447	460.81
353.674	441.81
353.901	431.81
354.128	436.81
354.355	424.81
354.583	468.81
354.81	444.81
355.037	453.81
355.264	467.81
355.491	439.81
355.718	456.81
355.945	431.81
356.172	445.81
356.399	439.81
356.626	457.81
356.853	451.81
357.08	438.81
357.307	457.81
357.534	450.81
357.761	438.81
357.988	440.81
358.215	457.81
358.441	456.81
358.668	461.81
358.895	440.81
359.122	471.81
359.349	451.81
359.576	442.81
359.802	451.81
360.029	443.81
360.256	450.81
360.483	456.81
360.709	450.81
360.936	457.81
361.163	448.81
361.39	439.81
361.616	451.81
361.843	434.81
362.07	442.81
362.296	453.81
362.523	461.81
362.749	463.81
362.976	456.81
363.203	473.81
363.429	469.81
363.656	466.81
363.882	441.81
364.109	460.81
364.335	443.81
364.562	439.81
364.788	460.81
365.015	457.81
365.241	459.81
365.468	458.81
365.694	459.81
365.92	455.81
366.147	459.81
366.373	451.81
366.599	460.81
366.826	448.81
367.052	450.81
367.278	464.81
367.505	458.81
367.731	465.81
367.957	437.81
368.184	466.81
368.41	464.81
368.636	469.81
368.862	471.81
369.089	461.81
369.315	464.81
369.541	475.81
369.767	476.81
369.993	488.81
370.219	481.81
370.445	481.81
370.672	483.81
370.898	484.81
371.124	490.81
371.35	476.81
371.576	497.81
371.802	497.81
372.028	478.81
372.254	517.81
372.48	488.81
372.706	500.81
372.932	499.81
373.158	491.81
373.384	503.81
373.61	505.81
373.835	511.81
374.061	503.81
374.287	497.81
374.513	502.81
374.739	532.81
374.965	521.81
375.191	517.81
375.416	525.81
375.642	515.81
375.868	543.81
376.094	517.81
376.319	511.81
376.545	505.81
376.771	497.81
376.997	487.81
377.222	514.81
377.448	493.81
377.674	499.81
377.899	488.81
378.125	506.81
378.35	477.81
378.576	507.81
378.802	477.81
379.027	500.81
379.253	493.81
379.478	498.81
379.704	507.81
379.929	489.81
380.155	480.81
380.38	503.81
380.606	508.81
380.831	508.81
381.057	510.81
381.282	500.81
381.507	495.81
381.733	486.81
381.958	493.81
382.184	519.81
382.409	545.81
382.634	517.81
382.86	524.81
383.085	517.81
383.31	539.81
383.535	534.81
383.761	553.81
383.986	553.81
384.211	549.81
384.436	551.81
384.662	554.81
384.887	581.81
385.112	579.81
385.337	569.81
385.562	573.81
385.787	578.81
386.013	603.81
386.238	629.81
386.463	589.81
386.688	592.81
386.913	574.81
387.138	578.81
387.363	567.81
387.588	567.81
387.813	588.81
388.038	577.81
388.263	589.81
388.488	583.81
388.713	582.81
388.938	586.81
389.163	583.81
389.387	593.81
389.612	594.81
389.837	575.81
390.062	587.81
390.287	602.81
390.512	607.81
390.736	600.81
390.961	604.81
391.186	601.81
391.411	603.81
391.636	634.81
391.86	626.81
392.085	637.81
392.31	673.81
392.534	605.81
392.759	625.81
392.984	599.81
393.208	633.81
393.433	623.81
393.658	631.81
393.882	613.81
394.107	613.81
394.331	635.81
394.556	615.81
394.78	622.81
395.005	620.81
395.229	633.81
395.454	651.81
395.678	638.81
395.903	654.81
396.127	671.81
396.352	641.81
396.576	662.81
396.801	648.81
397.025	631.81
397.249	629.81
397.474	666.81
397.698	673.81
397.922	669.81
398.147	679.81
398.371	681.81
398.595	717.81
398.82	720.81
399.044	762.81
399.268	808.81
399.492	903.81
399.717	969.81
399.941	980.81
400.165	923.81
400.389	851.81
400.613	790.81
400.837	781.81
401.062	764.81
401.286	738.81
401.51	728.81
401.734	747.81
401.958	742.81
402.182	756.81
402.406	756.81
402.63	756.81
402.854	743.81
403.078	771.81
403.302	778.81
403.526	767.81
403.75	775.81
403.974	810.81
404.198	791.81
404.422	794.81
404.645	790.81
404.869	785.81
405.093	784.81
405.317	761.81
405.541	789.81
405.765	786.81
405.988	785.81
406.212	773.81
406.436	796.81
406.66	806.81
406.883	805.81
407.107	864.81
407.331	851.81
407.555	893.81
407.778	865.81
408.002	859.81
408.226	853.81
408.449	850.81
408.673	814.81
408.896	843.81
409.12	811.81
409.344	818.81
409.567	814.81
409.791	830.81
410.014	832.81
410.238	808.81
410.461	813.81
410.685	800.81
410.908	796.81
411.132	796.81
411.355	745.81
411.578	749.81
411.802	755.81
412.025	732.81
412.249	747.81
412.472	766.81
412.695	772.81
412.919	759.81
413.142	745.81
413.365	741.81
413.589	758.81
413.812	748.81
414.035	725.81
414.258	752.81
414.482	746.81
414.705	736.81
414.928	749.81
415.151	748.81
415.374	736.81
415.597	745.81
415.821	723.81
416.044	710.81
416.267	725.81
416.49	694.81
416.713	699.81
416.936	710.81
417.159	714.81
417.382	679.81
417.605	699.81
417.828	723.81
418.051	728.81
418.274	730.81
418.497	724.81
418.72	718.81
418.943	717.81
419.166	758.81
419.389	803.81
419.611	782.81
419.834	753.81
420.057	728.81
420.28	713.81
420.503	726.81
420.726	712.81
420.948	699.81
421.171	708.81
421.394	717.81
421.617	695.81
421.839	723.81
422.062	716.81
422.285	713.81
422.507	753.81
422.73	733.81
422.953	757.81
423.175	718.81
423.398	743.81
423.621	735.81
423.843	737.81
424.066	733.81
424.288	706.81
424.511	725.81
424.733	718.81
424.956	687.81
425.178	693.81
425.401	669.81
425.623	707.81
425.846	696.81
426.068	687.81
426.291	697.81
426.513	687.81
426.735	691.81
426.958	711.81
427.18	677.81
427.402	668.81
427.625	661.81
427.847	629.81
428.069	670.81
428.292	649.81
428.514	651.81
428.736	651.81
428.958	664.81
429.181	645.81
429.403	619.81
429.625	646.81
429.847	643.81
430.069	621.81
430.292	647.81
430.514	646.81
430.736	648.81
430.958	652.81
431.18	637.81
431.402	659.81
431.624	650.81
431.846	630.81
432.068	643.81
432.29	661.81
432.512	657.81
432.734	627.81
432.956	635.81
433.178	672.81
433.4	646.81
433.622	650.81
433.844	639.81
434.066	674.81
434.287	649.81
434.509	692.81
434.731	702.81
434.953	702.81
435.175	713.81
435.397	712.81
435.618	686.81
435.84	681.81
436.062	659.81
436.284	643.81
436.505	654.81
436.727	653.81
436.949	667.81
437.17	652.81
437.392	639.81
437.614	614.81
437.835	637.81
438.057	639.81
438.278	626.81
438.5	615.81
438.721	630.81
438.943	629.81
439.165	635.81
439.386	613.81
439.608	643.81
439.829	656.81
440.05	647.81
440.272	651.81
440.493	649.81
440.715	653.81
440.936	664.81
441.158	662.81
441.379	659.81
441.6	689.81
441.822	719.81
442.043	710.81
442.264	678.81
442.486	673.81
442.707	679.81
442.928	653.81
443.149	683.81
443.371	662.81
443.592	701.81
443.813	714.81
444.034	696.81
444.255	755.81
444.476	767.81
444.698	769.81
444.919	779.81
445.14	893.81
445.361	785.81
445.582	711.81
445.803	697.81
446.024	669.81
446.245	699.81
446.466	687.81
446.687	645.81
446.908	680.81
447.129	645.81
447.35	623.81
447.571	634.81
447.792	637.81
448.013	631.81
448.234	587.81
448.455	603.81
448.675	639.81
448.896	620.81
449.117	569.81
449.338	601.81
449.559	583.81
449.779	588.81
450	592.81
450.221	591.81
450.442	605.81
450.662	604.81
450.883	606.81
451.104	606.81
451.324	595.81
451.545	609.81
451.766	607.81
451.986	615.81
452.207	582.81
452.428	581.81
452.648	582.81
452.869	598.81
453.089	578.81
453.31	579.81
453.53	580.81
453.751	578.81
453.971	568.81
454.192	589.81
454.412	572.81
454.633	563.81
454.853	569.81
455.073	573.81
455.294	577.81
455.514	550.81
455.734	565.81
455.955	542.81
456.175	561.81
456.395	540.81
456.616	548.81
456.836	588.81
457.056	546.81
457.276	555.81
457.497	578.81
457.717	567.81
457.937	569.81
458.157	587.81
458.377	588.81
458.598	595.81
458.818	595.81
459.038	602.81
459.258	626.81
459.478	657.81
459.698	651.81
459.918	675.81
460.138	715.81
460.358	729.81
460.578	724.81
460.798	753.81
461.018	755.81
461.238	742.81
461.458	728.81
461.678	717.81
461.898	746.81
462.118	771.81
462.338	794.81
462.558	791.81
462.777	830.81
462.997	857.81
463.217	910.81
463.437	941.81
463.657	846.81
463.876	816.81
464.096	805.81
464.316	843.81
464.536	839.81
464.755	805.81
464.975	796.81
465.195	773.81
465.414	753.81
465.634	694.81
465.854	680.81
466.073	680.81
466.293	677.81
466.512	662.81
466.732	620.81
466.951	636.81
467.171	649.81
467.391	651.81
467.61	641.81
467.829	624.81
468.049	617.81
468.268	627.81
468.488	623.81
468.707	605.81
468.927	610.81
469.146	609.81
469.365	605.81
469.585	596.81
469.804	615.81
470.023	649.81
470.243	608.81
470.462	635.81
470.681	639.81
470.901	631.81
471.12	634.81
471.339	639.81
471.558	625.81
471.777	629.81
471.997	610.81
472.216	621.81
472.435	619.81
472.654	589.81
472.873	606.81
473.092	595.81
473.311	589.81
473.53	604.81
473.749	603.81
473.968	573.81
474.187	605.81
474.406	581.81
474.625	598.81
474.844	590.81
475.063	599.81
475.282	599.81
475.501	595.81
475.72	617.81
475.939	610.81
476.158	635.81
476.377	619.81
476.596	634.81
476.814	645.81
477.033	645.81
477.252	642.81
477.471	643.81
477.69	685.81
477.908	668.81
478.127	685.81
478.346	701.81
478.564	698.81
478.783	691.81
479.002	712.81
479.22	719.81
479.439	729.81
479.658	711.81
479.876	723.81
480.095	727.81
480.313	738.81
480.532	760.81
480.751	748.81
480.969	755.81
481.188	723.81
481.406	734.81
481.624	707.81
481.843	706.81
482.061	697.81
482.28	687.81
482.498	671.81
482.717	688.81
482.935	693.81
483.153	670.81
483.372	708.81
483.59	684.81
483.808	696.81
484.027	686.81
484.245	697.81
484.463	695.81
484.681	693.81
484.9	716.81
485.118	717.81
485.336	698.81
485.554	703.81
485.772	706.81
485.99	705.81
486.209	714.81
486.427	717.81
486.645	724.81
486.863	711.81
487.081	717.81
487.299	683.81
487.517	719.81
487.735	715.81
487.953	729.81
488.171	706.81
488.389	707.81
488.607	701.81
488.825	706.81
489.043	701.81
489.261	711.81
489.479	709.81
489.696	708.81
489.914	715.81
490.132	718.81
490.35	736.81
490.568	735.81
490.786	731.81
491.003	704.81
491.221	724.81
491.439	715.81
491.657	733.81
491.874	724.81
492.092	733.81
492.31	711.81
492.527	709.81
492.745	705.81
492.963	699.81
493.18	741.81
493.398	737.81
493.615	733.81
493.833	778.81
494.05	754.81
494.268	735.81
494.485	743.81
494.703	749.81
494.92	749.81
495.138	754.81
495.355	743.81
495.573	779.81
495.79	773.81
496.008	762.81
496.225	756.81
496.442	825.81
496.66	800.81
496.877	801.81
497.094	806.81
497.312	817.81
497.529	851.81
497.746	850.81
497.963	912.81
498.181	921.81
498.398	945.81
498.615	992.81
498.832	1037.81
499.049	1091.81
499.267	1151.81
499.484	1212.81
499.701	1363.81
499.918	1467.81
500.135	1621.81
500.352	1745.81
500.569	1794.81
500.786	1806.81
501.003	1678.81
501.22	1575.81
501.437	1425.81
