Data from Fe(NO3)3@0.05M.TitratingCurve.Agarose3%dH2O.NegLispCup.LampEnergy10.LIBS07252019_HRD10591_16-47-48-334.txt Node
Date: Thu Jul 25 16:47:48 EDT 2019
User: cochatt
Spectrometer: HR+D1059
Trigger mode: 1
Integration Time (sec): 1.000000E-1
Scans to average: 1
Electric dark correction enabled: true
Nonlinearity correction enabled: false
Boxcar width: 0
XAxis mode: Wavelengths
Number of Pixels in Spectrum: 2048
>>>>>Begin Spectral Data<<<<<
223.165	-14.62
223.4	-14.62
223.635	-14.62
223.869	-22.62
224.104	-26.62
224.338	-5.62
224.573	-14.62
224.808	-15.62
225.042	-8.62
225.277	-2.62
225.511	-11.62
225.746	0.38
225.98	3.38
226.215	17.38
226.449	23.38
226.683	22.38
226.918	26.38
227.152	29.38
227.387	27.38
227.621	43.38
227.856	29.38
228.09	46.38
228.324	40.38
228.559	52.38
228.793	65.38
229.027	76.38
229.262	88.38
229.496	72.38
229.73	74.38
229.964	85.38
230.199	93.38
230.433	105.38
230.667	98.38
230.901	97.38
231.136	100.38
231.37	83.38
231.604	99.38
231.838	100.38
232.072	94.38
232.306	110.38
232.541	101.38
232.775	102.38
233.009	109.38
233.243	96.38
233.477	114.38
233.711	95.38
233.945	119.38
234.179	111.38
234.413	102.38
234.647	104.38
234.881	110.38
235.115	91.38
235.349	99.38
235.583	106.38
235.817	104.38
236.051	109.38
236.285	102.38
236.519	107.38
236.753	104.38
236.987	111.38
237.221	97.38
237.455	102.38
237.689	106.38
237.922	106.38
238.156	90.38
238.39	103.38
238.624	104.38
238.858	95.38
239.091	101.38
239.325	105.38
239.559	108.38
239.793	113.38
240.027	122.38
240.26	102.38
240.494	111.38
240.728	113.38
240.961	124.38
241.195	106.38
241.429	99.38
241.662	103.38
241.896	110.38
242.13	117.38
242.363	105.38
242.597	126.38
242.83	123.38
243.064	120.38
243.298	122.38
243.531	103.38
243.765	110.38
243.998	125.38
244.232	114.38
244.465	120.38
244.699	123.38
244.932	117.38
245.166	119.38
245.399	126.38
245.633	117.38
245.866	117.38
246.099	119.38
246.333	118.38
246.566	117.38
246.8	116.38
247.033	127.38
247.266	123.38
247.5	126.38
247.733	135.38
247.966	118.38
248.2	128.38
248.433	129.38
248.666	120.38
248.899	134.38
249.133	119.38
249.366	135.38
249.599	137.38
249.832	144.38
250.066	135.38
250.299	125.38
250.532	131.38
250.765	132.38
250.998	132.38
251.231	153.38
251.465	136.38
251.698	125.38
251.931	143.38
252.164	119.38
252.397	137.38
252.63	131.38
252.863	123.38
253.096	122.38
253.329	145.38
253.562	132.38
253.795	144.38
254.028	143.38
254.261	159.38
254.494	156.38
254.727	139.38
254.96	154.38
255.193	144.38
255.426	145.38
255.659	129.38
255.892	138.38
256.124	145.38
256.357	136.38
256.59	149.38
256.823	143.38
257.056	145.38
257.289	145.38
257.521	139.38
257.754	138.38
257.987	155.38
258.22	148.38
258.452	147.38
258.685	138.38
258.918	139.38
259.151	157.38
259.383	152.38
259.616	154.38
259.849	158.38
260.081	175.38
260.314	163.38
260.547	156.38
260.779	162.38
261.012	155.38
261.244	161.38
261.477	170.38
261.71	152.38
261.942	147.38
262.175	161.38
262.407	146.38
262.64	156.38
262.872	164.38
263.105	162.38
263.337	157.38
263.57	161.38
263.802	175.38
264.035	162.38
264.267	151.38
264.499	162.38
264.732	147.38
264.964	152.38
265.197	160.38
265.429	167.38
265.661	159.38
265.894	169.38
266.126	184.38
266.358	163.38
266.591	168.38
266.823	175.38
267.055	143.38
267.287	173.38
267.52	173.38
267.752	173.38
267.984	175.38
268.216	177.38
268.448	160.38
268.681	173.38
268.913	157.38
269.145	171.38
269.377	167.38
269.609	185.38
269.841	187.38
270.073	175.38
270.306	173.38
270.538	183.38
270.77	185.38
271.002	167.38
271.234	185.38
271.466	169.38
271.698	178.38
271.93	187.38
272.162	188.38
272.394	190.38
272.626	182.38
272.858	189.38
273.09	182.38
273.322	173.38
273.553	185.38
273.785	186.38
274.017	195.38
274.249	193.38
274.481	175.38
274.713	187.38
274.945	207.38
275.176	186.38
275.408	190.38
275.64	192.38
275.872	201.38
276.104	203.38
276.335	191.38
276.567	192.38
276.799	179.38
277.031	191.38
277.262	184.38
277.494	185.38
277.726	196.38
277.957	189.38
278.189	193.38
278.421	186.38
278.652	202.38
278.884	209.38
279.115	187.38
279.347	199.38
279.579	189.38
279.81	192.38
280.042	202.38
280.273	205.38
280.505	218.38
280.736	198.38
280.968	206.38
281.199	200.38
281.431	215.38
281.662	212.38
281.894	222.38
282.125	202.38
282.356	213.38
282.588	210.38
282.819	207.38
283.051	210.38
283.282	207.38
283.513	201.38
283.745	221.38
283.976	215.38
284.207	195.38
284.439	210.38
284.67	194.38
284.901	218.38
285.132	213.38
285.364	213.38
285.595	216.38
285.826	222.38
286.057	220.38
286.288	208.38
286.52	221.38
286.751	215.38
286.982	218.38
287.213	221.38
287.444	212.38
287.675	219.38
287.906	225.38
288.138	213.38
288.369	207.38
288.6	213.38
288.831	214.38
289.062	224.38
289.293	236.38
289.524	221.38
289.755	228.38
289.986	229.38
290.217	225.38
290.448	213.38
290.679	211.38
290.91	219.38
291.141	239.38
291.371	222.38
291.602	227.38
291.833	219.38
292.064	237.38
292.295	231.38
292.526	217.38
292.757	208.38
292.987	246.38
293.218	222.38
293.449	226.38
293.68	226.38
293.91	222.38
294.141	218.38
294.372	217.38
294.603	205.38
294.833	248.38
295.064	218.38
295.295	225.38
295.525	211.38
295.756	238.38
295.987	230.38
296.217	214.38
296.448	222.38
296.679	239.38
296.909	238.38
297.14	250.38
297.37	232.38
297.601	243.38
297.831	253.38
298.062	238.38
298.292	237.38
298.523	236.38
298.753	254.38
298.984	233.38
299.214	237.38
299.445	227.38
299.675	246.38
299.905	225.38
300.136	237.38
300.366	229.38
300.597	235.38
300.827	236.38
301.057	257.38
301.288	241.38
301.518	249.38
301.748	261.38
301.979	243.38
302.209	268.38
302.439	243.38
302.669	240.38
302.9	253.38
303.13	242.38
303.36	246.38
303.59	238.38
303.82	242.38
304.051	229.38
304.281	266.38
304.511	270.38
304.741	242.38
304.971	259.38
305.201	246.38
305.431	248.38
305.661	245.38
305.891	251.38
306.121	231.38
306.352	257.38
306.582	244.38
306.812	248.38
307.042	237.38
307.272	255.38
307.502	260.38
307.731	259.38
307.961	258.38
308.191	218.38
308.421	241.38
308.651	246.38
308.881	248.38
309.111	249.38
309.341	244.38
309.571	246.38
309.8	256.38
310.03	253.38
310.26	246.38
310.49	253.38
310.72	228.38
310.949	244.38
311.179	249.38
311.409	269.38
311.639	254.38
311.868	257.38
312.098	239.38
312.328	254.38
312.557	267.38
312.787	267.38
313.017	253.38
313.246	245.38
313.476	253.38
313.706	276.38
313.935	247.38
314.165	264.38
314.394	279.38
314.624	267.38
314.853	271.38
315.083	264.38
315.312	265.38
315.542	255.38
315.771	266.38
316.001	279.38
316.23	265.38
316.46	256.38
316.689	252.38
316.919	265.38
317.148	253.38
317.377	269.38
317.607	266.38
317.836	245.38
318.065	262.38
318.295	256.38
318.524	251.38
318.753	257.38
318.983	284.38
319.212	242.38
319.441	249.38
319.67	269.38
319.9	257.38
320.129	268.38
320.358	267.38
320.587	272.38
320.816	262.38
321.046	278.38
321.275	279.38
321.504	265.38
321.733	268.38
321.962	257.38
322.191	258.38
322.42	257.38
322.649	265.38
322.878	278.38
323.108	262.38
323.337	271.38
323.566	282.38
323.795	274.38
324.024	287.38
324.253	261.38
324.482	277.38
324.71	264.38
324.939	265.38
325.168	274.38
325.397	286.38
325.626	267.38
325.855	273.38
326.084	285.38
326.313	293.38
326.542	275.38
326.77	287.38
326.999	301.38
327.228	290.38
327.457	273.38
327.686	263.38
327.914	283.38
328.143	278.38
328.372	298.38
328.6	304.38
328.829	279.38
329.058	273.38
329.287	287.38
329.515	269.38
329.744	291.38
329.972	294.38
330.201	310.38
330.43	279.38
330.658	278.38
330.887	282.38
331.115	285.38
331.344	301.38
331.572	313.38
331.801	296.38
332.03	307.38
332.258	321.38
332.486	322.38
332.715	305.38
332.943	344.38
333.172	340.38
333.4	384.38
333.629	381.38
333.857	366.38
334.085	379.38
334.314	365.38
334.542	342.38
334.771	370.38
334.999	352.38
335.227	334.38
335.455	338.38
335.684	340.38
335.912	340.38
336.14	303.38
336.369	326.38
336.597	330.38
336.825	332.38
337.053	335.38
337.281	315.38
337.51	341.38
337.738	322.38
337.966	315.38
338.194	314.38
338.422	309.38
338.65	307.38
338.878	304.38
339.106	293.38
339.334	296.38
339.562	305.38
339.79	302.38
340.018	299.38
340.246	318.38
340.474	302.38
340.702	293.38
340.93	292.38
341.158	297.38
341.386	298.38
341.614	309.38
341.842	305.38
342.07	301.38
342.298	303.38
342.526	294.38
342.754	305.38
342.981	308.38
343.209	290.38
343.437	327.38
343.665	344.38
343.893	365.38
344.12	373.38
344.348	343.38
344.576	335.38
344.804	317.38
345.031	327.38
345.259	309.38
345.487	295.38
345.714	297.38
345.942	319.38
346.17	293.38
346.397	285.38
346.625	294.38
346.853	294.38
347.08	283.38
347.308	301.38
347.535	290.38
347.763	299.38
347.99	289.38
348.218	294.38
348.445	287.38
348.673	303.38
348.9	291.38
349.128	290.38
349.355	302.38
349.583	303.38
349.81	279.38
350.037	304.38
350.265	280.38
350.492	290.38
350.72	272.38
350.947	298.38
351.174	291.38
351.402	275.38
351.629	288.38
351.856	272.38
352.083	291.38
352.311	262.38
352.538	292.38
352.765	291.38
352.992	288.38
353.22	275.38
353.447	267.38
353.674	288.38
353.901	282.38
354.128	273.38
354.355	275.38
354.583	277.38
354.81	313.38
355.037	292.38
355.264	277.38
355.491	266.38
355.718	280.38
355.945	279.38
356.172	312.38
356.399	286.38
356.626	307.38
356.853	305.38
357.08	281.38
357.307	298.38
357.534	282.38
357.761	298.38
357.988	302.38
358.215	287.38
358.441	297.38
358.668	287.38
358.895	272.38
359.122	277.38
359.349	287.38
359.576	268.38
359.802	302.38
360.029	295.38
360.256	298.38
360.483	285.38
360.709	282.38
360.936	301.38
361.163	280.38
361.39	290.38
361.616	296.38
361.843	270.38
362.07	269.38
362.296	275.38
362.523	276.38
362.749	283.38
362.976	282.38
363.203	290.38
363.429	300.38
363.656	296.38
363.882	276.38
364.109	294.38
364.335	288.38
364.562	278.38
364.788	274.38
365.015	288.38
365.241	278.38
365.468	286.38
365.694	289.38
365.92	287.38
366.147	279.38
366.373	275.38
366.599	282.38
366.826	293.38
367.052	281.38
367.278	287.38
367.505	295.38
367.731	316.38
367.957	285.38
368.184	274.38
368.41	287.38
368.636	309.38
368.862	286.38
369.089	293.38
369.315	311.38
369.541	302.38
369.767	318.38
369.993	299.38
370.219	292.38
370.445	297.38
370.672	310.38
370.898	313.38
371.124	309.38
371.35	313.38
371.576	310.38
371.802	305.38
372.028	329.38
372.254	332.38
372.48	319.38
372.706	321.38
372.932	330.38
373.158	328.38
373.384	324.38
373.61	338.38
373.835	336.38
374.061	322.38
374.287	319.38
374.513	330.38
374.739	334.38
374.965	331.38
375.191	339.38
375.416	346.38
375.642	339.38
375.868	340.38
376.094	337.38
376.319	327.38
376.545	318.38
376.771	322.38
376.997	304.38
377.222	316.38
377.448	313.38
377.674	317.38
377.899	321.38
378.125	320.38
378.35	318.38
378.576	308.38
378.802	327.38
379.027	321.38
379.253	328.38
379.478	319.38
379.704	326.38
379.929	314.38
380.155	319.38
380.38	325.38
380.606	333.38
380.831	324.38
381.057	322.38
381.282	334.38
381.507	305.38
381.733	315.38
381.958	333.38
382.184	335.38
382.409	326.38
382.634	333.38
382.86	326.38
383.085	344.38
383.31	365.38
383.535	367.38
383.761	336.38
383.986	344.38
384.211	353.38
384.436	358.38
384.662	374.38
384.887	357.38
385.112	359.38
385.337	377.38
385.562	365.38
385.787	392.38
386.013	386.38
386.238	376.38
386.463	359.38
386.688	385.38
386.913	383.38
387.138	385.38
387.363	378.38
387.588	372.38
387.813	362.38
388.038	367.38
388.263	379.38
388.488	398.38
388.713	386.38
388.938	380.38
389.163	385.38
389.387	398.38
389.612	371.38
389.837	360.38
390.062	385.38
390.287	383.38
390.512	365.38
390.736	371.38
390.961	393.38
391.186	379.38
391.411	390.38
391.636	399.38
391.86	415.38
392.085	420.38
392.31	426.38
392.534	409.38
392.759	398.38
392.984	412.38
393.208	405.38
393.433	410.38
393.658	405.38
393.882	393.38
394.107	376.38
394.331	411.38
394.556	399.38
394.78	414.38
395.005	404.38
395.229	407.38
395.454	402.38
395.678	431.38
395.903	421.38
396.127	419.38
396.352	408.38
396.576	395.38
396.801	399.38
397.025	427.38
397.249	429.38
397.474	431.38
397.698	437.38
397.922	421.38
398.147	425.38
398.371	422.38
398.595	459.38
398.82	443.38
399.044	485.38
399.268	522.38
399.492	592.38
399.717	639.38
399.941	656.38
400.165	590.38
400.389	554.38
400.613	520.38
400.837	487.38
401.062	482.38
401.286	483.38
401.51	480.38
401.734	489.38
401.958	488.38
402.182	485.38
402.406	470.38
402.63	483.38
402.854	481.38
403.078	501.38
403.302	514.38
403.526	533.38
403.75	515.38
403.974	537.38
404.198	509.38
404.422	532.38
404.645	547.38
404.869	531.38
405.093	522.38
405.317	522.38
405.541	515.38
405.765	513.38
405.988	514.38
406.212	529.38
406.436	525.38
406.66	520.38
406.883	523.38
407.107	548.38
407.331	581.38
407.555	611.38
407.778	576.38
408.002	571.38
408.226	559.38
408.449	559.38
408.673	549.38
408.896	532.38
409.12	541.38
409.344	559.38
409.567	531.38
409.791	547.38
410.014	522.38
410.238	528.38
410.461	526.38
410.685	522.38
410.908	502.38
411.132	526.38
411.355	480.38
411.578	501.38
411.802	498.38
412.025	507.38
412.249	494.38
412.472	497.38
412.695	487.38
412.919	495.38
413.142	488.38
413.365	475.38
413.589	499.38
413.812	496.38
414.035	489.38
414.258	493.38
414.482	480.38
414.705	500.38
414.928	497.38
415.151	477.38
415.374	481.38
415.597	484.38
415.821	490.38
416.044	476.38
416.267	467.38
416.49	456.38
416.713	465.38
416.936	488.38
417.159	474.38
417.382	469.38
417.605	466.38
417.828	472.38
418.051	466.38
418.274	477.38
418.497	472.38
418.72	479.38
418.943	479.38
419.166	512.38
419.389	549.38
419.611	524.38
419.834	505.38
420.057	501.38
420.28	483.38
420.503	477.38
420.726	480.38
420.948	475.38
421.171	477.38
421.394	482.38
421.617	471.38
421.839	475.38
422.062	485.38
422.285	480.38
422.507	500.38
422.73	496.38
422.953	479.38
423.175	497.38
423.398	495.38
423.621	499.38
423.843	498.38
424.066	511.38
424.288	482.38
424.511	499.38
424.733	509.38
424.956	457.38
425.178	495.38
425.401	481.38
425.623	483.38
425.846	475.38
426.068	487.38
426.291	461.38
426.513	477.38
426.735	464.38
426.958	458.38
427.18	452.38
427.402	454.38
427.625	458.38
427.847	455.38
428.069	441.38
428.292	455.38
428.514	445.38
428.736	438.38
428.958	442.38
429.181	433.38
429.403	424.38
429.625	442.38
429.847	411.38
430.069	430.38
430.292	455.38
430.514	457.38
430.736	430.38
430.958	443.38
431.18	429.38
431.402	448.38
431.624	435.38
431.846	446.38
432.068	440.38
432.29	451.38
432.512	456.38
432.734	434.38
432.956	463.38
433.178	449.38
433.4	450.38
433.622	435.38
433.844	459.38
434.066	442.38
434.287	479.38
434.509	470.38
434.731	474.38
434.953	486.38
435.175	508.38
435.397	493.38
435.618	487.38
435.84	466.38
436.062	445.38
436.284	453.38
436.505	441.38
436.727	437.38
436.949	434.38
437.17	433.38
437.392	450.38
437.614	465.38
437.835	441.38
438.057	444.38
438.278	425.38
438.5	435.38
438.721	435.38
438.943	433.38
439.165	417.38
439.386	446.38
439.608	459.38
439.829	480.38
440.05	460.38
440.272	468.38
440.493	438.38
440.715	443.38
440.936	470.38
441.158	477.38
441.379	457.38
441.6	472.38
441.822	514.38
442.043	491.38
442.264	495.38
442.486	485.38
442.707	495.38
442.928	496.38
443.149	490.38
443.371	499.38
443.592	495.38
443.813	494.38
444.034	513.38
444.255	529.38
444.476	532.38
444.698	547.38
444.919	562.38
445.14	643.38
445.361	581.38
445.582	505.38
445.803	487.38
446.024	470.38
446.245	509.38
446.466	482.38
446.687	471.38
446.908	486.38
447.129	437.38
447.35	440.38
447.571	429.38
447.792	433.38
448.013	430.38
448.234	442.38
448.455	431.38
448.675	436.38
448.896	433.38
449.117	446.38
449.338	432.38
449.559	439.38
449.779	406.38
450	409.38
450.221	401.38
450.442	431.38
450.662	435.38
450.883	443.38
451.104	434.38
451.324	440.38
451.545	449.38
451.766	438.38
451.986	421.38
452.207	424.38
452.428	433.38
452.648	424.38
452.869	416.38
453.089	419.38
453.31	433.38
453.53	411.38
453.751	401.38
453.971	395.38
454.192	405.38
454.412	401.38
454.633	392.38
454.853	407.38
455.073	396.38
455.294	396.38
455.514	400.38
455.734	393.38
455.955	393.38
456.175	383.38
456.395	389.38
456.616	395.38
456.836	401.38
457.056	398.38
457.276	395.38
457.497	405.38
457.717	368.38
457.937	394.38
458.157	385.38
458.377	393.38
458.598	419.38
458.818	426.38
459.038	413.38
459.258	429.38
459.478	440.38
459.698	465.38
459.918	456.38
460.138	486.38
460.358	504.38
460.578	511.38
460.798	512.38
461.018	509.38
461.238	533.38
461.458	523.38
461.678	536.38
461.898	523.38
462.118	534.38
462.338	559.38
462.558	545.38
462.777	581.38
462.997	590.38
463.217	625.38
463.437	656.38
463.657	594.38
463.876	596.38
464.096	566.38
464.316	583.38
464.536	598.38
464.755	551.38
464.975	569.38
465.195	546.38
465.414	499.38
465.634	487.38
465.854	471.38
466.073	477.38
466.293	447.38
466.512	439.38
466.732	459.38
466.951	444.38
467.171	465.38
467.391	447.38
467.61	447.38
467.829	449.38
468.049	468.38
468.268	437.38
468.488	424.38
468.707	429.38
468.927	431.38
469.146	439.38
469.365	452.38
469.585	437.38
469.804	431.38
470.023	421.38
470.243	461.38
470.462	455.38
470.681	437.38
470.901	446.38
471.12	444.38
471.339	456.38
471.558	425.38
471.777	419.38
471.997	435.38
472.216	422.38
472.435	417.38
472.654	411.38
472.873	402.38
473.092	429.38
473.311	417.38
473.53	417.38
473.749	416.38
473.968	409.38
474.187	417.38
474.406	414.38
474.625	439.38
474.844	423.38
475.063	406.38
475.282	411.38
475.501	417.38
475.72	412.38
475.939	413.38
476.158	420.38
476.377	441.38
476.596	449.38
476.814	456.38
477.033	439.38
477.252	441.38
477.471	450.38
477.69	437.38
477.908	472.38
478.127	477.38
478.346	469.38
478.564	501.38
478.783	501.38
479.002	504.38
479.22	496.38
479.439	497.38
479.658	486.38
479.876	482.38
480.095	496.38
480.313	527.38
480.532	521.38
480.751	519.38
480.969	515.38
481.188	481.38
481.406	498.38
481.624	467.38
481.843	458.38
482.061	477.38
482.28	479.38
482.498	477.38
482.717	457.38
482.935	464.38
483.153	467.38
483.372	479.38
483.59	463.38
483.808	446.38
484.027	468.38
484.245	472.38
484.463	454.38
484.681	473.38
484.9	482.38
485.118	487.38
485.336	496.38
485.554	469.38
485.772	464.38
485.99	486.38
486.209	509.38
486.427	519.38
486.645	478.38
486.863	481.38
487.081	493.38
487.299	505.38
487.517	494.38
487.735	496.38
487.953	495.38
488.171	494.38
488.389	479.38
488.607	489.38
488.825	479.38
489.043	488.38
489.261	486.38
489.479	497.38
489.696	489.38
489.914	499.38
490.132	488.38
490.35	490.38
490.568	478.38
490.786	502.38
491.003	479.38
491.221	485.38
491.439	480.38
491.657	487.38
491.874	509.38
492.092	523.38
492.31	511.38
492.527	514.38
492.745	496.38
492.963	501.38
493.18	523.38
493.398	509.38
493.615	498.38
493.833	496.38
494.05	521.38
494.268	513.38
494.485	511.38
494.703	535.38
494.92	520.38
495.138	493.38
495.355	535.38
495.573	517.38
495.79	514.38
496.008	511.38
496.225	512.38
496.442	541.38
496.66	562.38
496.877	552.38
497.094	554.38
497.312	558.38
497.529	554.38
497.746	562.38
497.963	580.38
498.181	603.38
498.398	617.38
498.615	657.38
498.832	674.38
499.049	725.38
499.267	770.38
499.484	875.38
499.701	903.38
499.918	978.38
500.135	1111.38
500.352	1189.38
500.569	1283.38
500.786	1245.38
501.003	1189.38
501.22	1093.38
501.437	955.38
501.654	886.38
