Data from Fe(NO3)3@0.0125M.TitratingCurve.Agarose3%dH2O.NegLispCup.LampEnergy10.LIBS07252019_HRD10591_16-59-52-337.txt Node
Date: Thu Jul 25 16:59:52 EDT 2019
User: cochatt
Spectrometer: HR+D1059
Trigger mode: 1
Integration Time (sec): 1.000000E-1
Scans to average: 1
Electric dark correction enabled: true
Nonlinearity correction enabled: false
Boxcar width: 0
XAxis mode: Wavelengths
Number of Pixels in Spectrum: 2048
>>>>>Begin Spectral Data<<<<<
223.165	-20.94
223.4	-20.94
223.635	-20.94
223.869	-11.94
224.104	-14.94
224.338	-12.94
224.573	-28.94
224.808	-15.94
225.042	1.06
225.277	-1.94
225.511	7.06
225.746	9.06
225.98	3.06
226.215	6.06
226.449	-3.94
226.683	17.06
226.918	35.06
227.152	33.06
227.387	36.06
227.621	36.06
227.856	43.06
228.09	57.06
228.324	45.06
228.559	57.06
228.793	66.06
229.027	72.06
229.262	69.06
229.496	81.06
229.73	75.06
229.964	77.06
230.199	84.06
230.433	72.06
230.667	84.06
230.901	82.06
231.136	89.06
231.37	81.06
231.604	92.06
231.838	97.06
232.072	89.06
232.306	97.06
232.541	93.06
232.775	86.06
233.009	95.06
233.243	87.06
233.477	81.06
233.711	112.06
233.945	88.06
234.179	106.06
234.413	97.06
234.647	99.06
234.881	99.06
235.115	98.06
235.349	99.06
235.583	99.06
235.817	99.06
236.051	89.06
236.285	90.06
236.519	104.06
236.753	97.06
236.987	107.06
237.221	98.06
237.455	111.06
237.689	99.06
237.922	92.06
238.156	95.06
238.39	89.06
238.624	112.06
238.858	107.06
239.091	103.06
239.325	90.06
239.559	105.06
239.793	90.06
240.027	101.06
240.26	114.06
240.494	104.06
240.728	115.06
240.961	108.06
241.195	108.06
241.429	105.06
241.662	101.06
241.896	103.06
242.13	99.06
242.363	96.06
242.597	101.06
242.83	89.06
243.064	93.06
243.298	106.06
243.531	116.06
243.765	107.06
243.998	107.06
244.232	104.06
244.465	114.06
244.699	104.06
244.932	119.06
245.166	123.06
245.399	101.06
245.633	111.06
245.866	115.06
246.099	116.06
246.333	113.06
246.566	116.06
246.8	103.06
247.033	117.06
247.266	117.06
247.5	119.06
247.733	119.06
247.966	112.06
248.2	120.06
248.433	106.06
248.666	114.06
248.899	106.06
249.133	119.06
249.366	123.06
249.599	125.06
249.832	120.06
250.066	128.06
250.299	126.06
250.532	144.06
250.765	118.06
250.998	120.06
251.231	112.06
251.465	117.06
251.698	115.06
251.931	119.06
252.164	112.06
252.397	125.06
252.63	117.06
252.863	138.06
253.096	129.06
253.329	124.06
253.562	133.06
253.795	127.06
254.028	113.06
254.261	136.06
254.494	141.06
254.727	128.06
254.96	132.06
255.193	132.06
255.426	140.06
255.659	128.06
255.892	126.06
256.124	144.06
256.357	136.06
256.59	138.06
256.823	145.06
257.056	141.06
257.289	135.06
257.521	119.06
257.754	122.06
257.987	138.06
258.22	131.06
258.452	138.06
258.685	130.06
258.918	139.06
259.151	147.06
259.383	131.06
259.616	141.06
259.849	142.06
260.081	150.06
260.314	157.06
260.547	167.06
260.779	143.06
261.012	142.06
261.244	146.06
261.477	169.06
261.71	144.06
261.942	131.06
262.175	147.06
262.407	139.06
262.64	160.06
262.872	158.06
263.105	157.06
263.337	159.06
263.57	155.06
263.802	159.06
264.035	156.06
264.267	152.06
264.499	142.06
264.732	135.06
264.964	128.06
265.197	144.06
265.429	146.06
265.661	147.06
265.894	152.06
266.126	140.06
266.358	159.06
266.591	143.06
266.823	152.06
267.055	143.06
267.287	154.06
267.52	150.06
267.752	151.06
267.984	163.06
268.216	159.06
268.448	171.06
268.681	157.06
268.913	159.06
269.145	151.06
269.377	168.06
269.609	160.06
269.841	144.06
270.073	161.06
270.306	149.06
270.538	151.06
270.77	167.06
271.002	162.06
271.234	167.06
271.466	175.06
271.698	166.06
271.93	167.06
272.162	169.06
272.394	175.06
272.626	180.06
272.858	177.06
273.09	183.06
273.322	177.06
273.553	169.06
273.785	170.06
274.017	169.06
274.249	182.06
274.481	186.06
274.713	202.06
274.945	196.06
275.176	197.06
275.408	186.06
275.64	188.06
275.872	200.06
276.104	192.06
276.335	197.06
276.567	199.06
276.799	192.06
277.031	177.06
277.262	214.06
277.494	193.06
277.726	202.06
277.957	181.06
278.189	191.06
278.421	191.06
278.652	200.06
278.884	191.06
279.115	197.06
279.347	191.06
279.579	193.06
279.81	183.06
280.042	181.06
280.273	204.06
280.505	200.06
280.736	189.06
280.968	209.06
281.199	197.06
281.431	192.06
281.662	207.06
281.894	193.06
282.125	224.06
282.356	204.06
282.588	207.06
282.819	196.06
283.051	204.06
283.282	196.06
283.513	209.06
283.745	206.06
283.976	216.06
284.207	213.06
284.439	216.06
284.67	224.06
284.901	219.06
285.132	242.06
285.364	211.06
285.595	213.06
285.826	226.06
286.057	237.06
286.288	228.06
286.52	239.06
286.751	238.06
286.982	226.06
287.213	227.06
287.444	207.06
287.675	222.06
287.906	234.06
288.138	231.06
288.369	241.06
288.6	229.06
288.831	243.06
289.062	253.06
289.293	252.06
289.524	234.06
289.755	251.06
289.986	234.06
290.217	239.06
290.448	248.06
290.679	248.06
290.91	251.06
291.141	235.06
291.371	243.06
291.602	245.06
291.833	235.06
292.064	259.06
292.295	245.06
292.526	254.06
292.757	257.06
292.987	248.06
293.218	242.06
293.449	263.06
293.68	252.06
293.91	260.06
294.141	244.06
294.372	259.06
294.603	269.06
294.833	273.06
295.064	291.06
295.295	264.06
295.525	263.06
295.756	258.06
295.987	267.06
296.217	281.06
296.448	277.06
296.679	275.06
296.909	277.06
297.14	268.06
297.37	274.06
297.601	270.06
297.831	273.06
298.062	275.06
298.292	263.06
298.523	279.06
298.753	275.06
298.984	277.06
299.214	284.06
299.445	284.06
299.675	266.06
299.905	281.06
300.136	301.06
300.366	296.06
300.597	293.06
300.827	281.06
301.057	284.06
301.288	291.06
301.518	277.06
301.748	308.06
301.979	295.06
302.209	286.06
302.439	306.06
302.669	279.06
302.9	296.06
303.13	317.06
303.36	326.06
303.59	302.06
303.82	307.06
304.051	314.06
304.281	298.06
304.511	303.06
304.741	300.06
304.971	309.06
305.201	311.06
305.431	316.06
305.661	311.06
305.891	320.06
306.121	305.06
306.352	325.06
306.582	311.06
306.812	323.06
307.042	296.06
307.272	315.06
307.502	325.06
307.731	327.06
307.961	330.06
308.191	317.06
308.421	327.06
308.651	329.06
308.881	304.06
309.111	315.06
309.341	324.06
309.571	322.06
309.8	328.06
310.03	316.06
310.26	338.06
310.49	320.06
310.72	333.06
310.949	329.06
311.179	324.06
311.409	348.06
311.639	343.06
311.868	344.06
312.098	334.06
312.328	338.06
312.557	322.06
312.787	346.06
313.017	351.06
313.246	341.06
313.476	345.06
313.706	350.06
313.935	363.06
314.165	347.06
314.394	343.06
314.624	346.06
314.853	363.06
315.083	345.06
315.312	375.06
315.542	364.06
315.771	355.06
316.001	375.06
316.23	356.06
316.46	365.06
316.689	370.06
316.919	369.06
317.148	375.06
317.377	379.06
317.607	358.06
317.836	374.06
318.065	382.06
318.295	376.06
318.524	389.06
318.753	389.06
318.983	378.06
319.212	378.06
319.441	362.06
319.67	368.06
319.9	386.06
320.129	383.06
320.358	372.06
320.587	368.06
320.816	387.06
321.046	387.06
321.275	389.06
321.504	394.06
321.733	397.06
321.962	388.06
322.191	384.06
322.42	371.06
322.649	378.06
322.878	404.06
323.108	385.06
323.337	397.06
323.566	397.06
323.795	395.06
324.024	389.06
324.253	403.06
324.482	395.06
324.71	403.06
324.939	418.06
325.168	410.06
325.397	427.06
325.626	409.06
325.855	410.06
326.084	417.06
326.313	404.06
326.542	411.06
326.77	412.06
326.999	417.06
327.228	409.06
327.457	383.06
327.686	431.06
327.914	435.06
328.143	415.06
328.372	397.06
328.6	415.06
328.829	441.06
329.058	429.06
329.287	418.06
329.515	408.06
329.744	429.06
329.972	437.06
330.201	439.06
330.43	430.06
330.658	444.06
330.887	436.06
331.115	428.06
331.344	435.06
331.572	448.06
331.801	437.06
332.03	450.06
332.258	433.06
332.486	423.06
332.715	451.06
332.943	442.06
333.172	445.06
333.4	464.06
333.629	455.06
333.857	452.06
334.085	451.06
334.314	446.06
334.542	454.06
334.771	448.06
334.999	440.06
335.227	448.06
335.455	464.06
335.684	443.06
335.912	460.06
336.14	473.06
336.369	443.06
336.597	480.06
336.825	467.06
337.053	462.06
337.281	469.06
337.51	465.06
337.738	480.06
337.966	474.06
338.194	462.06
338.422	465.06
338.65	472.06
338.878	475.06
339.106	461.06
339.334	467.06
339.562	454.06
339.79	459.06
340.018	471.06
340.246	460.06
340.474	451.06
340.702	463.06
340.93	466.06
341.158	436.06
341.386	473.06
341.614	452.06
341.842	451.06
342.07	454.06
342.298	455.06
342.526	451.06
342.754	454.06
342.981	458.06
343.209	455.06
343.437	471.06
343.665	456.06
343.893	473.06
344.12	464.06
344.348	475.06
344.576	455.06
344.804	460.06
345.031	468.06
345.259	506.06
345.487	459.06
345.714	467.06
345.942	450.06
346.17	475.06
346.397	463.06
346.625	458.06
346.853	459.06
347.08	436.06
347.308	452.06
347.535	456.06
347.763	452.06
347.99	452.06
348.218	466.06
348.445	482.06
348.673	453.06
348.9	484.06
349.128	454.06
349.355	452.06
349.583	474.06
349.81	450.06
350.037	449.06
350.265	439.06
350.492	467.06
350.72	432.06
350.947	449.06
351.174	438.06
351.402	457.06
351.629	436.06
351.856	445.06
352.083	463.06
352.311	463.06
352.538	463.06
352.765	478.06
352.992	441.06
353.22	448.06
353.447	441.06
353.674	441.06
353.901	470.06
354.128	457.06
354.355	457.06
354.583	459.06
354.81	440.06
355.037	460.06
355.264	458.06
355.491	450.06
355.718	452.06
355.945	471.06
356.172	462.06
356.399	456.06
356.626	465.06
356.853	449.06
357.08	441.06
357.307	458.06
357.534	455.06
357.761	439.06
357.988	461.06
358.215	481.06
358.441	463.06
358.668	465.06
358.895	459.06
359.122	463.06
359.349	474.06
359.576	466.06
359.802	426.06
360.029	474.06
360.256	459.06
360.483	463.06
360.709	452.06
360.936	459.06
361.163	475.06
361.39	475.06
361.616	470.06
361.843	471.06
362.07	482.06
362.296	478.06
362.523	475.06
362.749	467.06
362.976	465.06
363.203	475.06
363.429	474.06
363.656	488.06
363.882	487.06
364.109	491.06
364.335	453.06
364.562	483.06
364.788	484.06
365.015	469.06
365.241	484.06
365.468	496.06
365.694	488.06
365.92	487.06
366.147	469.06
366.373	486.06
366.599	477.06
366.826	484.06
367.052	495.06
367.278	492.06
367.505	483.06
367.731	496.06
367.957	492.06
368.184	501.06
368.41	483.06
368.636	490.06
368.862	486.06
369.089	525.06
369.315	502.06
369.541	501.06
369.767	498.06
369.993	495.06
370.219	503.06
370.445	512.06
370.672	490.06
370.898	514.06
371.124	513.06
371.35	502.06
371.576	502.06
371.802	505.06
372.028	514.06
372.254	537.06
372.48	514.06
372.706	539.06
372.932	516.06
373.158	496.06
373.384	495.06
373.61	515.06
373.835	536.06
374.061	488.06
374.287	495.06
374.513	519.06
374.739	503.06
374.965	536.06
375.191	515.06
375.416	529.06
375.642	517.06
375.868	531.06
376.094	500.06
376.319	524.06
376.545	508.06
376.771	508.06
376.997	498.06
377.222	517.06
377.448	513.06
377.674	519.06
377.899	515.06
378.125	499.06
378.35	496.06
378.576	508.06
378.802	511.06
379.027	511.06
379.253	509.06
379.478	521.06
379.704	519.06
379.929	507.06
380.155	508.06
380.38	524.06
380.606	499.06
380.831	508.06
381.057	524.06
381.282	537.06
381.507	535.06
381.733	538.06
381.958	524.06
382.184	542.06
382.409	533.06
382.634	553.06
382.86	526.06
383.085	547.06
383.31	539.06
383.535	559.06
383.761	543.06
383.986	550.06
384.211	539.06
384.436	535.06
384.662	526.06
384.887	552.06
385.112	557.06
385.337	525.06
385.562	550.06
385.787	553.06
386.013	570.06
386.238	563.06
386.463	562.06
386.688	555.06
386.913	552.06
387.138	584.06
387.363	579.06
387.588	558.06
387.813	577.06
388.038	599.06
388.263	576.06
388.488	587.06
388.713	567.06
388.938	581.06
389.163	577.06
389.387	575.06
389.612	590.06
389.837	556.06
390.062	554.06
390.287	586.06
390.512	573.06
390.736	587.06
390.961	584.06
391.186	594.06
391.411	574.06
391.636	587.06
391.86	594.06
392.085	593.06
392.31	593.06
392.534	600.06
392.759	604.06
392.984	618.06
393.208	607.06
393.433	599.06
393.658	610.06
393.882	590.06
394.107	585.06
394.331	588.06
394.556	589.06
394.78	617.06
395.005	568.06
395.229	563.06
395.454	611.06
395.678	620.06
395.903	629.06
396.127	602.06
396.352	618.06
396.576	597.06
396.801	599.06
397.025	596.06
397.249	622.06
397.474	596.06
397.698	643.06
397.922	643.06
398.147	624.06
398.371	615.06
398.595	615.06
398.82	624.06
399.044	649.06
399.268	653.06
399.492	664.06
399.717	666.06
399.941	661.06
400.165	688.06
400.389	662.06
400.613	681.06
400.837	664.06
401.062	645.06
401.286	661.06
401.51	661.06
401.734	668.06
401.958	661.06
402.182	658.06
402.406	639.06
402.63	658.06
402.854	665.06
403.078	645.06
403.302	628.06
403.526	652.06
403.75	639.06
403.974	655.06
404.198	641.06
404.422	659.06
404.645	682.06
404.869	659.06
405.093	651.06
405.317	639.06
405.541	644.06
405.765	661.06
405.988	639.06
406.212	667.06
406.436	678.06
406.66	678.06
406.883	643.06
407.107	704.06
407.331	695.06
407.555	703.06
407.778	720.06
408.002	693.06
408.226	687.06
408.449	685.06
408.673	704.06
408.896	678.06
409.12	671.06
409.344	693.06
409.567	689.06
409.791	677.06
410.014	667.06
410.238	677.06
410.461	672.06
410.685	697.06
410.908	663.06
411.132	672.06
411.355	636.06
411.578	671.06
411.802	678.06
412.025	660.06
412.249	659.06
412.472	657.06
412.695	673.06
412.919	658.06
413.142	699.06
413.365	679.06
413.589	669.06
413.812	677.06
414.035	668.06
414.258	640.06
414.482	669.06
414.705	647.06
414.928	655.06
415.151	645.06
415.374	643.06
415.597	637.06
415.821	626.06
416.044	645.06
416.267	618.06
416.49	633.06
416.713	633.06
416.936	662.06
417.159	634.06
417.382	618.06
417.605	634.06
417.828	620.06
418.051	595.06
418.274	615.06
418.497	632.06
418.72	645.06
418.943	627.06
419.166	618.06
419.389	657.06
419.611	687.06
419.834	649.06
420.057	650.06
420.28	649.06
420.503	637.06
420.726	623.06
420.948	609.06
421.171	627.06
421.394	641.06
421.617	634.06
421.839	603.06
422.062	634.06
422.285	625.06
422.507	612.06
422.73	604.06
422.953	642.06
423.175	618.06
423.398	628.06
423.621	620.06
423.843	616.06
424.066	643.06
424.288	627.06
424.511	629.06
424.733	614.06
424.956	636.06
425.178	645.06
425.401	636.06
425.623	621.06
425.846	628.06
426.068	609.06
426.291	614.06
426.513	617.06
426.735	622.06
426.958	625.06
427.18	620.06
427.402	628.06
427.625	617.06
427.847	593.06
428.069	607.06
428.292	607.06
428.514	613.06
428.736	608.06
428.958	620.06
429.181	637.06
429.403	611.06
429.625	619.06
429.847	624.06
430.069	617.06
430.292	605.06
430.514	634.06
430.736	606.06
430.958	629.06
431.18	621.06
431.402	625.06
431.624	600.06
431.846	601.06
432.068	606.06
432.29	622.06
432.512	625.06
432.734	629.06
432.956	607.06
433.178	612.06
433.4	605.06
433.622	635.06
433.844	618.06
434.066	604.06
434.287	615.06
434.509	630.06
434.731	620.06
434.953	610.06
435.175	608.06
435.397	627.06
435.618	610.06
435.84	608.06
436.062	603.06
436.284	611.06
436.505	627.06
436.727	603.06
436.949	613.06
437.17	608.06
437.392	596.06
437.614	605.06
437.835	599.06
438.057	625.06
438.278	603.06
438.5	596.06
438.721	625.06
438.943	605.06
439.165	613.06
439.386	602.06
439.608	625.06
439.829	589.06
440.05	616.06
440.272	640.06
440.493	607.06
440.715	603.06
440.936	605.06
441.158	609.06
441.379	598.06
441.6	649.06
441.822	621.06
442.043	620.06
442.264	623.06
442.486	617.06
442.707	612.06
442.928	631.06
443.149	632.06
443.371	618.06
443.592	622.06
443.813	591.06
444.034	617.06
444.255	629.06
444.476	601.06
444.698	628.06
444.919	635.06
445.14	705.06
445.361	664.06
445.582	627.06
445.803	597.06
446.024	609.06
446.245	611.06
446.466	601.06
446.687	629.06
446.908	621.06
447.129	608.06
447.35	596.06
447.571	598.06
447.792	602.06
448.013	604.06
448.234	585.06
448.455	584.06
448.675	602.06
448.896	595.06
449.117	596.06
449.338	572.06
449.559	596.06
449.779	582.06
450	568.06
450.221	594.06
450.442	575.06
450.662	550.06
450.883	564.06
451.104	573.06
451.324	571.06
451.545	569.06
451.766	553.06
451.986	579.06
452.207	563.06
452.428	571.06
452.648	581.06
452.869	584.06
453.089	578.06
453.31	597.06
453.53	575.06
453.751	584.06
453.971	573.06
454.192	575.06
454.412	561.06
454.633	566.06
454.853	560.06
455.073	573.06
455.294	577.06
455.514	577.06
455.734	565.06
455.955	556.06
456.175	562.06
456.395	572.06
456.616	580.06
456.836	572.06
457.056	567.06
457.276	544.06
457.497	595.06
457.717	556.06
457.937	575.06
458.157	588.06
458.377	587.06
458.598	594.06
458.818	578.06
459.038	585.06
459.258	588.06
459.478	612.06
459.698	615.06
459.918	608.06
460.138	605.06
460.358	627.06
460.578	630.06
460.798	637.06
461.018	629.06
461.238	627.06
461.458	629.06
461.678	644.06
461.898	641.06
462.118	641.06
462.338	669.06
462.558	672.06
462.777	669.06
462.997	660.06
463.217	637.06
463.437	643.06
463.657	639.06
463.876	674.06
464.096	684.06
464.316	647.06
464.536	647.06
464.755	668.06
464.975	665.06
465.195	646.06
465.414	639.06
465.634	606.06
465.854	618.06
466.073	642.06
466.293	646.06
466.512	624.06
466.732	653.06
466.951	627.06
467.171	615.06
467.391	639.06
467.61	617.06
467.829	615.06
468.049	614.06
468.268	624.06
468.488	625.06
468.707	631.06
468.927	627.06
469.146	632.06
469.365	633.06
469.585	636.06
469.804	625.06
470.023	627.06
470.243	595.06
470.462	642.06
470.681	635.06
470.901	637.06
471.12	623.06
471.339	633.06
471.558	631.06
471.777	639.06
471.997	636.06
472.216	645.06
472.435	656.06
472.654	643.06
472.873	628.06
473.092	643.06
473.311	661.06
473.53	635.06
473.749	631.06
473.968	646.06
474.187	661.06
474.406	661.06
474.625	651.06
474.844	671.06
475.063	663.06
475.282	651.06
475.501	661.06
475.72	674.06
475.939	683.06
476.158	684.06
476.377	683.06
476.596	680.06
476.814	688.06
477.033	700.06
477.252	703.06
477.471	684.06
477.69	720.06
477.908	713.06
478.127	708.06
478.346	717.06
478.564	719.06
478.783	719.06
479.002	744.06
479.22	713.06
479.439	743.06
479.658	725.06
479.876	752.06
480.095	755.06
480.313	764.06
480.532	769.06
480.751	731.06
480.969	747.06
481.188	752.06
481.406	759.06
481.624	777.06
481.843	767.06
482.061	778.06
482.28	752.06
482.498	748.06
482.717	769.06
482.935	765.06
483.153	753.06
483.372	779.06
483.59	809.06
483.808	793.06
484.027	785.06
484.245	786.06
484.463	771.06
484.681	810.06
484.9	794.06
485.118	775.06
485.336	806.06
485.554	796.06
485.772	799.06
485.99	781.06
486.209	804.06
486.427	801.06
486.645	799.06
486.863	786.06
487.081	790.06
487.299	787.06
487.517	827.06
487.735	776.06
487.953	794.06
488.171	791.06
488.389	795.06
488.607	792.06
488.825	801.06
489.043	809.06
489.261	821.06
489.479	810.06
489.696	796.06
489.914	779.06
490.132	789.06
490.35	827.06
490.568	796.06
490.786	798.06
491.003	819.06
491.221	812.06
491.439	824.06
491.657	807.06
491.874	815.06
492.092	819.06
492.31	843.06
492.527	841.06
492.745	830.06
492.963	833.06
493.18	813.06
493.398	840.06
493.615	852.06
493.833	840.06
494.05	844.06
494.268	856.06
494.485	832.06
494.703	822.06
494.92	844.06
495.138	869.06
495.355	842.06
495.573	848.06
495.79	870.06
496.008	901.06
496.225	879.06
496.442	876.06
496.66	888.06
496.877	885.06
497.094	885.06
497.312	875.06
497.529	875.06
497.746	888.06
497.963	903.06
498.181	913.06
498.398	931.06
498.615	927.06
498.832	950.06
499.049	975.06
499.267	1002.06
499.484	972.06
499.701	1029.06
499.918	1045.06
500.135	1060.06
500.352	1079.06
500.569	1075.06
500.786	1060.06
501.003	1052.06
501.22	1055.06
501.437	1011.06
501.654	1009.06
501.871	1013.06
502.088	968.06
