Data from Fe(NO3)3@0.025M.TitratingCurve.Agarose3%dH2O.NegLispCup.LampEnergy10.LIBS07252019_HRD10591_16-55-25-335.txt Node
Date: Thu Jul 25 16:55:25 EDT 2019
User: cochatt
Spectrometer: HR+D1059
Trigger mode: 1
Integration Time (sec): 1.000000E-1
Scans to average: 1
Electric dark correction enabled: true
Nonlinearity correction enabled: false
Boxcar width: 0
XAxis mode: Wavelengths
Number of Pixels in Spectrum: 2048
>>>>>Begin Spectral Data<<<<<
223.165	-19.88
223.4	-19.88
223.635	-19.88
223.869	-15.88
224.104	-10.88
224.338	-31.88
224.573	-8.88
224.808	-16.88
225.042	3.12
225.277	-4.88
225.511	-2.88
225.746	-7.88
225.98	14.12
226.215	-2.88
226.449	16.12
226.683	22.12
226.918	24.12
227.152	43.12
227.387	35.12
227.621	43.12
227.856	53.12
228.09	62.12
228.324	55.12
228.559	68.12
228.793	61.12
229.027	64.12
229.262	71.12
229.496	79.12
229.73	78.12
229.964	99.12
230.199	81.12
230.433	92.12
230.667	96.12
230.901	95.12
231.136	86.12
231.37	97.12
231.604	88.12
231.838	103.12
232.072	94.12
232.306	100.12
232.541	107.12
232.775	100.12
233.009	103.12
233.243	90.12
233.477	101.12
233.711	97.12
233.945	93.12
234.179	102.12
234.413	95.12
234.647	106.12
234.881	107.12
235.115	116.12
235.349	95.12
235.583	103.12
235.817	100.12
236.051	109.12
236.285	106.12
236.519	105.12
236.753	104.12
236.987	91.12
237.221	94.12
237.455	91.12
237.689	95.12
237.922	108.12
238.156	98.12
238.39	103.12
238.624	115.12
238.858	109.12
239.091	117.12
239.325	107.12
239.559	103.12
239.793	104.12
240.027	108.12
240.26	95.12
240.494	104.12
240.728	109.12
240.961	111.12
241.195	109.12
241.429	116.12
241.662	105.12
241.896	107.12
242.13	116.12
242.363	113.12
242.597	111.12
242.83	111.12
243.064	108.12
243.298	109.12
243.531	117.12
243.765	117.12
243.998	123.12
244.232	120.12
244.465	115.12
244.699	119.12
244.932	123.12
245.166	95.12
245.399	105.12
245.633	125.12
245.866	110.12
246.099	113.12
246.333	128.12
246.566	125.12
246.8	121.12
247.033	121.12
247.266	128.12
247.5	128.12
247.733	127.12
247.966	128.12
248.2	126.12
248.433	131.12
248.666	115.12
248.899	120.12
249.133	133.12
249.366	127.12
249.599	112.12
249.832	121.12
250.066	118.12
250.299	133.12
250.532	127.12
250.765	107.12
250.998	118.12
251.231	125.12
251.465	128.12
251.698	130.12
251.931	125.12
252.164	134.12
252.397	140.12
252.63	136.12
252.863	136.12
253.096	136.12
253.329	134.12
253.562	131.12
253.795	143.12
254.028	126.12
254.261	131.12
254.494	126.12
254.727	129.12
254.96	129.12
255.193	152.12
255.426	122.12
255.659	151.12
255.892	145.12
256.124	146.12
256.357	133.12
256.59	142.12
256.823	140.12
257.056	155.12
257.289	160.12
257.521	149.12
257.754	135.12
257.987	139.12
258.22	140.12
258.452	157.12
258.685	153.12
258.918	142.12
259.151	127.12
259.383	161.12
259.616	161.12
259.849	155.12
260.081	164.12
260.314	153.12
260.547	140.12
260.779	137.12
261.012	155.12
261.244	149.12
261.477	169.12
261.71	144.12
261.942	142.12
262.175	145.12
262.407	161.12
262.64	147.12
262.872	148.12
263.105	157.12
263.337	165.12
263.57	145.12
263.802	151.12
264.035	143.12
264.267	146.12
264.499	164.12
264.732	149.12
264.964	147.12
265.197	145.12
265.429	163.12
265.661	160.12
265.894	151.12
266.126	149.12
266.358	145.12
266.591	161.12
266.823	175.12
267.055	164.12
267.287	155.12
267.52	158.12
267.752	171.12
267.984	170.12
268.216	169.12
268.448	158.12
268.681	160.12
268.913	174.12
269.145	172.12
269.377	155.12
269.609	173.12
269.841	166.12
270.073	174.12
270.306	166.12
270.538	152.12
270.77	178.12
271.002	168.12
271.234	167.12
271.466	183.12
271.698	183.12
271.93	173.12
272.162	177.12
272.394	168.12
272.626	172.12
272.858	157.12
273.09	179.12
273.322	181.12
273.553	159.12
273.785	199.12
274.017	189.12
274.249	192.12
274.481	174.12
274.713	187.12
274.945	185.12
275.176	197.12
275.408	193.12
275.64	183.12
275.872	179.12
276.104	190.12
276.335	183.12
276.567	187.12
276.799	196.12
277.031	185.12
277.262	182.12
277.494	184.12
277.726	178.12
277.957	196.12
278.189	200.12
278.421	187.12
278.652	189.12
278.884	199.12
279.115	195.12
279.347	212.12
279.579	204.12
279.81	189.12
280.042	195.12
280.273	199.12
280.505	194.12
280.736	200.12
280.968	199.12
281.199	193.12
281.431	200.12
281.662	207.12
281.894	208.12
282.125	205.12
282.356	215.12
282.588	219.12
282.819	194.12
283.051	199.12
283.282	216.12
283.513	200.12
283.745	216.12
283.976	212.12
284.207	206.12
284.439	213.12
284.67	225.12
284.901	215.12
285.132	206.12
285.364	205.12
285.595	220.12
285.826	218.12
286.057	219.12
286.288	218.12
286.52	230.12
286.751	232.12
286.982	206.12
287.213	212.12
287.444	208.12
287.675	213.12
287.906	217.12
288.138	222.12
288.369	225.12
288.6	229.12
288.831	229.12
289.062	224.12
289.293	231.12
289.524	214.12
289.755	230.12
289.986	228.12
290.217	224.12
290.448	216.12
290.679	225.12
290.91	232.12
291.141	228.12
291.371	220.12
291.602	240.12
291.833	236.12
292.064	229.12
292.295	236.12
292.526	222.12
292.757	241.12
292.987	234.12
293.218	232.12
293.449	243.12
293.68	222.12
293.91	227.12
294.141	232.12
294.372	222.12
294.603	222.12
294.833	223.12
295.064	240.12
295.295	230.12
295.525	247.12
295.756	256.12
295.987	243.12
296.217	220.12
296.448	227.12
296.679	247.12
296.909	255.12
297.14	243.12
297.37	232.12
297.601	257.12
297.831	261.12
298.062	259.12
298.292	244.12
298.523	237.12
298.753	232.12
298.984	250.12
299.214	259.12
299.445	252.12
299.675	228.12
299.905	229.12
300.136	252.12
300.366	275.12
300.597	247.12
300.827	259.12
301.057	260.12
301.288	245.12
301.518	244.12
301.748	263.12
301.979	279.12
302.209	257.12
302.439	290.12
302.669	257.12
302.9	264.12
303.13	270.12
303.36	255.12
303.59	285.12
303.82	263.12
304.051	279.12
304.281	265.12
304.511	278.12
304.741	267.12
304.971	273.12
305.201	281.12
305.431	269.12
305.661	266.12
305.891	265.12
306.121	267.12
306.352	268.12
306.582	279.12
306.812	245.12
307.042	271.12
307.272	267.12
307.502	250.12
307.731	280.12
307.961	268.12
308.191	284.12
308.421	263.12
308.651	261.12
308.881	279.12
309.111	263.12
309.341	266.12
309.571	281.12
309.8	271.12
310.03	266.12
310.26	277.12
310.49	268.12
310.72	300.12
310.949	266.12
311.179	279.12
311.409	291.12
311.639	282.12
311.868	296.12
312.098	283.12
312.328	273.12
312.557	293.12
312.787	289.12
313.017	303.12
313.246	279.12
313.476	281.12
313.706	289.12
313.935	280.12
314.165	299.12
314.394	292.12
314.624	294.12
314.853	300.12
315.083	293.12
315.312	303.12
315.542	277.12
315.771	307.12
316.001	308.12
316.23	301.12
316.46	301.12
316.689	311.12
316.919	279.12
317.148	298.12
317.377	298.12
317.607	298.12
317.836	295.12
318.065	301.12
318.295	303.12
318.524	294.12
318.753	299.12
318.983	297.12
319.212	307.12
319.441	308.12
319.67	305.12
319.9	306.12
320.129	304.12
320.358	310.12
320.587	308.12
320.816	313.12
321.046	325.12
321.275	294.12
321.504	318.12
321.733	294.12
321.962	295.12
322.191	320.12
322.42	305.12
322.649	305.12
322.878	326.12
323.108	332.12
323.337	322.12
323.566	318.12
323.795	313.12
324.024	315.12
324.253	322.12
324.482	307.12
324.71	328.12
324.939	317.12
325.168	324.12
325.397	320.12
325.626	330.12
325.855	330.12
326.084	325.12
326.313	331.12
326.542	324.12
326.77	334.12
326.999	339.12
327.228	336.12
327.457	355.12
327.686	328.12
327.914	335.12
328.143	331.12
328.372	323.12
328.6	351.12
328.829	329.12
329.058	345.12
329.287	331.12
329.515	328.12
329.744	355.12
329.972	328.12
330.201	343.12
330.43	340.12
330.658	352.12
330.887	340.12
331.115	343.12
331.344	344.12
331.572	341.12
331.801	343.12
332.03	368.12
332.258	350.12
332.486	379.12
332.715	376.12
332.943	357.12
333.172	377.12
333.4	383.12
333.629	404.12
333.857	397.12
334.085	386.12
334.314	402.12
334.542	391.12
334.771	382.12
334.999	396.12
335.227	398.12
335.455	391.12
335.684	398.12
335.912	391.12
336.14	388.12
336.369	368.12
336.597	385.12
336.825	375.12
337.053	383.12
337.281	366.12
337.51	380.12
337.738	364.12
337.966	397.12
338.194	395.12
338.422	360.12
338.65	374.12
338.878	345.12
339.106	369.12
339.334	381.12
339.562	352.12
339.79	362.12
340.018	371.12
340.246	351.12
340.474	363.12
340.702	345.12
340.93	374.12
341.158	360.12
341.386	348.12
341.614	364.12
341.842	369.12
342.07	363.12
342.298	371.12
342.526	358.12
342.754	358.12
342.981	358.12
343.209	358.12
343.437	362.12
343.665	393.12
343.893	393.12
344.12	383.12
344.348	389.12
344.576	409.12
344.804	409.12
345.031	378.12
345.259	375.12
345.487	366.12
345.714	359.12
345.942	368.12
346.17	369.12
346.397	364.12
346.625	360.12
346.853	367.12
347.08	333.12
347.308	330.12
347.535	356.12
347.763	351.12
347.99	359.12
348.218	334.12
348.445	358.12
348.673	343.12
348.9	351.12
349.128	355.12
349.355	349.12
349.583	351.12
349.81	351.12
350.037	340.12
350.265	329.12
350.492	352.12
350.72	339.12
350.947	338.12
351.174	358.12
351.402	343.12
351.629	368.12
351.856	358.12
352.083	339.12
352.311	383.12
352.538	378.12
352.765	357.12
352.992	338.12
353.22	354.12
353.447	347.12
353.674	349.12
353.901	349.12
354.128	333.12
354.355	335.12
354.583	337.12
354.81	341.12
355.037	344.12
355.264	353.12
355.491	359.12
355.718	349.12
355.945	345.12
356.172	356.12
356.399	358.12
356.626	373.12
356.853	341.12
357.08	345.12
357.307	366.12
357.534	343.12
357.761	343.12
357.988	326.12
358.215	343.12
358.441	344.12
358.668	353.12
358.895	344.12
359.122	339.12
359.349	350.12
359.576	348.12
359.802	352.12
360.029	365.12
360.256	361.12
360.483	340.12
360.709	349.12
360.936	375.12
361.163	358.12
361.39	371.12
361.616	349.12
361.843	371.12
362.07	377.12
362.296	354.12
362.523	358.12
362.749	357.12
362.976	362.12
363.203	350.12
363.429	357.12
363.656	356.12
363.882	365.12
364.109	344.12
364.335	356.12
364.562	381.12
364.788	379.12
365.015	376.12
365.241	355.12
365.468	361.12
365.694	372.12
365.92	367.12
366.147	358.12
366.373	371.12
366.599	370.12
366.826	364.12
367.052	387.12
367.278	367.12
367.505	388.12
367.731	359.12
367.957	385.12
368.184	366.12
368.41	380.12
368.636	366.12
368.862	366.12
369.089	381.12
369.315	383.12
369.541	384.12
369.767	358.12
369.993	365.12
370.219	387.12
370.445	393.12
370.672	384.12
370.898	399.12
371.124	398.12
371.35	385.12
371.576	388.12
371.802	385.12
372.028	391.12
372.254	391.12
372.48	384.12
372.706	389.12
372.932	401.12
373.158	389.12
373.384	387.12
373.61	393.12
373.835	387.12
374.061	391.12
374.287	399.12
374.513	392.12
374.739	386.12
374.965	403.12
375.191	407.12
375.416	412.12
375.642	403.12
375.868	421.12
376.094	422.12
376.319	393.12
376.545	405.12
376.771	398.12
376.997	385.12
377.222	369.12
377.448	363.12
377.674	393.12
377.899	387.12
378.125	379.12
378.35	391.12
378.576	402.12
378.802	383.12
379.027	404.12
379.253	387.12
379.478	367.12
379.704	395.12
379.929	391.12
380.155	385.12
380.38	377.12
380.606	395.12
380.831	399.12
381.057	385.12
381.282	393.12
381.507	377.12
381.733	398.12
381.958	398.12
382.184	406.12
382.409	401.12
382.634	421.12
382.86	405.12
383.085	416.12
383.31	406.12
383.535	428.12
383.761	406.12
383.986	419.12
384.211	420.12
384.436	415.12
384.662	439.12
384.887	439.12
385.112	433.12
385.337	437.12
385.562	428.12
385.787	444.12
386.013	444.12
386.238	443.12
386.463	445.12
386.688	455.12
386.913	450.12
387.138	443.12
387.363	452.12
387.588	467.12
387.813	461.12
388.038	468.12
388.263	445.12
388.488	435.12
388.713	470.12
388.938	449.12
389.163	440.12
389.387	456.12
389.612	474.12
389.837	467.12
390.062	462.12
390.287	442.12
390.512	439.12
390.736	453.12
390.961	461.12
391.186	455.12
391.411	471.12
391.636	482.12
391.86	489.12
392.085	480.12
392.31	504.12
392.534	492.12
392.759	480.12
392.984	485.12
393.208	480.12
393.433	476.12
393.658	481.12
393.882	477.12
394.107	463.12
394.331	482.12
394.556	488.12
394.78	473.12
395.005	492.12
395.229	480.12
395.454	522.12
395.678	499.12
395.903	489.12
396.127	487.12
396.352	506.12
396.576	502.12
396.801	496.12
397.025	512.12
397.249	513.12
397.474	496.12
397.698	524.12
397.922	544.12
398.147	540.12
398.371	524.12
398.595	541.12
398.82	549.12
399.044	573.12
399.268	604.12
399.492	627.12
399.717	633.12
399.941	623.12
400.165	641.12
400.389	639.12
400.613	596.12
400.837	574.12
401.062	569.12
401.286	559.12
401.51	552.12
401.734	557.12
401.958	566.12
402.182	551.12
402.406	534.12
402.63	533.12
402.854	539.12
403.078	548.12
403.302	542.12
403.526	559.12
403.75	548.12
403.974	569.12
404.198	539.12
404.422	552.12
404.645	569.12
404.869	564.12
405.093	581.12
405.317	544.12
405.541	553.12
405.765	603.12
405.988	575.12
406.212	568.12
406.436	569.12
406.66	593.12
406.883	591.12
407.107	608.12
407.331	636.12
407.555	641.12
407.778	641.12
408.002	620.12
408.226	609.12
408.449	617.12
408.673	600.12
408.896	593.12
409.12	588.12
409.344	593.12
409.567	581.12
409.791	581.12
410.014	590.12
410.238	555.12
410.461	574.12
410.685	574.12
410.908	558.12
411.132	567.12
411.355	580.12
411.578	565.12
411.802	559.12
412.025	558.12
412.249	548.12
412.472	555.12
412.695	517.12
412.919	547.12
413.142	549.12
413.365	550.12
413.589	556.12
413.812	554.12
414.035	547.12
414.258	531.12
414.482	548.12
414.705	526.12
414.928	516.12
415.151	541.12
415.374	513.12
415.597	535.12
415.821	540.12
416.044	542.12
416.267	534.12
416.49	522.12
416.713	508.12
416.936	536.12
417.159	504.12
417.382	508.12
417.605	548.12
417.828	526.12
418.051	520.12
418.274	526.12
418.497	507.12
418.72	522.12
418.943	504.12
419.166	553.12
419.389	559.12
419.611	553.12
419.834	531.12
420.057	510.12
420.28	503.12
420.503	522.12
420.726	509.12
420.948	521.12
421.171	514.12
421.394	521.12
421.617	513.12
421.839	515.12
422.062	524.12
422.285	513.12
422.507	509.12
422.73	518.12
422.953	521.12
423.175	497.12
423.398	502.12
423.621	505.12
423.843	504.12
424.066	508.12
424.288	508.12
424.511	511.12
424.733	513.12
424.956	504.12
425.178	512.12
425.401	523.12
425.623	531.12
425.846	516.12
426.068	499.12
426.291	480.12
426.513	494.12
426.735	507.12
426.958	488.12
427.18	495.12
427.402	484.12
427.625	485.12
427.847	468.12
428.069	494.12
428.292	488.12
428.514	477.12
428.736	493.12
428.958	486.12
429.181	484.12
429.403	495.12
429.625	481.12
429.847	469.12
430.069	484.12
430.292	484.12
430.514	473.12
430.736	474.12
430.958	489.12
431.18	469.12
431.402	463.12
431.624	492.12
431.846	496.12
432.068	496.12
432.29	486.12
432.512	493.12
432.734	512.12
432.956	499.12
433.178	475.12
433.4	468.12
433.622	500.12
433.844	507.12
434.066	494.12
434.287	504.12
434.509	495.12
434.731	518.12
434.953	498.12
435.175	516.12
435.397	504.12
435.618	489.12
435.84	486.12
436.062	512.12
436.284	488.12
436.505	473.12
436.727	483.12
436.949	484.12
437.17	470.12
437.392	477.12
437.614	473.12
437.835	478.12
438.057	493.12
438.278	454.12
438.5	441.12
438.721	477.12
438.943	498.12
439.165	487.12
439.386	492.12
439.608	492.12
439.829	472.12
440.05	473.12
440.272	471.12
440.493	484.12
440.715	471.12
440.936	495.12
441.158	516.12
441.379	513.12
441.6	494.12
441.822	490.12
442.043	500.12
442.264	509.12
442.486	448.12
442.707	496.12
442.928	505.12
443.149	503.12
443.371	494.12
443.592	501.12
443.813	492.12
444.034	505.12
444.255	523.12
444.476	516.12
444.698	516.12
444.919	531.12
445.14	621.12
445.361	528.12
445.582	516.12
445.803	536.12
446.024	493.12
446.245	507.12
446.466	491.12
446.687	460.12
446.908	479.12
447.129	471.12
447.35	471.12
447.571	460.12
447.792	431.12
448.013	437.12
448.234	435.12
448.455	443.12
448.675	444.12
448.896	471.12
449.117	437.12
449.338	458.12
449.559	447.12
449.779	444.12
450	431.12
450.221	431.12
450.442	448.12
450.662	435.12
450.883	424.12
451.104	452.12
451.324	435.12
451.545	437.12
451.766	421.12
451.986	433.12
452.207	419.12
452.428	455.12
452.648	445.12
452.869	426.12
453.089	440.12
453.31	428.12
453.53	444.12
453.751	409.12
453.971	405.12
454.192	415.12
454.412	429.12
454.633	424.12
454.853	419.12
455.073	417.12
455.294	436.12
455.514	407.12
455.734	429.12
455.955	413.12
456.175	420.12
456.395	429.12
456.616	435.12
456.836	435.12
457.056	448.12
457.276	425.12
457.497	434.12
457.717	420.12
457.937	444.12
458.157	428.12
458.377	430.12
458.598	461.12
458.818	461.12
459.038	468.12
459.258	472.12
459.478	471.12
459.698	502.12
459.918	467.12
460.138	494.12
460.358	522.12
460.578	515.12
460.798	524.12
461.018	535.12
461.238	525.12
461.458	535.12
461.678	541.12
461.898	520.12
462.118	549.12
462.338	575.12
462.558	564.12
462.777	588.12
462.997	584.12
463.217	580.12
463.437	589.12
463.657	606.12
463.876	594.12
464.096	563.12
464.316	575.12
464.536	573.12
464.755	566.12
464.975	572.12
465.195	533.12
465.414	511.12
465.634	507.12
465.854	505.12
466.073	512.12
466.293	494.12
466.512	475.12
466.732	489.12
466.951	499.12
467.171	481.12
467.391	464.12
467.61	471.12
467.829	469.12
468.049	461.12
468.268	478.12
468.488	457.12
468.707	477.12
468.927	461.12
469.146	464.12
469.365	471.12
469.585	479.12
469.804	467.12
470.023	468.12
470.243	476.12
470.462	487.12
470.681	465.12
470.901	472.12
471.12	456.12
471.339	482.12
471.558	472.12
471.777	469.12
471.997	461.12
472.216	473.12
472.435	457.12
472.654	463.12
472.873	468.12
473.092	469.12
473.311	475.12
473.53	469.12
473.749	486.12
473.968	463.12
474.187	462.12
474.406	479.12
474.625	462.12
474.844	481.12
475.063	449.12
475.282	477.12
475.501	474.12
475.72	475.12
475.939	479.12
476.158	461.12
476.377	485.12
476.596	479.12
476.814	509.12
477.033	516.12
477.252	502.12
477.471	504.12
477.69	508.12
477.908	529.12
478.127	552.12
478.346	541.12
478.564	555.12
478.783	532.12
479.002	533.12
479.22	547.12
479.439	573.12
479.658	561.12
479.876	553.12
480.095	566.12
480.313	539.12
480.532	574.12
480.751	586.12
480.969	553.12
481.188	555.12
481.406	569.12
481.624	537.12
481.843	543.12
482.061	563.12
482.28	541.12
482.498	546.12
482.717	524.12
482.935	524.12
483.153	544.12
483.372	543.12
483.59	542.12
483.808	557.12
484.027	544.12
484.245	536.12
484.463	550.12
484.681	551.12
484.9	566.12
485.118	556.12
485.336	529.12
485.554	560.12
485.772	560.12
485.99	565.12
486.209	555.12
486.427	555.12
486.645	549.12
486.863	555.12
487.081	545.12
487.299	545.12
487.517	544.12
487.735	555.12
487.953	571.12
488.171	569.12
488.389	563.12
488.607	553.12
488.825	559.12
489.043	546.12
489.261	557.12
489.479	580.12
489.696	554.12
489.914	580.12
490.132	576.12
490.35	555.12
490.568	569.12
490.786	558.12
491.003	561.12
491.221	580.12
491.439	590.12
491.657	557.12
491.874	575.12
492.092	567.12
492.31	561.12
492.527	592.12
492.745	600.12
492.963	604.12
493.18	582.12
493.398	588.12
493.615	575.12
493.833	584.12
494.05	579.12
494.268	595.12
494.485	574.12
494.703	577.12
494.92	586.12
495.138	601.12
495.355	600.12
495.573	597.12
495.79	592.12
496.008	639.12
496.225	621.12
496.442	623.12
496.66	652.12
496.877	657.12
497.094	685.12
497.312	663.12
497.529	669.12
497.746	672.12
497.963	719.12
498.181	736.12
498.398	746.12
498.615	804.12
498.832	784.12
499.049	827.12
499.267	877.12
499.484	889.12
499.701	938.12
499.918	973.12
500.135	1008.12
500.352	1045.12
500.569	1038.12
500.786	1025.12
501.003	1004.12
501.22	981.12
501.437	937.12
501.654	897.12
501.871	874.12
