Data from Fe(NO3)3@0.1M.TitratingCurve.Agarose3%dH2O.NegLispCup.LampEnergy10.LIBS07252019_HRD10591_16-41-41-333.txt Node
Date: Thu Jul 25 16:41:41 EDT 2019
User: cochatt
Spectrometer: HR+D1059
Trigger mode: 1
Integration Time (sec): 1.000000E-1
Scans to average: 1
Electric dark correction enabled: true
Nonlinearity correction enabled: false
Boxcar width: 0
XAxis mode: Wavelengths
Number of Pixels in Spectrum: 2048
>>>>>Begin Spectral Data<<<<<
223.165	-17.94
223.4	-17.94
223.635	-17.94
223.869	-23.94
224.104	-25.94
224.338	-10.94
224.573	-21.94
224.808	-6.94
225.042	-8.94
225.277	-5.94
225.511	5.06
225.746	0.06
225.98	16.06
226.215	3.06
226.449	20.06
226.683	21.06
226.918	21.06
227.152	36.06
227.387	24.06
227.621	33.06
227.856	36.06
228.09	55.06
228.324	59.06
228.559	59.06
228.793	71.06
229.027	70.06
229.262	84.06
229.496	83.06
229.73	84.06
229.964	84.06
230.199	88.06
230.433	93.06
230.667	86.06
230.901	99.06
231.136	92.06
231.37	91.06
231.604	95.06
231.838	115.06
232.072	85.06
232.306	117.06
232.541	97.06
232.775	105.06
233.009	96.06
233.243	94.06
233.477	105.06
233.711	97.06
233.945	105.06
234.179	99.06
234.413	106.06
234.647	96.06
234.881	106.06
235.115	82.06
235.349	88.06
235.583	94.06
235.817	105.06
236.051	107.06
236.285	113.06
236.519	99.06
236.753	107.06
236.987	105.06
237.221	109.06
237.455	103.06
237.689	100.06
237.922	117.06
238.156	121.06
238.39	105.06
238.624	112.06
238.858	109.06
239.091	112.06
239.325	113.06
239.559	114.06
239.793	104.06
240.027	125.06
240.26	118.06
240.494	111.06
240.728	117.06
240.961	105.06
241.195	120.06
241.429	108.06
241.662	113.06
241.896	115.06
242.13	119.06
242.363	121.06
242.597	107.06
242.83	135.06
243.064	130.06
243.298	114.06
243.531	119.06
243.765	131.06
243.998	131.06
244.232	129.06
244.465	112.06
244.699	111.06
244.932	133.06
245.166	138.06
245.399	138.06
245.633	116.06
245.866	121.06
246.099	124.06
246.333	136.06
246.566	133.06
246.8	122.06
247.033	138.06
247.266	136.06
247.5	122.06
247.733	136.06
247.966	108.06
248.2	129.06
248.433	131.06
248.666	128.06
248.899	145.06
249.133	137.06
249.366	140.06
249.599	133.06
249.832	140.06
250.066	139.06
250.299	134.06
250.532	137.06
250.765	136.06
250.998	149.06
251.231	147.06
251.465	124.06
251.698	129.06
251.931	138.06
252.164	149.06
252.397	135.06
252.63	140.06
252.863	143.06
253.096	147.06
253.329	153.06
253.562	141.06
253.795	151.06
254.028	141.06
254.261	158.06
254.494	160.06
254.727	163.06
254.96	145.06
255.193	148.06
255.426	150.06
255.659	137.06
255.892	145.06
256.124	146.06
256.357	152.06
256.59	164.06
256.823	153.06
257.056	152.06
257.289	152.06
257.521	163.06
257.754	139.06
257.987	144.06
258.22	157.06
258.452	176.06
258.685	172.06
258.918	159.06
259.151	165.06
259.383	171.06
259.616	145.06
259.849	177.06
260.081	173.06
260.314	161.06
260.547	162.06
260.779	172.06
261.012	160.06
261.244	172.06
261.477	182.06
261.71	162.06
261.942	165.06
262.175	176.06
262.407	161.06
262.64	177.06
262.872	166.06
263.105	176.06
263.337	181.06
263.57	170.06
263.802	162.06
264.035	170.06
264.267	180.06
264.499	178.06
264.732	177.06
264.964	176.06
265.197	182.06
265.429	187.06
265.661	173.06
265.894	150.06
266.126	184.06
266.358	184.06
266.591	181.06
266.823	187.06
267.055	179.06
267.287	179.06
267.52	183.06
267.752	185.06
267.984	178.06
268.216	177.06
268.448	177.06
268.681	184.06
268.913	187.06
269.145	184.06
269.377	164.06
269.609	170.06
269.841	192.06
270.073	177.06
270.306	177.06
270.538	185.06
270.77	203.06
271.002	194.06
271.234	190.06
271.466	196.06
271.698	197.06
271.93	184.06
272.162	187.06
272.394	186.06
272.626	199.06
272.858	182.06
273.09	205.06
273.322	191.06
273.553	197.06
273.785	184.06
274.017	197.06
274.249	196.06
274.481	218.06
274.713	196.06
274.945	213.06
275.176	214.06
275.408	210.06
275.64	208.06
275.872	214.06
276.104	203.06
276.335	203.06
276.567	192.06
276.799	201.06
277.031	206.06
277.262	192.06
277.494	203.06
277.726	217.06
277.957	209.06
278.189	228.06
278.421	228.06
278.652	212.06
278.884	205.06
279.115	215.06
279.347	210.06
279.579	215.06
279.81	209.06
280.042	215.06
280.273	205.06
280.505	220.06
280.736	215.06
280.968	221.06
281.199	208.06
281.431	220.06
281.662	233.06
281.894	205.06
282.125	209.06
282.356	234.06
282.588	222.06
282.819	210.06
283.051	214.06
283.282	223.06
283.513	230.06
283.745	232.06
283.976	220.06
284.207	224.06
284.439	209.06
284.67	247.06
284.901	239.06
285.132	235.06
285.364	234.06
285.595	236.06
285.826	240.06
286.057	229.06
286.288	244.06
286.52	241.06
286.751	218.06
286.982	241.06
287.213	240.06
287.444	243.06
287.675	249.06
287.906	241.06
288.138	250.06
288.369	237.06
288.6	249.06
288.831	222.06
289.062	239.06
289.293	235.06
289.524	227.06
289.755	236.06
289.986	255.06
290.217	245.06
290.448	236.06
290.679	255.06
290.91	226.06
291.141	273.06
291.371	253.06
291.602	232.06
291.833	231.06
292.064	255.06
292.295	240.06
292.526	250.06
292.757	259.06
292.987	245.06
293.218	248.06
293.449	238.06
293.68	266.06
293.91	256.06
294.141	265.06
294.372	243.06
294.603	251.06
294.833	236.06
295.064	249.06
295.295	242.06
295.525	276.06
295.756	261.06
295.987	249.06
296.217	256.06
296.448	242.06
296.679	256.06
296.909	257.06
297.14	252.06
297.37	253.06
297.601	268.06
297.831	267.06
298.062	259.06
298.292	268.06
298.523	267.06
298.753	274.06
298.984	269.06
299.214	265.06
299.445	285.06
299.675	260.06
299.905	257.06
300.136	255.06
300.366	267.06
300.597	275.06
300.827	283.06
301.057	257.06
301.288	288.06
301.518	292.06
301.748	289.06
301.979	279.06
302.209	278.06
302.439	280.06
302.669	272.06
302.9	263.06
303.13	267.06
303.36	270.06
303.59	275.06
303.82	267.06
304.051	277.06
304.281	269.06
304.511	266.06
304.741	276.06
304.971	276.06
305.201	276.06
305.431	274.06
305.661	280.06
305.891	263.06
306.121	275.06
306.352	280.06
306.582	285.06
306.812	259.06
307.042	272.06
307.272	287.06
307.502	275.06
307.731	262.06
307.961	266.06
308.191	275.06
308.421	296.06
308.651	286.06
308.881	289.06
309.111	279.06
309.341	280.06
309.571	287.06
309.8	270.06
310.03	281.06
310.26	281.06
310.49	269.06
310.72	303.06
310.949	300.06
311.179	281.06
311.409	259.06
311.639	265.06
311.868	287.06
312.098	279.06
312.328	275.06
312.557	286.06
312.787	292.06
313.017	287.06
313.246	285.06
313.476	300.06
313.706	287.06
313.935	289.06
314.165	303.06
314.394	306.06
314.624	289.06
314.853	286.06
315.083	290.06
315.312	305.06
315.542	303.06
315.771	284.06
316.001	281.06
316.23	288.06
316.46	293.06
316.689	289.06
316.919	299.06
317.148	319.06
317.377	296.06
317.607	299.06
317.836	292.06
318.065	294.06
318.295	297.06
318.524	301.06
318.753	290.06
318.983	284.06
319.212	294.06
319.441	290.06
319.67	307.06
319.9	294.06
320.129	310.06
320.358	289.06
320.587	295.06
320.816	296.06
321.046	288.06
321.275	300.06
321.504	300.06
321.733	299.06
321.962	311.06
322.191	300.06
322.42	287.06
322.649	292.06
322.878	308.06
323.108	300.06
323.337	303.06
323.566	290.06
323.795	328.06
324.024	313.06
324.253	313.06
324.482	305.06
324.71	323.06
324.939	318.06
325.168	306.06
325.397	323.06
325.626	307.06
325.855	310.06
326.084	314.06
326.313	323.06
326.542	313.06
326.77	312.06
326.999	309.06
327.228	300.06
327.457	305.06
327.686	305.06
327.914	338.06
328.143	330.06
328.372	327.06
328.6	337.06
328.829	313.06
329.058	321.06
329.287	323.06
329.515	328.06
329.744	333.06
329.972	307.06
330.201	311.06
330.43	315.06
330.658	308.06
330.887	324.06
331.115	326.06
331.344	330.06
331.572	330.06
331.801	343.06
332.03	345.06
332.258	353.06
332.486	348.06
332.715	348.06
332.943	371.06
333.172	379.06
333.4	398.06
333.629	405.06
333.857	409.06
334.085	396.06
334.314	389.06
334.542	383.06
334.771	394.06
334.999	395.06
335.227	399.06
335.455	403.06
335.684	384.06
335.912	387.06
336.14	385.06
336.369	377.06
336.597	379.06
336.825	367.06
337.053	378.06
337.281	380.06
337.51	372.06
337.738	352.06
337.966	357.06
338.194	358.06
338.422	360.06
338.65	362.06
338.878	360.06
339.106	348.06
339.334	355.06
339.562	349.06
339.79	329.06
340.018	339.06
340.246	351.06
340.474	325.06
340.702	336.06
340.93	338.06
341.158	324.06
341.386	348.06
341.614	341.06
341.842	330.06
342.07	327.06
342.298	371.06
342.526	327.06
342.754	324.06
342.981	353.06
343.209	343.06
343.437	362.06
343.665	369.06
343.893	401.06
344.12	410.06
344.348	388.06
344.576	372.06
344.804	369.06
345.031	357.06
345.259	339.06
345.487	366.06
345.714	347.06
345.942	332.06
346.17	337.06
346.397	329.06
346.625	343.06
346.853	334.06
347.08	326.06
347.308	329.06
347.535	332.06
347.763	339.06
347.99	327.06
348.218	325.06
348.445	335.06
348.673	327.06
348.9	314.06
349.128	330.06
349.355	309.06
349.583	337.06
349.81	332.06
350.037	338.06
350.265	323.06
350.492	323.06
350.72	324.06
350.947	327.06
351.174	324.06
351.402	328.06
351.629	313.06
351.856	316.06
352.083	331.06
352.311	326.06
352.538	313.06
352.765	315.06
352.992	322.06
353.22	331.06
353.447	315.06
353.674	322.06
353.901	314.06
354.128	324.06
354.355	319.06
354.583	327.06
354.81	309.06
355.037	320.06
355.264	327.06
355.491	327.06
355.718	314.06
355.945	333.06
356.172	317.06
356.399	328.06
356.626	343.06
356.853	338.06
357.08	314.06
357.307	321.06
357.534	319.06
357.761	332.06
357.988	342.06
358.215	333.06
358.441	322.06
358.668	311.06
358.895	312.06
359.122	307.06
359.349	310.06
359.576	324.06
359.802	316.06
360.029	335.06
360.256	320.06
360.483	295.06
360.709	333.06
360.936	323.06
361.163	328.06
361.39	321.06
361.616	320.06
361.843	322.06
362.07	308.06
362.296	329.06
362.523	335.06
362.749	328.06
362.976	316.06
363.203	322.06
363.429	328.06
363.656	331.06
363.882	323.06
364.109	329.06
364.335	323.06
364.562	331.06
364.788	346.06
365.015	342.06
365.241	336.06
365.468	327.06
365.694	319.06
365.92	317.06
366.147	350.06
366.373	334.06
366.599	339.06
366.826	319.06
367.052	322.06
367.278	322.06
367.505	330.06
367.731	328.06
367.957	323.06
368.184	331.06
368.41	333.06
368.636	325.06
368.862	325.06
369.089	354.06
369.315	339.06
369.541	347.06
369.767	331.06
369.993	342.06
370.219	338.06
370.445	339.06
370.672	329.06
370.898	354.06
371.124	347.06
371.35	371.06
371.576	363.06
371.802	362.06
372.028	356.06
372.254	340.06
372.48	346.06
372.706	357.06
372.932	360.06
373.158	372.06
373.384	359.06
373.61	359.06
373.835	373.06
374.061	375.06
374.287	375.06
374.513	367.06
374.739	379.06
374.965	381.06
375.191	379.06
375.416	374.06
375.642	378.06
375.868	382.06
376.094	353.06
376.319	349.06
376.545	366.06
376.771	364.06
376.997	348.06
377.222	351.06
377.448	351.06
377.674	345.06
377.899	365.06
378.125	351.06
378.35	359.06
378.576	354.06
378.802	364.06
379.027	355.06
379.253	343.06
379.478	327.06
379.704	368.06
379.929	351.06
380.155	369.06
380.38	353.06
380.606	349.06
380.831	348.06
381.057	349.06
381.282	348.06
381.507	337.06
381.733	361.06
381.958	375.06
382.184	372.06
382.409	373.06
382.634	378.06
382.86	370.06
383.085	368.06
383.31	373.06
383.535	387.06
383.761	381.06
383.986	385.06
384.211	382.06
384.436	411.06
384.662	395.06
384.887	394.06
385.112	410.06
385.337	424.06
385.562	409.06
385.787	416.06
386.013	413.06
386.238	427.06
386.463	415.06
386.688	406.06
386.913	419.06
387.138	408.06
387.363	415.06
387.588	416.06
387.813	411.06
388.038	427.06
388.263	419.06
388.488	421.06
388.713	431.06
388.938	429.06
389.163	417.06
389.387	428.06
389.612	398.06
389.837	431.06
390.062	420.06
390.287	415.06
390.512	420.06
390.736	424.06
390.961	431.06
391.186	425.06
391.411	463.06
391.636	460.06
391.86	446.06
392.085	483.06
392.31	448.06
392.534	449.06
392.759	447.06
392.984	442.06
393.208	423.06
393.433	431.06
393.658	454.06
393.882	436.06
394.107	456.06
394.331	431.06
394.556	448.06
394.78	465.06
395.005	488.06
395.229	466.06
395.454	442.06
395.678	459.06
395.903	454.06
396.127	456.06
396.352	456.06
396.576	455.06
396.801	475.06
397.025	460.06
397.249	455.06
397.474	477.06
397.698	474.06
397.922	466.06
398.147	475.06
398.371	462.06
398.595	492.06
398.82	515.06
399.044	545.06
399.268	572.06
399.492	635.06
399.717	670.06
399.941	666.06
400.165	619.06
400.389	597.06
400.613	563.06
400.837	528.06
401.062	523.06
401.286	526.06
401.51	511.06
401.734	522.06
401.958	535.06
402.182	523.06
402.406	530.06
402.63	531.06
402.854	516.06
403.078	545.06
403.302	527.06
403.526	575.06
403.75	559.06
403.974	580.06
404.198	576.06
404.422	581.06
404.645	569.06
404.869	564.06
405.093	547.06
405.317	538.06
405.541	561.06
405.765	555.06
405.988	559.06
406.212	553.06
406.436	569.06
406.66	564.06
406.883	571.06
407.107	604.06
407.331	627.06
407.555	627.06
407.778	648.06
408.002	610.06
408.226	602.06
408.449	618.06
408.673	602.06
408.896	581.06
409.12	582.06
409.344	583.06
409.567	571.06
409.791	562.06
410.014	578.06
410.238	569.06
410.461	566.06
410.685	546.06
410.908	560.06
411.132	562.06
411.355	532.06
411.578	525.06
411.802	531.06
412.025	564.06
412.249	541.06
412.472	533.06
412.695	546.06
412.919	517.06
413.142	524.06
413.365	548.06
413.589	530.06
413.812	506.06
414.035	539.06
414.258	530.06
414.482	523.06
414.705	545.06
414.928	521.06
415.151	531.06
415.374	528.06
415.597	531.06
415.821	526.06
416.044	526.06
416.267	517.06
416.49	507.06
416.713	505.06
416.936	512.06
417.159	533.06
417.382	524.06
417.605	493.06
417.828	524.06
418.051	513.06
418.274	536.06
418.497	497.06
418.72	516.06
418.943	501.06
419.166	552.06
419.389	552.06
419.611	573.06
419.834	554.06
420.057	514.06
420.28	508.06
420.503	519.06
420.726	517.06
420.948	508.06
421.171	528.06
421.394	513.06
421.617	510.06
421.839	504.06
422.062	515.06
422.285	505.06
422.507	524.06
422.73	532.06
422.953	516.06
423.175	534.06
423.398	532.06
423.621	553.06
423.843	525.06
424.066	540.06
424.288	524.06
424.511	520.06
424.733	522.06
424.956	514.06
425.178	543.06
425.401	510.06
425.623	517.06
425.846	506.06
426.068	499.06
426.291	497.06
426.513	496.06
426.735	503.06
426.958	496.06
427.18	475.06
427.402	503.06
427.625	468.06
427.847	481.06
428.069	462.06
428.292	477.06
428.514	460.06
428.736	444.06
428.958	472.06
429.181	444.06
429.403	475.06
429.625	486.06
429.847	465.06
430.069	485.06
430.292	469.06
430.514	459.06
430.736	462.06
430.958	460.06
431.18	481.06
431.402	473.06
431.624	478.06
431.846	471.06
432.068	465.06
432.29	484.06
432.512	447.06
432.734	459.06
432.956	467.06
433.178	491.06
433.4	497.06
433.622	481.06
433.844	499.06
434.066	487.06
434.287	488.06
434.509	487.06
434.731	512.06
434.953	519.06
435.175	520.06
435.397	510.06
435.618	486.06
435.84	490.06
436.062	489.06
436.284	467.06
436.505	495.06
436.727	484.06
436.949	491.06
437.17	472.06
437.392	457.06
437.614	461.06
437.835	449.06
438.057	461.06
438.278	443.06
438.5	479.06
438.721	462.06
438.943	465.06
439.165	473.06
439.386	463.06
439.608	472.06
439.829	467.06
440.05	490.06
440.272	503.06
440.493	486.06
440.715	507.06
440.936	499.06
441.158	506.06
441.379	499.06
441.6	534.06
441.822	511.06
442.043	509.06
442.264	517.06
442.486	500.06
442.707	523.06
442.928	528.06
443.149	528.06
443.371	497.06
443.592	521.06
443.813	516.06
444.034	547.06
444.255	546.06
444.476	541.06
444.698	566.06
444.919	599.06
445.14	655.06
445.361	575.06
445.582	546.06
445.803	527.06
446.024	503.06
446.245	500.06
446.466	479.06
446.687	500.06
446.908	505.06
447.129	513.06
447.35	462.06
447.571	459.06
447.792	455.06
448.013	475.06
448.234	452.06
448.455	460.06
448.675	446.06
448.896	438.06
449.117	442.06
449.338	451.06
449.559	450.06
449.779	450.06
450	439.06
450.221	452.06
450.442	471.06
450.662	451.06
450.883	447.06
451.104	453.06
451.324	446.06
451.545	449.06
451.766	461.06
451.986	453.06
452.207	415.06
452.428	430.06
452.648	448.06
452.869	427.06
453.089	431.06
453.31	426.06
453.53	419.06
453.751	423.06
453.971	415.06
454.192	408.06
454.412	420.06
454.633	414.06
454.853	421.06
455.073	413.06
455.294	437.06
455.514	433.06
455.734	427.06
455.955	411.06
456.175	426.06
456.395	413.06
456.616	415.06
456.836	426.06
457.056	419.06
457.276	407.06
457.497	417.06
457.717	416.06
457.937	428.06
458.157	438.06
458.377	428.06
458.598	435.06
458.818	457.06
459.038	448.06
459.258	476.06
459.478	453.06
459.698	469.06
459.918	500.06
460.138	501.06
460.358	517.06
460.578	522.06
460.798	559.06
461.018	548.06
461.238	563.06
461.458	532.06
461.678	507.06
461.898	539.06
462.118	543.06
462.338	579.06
462.558	593.06
462.777	616.06
462.997	632.06
463.217	682.06
463.437	659.06
463.657	625.06
463.876	610.06
464.096	602.06
464.316	614.06
464.536	593.06
464.755	622.06
464.975	580.06
465.195	529.06
465.414	505.06
465.634	482.06
465.854	499.06
466.073	495.06
466.293	466.06
466.512	479.06
466.732	478.06
466.951	472.06
467.171	461.06
467.391	467.06
467.61	456.06
467.829	449.06
468.049	470.06
468.268	438.06
468.488	460.06
468.707	458.06
468.927	478.06
469.146	458.06
469.365	460.06
469.585	458.06
469.804	454.06
470.023	456.06
470.243	476.06
470.462	470.06
470.681	465.06
470.901	461.06
471.12	467.06
471.339	446.06
471.558	437.06
471.777	454.06
471.997	448.06
472.216	438.06
472.435	428.06
472.654	422.06
472.873	439.06
473.092	420.06
473.311	432.06
473.53	439.06
473.749	440.06
473.968	454.06
474.187	421.06
474.406	405.06
474.625	414.06
474.844	448.06
475.063	451.06
475.282	437.06
475.501	451.06
475.72	444.06
475.939	434.06
476.158	450.06
476.377	474.06
476.596	454.06
476.814	471.06
477.033	444.06
477.252	457.06
477.471	482.06
477.69	482.06
477.908	478.06
478.127	479.06
478.346	491.06
478.564	483.06
478.783	507.06
479.002	529.06
479.22	517.06
479.439	502.06
479.658	507.06
479.876	528.06
480.095	536.06
480.313	520.06
480.532	542.06
480.751	538.06
480.969	522.06
481.188	521.06
481.406	518.06
481.624	497.06
481.843	515.06
482.061	496.06
482.28	507.06
482.498	464.06
482.717	492.06
482.935	503.06
483.153	491.06
483.372	475.06
483.59	476.06
483.808	466.06
484.027	475.06
484.245	497.06
484.463	496.06
484.681	503.06
484.9	511.06
485.118	502.06
485.336	506.06
485.554	496.06
485.772	482.06
485.99	491.06
486.209	489.06
486.427	501.06
486.645	521.06
486.863	505.06
487.081	496.06
487.299	506.06
487.517	530.06
487.735	513.06
487.953	512.06
488.171	487.06
488.389	501.06
488.607	501.06
488.825	499.06
489.043	497.06
489.261	513.06
489.479	492.06
489.696	512.06
489.914	487.06
490.132	517.06
490.35	505.06
490.568	476.06
490.786	523.06
491.003	514.06
491.221	513.06
491.439	518.06
491.657	504.06
491.874	534.06
492.092	525.06
492.31	527.06
492.527	510.06
492.745	522.06
492.963	526.06
493.18	531.06
493.398	535.06
493.615	517.06
493.833	538.06
494.05	523.06
494.268	527.06
494.485	532.06
494.703	536.06
494.92	527.06
495.138	514.06
495.355	532.06
495.573	545.06
495.79	546.06
496.008	546.06
496.225	535.06
496.442	565.06
496.66	559.06
496.877	555.06
497.094	570.06
497.312	573.06
497.529	616.06
497.746	611.06
497.963	645.06
498.181	654.06
498.398	639.06
498.615	690.06
498.832	730.06
499.049	747.06
499.267	786.06
499.484	889.06
499.701	977.06
499.918	1029.06
500.135	1151.06
500.352	1243.06
500.569	1305.06
500.786	1223.06
501.003	1164.06
501.22	1104.06
501.437	985.06
501.654	930.06
501.871	831.06
