Data from Fe(NO3)3@0.0125M.TitratingCurve.Agarose3%dH2O.NegLispCup.LampEnergy10.LIBS07252019_HRD10591_16-59-00-337.txt Node
Date: Thu Jul 25 16:59:00 EDT 2019
User: cochatt
Spectrometer: HR+D1059
Trigger mode: 1
Integration Time (sec): 1.000000E-1
Scans to average: 1
Electric dark correction enabled: true
Nonlinearity correction enabled: false
Boxcar width: 0
XAxis mode: Wavelengths
Number of Pixels in Spectrum: 2048
>>>>>Begin Spectral Data<<<<<
223.165	-4.31
223.4	-4.31
223.635	-4.31
223.869	-25.31
224.104	-24.31
224.338	-13.31
224.573	-18.31
224.808	-26.31
225.042	-6.31
225.277	10.69
225.511	-3.31
225.746	12.69
225.98	-4.31
226.215	8.69
226.449	9.69
226.683	31.69
226.918	21.69
227.152	30.69
227.387	40.69
227.621	32.69
227.856	40.69
228.09	41.69
228.324	46.69
228.559	30.69
228.793	59.69
229.027	96.69
229.262	101.69
229.496	111.69
229.73	114.69
229.964	117.69
230.199	116.69
230.433	121.69
230.667	121.69
230.901	144.69
231.136	124.69
231.37	131.69
231.604	151.69
231.838	129.69
232.072	135.69
232.306	144.69
232.541	137.69
232.775	128.69
233.009	137.69
233.243	136.69
233.477	143.69
233.711	140.69
233.945	143.69
234.179	140.69
234.413	138.69
234.647	159.69
234.881	150.69
235.115	162.69
235.349	141.69
235.583	156.69
235.817	143.69
236.051	153.69
236.285	154.69
236.519	155.69
236.753	171.69
236.987	162.69
237.221	165.69
237.455	146.69
237.689	168.69
237.922	176.69
238.156	155.69
238.39	177.69
238.624	179.69
238.858	165.69
239.091	182.69
239.325	156.69
239.559	177.69
239.793	168.69
240.027	189.69
240.26	180.69
240.494	169.69
240.728	180.69
240.961	196.69
241.195	181.69
241.429	186.69
241.662	176.69
241.896	187.69
242.13	180.69
242.363	197.69
242.597	187.69
242.83	196.69
243.064	197.69
243.298	180.69
243.531	175.69
243.765	206.69
243.998	195.69
244.232	192.69
244.465	203.69
244.699	209.69
244.932	212.69
245.166	212.69
245.399	200.69
245.633	202.69
245.866	201.69
246.099	209.69
246.333	214.69
246.566	219.69
246.8	211.69
247.033	217.69
247.266	209.69
247.5	185.69
247.733	214.69
247.966	223.69
248.2	231.69
248.433	225.69
248.666	233.69
248.899	223.69
249.133	243.69
249.366	243.69
249.599	241.69
249.832	246.69
250.066	234.69
250.299	232.69
250.532	255.69
250.765	255.69
250.998	256.69
251.231	254.69
251.465	251.69
251.698	243.69
251.931	271.69
252.164	262.69
252.397	258.69
252.63	263.69
252.863	257.69
253.096	257.69
253.329	278.69
253.562	257.69
253.795	252.69
254.028	276.69
254.261	285.69
254.494	267.69
254.727	268.69
254.96	280.69
255.193	275.69
255.426	259.69
255.659	291.69
255.892	274.69
256.124	286.69
256.357	278.69
256.59	305.69
256.823	284.69
257.056	283.69
257.289	279.69
257.521	281.69
257.754	311.69
257.987	301.69
258.22	297.69
258.452	292.69
258.685	308.69
258.918	306.69
259.151	314.69
259.383	305.69
259.616	299.69
259.849	315.69
260.081	341.69
260.314	355.69
260.547	343.69
260.779	326.69
261.012	344.69
261.244	339.69
261.477	321.69
261.71	340.69
261.942	312.69
262.175	341.69
262.407	322.69
262.64	335.69
262.872	328.69
263.105	329.69
263.337	353.69
263.57	347.69
263.802	340.69
264.035	352.69
264.267	321.69
264.499	324.69
264.732	346.69
264.964	339.69
265.197	347.69
265.429	341.69
265.661	350.69
265.894	358.69
266.126	355.69
266.358	348.69
266.591	370.69
266.823	373.69
267.055	353.69
267.287	370.69
267.52	347.69
267.752	372.69
267.984	364.69
268.216	380.69
268.448	352.69
268.681	364.69
268.913	361.69
269.145	370.69
269.377	367.69
269.609	377.69
269.841	385.69
270.073	379.69
270.306	373.69
270.538	390.69
270.77	379.69
271.002	377.69
271.234	388.69
271.466	392.69
271.698	384.69
271.93	412.69
272.162	379.69
272.394	395.69
272.626	408.69
272.858	399.69
273.09	397.69
273.322	389.69
273.553	418.69
273.785	422.69
274.017	435.69
274.249	447.69
274.481	448.69
274.713	439.69
274.945	476.69
275.176	472.69
275.408	453.69
275.64	431.69
275.872	448.69
276.104	431.69
276.335	421.69
276.567	432.69
276.799	425.69
277.031	454.69
277.262	461.69
277.494	447.69
277.726	448.69
277.957	449.69
278.189	443.69
278.421	433.69
278.652	457.69
278.884	438.69
279.115	442.69
279.347	457.69
279.579	465.69
279.81	448.69
280.042	442.69
280.273	444.69
280.505	448.69
280.736	472.69
280.968	454.69
281.199	453.69
281.431	457.69
281.662	467.69
281.894	471.69
282.125	483.69
282.356	477.69
282.588	478.69
282.819	483.69
283.051	472.69
283.282	488.69
283.513	506.69
283.745	517.69
283.976	479.69
284.207	473.69
284.439	491.69
284.67	498.69
284.901	513.69
285.132	534.69
285.364	516.69
285.595	515.69
285.826	501.69
286.057	522.69
286.288	495.69
286.52	505.69
286.751	505.69
286.982	512.69
287.213	495.69
287.444	509.69
287.675	523.69
287.906	514.69
288.138	495.69
288.369	515.69
288.6	515.69
288.831	517.69
289.062	538.69
289.293	530.69
289.524	534.69
289.755	532.69
289.986	522.69
290.217	549.69
290.448	539.69
290.679	535.69
290.91	541.69
291.141	542.69
291.371	568.69
291.602	541.69
291.833	538.69
292.064	531.69
292.295	563.69
292.526	548.69
292.757	529.69
292.987	538.69
293.218	533.69
293.449	545.69
293.68	537.69
293.91	564.69
294.141	551.69
294.372	545.69
294.603	543.69
294.833	551.69
295.064	547.69
295.295	575.69
295.525	542.69
295.756	554.69
295.987	556.69
296.217	585.69
296.448	566.69
296.679	570.69
296.909	550.69
297.14	549.69
297.37	589.69
297.601	587.69
297.831	589.69
298.062	579.69
298.292	553.69
298.523	626.69
298.753	589.69
298.984	584.69
299.214	596.69
299.445	602.69
299.675	599.69
299.905	588.69
300.136	578.69
300.366	603.69
300.597	604.69
300.827	592.69
301.057	612.69
301.288	623.69
301.518	624.69
301.748	604.69
301.979	625.69
302.209	645.69
302.439	632.69
302.669	619.69
302.9	611.69
303.13	621.69
303.36	627.69
303.59	634.69
303.82	637.69
304.051	630.69
304.281	640.69
304.511	628.69
304.741	633.69
304.971	628.69
305.201	633.69
305.431	649.69
305.661	641.69
305.891	636.69
306.121	633.69
306.352	633.69
306.582	641.69
306.812	623.69
307.042	660.69
307.272	637.69
307.502	647.69
307.731	655.69
307.961	660.69
308.191	648.69
308.421	647.69
308.651	638.69
308.881	655.69
309.111	683.69
309.341	649.69
309.571	635.69
309.8	661.69
310.03	660.69
310.26	686.69
310.49	691.69
310.72	672.69
310.949	661.69
311.179	680.69
311.409	691.69
311.639	661.69
311.868	684.69
312.098	693.69
312.328	680.69
312.557	681.69
312.787	710.69
313.017	717.69
313.246	689.69
313.476	681.69
313.706	731.69
313.935	698.69
314.165	692.69
314.394	708.69
314.624	705.69
314.853	705.69
315.083	715.69
315.312	714.69
315.542	728.69
315.771	696.69
316.001	709.69
316.23	731.69
316.46	734.69
316.689	744.69
316.919	721.69
317.148	732.69
317.377	741.69
317.607	715.69
317.836	753.69
318.065	711.69
318.295	740.69
318.524	756.69
318.753	726.69
318.983	737.69
319.212	738.69
319.441	743.69
319.67	745.69
319.9	744.69
320.129	716.69
320.358	730.69
320.587	743.69
320.816	746.69
321.046	758.69
321.275	757.69
321.504	754.69
321.733	740.69
321.962	771.69
322.191	769.69
322.42	759.69
322.649	785.69
322.878	782.69
323.108	795.69
323.337	776.69
323.566	747.69
323.795	771.69
324.024	797.69
324.253	803.69
324.482	791.69
324.71	788.69
324.939	775.69
325.168	799.69
325.397	809.69
325.626	754.69
325.855	765.69
326.084	787.69
326.313	760.69
326.542	802.69
326.77	799.69
326.999	805.69
327.228	801.69
327.457	820.69
327.686	811.69
327.914	819.69
328.143	797.69
328.372	783.69
328.6	790.69
328.829	813.69
329.058	813.69
329.287	799.69
329.515	827.69
329.744	784.69
329.972	817.69
330.201	834.69
330.43	833.69
330.658	843.69
330.887	830.69
331.115	821.69
331.344	812.69
331.572	845.69
331.801	838.69
332.03	835.69
332.258	842.69
332.486	828.69
332.715	840.69
332.943	832.69
333.172	846.69
333.4	863.69
333.629	856.69
333.857	875.69
334.085	862.69
334.314	860.69
334.542	862.69
334.771	877.69
334.999	866.69
335.227	889.69
335.455	867.69
335.684	873.69
335.912	890.69
336.14	881.69
336.369	888.69
336.597	914.69
336.825	871.69
337.053	875.69
337.281	864.69
337.51	884.69
337.738	877.69
337.966	880.69
338.194	835.69
338.422	872.69
338.65	882.69
338.878	890.69
339.106	889.69
339.334	867.69
339.562	877.69
339.79	856.69
340.018	881.69
340.246	883.69
340.474	842.69
340.702	858.69
340.93	835.69
341.158	859.69
341.386	863.69
341.614	855.69
341.842	864.69
342.07	864.69
342.298	865.69
342.526	854.69
342.754	864.69
342.981	872.69
343.209	842.69
343.437	868.69
343.665	856.69
343.893	928.69
344.12	850.69
344.348	863.69
344.576	907.69
344.804	875.69
345.031	881.69
345.259	855.69
345.487	859.69
345.714	868.69
345.942	893.69
346.17	860.69
346.397	856.69
346.625	859.69
346.853	857.69
347.08	841.69
347.308	852.69
347.535	851.69
347.763	846.69
347.99	845.69
348.218	848.69
348.445	864.69
348.673	839.69
348.9	835.69
349.128	863.69
349.355	835.69
349.583	838.69
349.81	843.69
350.037	843.69
350.265	823.69
350.492	841.69
350.72	834.69
350.947	857.69
351.174	817.69
351.402	836.69
351.629	835.69
351.856	859.69
352.083	842.69
352.311	841.69
352.538	831.69
352.765	854.69
352.992	832.69
353.22	813.69
353.447	855.69
353.674	841.69
353.901	854.69
354.128	835.69
354.355	848.69
354.583	851.69
354.81	864.69
355.037	845.69
355.264	836.69
355.491	827.69
355.718	810.69
355.945	817.69
356.172	817.69
356.399	843.69
356.626	857.69
356.853	852.69
357.08	827.69
357.307	836.69
357.534	832.69
357.761	858.69
357.988	822.69
358.215	846.69
358.441	846.69
358.668	850.69
358.895	821.69
359.122	839.69
359.349	824.69
359.576	850.69
359.802	828.69
360.029	837.69
360.256	849.69
360.483	823.69
360.709	822.69
360.936	859.69
361.163	831.69
361.39	871.69
361.616	820.69
361.843	837.69
362.07	865.69
362.296	834.69
362.523	851.69
362.749	838.69
362.976	855.69
363.203	839.69
363.429	864.69
363.656	856.69
363.882	868.69
364.109	860.69
364.335	851.69
364.562	840.69
364.788	879.69
365.015	867.69
365.241	856.69
365.468	858.69
365.694	877.69
365.92	880.69
366.147	849.69
366.373	843.69
366.599	868.69
366.826	875.69
367.052	867.69
367.278	845.69
367.505	863.69
367.731	865.69
367.957	889.69
368.184	875.69
368.41	889.69
368.636	858.69
368.862	895.69
369.089	885.69
369.315	883.69
369.541	872.69
369.767	899.69
369.993	892.69
370.219	877.69
370.445	890.69
370.672	891.69
370.898	891.69
371.124	880.69
371.35	903.69
371.576	908.69
371.802	899.69
372.028	890.69
372.254	891.69
372.48	903.69
372.706	888.69
372.932	895.69
373.158	936.69
373.384	920.69
373.61	921.69
373.835	927.69
374.061	912.69
374.287	903.69
374.513	922.69
374.739	927.69
374.965	907.69
375.191	932.69
375.416	923.69
375.642	898.69
375.868	891.69
376.094	923.69
376.319	913.69
376.545	930.69
376.771	901.69
376.997	895.69
377.222	874.69
377.448	894.69
377.674	897.69
377.899	897.69
378.125	915.69
378.35	923.69
378.576	885.69
378.802	906.69
379.027	906.69
379.253	921.69
379.478	865.69
379.704	902.69
379.929	912.69
380.155	881.69
380.38	876.69
380.606	883.69
380.831	890.69
381.057	890.69
381.282	904.69
381.507	914.69
381.733	888.69
381.958	918.69
382.184	943.69
382.409	909.69
382.634	926.69
382.86	915.69
383.085	917.69
383.31	917.69
383.535	955.69
383.761	940.69
383.986	951.69
384.211	932.69
384.436	953.69
384.662	915.69
384.887	976.69
385.112	959.69
385.337	966.69
385.562	950.69
385.787	939.69
386.013	961.69
386.238	953.69
386.463	966.69
386.688	971.69
386.913	952.69
387.138	969.69
387.363	962.69
387.588	973.69
387.813	957.69
388.038	966.69
388.263	982.69
388.488	996.69
388.713	961.69
388.938	958.69
389.163	990.69
389.387	1007.69
389.612	958.69
389.837	984.69
390.062	979.69
390.287	985.69
390.512	968.69
390.736	1002.69
390.961	980.69
391.186	976.69
391.411	1002.69
391.636	1010.69
391.86	1020.69
392.085	1002.69
392.31	1009.69
392.534	993.69
392.759	992.69
392.984	992.69
393.208	1041.69
393.433	1043.69
393.658	1003.69
393.882	991.69
394.107	995.69
394.331	999.69
394.556	1003.69
394.78	1003.69
395.005	991.69
395.229	996.69
395.454	1001.69
395.678	997.69
395.903	993.69
396.127	1021.69
396.352	1005.69
396.576	983.69
396.801	1011.69
397.025	1026.69
397.249	1025.69
397.474	1012.69
397.698	1024.69
397.922	1048.69
398.147	1041.69
398.371	1067.69
398.595	1051.69
398.82	1056.69
399.044	1077.69
399.268	1079.69
399.492	1137.69
399.717	1145.69
399.941	1141.69
400.165	1128.69
400.389	1128.69
400.613	1119.69
400.837	1094.69
401.062	1123.69
401.286	1079.69
401.51	1094.69
401.734	1096.69
401.958	1098.69
402.182	1088.69
402.406	1068.69
402.63	1095.69
402.854	1104.69
403.078	1079.69
403.302	1054.69
403.526	1051.69
403.75	1055.69
403.974	1046.69
404.198	1084.69
404.422	1117.69
404.645	1091.69
404.869	1091.69
405.093	1079.69
405.317	1086.69
405.541	1110.69
405.765	1095.69
405.988	1098.69
406.212	1107.69
406.436	1127.69
406.66	1116.69
406.883	1105.69
407.107	1130.69
407.331	1149.69
407.555	1178.69
407.778	1167.69
408.002	1156.69
408.226	1163.69
408.449	1188.69
408.673	1179.69
408.896	1131.69
409.12	1127.69
409.344	1117.69
409.567	1110.69
409.791	1112.69
410.014	1106.69
410.238	1081.69
410.461	1127.69
410.685	1129.69
410.908	1094.69
411.132	1098.69
411.355	1108.69
411.578	1080.69
411.802	1107.69
412.025	1099.69
412.249	1076.69
412.472	1100.69
412.695	1079.69
412.919	1060.69
413.142	1091.69
413.365	1075.69
413.589	1081.69
413.812	1084.69
414.035	1073.69
414.258	1092.69
414.482	1065.69
414.705	1079.69
414.928	1042.69
415.151	1049.69
415.374	1073.69
415.597	1037.69
415.821	1037.69
416.044	1062.69
416.267	1049.69
416.49	1051.69
416.713	1036.69
416.936	1040.69
417.159	1026.69
417.382	1000.69
417.605	1010.69
417.828	1012.69
418.051	1025.69
418.274	1017.69
418.497	981.69
418.72	1006.69
418.943	995.69
419.166	1051.69
419.389	1076.69
419.611	1071.69
419.834	1052.69
420.057	1048.69
420.28	1035.69
420.503	994.69
420.726	977.69
420.948	984.69
421.171	1004.69
421.394	989.69
421.617	1000.69
421.839	1013.69
422.062	1009.69
422.285	1007.69
422.507	1026.69
422.73	1012.69
422.953	968.69
423.175	991.69
423.398	994.69
423.621	1004.69
423.843	1011.69
424.066	1026.69
424.288	967.69
424.511	1026.69
424.733	1019.69
424.956	1008.69
425.178	1002.69
425.401	1029.69
425.623	995.69
425.846	989.69
426.068	981.69
426.291	988.69
426.513	984.69
426.735	999.69
426.958	989.69
427.18	985.69
427.402	1009.69
427.625	1023.69
427.847	1025.69
428.069	987.69
428.292	981.69
428.514	984.69
428.736	987.69
428.958	984.69
429.181	991.69
429.403	1001.69
429.625	992.69
429.847	947.69
430.069	985.69
430.292	988.69
430.514	975.69
430.736	964.69
430.958	992.69
431.18	977.69
431.402	988.69
431.624	979.69
431.846	971.69
432.068	965.69
432.29	978.69
432.512	976.69
432.734	996.69
432.956	981.69
433.178	979.69
433.4	995.69
433.622	979.69
433.844	980.69
434.066	959.69
434.287	990.69
434.509	1003.69
434.731	971.69
434.953	999.69
435.175	1008.69
435.397	987.69
435.618	984.69
435.84	1003.69
436.062	978.69
436.284	975.69
436.505	961.69
436.727	960.69
436.949	966.69
437.17	967.69
437.392	973.69
437.614	961.69
437.835	975.69
438.057	945.69
438.278	941.69
438.5	936.69
438.721	980.69
438.943	941.69
439.165	947.69
439.386	963.69
439.608	952.69
439.829	947.69
440.05	978.69
440.272	949.69
440.493	931.69
440.715	957.69
440.936	964.69
441.158	966.69
441.379	973.69
441.6	972.69
441.822	948.69
442.043	961.69
442.264	978.69
442.486	972.69
442.707	938.69
442.928	964.69
443.149	952.69
443.371	966.69
443.592	983.69
443.813	971.69
444.034	969.69
444.255	972.69
444.476	955.69
444.698	950.69
444.919	986.69
445.14	1048.69
445.361	1019.69
445.582	999.69
445.803	1002.69
446.024	952.69
446.245	971.69
446.466	975.69
446.687	932.69
446.908	963.69
447.129	922.69
447.35	910.69
447.571	918.69
447.792	903.69
448.013	926.69
448.234	907.69
448.455	892.69
448.675	933.69
448.896	885.69
449.117	907.69
449.338	912.69
449.559	931.69
449.779	897.69
450	879.69
450.221	919.69
450.442	896.69
450.662	907.69
450.883	892.69
451.104	871.69
451.324	876.69
451.545	910.69
451.766	879.69
451.986	881.69
452.207	896.69
452.428	875.69
452.648	871.69
452.869	872.69
453.089	859.69
453.31	888.69
453.53	845.69
453.751	863.69
453.971	855.69
454.192	865.69
454.412	873.69
454.633	873.69
454.853	874.69
455.073	867.69
455.294	907.69
455.514	865.69
455.734	879.69
455.955	849.69
456.175	867.69
456.395	864.69
456.616	864.69
456.836	871.69
457.056	876.69
457.276	860.69
457.497	882.69
457.717	895.69
457.937	873.69
458.157	900.69
458.377	888.69
458.598	895.69
458.818	916.69
459.038	893.69
459.258	937.69
459.478	933.69
459.698	939.69
459.918	933.69
460.138	925.69
460.358	967.69
460.578	957.69
460.798	950.69
461.018	933.69
461.238	938.69
461.458	975.69
461.678	961.69
461.898	1003.69
462.118	997.69
462.338	1003.69
462.558	996.69
462.777	1023.69
462.997	1025.69
463.217	1000.69
463.437	1047.69
463.657	1004.69
463.876	1002.69
464.096	1064.69
464.316	984.69
464.536	1018.69
464.755	995.69
464.975	1015.69
465.195	990.69
465.414	980.69
465.634	985.69
465.854	969.69
466.073	952.69
466.293	995.69
466.512	963.69
466.732	972.69
466.951	970.69
467.171	946.69
467.391	947.69
467.61	914.69
467.829	922.69
468.049	950.69
468.268	933.69
468.488	942.69
468.707	928.69
468.927	914.69
469.146	942.69
469.365	930.69
469.585	925.69
469.804	940.69
470.023	937.69
470.243	919.69
470.462	907.69
470.681	959.69
470.901	940.69
471.12	933.69
471.339	964.69
471.558	972.69
471.777	943.69
471.997	977.69
472.216	940.69
472.435	945.69
472.654	966.69
472.873	967.69
473.092	979.69
473.311	963.69
473.53	977.69
473.749	963.69
473.968	957.69
474.187	958.69
474.406	960.69
474.625	974.69
474.844	1003.69
475.063	991.69
475.282	1001.69
475.501	1013.69
475.72	1016.69
475.939	1015.69
476.158	1002.69
476.377	1011.69
476.596	1017.69
476.814	1063.69
477.033	1061.69
477.252	1040.69
477.471	1047.69
477.69	1027.69
477.908	1046.69
478.127	1073.69
478.346	1075.69
478.564	1082.69
478.783	1101.69
479.002	1133.69
479.22	1148.69
479.439	1100.69
479.658	1122.69
479.876	1126.69
480.095	1136.69
480.313	1139.69
480.532	1129.69
480.751	1144.69
480.969	1135.69
481.188	1133.69
481.406	1139.69
481.624	1143.69
481.843	1158.69
482.061	1132.69
482.28	1137.69
482.498	1172.69
482.717	1147.69
482.935	1171.69
483.153	1159.69
483.372	1132.69
483.59	1159.69
483.808	1157.69
484.027	1186.69
484.245	1166.69
484.463	1159.69
484.681	1206.69
484.9	1166.69
485.118	1165.69
485.336	1163.69
485.554	1189.69
485.772	1165.69
485.99	1180.69
486.209	1175.69
486.427	1189.69
486.645	1161.69
486.863	1215.69
487.081	1212.69
487.299	1200.69
487.517	1167.69
487.735	1196.69
487.953	1227.69
488.171	1238.69
488.389	1194.69
488.607	1175.69
488.825	1195.69
489.043	1182.69
489.261	1202.69
489.479	1196.69
489.696	1178.69
489.914	1235.69
490.132	1222.69
490.35	1204.69
490.568	1195.69
490.786	1197.69
491.003	1190.69
491.221	1213.69
491.439	1228.69
491.657	1225.69
491.874	1210.69
492.092	1203.69
492.31	1207.69
492.527	1224.69
492.745	1203.69
492.963	1242.69
493.18	1251.69
493.398	1220.69
493.615	1223.69
493.833	1244.69
494.05	1246.69
494.268	1203.69
494.485	1242.69
494.703	1213.69
494.92	1230.69
495.138	1267.69
495.355	1271.69
495.573	1269.69
495.79	1293.69
496.008	1283.69
496.225	1297.69
496.442	1256.69
496.66	1312.69
496.877	1268.69
497.094	1291.69
497.312	1299.69
497.529	1330.69
497.746	1310.69
497.963	1351.69
