Data from Fe(NO3)3@0.05M.TitratingCurve.Agarose3%dH2O.NegLispCup.LampEnergy10.LIBS07252019_HRD10591_16-45-45-333.txt Node
Date: Thu Jul 25 16:45:45 EDT 2019
User: cochatt
Spectrometer: HR+D1059
Trigger mode: 1
Integration Time (sec): 1.000000E-1
Scans to average: 1
Electric dark correction enabled: true
Nonlinearity correction enabled: false
Boxcar width: 0
XAxis mode: Wavelengths
Number of Pixels in Spectrum: 2048
>>>>>Begin Spectral Data<<<<<
223.165	-23.19
223.4	-23.19
223.635	-23.19
223.869	-17.19
224.104	-26.19
224.338	-11.19
224.573	-8.19
224.808	-11.19
225.042	-9.19
225.277	0.81
225.511	3.81
225.746	-1.19
225.98	2.81
226.215	6.81
226.449	25.81
226.683	11.81
226.918	23.81
227.152	31.81
227.387	21.81
227.621	35.81
227.856	35.81
228.09	37.81
228.324	51.81
228.559	54.81
228.793	59.81
229.027	100.81
229.262	104.81
229.496	112.81
229.73	100.81
229.964	107.81
230.199	123.81
230.433	120.81
230.667	124.81
230.901	131.81
231.136	122.81
231.37	142.81
231.604	139.81
231.838	144.81
232.072	125.81
232.306	137.81
232.541	136.81
232.775	144.81
233.009	154.81
233.243	149.81
233.477	144.81
233.711	159.81
233.945	144.81
234.179	163.81
234.413	165.81
234.647	183.81
234.881	183.81
235.115	167.81
235.349	190.81
235.583	170.81
235.817	144.81
236.051	145.81
236.285	156.81
236.519	176.81
236.753	154.81
236.987	176.81
237.221	176.81
237.455	182.81
237.689	182.81
237.922	175.81
238.156	204.81
238.39	217.81
238.624	241.81
238.858	234.81
239.091	211.81
239.325	201.81
239.559	194.81
239.793	216.81
240.027	212.81
240.26	214.81
240.494	215.81
240.728	229.81
240.961	243.81
241.195	223.81
241.429	222.81
241.662	218.81
241.896	196.81
242.13	203.81
242.363	214.81
242.597	210.81
242.83	207.81
243.064	195.81
243.298	225.81
243.531	229.81
243.765	239.81
243.998	230.81
244.232	214.81
244.465	230.81
244.699	227.81
244.932	228.81
245.166	230.81
245.399	234.81
245.633	212.81
245.866	214.81
246.099	236.81
246.333	228.81
246.566	233.81
246.8	256.81
247.033	250.81
247.266	240.81
247.5	228.81
247.733	260.81
247.966	243.81
248.2	272.81
248.433	265.81
248.666	266.81
248.899	271.81
249.133	284.81
249.366	303.81
249.599	309.81
249.832	274.81
250.066	283.81
250.299	281.81
250.532	270.81
250.765	253.81
250.998	284.81
251.231	290.81
251.465	298.81
251.698	290.81
251.931	264.81
252.164	284.81
252.397	292.81
252.63	281.81
252.863	322.81
253.096	336.81
253.329	320.81
253.562	308.81
253.795	330.81
254.028	351.81
254.261	348.81
254.494	328.81
254.727	328.81
254.96	326.81
255.193	318.81
255.426	331.81
255.659	306.81
255.892	297.81
256.124	298.81
256.357	324.81
256.59	333.81
256.823	346.81
257.056	306.81
257.289	331.81
257.521	332.81
257.754	313.81
257.987	320.81
258.22	330.81
258.452	331.81
258.685	343.81
258.918	378.81
259.151	363.81
259.383	348.81
259.616	359.81
259.849	384.81
260.081	460.81
260.314	501.81
260.547	418.81
260.779	371.81
261.012	409.81
261.244	412.81
261.477	428.81
261.71	434.81
261.942	388.81
262.175	368.81
262.407	345.81
262.64	360.81
262.872	394.81
263.105	424.81
263.337	421.81
263.57	432.81
263.802	363.81
264.035	329.81
264.267	347.81
264.499	349.81
264.732	347.81
264.964	343.81
265.197	335.81
265.429	357.81
265.661	333.81
265.894	361.81
266.126	350.81
266.358	366.81
266.591	347.81
266.823	374.81
267.055	368.81
267.287	356.81
267.52	363.81
267.752	368.81
267.984	376.81
268.216	358.81
268.448	382.81
268.681	371.81
268.913	388.81
269.145	383.81
269.377	372.81
269.609	376.81
269.841	372.81
270.073	382.81
270.306	374.81
270.538	370.81
270.77	384.81
271.002	378.81
271.234	392.81
271.466	386.81
271.698	425.81
271.93	426.81
272.162	426.81
272.394	417.81
272.626	419.81
272.858	432.81
273.09	410.81
273.322	429.81
273.553	426.81
273.785	449.81
274.017	501.81
274.249	558.81
274.481	553.81
274.713	555.81
274.945	654.81
275.176	662.81
275.408	588.81
275.64	558.81
275.872	579.81
276.104	530.81
276.335	466.81
276.567	430.81
276.799	451.81
277.031	452.81
277.262	443.81
277.494	429.81
277.726	442.81
277.957	443.81
278.189	439.81
278.421	452.81
278.652	466.81
278.884	458.81
279.115	432.81
279.347	451.81
279.579	451.81
279.81	453.81
280.042	436.81
280.273	442.81
280.505	464.81
280.736	468.81
280.968	447.81
281.199	451.81
281.431	466.81
281.662	458.81
281.894	457.81
282.125	456.81
282.356	460.81
282.588	475.81
282.819	444.81
283.051	453.81
283.282	452.81
283.513	469.81
283.745	474.81
283.976	478.81
284.207	470.81
284.439	488.81
284.67	468.81
284.901	462.81
285.132	480.81
285.364	478.81
285.595	482.81
285.826	498.81
286.057	512.81
286.288	468.81
286.52	497.81
286.751	478.81
286.982	470.81
287.213	483.81
287.444	497.81
287.675	504.81
287.906	491.81
288.138	516.81
288.369	470.81
288.6	502.81
288.831	497.81
289.062	512.81
289.293	494.81
289.524	502.81
289.755	517.81
289.986	502.81
290.217	497.81
290.448	499.81
290.679	507.81
290.91	491.81
291.141	476.81
291.371	490.81
291.602	486.81
291.833	485.81
292.064	480.81
292.295	516.81
292.526	500.81
292.757	492.81
292.987	498.81
293.218	480.81
293.449	505.81
293.68	516.81
293.91	510.81
294.141	507.81
294.372	514.81
294.603	512.81
294.833	523.81
295.064	530.81
295.295	513.81
295.525	519.81
295.756	516.81
295.987	538.81
296.217	512.81
296.448	525.81
296.679	520.81
296.909	523.81
297.14	530.81
297.37	558.81
297.601	545.81
297.831	534.81
298.062	514.81
298.292	534.81
298.523	564.81
298.753	559.81
298.984	538.81
299.214	541.81
299.445	539.81
299.675	536.81
299.905	547.81
300.136	566.81
300.366	572.81
300.597	552.81
300.827	563.81
301.057	561.81
301.288	562.81
301.518	566.81
301.748	558.81
301.979	569.81
302.209	575.81
302.439	618.81
302.669	588.81
302.9	571.81
303.13	551.81
303.36	568.81
303.59	569.81
303.82	559.81
304.051	569.81
304.281	599.81
304.511	555.81
304.741	562.81
304.971	583.81
305.201	572.81
305.431	572.81
305.661	581.81
305.891	583.81
306.121	569.81
306.352	575.81
306.582	602.81
306.812	568.81
307.042	580.81
307.272	596.81
307.502	582.81
307.731	580.81
307.961	580.81
308.191	563.81
308.421	554.81
308.651	578.81
308.881	567.81
309.111	578.81
309.341	563.81
309.571	577.81
309.8	571.81
310.03	567.81
310.26	594.81
310.49	590.81
310.72	586.81
310.949	594.81
311.179	576.81
311.409	569.81
311.639	570.81
311.868	596.81
312.098	577.81
312.328	591.81
312.557	592.81
312.787	613.81
313.017	593.81
313.246	626.81
313.476	593.81
313.706	604.81
313.935	622.81
314.165	638.81
314.394	602.81
314.624	615.81
314.853	624.81
315.083	618.81
315.312	638.81
315.542	610.81
315.771	610.81
316.001	626.81
316.23	612.81
316.46	610.81
316.689	638.81
316.919	643.81
317.148	614.81
317.377	614.81
317.607	658.81
317.836	622.81
318.065	623.81
318.295	632.81
318.524	620.81
318.753	607.81
318.983	627.81
319.212	626.81
319.441	627.81
319.67	610.81
319.9	631.81
320.129	646.81
320.358	648.81
320.587	647.81
320.816	644.81
321.046	633.81
321.275	627.81
321.504	633.81
321.733	627.81
321.962	633.81
322.191	632.81
322.42	646.81
322.649	640.81
322.878	651.81
323.108	630.81
323.337	669.81
323.566	657.81
323.795	699.81
324.024	666.81
324.253	663.81
324.482	645.81
324.71	667.81
324.939	677.81
325.168	658.81
325.397	664.81
325.626	646.81
325.855	678.81
326.084	684.81
326.313	656.81
326.542	713.81
326.77	682.81
326.999	677.81
327.228	675.81
327.457	700.81
327.686	670.81
327.914	690.81
328.143	690.81
328.372	691.81
328.6	668.81
328.829	701.81
329.058	672.81
329.287	671.81
329.515	699.81
329.744	690.81
329.972	713.81
330.201	703.81
330.43	711.81
330.658	675.81
330.887	719.81
331.115	720.81
331.344	701.81
331.572	680.81
331.801	708.81
332.03	696.81
332.258	733.81
332.486	743.81
332.715	751.81
332.943	740.81
333.172	738.81
333.4	729.81
333.629	776.81
333.857	795.81
334.085	782.81
334.314	804.81
334.542	791.81
334.771	788.81
334.999	794.81
335.227	786.81
335.455	790.81
335.684	801.81
335.912	802.81
336.14	773.81
336.369	805.81
336.597	783.81
336.825	772.81
337.053	793.81
337.281	769.81
337.51	790.81
337.738	775.81
337.966	758.81
338.194	751.81
338.422	776.81
338.65	718.81
338.878	774.81
339.106	744.81
339.334	743.81
339.562	747.81
339.79	727.81
340.018	732.81
340.246	720.81
340.474	720.81
340.702	720.81
340.93	733.81
341.158	722.81
341.386	707.81
341.614	736.81
341.842	736.81
342.07	741.81
342.298	719.81
342.526	727.81
342.754	719.81
342.981	734.81
343.209	730.81
343.437	756.81
343.665	763.81
343.893	784.81
344.12	801.81
344.348	812.81
344.576	778.81
344.804	792.81
345.031	771.81
345.259	747.81
345.487	755.81
345.714	754.81
345.942	706.81
346.17	723.81
346.397	733.81
346.625	729.81
346.853	711.81
347.08	699.81
347.308	720.81
347.535	733.81
347.763	704.81
347.99	691.81
348.218	718.81
348.445	681.81
348.673	715.81
348.9	724.81
349.128	723.81
349.355	711.81
349.583	690.81
349.81	680.81
350.037	720.81
350.265	673.81
350.492	700.81
350.72	666.81
350.947	682.81
351.174	690.81
351.402	703.81
351.629	707.81
351.856	700.81
352.083	701.81
352.311	694.81
352.538	701.81
352.765	705.81
352.992	697.81
353.22	675.81
353.447	696.81
353.674	698.81
353.901	700.81
354.128	711.81
354.355	694.81
354.583	673.81
354.81	663.81
355.037	705.81
355.264	660.81
355.491	702.81
355.718	703.81
355.945	702.81
356.172	715.81
356.399	705.81
356.626	705.81
356.853	739.81
357.08	743.81
357.307	742.81
357.534	683.81
357.761	709.81
357.988	710.81
358.215	741.81
358.441	764.81
358.668	708.81
358.895	714.81
359.122	713.81
359.349	702.81
359.576	674.81
359.802	693.81
360.029	699.81
360.256	708.81
360.483	708.81
360.709	730.81
360.936	715.81
361.163	719.81
361.39	693.81
361.616	694.81
361.843	731.81
362.07	739.81
362.296	718.81
362.523	719.81
362.749	710.81
362.976	704.81
363.203	724.81
363.429	737.81
363.656	732.81
363.882	733.81
364.109	709.81
364.335	738.81
364.562	714.81
364.788	704.81
365.015	732.81
365.241	744.81
365.468	722.81
365.694	715.81
365.92	721.81
366.147	733.81
366.373	726.81
366.599	722.81
366.826	714.81
367.052	712.81
367.278	732.81
367.505	714.81
367.731	720.81
367.957	739.81
368.184	732.81
368.41	725.81
368.636	738.81
368.862	744.81
369.089	766.81
369.315	722.81
369.541	747.81
369.767	761.81
369.993	756.81
370.219	772.81
370.445	771.81
370.672	764.81
370.898	755.81
371.124	766.81
371.35	800.81
371.576	772.81
371.802	772.81
372.028	820.81
372.254	810.81
372.48	799.81
372.706	778.81
372.932	798.81
373.158	803.81
373.384	835.81
373.61	848.81
373.835	867.81
374.061	830.81
374.287	823.81
374.513	831.81
374.739	837.81
374.965	847.81
375.191	872.81
375.416	843.81
375.642	816.81
375.868	830.81
376.094	846.81
376.319	808.81
376.545	830.81
376.771	838.81
376.997	817.81
377.222	807.81
377.448	784.81
377.674	759.81
377.899	778.81
378.125	783.81
378.35	796.81
378.576	798.81
378.802	784.81
379.027	798.81
379.253	777.81
379.478	786.81
379.704	826.81
379.929	797.81
380.155	786.81
380.38	786.81
380.606	801.81
380.831	787.81
381.057	795.81
381.282	799.81
381.507	804.81
381.733	871.81
381.958	842.81
382.184	866.81
382.409	891.81
382.634	872.81
382.86	867.81
383.085	874.81
383.31	849.81
383.535	855.81
383.761	869.81
383.986	872.81
384.211	888.81
384.436	870.81
384.662	844.81
384.887	859.81
385.112	894.81
385.337	888.81
385.562	889.81
385.787	907.81
386.013	930.81
386.238	963.81
386.463	928.81
386.688	919.81
386.913	914.81
387.138	908.81
387.363	934.81
387.588	931.81
387.813	927.81
388.038	939.81
388.263	946.81
388.488	943.81
388.713	946.81
388.938	954.81
389.163	932.81
389.387	917.81
389.612	912.81
389.837	984.81
390.062	954.81
390.287	939.81
390.512	930.81
390.736	939.81
390.961	935.81
391.186	931.81
391.411	972.81
391.636	966.81
391.86	988.81
392.085	1001.81
392.31	978.81
392.534	975.81
392.759	978.81
392.984	997.81
393.208	973.81
393.433	982.81
393.658	980.81
393.882	967.81
394.107	985.81
394.331	986.81
394.556	977.81
394.78	1001.81
395.005	988.81
395.229	968.81
395.454	1008.81
395.678	969.81
395.903	1000.81
396.127	1034.81
396.352	1032.81
396.576	971.81
396.801	997.81
397.025	1043.81
397.249	1040.81
397.474	1060.81
397.698	1051.81
397.922	1063.81
398.147	1057.81
398.371	1074.81
398.595	1060.81
398.82	1127.81
399.044	1120.81
399.268	1168.81
399.492	1221.81
399.717	1250.81
399.941	1292.81
400.165	1279.81
400.389	1237.81
400.613	1192.81
400.837	1157.81
401.062	1160.81
401.286	1120.81
401.51	1135.81
401.734	1122.81
401.958	1106.81
402.182	1116.81
402.406	1127.81
402.63	1130.81
402.854	1116.81
403.078	1134.81
403.302	1106.81
403.526	1124.81
403.75	1145.81
403.974	1126.81
404.198	1136.81
404.422	1148.81
404.645	1160.81
404.869	1169.81
405.093	1148.81
405.317	1160.81
405.541	1138.81
405.765	1168.81
405.988	1178.81
406.212	1180.81
406.436	1200.81
406.66	1212.81
406.883	1218.81
407.107	1249.81
407.331	1287.81
407.555	1310.81
407.778	1302.81
408.002	1301.81
408.226	1268.81
408.449	1274.81
408.673	1237.81
408.896	1252.81
409.12	1212.81
409.344	1238.81
409.567	1214.81
409.791	1226.81
410.014	1184.81
410.238	1202.81
410.461	1226.81
410.685	1207.81
410.908	1185.81
411.132	1186.81
411.355	1166.81
411.578	1198.81
411.802	1161.81
412.025	1170.81
412.249	1157.81
412.472	1184.81
412.695	1149.81
412.919	1159.81
413.142	1172.81
413.365	1164.81
413.589	1147.81
413.812	1111.81
414.035	1146.81
414.258	1144.81
414.482	1144.81
414.705	1155.81
414.928	1158.81
415.151	1138.81
415.374	1134.81
415.597	1132.81
415.821	1122.81
416.044	1087.81
416.267	1076.81
416.49	1114.81
416.713	1107.81
416.936	1111.81
417.159	1117.81
417.382	1077.81
417.605	1085.81
417.828	1112.81
418.051	1090.81
418.274	1090.81
418.497	1099.81
418.72	1092.81
418.943	1105.81
419.166	1147.81
419.389	1245.81
419.611	1212.81
419.834	1188.81
420.057	1163.81
420.28	1108.81
420.503	1090.81
420.726	1083.81
420.948	1085.81
421.171	1068.81
421.394	1063.81
421.617	1080.81
421.839	1062.81
422.062	1077.81
422.285	1064.81
422.507	1057.81
422.73	1100.81
422.953	1113.81
423.175	1074.81
423.398	1077.81
423.621	1070.81
423.843	1107.81
424.066	1114.81
424.288	1065.81
424.511	1074.81
424.733	1086.81
424.956	1085.81
425.178	1097.81
425.401	1088.81
425.623	1095.81
425.846	1071.81
426.068	1060.81
426.291	1096.81
426.513	1081.81
426.735	1074.81
426.958	1086.81
427.18	1092.81
427.402	1103.81
427.625	1059.81
427.847	1045.81
428.069	1076.81
428.292	1086.81
428.514	1040.81
428.736	1063.81
428.958	1084.81
429.181	1014.81
429.403	1025.81
429.625	1054.81
429.847	1036.81
430.069	1019.81
430.292	1032.81
430.514	1015.81
430.736	1066.81
430.958	1057.81
431.18	1035.81
431.402	1043.81
431.624	1031.81
431.846	1024.81
432.068	1041.81
432.29	1046.81
432.512	1041.81
432.734	1091.81
432.956	1059.81
433.178	1089.81
433.4	1067.81
433.622	1083.81
433.844	1087.81
434.066	1062.81
434.287	1056.81
434.509	1068.81
434.731	1065.81
434.953	1078.81
435.175	1102.81
435.397	1128.81
435.618	1082.81
435.84	1092.81
436.062	1065.81
436.284	1056.81
436.505	1048.81
436.727	1025.81
436.949	1026.81
437.17	1038.81
437.392	1020.81
437.614	1028.81
437.835	1048.81
438.057	1030.81
438.278	1022.81
438.5	1057.81
438.721	1065.81
438.943	1016.81
439.165	1037.81
439.386	1022.81
439.608	1018.81
439.829	1052.81
440.05	1032.81
440.272	1046.81
440.493	1054.81
440.715	1093.81
440.936	1072.81
441.158	1078.81
441.379	1076.81
441.6	1118.81
441.822	1084.81
442.043	1078.81
442.264	1091.81
442.486	1083.81
442.707	1100.81
442.928	1106.81
443.149	1092.81
443.371	1090.81
443.592	1093.81
443.813	1087.81
444.034	1075.81
444.255	1073.81
444.476	1107.81
444.698	1115.81
444.919	1161.81
445.14	1198.81
445.361	1168.81
445.582	1118.81
445.803	1067.81
446.024	1091.81
446.245	1075.81
446.466	1067.81
446.687	1018.81
446.908	1056.81
447.129	995.81
447.35	1020.81
447.571	1016.81
447.792	1019.81
448.013	998.81
448.234	966.81
448.455	997.81
448.675	1003.81
448.896	1001.81
449.117	938.81
449.338	969.81
449.559	951.81
449.779	961.81
450	948.81
450.221	969.81
450.442	956.81
450.662	960.81
450.883	962.81
451.104	956.81
451.324	979.81
451.545	958.81
451.766	968.81
451.986	959.81
452.207	986.81
452.428	939.81
452.648	932.81
452.869	955.81
453.089	938.81
453.31	939.81
453.53	898.81
453.751	925.81
453.971	918.81
454.192	949.81
454.412	888.81
454.633	940.81
454.853	944.81
455.073	925.81
455.294	945.81
455.514	936.81
455.734	920.81
455.955	879.81
456.175	912.81
456.395	909.81
456.616	904.81
456.836	954.81
457.056	939.81
457.276	928.81
457.497	931.81
457.717	902.81
457.937	924.81
458.157	956.81
458.377	955.81
458.598	963.81
458.818	971.81
459.038	999.81
459.258	1014.81
459.478	1001.81
459.698	1022.81
459.918	1046.81
460.138	1062.81
460.358	1083.81
460.578	1092.81
460.798	1105.81
461.018	1122.81
461.238	1142.81
461.458	1134.81
461.678	1120.81
461.898	1132.81
462.118	1134.81
462.338	1196.81
462.558	1196.81
462.777	1214.81
462.997	1223.81
463.217	1252.81
463.437	1242.81
463.657	1240.81
463.876	1228.81
464.096	1266.81
464.316	1207.81
464.536	1223.81
464.755	1228.81
464.975	1209.81
465.195	1157.81
465.414	1131.81
465.634	1097.81
465.854	1092.81
466.073	1062.81
466.293	1072.81
466.512	1029.81
466.732	1070.81
466.951	1086.81
467.171	1071.81
467.391	1009.81
467.61	1016.81
467.829	1008.81
468.049	1009.81
468.268	985.81
468.488	987.81
468.707	1021.81
468.927	1034.81
469.146	1028.81
469.365	1041.81
469.585	1038.81
469.804	1024.81
470.023	1060.81
470.243	1014.81
470.462	1013.81
470.681	1037.81
470.901	1044.81
471.12	1025.81
471.339	1030.81
471.558	1041.81
471.777	1023.81
471.997	1033.81
472.216	1074.81
472.435	1076.81
472.654	1026.81
472.873	997.81
473.092	1014.81
473.311	1025.81
473.53	1061.81
473.749	991.81
473.968	1014.81
474.187	998.81
474.406	1004.81
474.625	1010.81
474.844	1032.81
475.063	1047.81
475.282	1007.81
475.501	1052.81
475.72	1009.81
475.939	1029.81
476.158	1085.81
476.377	1096.81
476.596	1150.81
476.814	1192.81
477.033	1101.81
477.252	1095.81
477.471	1093.81
477.69	1113.81
477.908	1148.81
478.127	1164.81
478.346	1144.81
478.564	1145.81
478.783	1183.81
479.002	1184.81
479.22	1186.81
479.439	1283.81
479.658	1214.81
479.876	1211.81
480.095	1236.81
480.313	1231.81
480.532	1196.81
480.751	1255.81
480.969	1207.81
481.188	1205.81
481.406	1251.81
481.624	1210.81
481.843	1220.81
482.061	1201.81
482.28	1185.81
482.498	1218.81
482.717	1198.81
482.935	1206.81
483.153	1238.81
483.372	1210.81
483.59	1204.81
483.808	1192.81
484.027	1200.81
484.245	1236.81
484.463	1191.81
484.681	1232.81
484.9	1282.81
485.118	1240.81
485.336	1223.81
485.554	1237.81
485.772	1245.81
485.99	1207.81
486.209	1266.81
486.427	1278.81
486.645	1235.81
486.863	1232.81
487.081	1286.81
487.299	1273.81
487.517	1281.81
487.735	1263.81
487.953	1264.81
488.171	1281.81
488.389	1257.81
488.607	1238.81
488.825	1235.81
489.043	1223.81
489.261	1257.81
489.479	1212.81
489.696	1243.81
489.914	1255.81
490.132	1243.81
490.35	1259.81
490.568	1219.81
490.786	1269.81
491.003	1245.81
491.221	1266.81
491.439	1278.81
491.657	1259.81
491.874	1284.81
492.092	1301.81
492.31	1305.81
492.527	1312.81
492.745	1311.81
492.963	1290.81
493.18	1301.81
493.398	1297.81
493.615	1319.81
493.833	1298.81
494.05	1278.81
494.268	1312.81
494.485	1292.81
494.703	1312.81
494.92	1313.81
495.138	1307.81
495.355	1290.81
495.573	1336.81
495.79	1326.81
496.008	1332.81
496.225	1348.81
