Data from Fe(NO3)3@0.1M.TitratingCurve.Agarose3%dH2O.NegLispCup.LampEnergy10.LIBS07252019_HRD10591_16-40-22-333.txt Node
Date: Thu Jul 25 16:40:22 EDT 2019
User: cochatt
Spectrometer: HR+D1059
Trigger mode: 1
Integration Time (sec): 1.000000E-1
Scans to average: 1
Electric dark correction enabled: true
Nonlinearity correction enabled: false
Boxcar width: 0
XAxis mode: Wavelengths
Number of Pixels in Spectrum: 2048
>>>>>Begin Spectral Data<<<<<
223.165	-5.38
223.4	-5.38
223.635	-5.38
223.869	-23.38
224.104	-23.38
224.338	-18.38
224.573	-14.38
224.808	-5.38
225.042	-5.38
225.277	-13.38
225.511	9.62
225.746	8.62
225.98	-1.38
226.215	5.62
226.449	15.62
226.683	22.62
226.918	32.62
227.152	15.62
227.387	31.62
227.621	38.62
227.856	42.62
228.09	38.62
228.324	46.62
228.559	55.62
228.793	67.62
229.027	78.62
229.262	90.62
229.496	86.62
229.73	91.62
229.964	103.62
230.199	103.62
230.433	99.62
230.667	89.62
230.901	88.62
231.136	99.62
231.37	118.62
231.604	117.62
231.838	104.62
232.072	115.62
232.306	109.62
232.541	112.62
232.775	108.62
233.009	106.62
233.243	103.62
233.477	100.62
233.711	104.62
233.945	95.62
234.179	108.62
234.413	110.62
234.647	112.62
234.881	131.62
235.115	115.62
235.349	112.62
235.583	122.62
235.817	114.62
236.051	120.62
236.285	118.62
236.519	116.62
236.753	118.62
236.987	116.62
237.221	105.62
237.455	110.62
237.689	119.62
237.922	112.62
238.156	96.62
238.39	118.62
238.624	115.62
238.858	107.62
239.091	132.62
239.325	134.62
239.559	125.62
239.793	124.62
240.027	126.62
240.26	115.62
240.494	128.62
240.728	117.62
240.961	120.62
241.195	117.62
241.429	123.62
241.662	126.62
241.896	128.62
242.13	124.62
242.363	120.62
242.597	120.62
242.83	135.62
243.064	121.62
243.298	132.62
243.531	137.62
243.765	129.62
243.998	124.62
244.232	150.62
244.465	142.62
244.699	125.62
244.932	137.62
245.166	132.62
245.399	141.62
245.633	136.62
245.866	144.62
246.099	128.62
246.333	135.62
246.566	145.62
246.8	154.62
247.033	156.62
247.266	123.62
247.5	145.62
247.733	132.62
247.966	132.62
248.2	137.62
248.433	152.62
248.666	159.62
248.899	155.62
249.133	148.62
249.366	162.62
249.599	166.62
249.832	160.62
250.066	146.62
250.299	164.62
250.532	159.62
250.765	167.62
250.998	162.62
251.231	163.62
251.465	170.62
251.698	155.62
251.931	169.62
252.164	147.62
252.397	163.62
252.63	172.62
252.863	170.62
253.096	147.62
253.329	166.62
253.562	179.62
253.795	186.62
254.028	170.62
254.261	194.62
254.494	171.62
254.727	167.62
254.96	182.62
255.193	176.62
255.426	173.62
255.659	171.62
255.892	182.62
256.124	182.62
256.357	167.62
256.59	178.62
256.823	174.62
257.056	183.62
257.289	190.62
257.521	190.62
257.754	181.62
257.987	187.62
258.22	186.62
258.452	170.62
258.685	174.62
258.918	183.62
259.151	177.62
259.383	190.62
259.616	198.62
259.849	170.62
260.081	191.62
260.314	202.62
260.547	182.62
260.779	183.62
261.012	199.62
261.244	192.62
261.477	195.62
261.71	184.62
261.942	179.62
262.175	197.62
262.407	180.62
262.64	194.62
262.872	204.62
263.105	198.62
263.337	190.62
263.57	200.62
263.802	205.62
264.035	194.62
264.267	206.62
264.499	191.62
264.732	201.62
264.964	197.62
265.197	208.62
265.429	209.62
265.661	202.62
265.894	193.62
266.126	214.62
266.358	194.62
266.591	222.62
266.823	198.62
267.055	198.62
267.287	217.62
267.52	195.62
267.752	192.62
267.984	205.62
268.216	214.62
268.448	221.62
268.681	221.62
268.913	214.62
269.145	228.62
269.377	234.62
269.609	220.62
269.841	217.62
270.073	218.62
270.306	250.62
270.538	213.62
270.77	204.62
271.002	222.62
271.234	213.62
271.466	222.62
271.698	221.62
271.93	214.62
272.162	212.62
272.394	225.62
272.626	234.62
272.858	233.62
273.09	220.62
273.322	218.62
273.553	219.62
273.785	231.62
274.017	240.62
274.249	228.62
274.481	244.62
274.713	229.62
274.945	240.62
275.176	230.62
275.408	230.62
275.64	227.62
275.872	235.62
276.104	262.62
276.335	244.62
276.567	244.62
276.799	242.62
277.031	255.62
277.262	236.62
277.494	263.62
277.726	255.62
277.957	254.62
278.189	249.62
278.421	248.62
278.652	244.62
278.884	261.62
279.115	249.62
279.347	244.62
279.579	243.62
279.81	222.62
280.042	258.62
280.273	246.62
280.505	276.62
280.736	255.62
280.968	265.62
281.199	261.62
281.431	262.62
281.662	256.62
281.894	265.62
282.125	241.62
282.356	243.62
282.588	267.62
282.819	252.62
283.051	257.62
283.282	277.62
283.513	274.62
283.745	258.62
283.976	266.62
284.207	273.62
284.439	295.62
284.67	268.62
284.901	286.62
285.132	290.62
285.364	258.62
285.595	266.62
285.826	257.62
286.057	279.62
286.288	271.62
286.52	287.62
286.751	286.62
286.982	268.62
287.213	283.62
287.444	268.62
287.675	275.62
287.906	293.62
288.138	278.62
288.369	279.62
288.6	282.62
288.831	269.62
289.062	293.62
289.293	274.62
289.524	284.62
289.755	268.62
289.986	290.62
290.217	289.62
290.448	300.62
290.679	299.62
290.91	292.62
291.141	290.62
291.371	294.62
291.602	291.62
291.833	284.62
292.064	279.62
292.295	304.62
292.526	296.62
292.757	282.62
292.987	275.62
293.218	274.62
293.449	295.62
293.68	303.62
293.91	295.62
294.141	294.62
294.372	286.62
294.603	277.62
294.833	291.62
295.064	292.62
295.295	296.62
295.525	289.62
295.756	287.62
295.987	283.62
296.217	297.62
296.448	283.62
296.679	288.62
296.909	297.62
297.14	302.62
297.37	311.62
297.601	323.62
297.831	313.62
298.062	285.62
298.292	306.62
298.523	299.62
298.753	311.62
298.984	312.62
299.214	292.62
299.445	312.62
299.675	293.62
299.905	307.62
300.136	315.62
300.366	307.62
300.597	308.62
300.827	328.62
301.057	330.62
301.288	315.62
301.518	319.62
301.748	338.62
301.979	352.62
302.209	324.62
302.439	313.62
302.669	335.62
302.9	316.62
303.13	319.62
303.36	346.62
303.59	328.62
303.82	323.62
304.051	326.62
304.281	318.62
304.511	331.62
304.741	315.62
304.971	339.62
305.201	323.62
305.431	326.62
305.661	325.62
305.891	298.62
306.121	327.62
306.352	320.62
306.582	310.62
306.812	320.62
307.042	323.62
307.272	328.62
307.502	326.62
307.731	324.62
307.961	326.62
308.191	324.62
308.421	316.62
308.651	321.62
308.881	316.62
309.111	326.62
309.341	327.62
309.571	336.62
309.8	324.62
310.03	323.62
310.26	321.62
310.49	309.62
310.72	320.62
310.949	321.62
311.179	344.62
311.409	332.62
311.639	344.62
311.868	333.62
312.098	325.62
312.328	329.62
312.557	312.62
312.787	318.62
313.017	329.62
313.246	349.62
313.476	350.62
313.706	348.62
313.935	364.62
314.165	343.62
314.394	340.62
314.624	338.62
314.853	362.62
315.083	343.62
315.312	334.62
315.542	346.62
315.771	344.62
316.001	348.62
316.23	338.62
316.46	338.62
316.689	332.62
316.919	318.62
317.148	337.62
317.377	330.62
317.607	339.62
317.836	336.62
318.065	336.62
318.295	343.62
318.524	347.62
318.753	338.62
318.983	337.62
319.212	340.62
319.441	345.62
319.67	333.62
319.9	345.62
320.129	351.62
320.358	357.62
320.587	330.62
320.816	348.62
321.046	338.62
321.275	336.62
321.504	350.62
321.733	327.62
321.962	352.62
322.191	339.62
322.42	343.62
322.649	338.62
322.878	343.62
323.108	355.62
323.337	360.62
323.566	356.62
323.795	343.62
324.024	344.62
324.253	349.62
324.482	369.62
324.71	366.62
324.939	374.62
325.168	356.62
325.397	352.62
325.626	367.62
325.855	363.62
326.084	360.62
326.313	378.62
326.542	374.62
326.77	383.62
326.999	370.62
327.228	357.62
327.457	380.62
327.686	363.62
327.914	387.62
328.143	384.62
328.372	374.62
328.6	353.62
328.829	389.62
329.058	384.62
329.287	364.62
329.515	374.62
329.744	392.62
329.972	384.62
330.201	380.62
330.43	382.62
330.658	370.62
330.887	378.62
331.115	378.62
331.344	389.62
331.572	406.62
331.801	390.62
332.03	409.62
332.258	416.62
332.486	432.62
332.715	417.62
332.943	446.62
333.172	448.62
333.4	454.62
333.629	455.62
333.857	472.62
334.085	454.62
334.314	492.62
334.542	465.62
334.771	464.62
334.999	445.62
335.227	464.62
335.455	454.62
335.684	481.62
335.912	456.62
336.14	448.62
336.369	445.62
336.597	449.62
336.825	436.62
337.053	422.62
337.281	426.62
337.51	437.62
337.738	436.62
337.966	418.62
338.194	396.62
338.422	419.62
338.65	428.62
338.878	404.62
339.106	419.62
339.334	418.62
339.562	385.62
339.79	422.62
340.018	400.62
340.246	393.62
340.474	378.62
340.702	405.62
340.93	380.62
341.158	389.62
341.386	391.62
341.614	395.62
341.842	400.62
342.07	399.62
342.298	407.62
342.526	395.62
342.754	386.62
342.981	380.62
343.209	394.62
343.437	419.62
343.665	436.62
343.893	452.62
344.12	465.62
344.348	455.62
344.576	439.62
344.804	407.62
345.031	423.62
345.259	406.62
345.487	395.62
345.714	393.62
345.942	396.62
346.17	377.62
346.397	387.62
346.625	373.62
346.853	384.62
347.08	393.62
347.308	382.62
347.535	388.62
347.763	378.62
347.99	374.62
348.218	395.62
348.445	389.62
348.673	388.62
348.9	364.62
349.128	392.62
349.355	395.62
349.583	386.62
349.81	382.62
350.037	372.62
350.265	371.62
350.492	378.62
350.72	389.62
350.947	380.62
351.174	366.62
351.402	360.62
351.629	376.62
351.856	368.62
352.083	381.62
352.311	371.62
352.538	376.62
352.765	376.62
352.992	370.62
353.22	368.62
353.447	371.62
353.674	374.62
353.901	362.62
354.128	378.62
354.355	380.62
354.583	355.62
354.81	370.62
355.037	368.62
355.264	371.62
355.491	385.62
355.718	370.62
355.945	375.62
356.172	388.62
356.399	374.62
356.626	391.62
356.853	352.62
357.08	370.62
357.307	370.62
357.534	370.62
357.761	379.62
357.988	378.62
358.215	383.62
358.441	375.62
358.668	374.62
358.895	385.62
359.122	368.62
359.349	368.62
359.576	376.62
359.802	381.62
360.029	389.62
360.256	376.62
360.483	382.62
360.709	377.62
360.936	370.62
361.163	362.62
361.39	364.62
361.616	378.62
361.843	372.62
362.07	390.62
362.296	384.62
362.523	386.62
362.749	375.62
362.976	356.62
363.203	386.62
363.429	364.62
363.656	376.62
363.882	386.62
364.109	361.62
364.335	389.62
364.562	363.62
364.788	378.62
365.015	388.62
365.241	379.62
365.468	388.62
365.694	375.62
365.92	370.62
366.147	375.62
366.373	371.62
366.599	389.62
366.826	380.62
367.052	363.62
367.278	392.62
367.505	376.62
367.731	385.62
367.957	374.62
368.184	379.62
368.41	379.62
368.636	381.62
368.862	389.62
369.089	385.62
369.315	401.62
369.541	391.62
369.767	385.62
369.993	398.62
370.219	397.62
370.445	390.62
370.672	402.62
370.898	393.62
371.124	406.62
371.35	418.62
371.576	402.62
371.802	427.62
372.028	404.62
372.254	417.62
372.48	396.62
372.706	412.62
372.932	433.62
373.158	395.62
373.384	419.62
373.61	426.62
373.835	422.62
374.061	411.62
374.287	420.62
374.513	424.62
374.739	418.62
374.965	434.62
375.191	433.62
375.416	437.62
375.642	438.62
375.868	452.62
376.094	424.62
376.319	435.62
376.545	416.62
376.771	425.62
376.997	420.62
377.222	429.62
377.448	414.62
377.674	409.62
377.899	399.62
378.125	398.62
378.35	400.62
378.576	389.62
378.802	409.62
379.027	405.62
379.253	401.62
379.478	409.62
379.704	414.62
379.929	419.62
380.155	406.62
380.38	412.62
380.606	412.62
380.831	406.62
381.057	412.62
381.282	414.62
381.507	420.62
381.733	429.62
381.958	426.62
382.184	430.62
382.409	465.62
382.634	416.62
382.86	424.62
383.085	424.62
383.31	438.62
383.535	467.62
383.761	436.62
383.986	459.62
384.211	456.62
384.436	479.62
384.662	466.62
384.887	479.62
385.112	484.62
385.337	484.62
385.562	496.62
385.787	485.62
386.013	483.62
386.238	469.62
386.463	484.62
386.688	480.62
386.913	472.62
387.138	468.62
387.363	481.62
387.588	481.62
387.813	487.62
388.038	498.62
388.263	476.62
388.488	492.62
388.713	476.62
388.938	469.62
389.163	486.62
389.387	487.62
389.612	488.62
389.837	462.62
390.062	481.62
390.287	478.62
390.512	500.62
390.736	497.62
390.961	506.62
391.186	510.62
391.411	514.62
391.636	511.62
391.86	532.62
392.085	544.62
392.31	552.62
392.534	531.62
392.759	527.62
392.984	501.62
393.208	517.62
393.433	521.62
393.658	509.62
393.882	520.62
394.107	503.62
394.331	525.62
394.556	528.62
394.78	545.62
395.005	532.62
395.229	510.62
395.454	550.62
395.678	533.62
395.903	530.62
396.127	537.62
396.352	510.62
396.576	538.62
396.801	534.62
397.025	535.62
397.249	532.62
397.474	565.62
397.698	562.62
397.922	552.62
398.147	540.62
398.371	554.62
398.595	585.62
398.82	583.62
399.044	626.62
399.268	661.62
399.492	744.62
399.717	834.62
399.941	862.62
400.165	760.62
400.389	721.62
400.613	670.62
400.837	634.62
401.062	600.62
401.286	614.62
401.51	583.62
401.734	603.62
401.958	592.62
402.182	610.62
402.406	631.62
402.63	622.62
402.854	613.62
403.078	622.62
403.302	641.62
403.526	639.62
403.75	649.62
403.974	680.62
404.198	685.62
404.422	669.62
404.645	679.62
404.869	641.62
405.093	666.62
405.317	651.62
405.541	644.62
405.765	667.62
405.988	660.62
406.212	665.62
406.436	645.62
406.66	663.62
406.883	682.62
407.107	689.62
407.331	743.62
407.555	751.62
407.778	764.62
408.002	742.62
408.226	745.62
408.449	724.62
408.673	677.62
408.896	668.62
409.12	693.62
409.344	680.62
409.567	652.62
409.791	697.62
410.014	677.62
410.238	683.62
410.461	651.62
410.685	655.62
410.908	675.62
411.132	636.62
411.355	612.62
411.578	622.62
411.802	634.62
412.025	657.62
412.249	652.62
412.472	662.62
412.695	626.62
412.919	644.62
413.142	627.62
413.365	612.62
413.589	616.62
413.812	615.62
414.035	628.62
414.258	620.62
414.482	615.62
414.705	636.62
414.928	615.62
415.151	649.62
415.374	627.62
415.597	602.62
415.821	607.62
416.044	589.62
416.267	615.62
416.49	600.62
416.713	614.62
416.936	604.62
417.159	600.62
417.382	578.62
417.605	610.62
417.828	607.62
418.051	595.62
418.274	596.62
418.497	622.62
418.72	628.62
418.943	626.62
419.166	650.62
419.389	697.62
419.611	676.62
419.834	624.62
420.057	623.62
420.28	610.62
420.503	599.62
420.726	597.62
420.948	596.62
421.171	578.62
421.394	602.62
421.617	613.62
421.839	604.62
422.062	617.62
422.285	574.62
422.507	599.62
422.73	629.62
422.953	618.62
423.175	601.62
423.398	627.62
423.621	626.62
423.843	641.62
424.066	623.62
424.288	615.62
424.511	583.62
424.733	604.62
424.956	616.62
425.178	606.62
425.401	613.62
425.623	598.62
425.846	610.62
426.068	612.62
426.291	566.62
426.513	587.62
426.735	568.62
426.958	573.62
427.18	574.62
427.402	569.62
427.625	560.62
427.847	557.62
428.069	547.62
428.292	554.62
428.514	558.62
428.736	567.62
428.958	570.62
429.181	546.62
429.403	551.62
429.625	562.62
429.847	552.62
430.069	555.62
430.292	545.62
430.514	548.62
430.736	544.62
430.958	548.62
431.18	562.62
431.402	570.62
431.624	547.62
431.846	542.62
432.068	540.62
432.29	542.62
432.512	564.62
432.734	571.62
432.956	574.62
433.178	569.62
433.4	574.62
433.622	564.62
433.844	564.62
434.066	569.62
434.287	562.62
434.509	588.62
434.731	593.62
434.953	600.62
435.175	617.62
435.397	606.62
435.618	582.62
435.84	605.62
436.062	579.62
436.284	540.62
436.505	541.62
436.727	563.62
436.949	580.62
437.17	579.62
437.392	547.62
437.614	536.62
437.835	512.62
438.057	558.62
438.278	530.62
438.5	522.62
438.721	532.62
438.943	547.62
439.165	556.62
439.386	541.62
439.608	564.62
439.829	576.62
440.05	586.62
440.272	565.62
440.493	572.62
440.715	574.62
440.936	581.62
441.158	593.62
441.379	574.62
441.6	609.62
441.822	602.62
442.043	648.62
442.264	615.62
442.486	598.62
442.707	613.62
442.928	607.62
443.149	632.62
443.371	598.62
443.592	611.62
443.813	606.62
444.034	624.62
444.255	634.62
444.476	656.62
444.698	682.62
444.919	696.62
445.14	786.62
445.361	704.62
445.582	633.62
445.803	598.62
446.024	600.62
446.245	588.62
446.466	611.62
446.687	563.62
446.908	573.62
447.129	561.62
447.35	566.62
447.571	564.62
447.792	532.62
448.013	530.62
448.234	535.62
448.455	534.62
448.675	523.62
448.896	552.62
449.117	517.62
449.338	516.62
449.559	532.62
449.779	508.62
450	526.62
450.221	498.62
450.442	515.62
450.662	519.62
450.883	544.62
451.104	538.62
451.324	512.62
451.545	527.62
451.766	506.62
451.986	519.62
452.207	502.62
452.428	515.62
452.648	519.62
452.869	502.62
453.089	509.62
453.31	491.62
453.53	492.62
453.751	523.62
453.971	496.62
454.192	519.62
454.412	498.62
454.633	503.62
454.853	487.62
455.073	499.62
455.294	490.62
455.514	472.62
455.734	482.62
455.955	514.62
456.175	480.62
456.395	482.62
456.616	464.62
456.836	460.62
457.056	479.62
457.276	466.62
457.497	477.62
457.717	490.62
457.937	500.62
458.157	498.62
458.377	499.62
458.598	499.62
458.818	482.62
459.038	510.62
459.258	524.62
459.478	548.62
459.698	592.62
459.918	566.62
460.138	602.62
460.358	628.62
460.578	626.62
460.798	630.62
461.018	630.62
461.238	650.62
461.458	617.62
461.678	622.62
461.898	646.62
462.118	636.62
462.338	668.62
462.558	681.62
462.777	695.62
462.997	737.62
463.217	766.62
463.437	798.62
463.657	746.62
463.876	739.62
464.096	737.62
464.316	708.62
464.536	725.62
464.755	707.62
464.975	680.62
465.195	659.62
465.414	633.62
465.634	595.62
465.854	579.62
466.073	569.62
466.293	563.62
466.512	546.62
466.732	548.62
466.951	558.62
467.171	527.62
467.391	554.62
467.61	537.62
467.829	527.62
468.049	531.62
468.268	520.62
468.488	510.62
468.707	521.62
468.927	525.62
469.146	534.62
469.365	520.62
469.585	520.62
469.804	550.62
470.023	540.62
470.243	543.62
470.462	558.62
470.681	545.62
470.901	528.62
471.12	546.62
471.339	562.62
471.558	524.62
471.777	523.62
471.997	529.62
472.216	520.62
472.435	522.62
472.654	519.62
472.873	507.62
473.092	516.62
473.311	518.62
473.53	507.62
473.749	500.62
473.968	494.62
474.187	514.62
474.406	508.62
474.625	496.62
474.844	512.62
475.063	498.62
475.282	511.62
475.501	510.62
475.72	502.62
475.939	514.62
476.158	499.62
476.377	520.62
476.596	501.62
476.814	518.62
477.033	502.62
477.252	539.62
477.471	547.62
477.69	563.62
477.908	556.62
478.127	585.62
478.346	587.62
478.564	575.62
478.783	583.62
479.002	624.62
479.22	599.62
479.439	608.62
479.658	601.62
479.876	624.62
480.095	602.62
480.313	614.62
480.532	643.62
480.751	638.62
480.969	618.62
481.188	578.62
481.406	585.62
481.624	589.62
481.843	549.62
482.061	574.62
482.28	570.62
482.498	577.62
482.717	561.62
482.935	580.62
483.153	587.62
483.372	593.62
483.59	577.62
483.808	582.62
484.027	556.62
484.245	565.62
484.463	572.62
484.681	596.62
484.9	589.62
485.118	596.62
485.336	587.62
485.554	575.62
485.772	587.62
485.99	590.62
486.209	606.62
486.427	574.62
486.645	593.62
486.863	603.62
487.081	602.62
487.299	618.62
487.517	575.62
487.735	581.62
487.953	602.62
488.171	598.62
488.389	580.62
488.607	580.62
488.825	574.62
489.043	586.62
489.261	594.62
489.479	606.62
489.696	572.62
489.914	587.62
490.132	586.62
490.35	585.62
490.568	568.62
490.786	596.62
491.003	606.62
491.221	626.62
491.439	579.62
491.657	628.62
491.874	615.62
492.092	610.62
492.31	625.62
492.527	613.62
492.745	633.62
492.963	622.62
493.18	636.62
493.398	628.62
493.615	630.62
493.833	636.62
494.05	605.62
494.268	619.62
494.485	633.62
494.703	602.62
494.92	640.62
495.138	629.62
495.355	604.62
495.573	637.62
495.79	638.62
496.008	661.62
496.225	631.62
496.442	645.62
496.66	669.62
496.877	661.62
497.094	703.62
497.312	674.62
497.529	702.62
497.746	719.62
497.963	740.62
498.181	746.62
498.398	744.62
498.615	810.62
498.832	843.62
499.049	887.62
499.267	939.62
499.484	1049.62
499.701	1130.62
499.918	1208.62
500.135	1334.62
500.352	1496.62
500.569	1552.62
500.786	1536.62
501.003	1454.62
501.22	1330.62
501.437	1212.62
501.654	1096.62
