Data from Fe(NO3)3@0.1M.TitratingCurve.Agarose3%dH2O.NegLispCup.LampEnergy10.LIBS07252019_HRD10591_16-39-42-332.txt Node
Date: Thu Jul 25 16:39:42 EDT 2019
User: cochatt
Spectrometer: HR+D1059
Trigger mode: 1
Integration Time (sec): 1.000000E-1
Scans to average: 1
Electric dark correction enabled: true
Nonlinearity correction enabled: false
Boxcar width: 0
XAxis mode: Wavelengths
Number of Pixels in Spectrum: 2048
>>>>>Begin Spectral Data<<<<<
223.165	-9.44
223.4	-9.44
223.635	-9.44
223.869	-25.44
224.104	-17.44
224.338	-15.44
224.573	-8.44
224.808	-11.44
225.042	-5.44
225.277	-0.44
225.511	2.56
225.746	-3.44
225.98	15.56
226.215	15.56
226.449	18.56
226.683	10.56
226.918	17.56
227.152	16.56
227.387	23.56
227.621	31.56
227.856	34.56
228.09	44.56
228.324	50.56
228.559	54.56
228.793	57.56
229.027	69.56
229.262	55.56
229.496	69.56
229.73	77.56
229.964	80.56
230.199	83.56
230.433	74.56
230.667	91.56
230.901	95.56
231.136	84.56
231.37	85.56
231.604	94.56
231.838	84.56
232.072	97.56
232.306	105.56
232.541	94.56
232.775	76.56
233.009	83.56
233.243	93.56
233.477	95.56
233.711	94.56
233.945	88.56
234.179	90.56
234.413	96.56
234.647	90.56
234.881	96.56
235.115	86.56
235.349	104.56
235.583	98.56
235.817	88.56
236.051	90.56
236.285	92.56
236.519	82.56
236.753	91.56
236.987	84.56
237.221	90.56
237.455	96.56
237.689	97.56
237.922	85.56
238.156	89.56
238.39	110.56
238.624	96.56
238.858	99.56
239.091	89.56
239.325	76.56
239.559	98.56
239.793	94.56
240.027	103.56
240.26	100.56
240.494	110.56
240.728	100.56
240.961	116.56
241.195	117.56
241.429	89.56
241.662	97.56
241.896	110.56
242.13	106.56
242.363	114.56
242.597	114.56
242.83	113.56
243.064	97.56
243.298	108.56
243.531	106.56
243.765	93.56
243.998	100.56
244.232	105.56
244.465	104.56
244.699	105.56
244.932	108.56
245.166	105.56
245.399	115.56
245.633	101.56
245.866	98.56
246.099	111.56
246.333	119.56
246.566	104.56
246.8	106.56
247.033	109.56
247.266	90.56
247.5	110.56
247.733	94.56
247.966	118.56
248.2	108.56
248.433	112.56
248.666	115.56
248.899	98.56
249.133	129.56
249.366	122.56
249.599	120.56
249.832	135.56
250.066	121.56
250.299	114.56
250.532	110.56
250.765	121.56
250.998	121.56
251.231	116.56
251.465	123.56
251.698	128.56
251.931	101.56
252.164	110.56
252.397	118.56
252.63	119.56
252.863	131.56
253.096	118.56
253.329	118.56
253.562	119.56
253.795	126.56
254.028	130.56
254.261	122.56
254.494	121.56
254.727	120.56
254.96	118.56
255.193	117.56
255.426	125.56
255.659	122.56
255.892	130.56
256.124	129.56
256.357	119.56
256.59	132.56
256.823	130.56
257.056	134.56
257.289	114.56
257.521	129.56
257.754	114.56
257.987	128.56
258.22	127.56
258.452	122.56
258.685	130.56
258.918	129.56
259.151	115.56
259.383	148.56
259.616	140.56
259.849	132.56
260.081	145.56
260.314	142.56
260.547	116.56
260.779	121.56
261.012	138.56
261.244	132.56
261.477	141.56
261.71	138.56
261.942	142.56
262.175	126.56
262.407	133.56
262.64	130.56
262.872	146.56
263.105	152.56
263.337	141.56
263.57	142.56
263.802	142.56
264.035	140.56
264.267	136.56
264.499	136.56
264.732	131.56
264.964	144.56
265.197	148.56
265.429	130.56
265.661	137.56
265.894	137.56
266.126	154.56
266.358	146.56
266.591	137.56
266.823	150.56
267.055	145.56
267.287	134.56
267.52	156.56
267.752	152.56
267.984	138.56
268.216	155.56
268.448	132.56
268.681	141.56
268.913	138.56
269.145	139.56
269.377	151.56
269.609	132.56
269.841	159.56
270.073	146.56
270.306	144.56
270.538	129.56
270.77	134.56
271.002	154.56
271.234	161.56
271.466	140.56
271.698	136.56
271.93	146.56
272.162	165.56
272.394	154.56
272.626	163.56
272.858	152.56
273.09	160.56
273.322	154.56
273.553	162.56
273.785	155.56
274.017	161.56
274.249	167.56
274.481	160.56
274.713	154.56
274.945	162.56
275.176	150.56
275.408	162.56
275.64	158.56
275.872	161.56
276.104	162.56
276.335	152.56
276.567	160.56
276.799	165.56
277.031	164.56
277.262	163.56
277.494	168.56
277.726	170.56
277.957	170.56
278.189	168.56
278.421	155.56
278.652	176.56
278.884	161.56
279.115	169.56
279.347	156.56
279.579	171.56
279.81	174.56
280.042	167.56
280.273	178.56
280.505	152.56
280.736	164.56
280.968	160.56
281.199	174.56
281.431	180.56
281.662	162.56
281.894	181.56
282.125	164.56
282.356	174.56
282.588	179.56
282.819	166.56
283.051	180.56
283.282	176.56
283.513	184.56
283.745	183.56
283.976	174.56
284.207	164.56
284.439	187.56
284.67	182.56
284.901	182.56
285.132	181.56
285.364	174.56
285.595	186.56
285.826	178.56
286.057	177.56
286.288	180.56
286.52	189.56
286.751	180.56
286.982	188.56
287.213	194.56
287.444	180.56
287.675	179.56
287.906	183.56
288.138	178.56
288.369	195.56
288.6	182.56
288.831	168.56
289.062	179.56
289.293	196.56
289.524	193.56
289.755	185.56
289.986	188.56
290.217	184.56
290.448	179.56
290.679	168.56
290.91	194.56
291.141	186.56
291.371	193.56
291.602	207.56
291.833	190.56
292.064	203.56
292.295	188.56
292.526	182.56
292.757	201.56
292.987	200.56
293.218	184.56
293.449	198.56
293.68	193.56
293.91	183.56
294.141	192.56
294.372	194.56
294.603	202.56
294.833	196.56
295.064	171.56
295.295	202.56
295.525	185.56
295.756	212.56
295.987	199.56
296.217	206.56
296.448	210.56
296.679	197.56
296.909	195.56
297.14	193.56
297.37	196.56
297.601	207.56
297.831	214.56
298.062	202.56
298.292	217.56
298.523	190.56
298.753	198.56
298.984	211.56
299.214	209.56
299.445	208.56
299.675	213.56
299.905	213.56
300.136	208.56
300.366	207.56
300.597	201.56
300.827	199.56
301.057	201.56
301.288	201.56
301.518	205.56
301.748	203.56
301.979	214.56
302.209	217.56
302.439	222.56
302.669	210.56
302.9	229.56
303.13	220.56
303.36	218.56
303.59	195.56
303.82	208.56
304.051	215.56
304.281	211.56
304.511	226.56
304.741	203.56
304.971	212.56
305.201	188.56
305.431	227.56
305.661	228.56
305.891	200.56
306.121	213.56
306.352	207.56
306.582	214.56
306.812	214.56
307.042	232.56
307.272	216.56
307.502	212.56
307.731	226.56
307.961	212.56
308.191	212.56
308.421	202.56
308.651	218.56
308.881	215.56
309.111	188.56
309.341	222.56
309.571	211.56
309.8	224.56
310.03	225.56
310.26	240.56
310.49	205.56
310.72	215.56
310.949	212.56
311.179	215.56
311.409	221.56
311.639	193.56
311.868	209.56
312.098	216.56
312.328	244.56
312.557	218.56
312.787	239.56
313.017	229.56
313.246	222.56
313.476	228.56
313.706	231.56
313.935	232.56
314.165	225.56
314.394	230.56
314.624	222.56
314.853	244.56
315.083	218.56
315.312	239.56
315.542	230.56
315.771	244.56
316.001	241.56
316.23	218.56
316.46	231.56
316.689	228.56
316.919	236.56
317.148	220.56
317.377	227.56
317.607	218.56
317.836	258.56
318.065	230.56
318.295	231.56
318.524	236.56
318.753	244.56
318.983	223.56
319.212	224.56
319.441	236.56
319.67	234.56
319.9	242.56
320.129	224.56
320.358	241.56
320.587	242.56
320.816	232.56
321.046	226.56
321.275	241.56
321.504	222.56
321.733	222.56
321.962	224.56
322.191	243.56
322.42	238.56
322.649	226.56
322.878	224.56
323.108	230.56
323.337	238.56
323.566	236.56
323.795	250.56
324.024	251.56
324.253	226.56
324.482	242.56
324.71	245.56
324.939	239.56
325.168	254.56
325.397	241.56
325.626	250.56
325.855	261.56
326.084	254.56
326.313	240.56
326.542	265.56
326.77	247.56
326.999	266.56
327.228	260.56
327.457	256.56
327.686	246.56
327.914	254.56
328.143	261.56
328.372	241.56
328.6	257.56
328.829	246.56
329.058	246.56
329.287	260.56
329.515	256.56
329.744	276.56
329.972	276.56
330.201	267.56
330.43	275.56
330.658	259.56
330.887	276.56
331.115	267.56
331.344	244.56
331.572	273.56
331.801	271.56
332.03	297.56
332.258	295.56
332.486	283.56
332.715	287.56
332.943	282.56
333.172	315.56
333.4	291.56
333.629	312.56
333.857	310.56
334.085	326.56
334.314	326.56
334.542	304.56
334.771	299.56
334.999	304.56
335.227	312.56
335.455	303.56
335.684	311.56
335.912	311.56
336.14	298.56
336.369	298.56
336.597	288.56
336.825	302.56
337.053	280.56
337.281	292.56
337.51	286.56
337.738	293.56
337.966	280.56
338.194	286.56
338.422	291.56
338.65	297.56
338.878	269.56
339.106	266.56
339.334	284.56
339.562	286.56
339.79	274.56
340.018	267.56
340.246	265.56
340.474	274.56
340.702	276.56
340.93	277.56
341.158	263.56
341.386	266.56
341.614	260.56
341.842	270.56
342.07	281.56
342.298	277.56
342.526	261.56
342.754	279.56
342.981	272.56
343.209	288.56
343.437	282.56
343.665	291.56
343.893	316.56
344.12	306.56
344.348	299.56
344.576	299.56
344.804	275.56
345.031	268.56
345.259	272.56
345.487	272.56
345.714	262.56
345.942	276.56
346.17	267.56
346.397	258.56
346.625	250.56
346.853	258.56
347.08	259.56
347.308	266.56
347.535	257.56
347.763	260.56
347.99	249.56
348.218	250.56
348.445	271.56
348.673	242.56
348.9	248.56
349.128	281.56
349.355	263.56
349.583	251.56
349.81	276.56
350.037	263.56
350.265	284.56
350.492	246.56
350.72	275.56
350.947	254.56
351.174	277.56
351.402	258.56
351.629	260.56
351.856	265.56
352.083	236.56
352.311	269.56
352.538	264.56
352.765	258.56
352.992	248.56
353.22	254.56
353.447	250.56
353.674	252.56
353.901	261.56
354.128	240.56
354.355	263.56
354.583	274.56
354.81	275.56
355.037	252.56
355.264	240.56
355.491	246.56
355.718	255.56
355.945	265.56
356.172	266.56
356.399	258.56
356.626	263.56
356.853	263.56
357.08	265.56
357.307	261.56
357.534	261.56
357.761	227.56
357.988	267.56
358.215	270.56
358.441	264.56
358.668	242.56
358.895	244.56
359.122	243.56
359.349	263.56
359.576	255.56
359.802	261.56
360.029	252.56
360.256	258.56
360.483	261.56
360.709	263.56
360.936	264.56
361.163	267.56
361.39	258.56
361.616	251.56
361.843	266.56
362.07	240.56
362.296	248.56
362.523	263.56
362.749	269.56
362.976	266.56
363.203	278.56
363.429	276.56
363.656	243.56
363.882	257.56
364.109	249.56
364.335	258.56
364.562	280.56
364.788	262.56
365.015	268.56
365.241	282.56
365.468	266.56
365.694	269.56
365.92	252.56
366.147	269.56
366.373	274.56
366.599	267.56
366.826	269.56
367.052	269.56
367.278	267.56
367.505	278.56
367.731	267.56
367.957	273.56
368.184	244.56
368.41	274.56
368.636	260.56
368.862	255.56
369.089	266.56
369.315	275.56
369.541	299.56
369.767	282.56
369.993	277.56
370.219	254.56
370.445	277.56
370.672	278.56
370.898	293.56
371.124	282.56
371.35	288.56
371.576	286.56
371.802	278.56
372.028	279.56
372.254	305.56
372.48	281.56
372.706	290.56
372.932	291.56
373.158	282.56
373.384	295.56
373.61	284.56
373.835	291.56
374.061	286.56
374.287	296.56
374.513	295.56
374.739	302.56
374.965	305.56
375.191	318.56
375.416	292.56
375.642	300.56
375.868	310.56
376.094	308.56
376.319	303.56
376.545	278.56
376.771	297.56
376.997	274.56
377.222	285.56
377.448	287.56
377.674	283.56
377.899	290.56
378.125	298.56
378.35	289.56
378.576	281.56
378.802	274.56
379.027	276.56
379.253	296.56
379.478	278.56
379.704	297.56
379.929	295.56
380.155	278.56
380.38	285.56
380.606	281.56
380.831	263.56
381.057	293.56
381.282	293.56
381.507	294.56
381.733	304.56
381.958	296.56
382.184	299.56
382.409	300.56
382.634	312.56
382.86	302.56
383.085	307.56
383.31	337.56
383.535	311.56
383.761	319.56
383.986	313.56
384.211	348.56
384.436	322.56
384.662	306.56
384.887	324.56
385.112	316.56
385.337	329.56
385.562	336.56
385.787	336.56
386.013	333.56
386.238	324.56
386.463	341.56
386.688	353.56
386.913	326.56
387.138	316.56
387.363	322.56
387.588	348.56
387.813	321.56
388.038	306.56
388.263	341.56
388.488	310.56
388.713	331.56
388.938	337.56
389.163	320.56
389.387	330.56
389.612	317.56
389.837	341.56
390.062	290.56
390.287	312.56
390.512	320.56
390.736	312.56
390.961	351.56
391.186	325.56
391.411	346.56
391.636	350.56
391.86	344.56
392.085	354.56
392.31	368.56
392.534	360.56
392.759	340.56
392.984	351.56
393.208	350.56
393.433	348.56
393.658	357.56
393.882	350.56
394.107	374.56
394.331	347.56
394.556	348.56
394.78	337.56
395.005	354.56
395.229	339.56
395.454	376.56
395.678	394.56
395.903	371.56
396.127	366.56
396.352	374.56
396.576	347.56
396.801	362.56
397.025	362.56
397.249	385.56
397.474	367.56
397.698	364.56
397.922	367.56
398.147	382.56
398.371	396.56
398.595	408.56
398.82	398.56
399.044	448.56
399.268	472.56
399.492	515.56
399.717	558.56
399.941	534.56
400.165	478.56
400.389	459.56
400.613	423.56
400.837	438.56
401.062	427.56
401.286	417.56
401.51	412.56
401.734	404.56
401.958	403.56
402.182	418.56
402.406	406.56
402.63	419.56
402.854	434.56
403.078	419.56
403.302	426.56
403.526	442.56
403.75	444.56
403.974	439.56
404.198	431.56
404.422	462.56
404.645	420.56
404.869	430.56
405.093	423.56
405.317	428.56
405.541	419.56
405.765	424.56
405.988	428.56
406.212	434.56
406.436	440.56
406.66	458.56
406.883	451.56
407.107	459.56
407.331	469.56
407.555	478.56
407.778	512.56
408.002	487.56
408.226	454.56
408.449	454.56
408.673	458.56
408.896	449.56
409.12	442.56
409.344	439.56
409.567	463.56
409.791	459.56
410.014	457.56
410.238	425.56
410.461	440.56
410.685	443.56
410.908	428.56
411.132	412.56
411.355	400.56
411.578	397.56
411.802	403.56
412.025	424.56
412.249	427.56
412.472	410.56
412.695	386.56
412.919	424.56
413.142	420.56
413.365	412.56
413.589	420.56
413.812	393.56
414.035	406.56
414.258	406.56
414.482	406.56
414.705	419.56
414.928	400.56
415.151	412.56
415.374	407.56
415.597	419.56
415.821	405.56
416.044	411.56
416.267	393.56
416.49	412.56
416.713	412.56
416.936	406.56
417.159	432.56
417.382	398.56
417.605	400.56
417.828	422.56
418.051	423.56
418.274	392.56
418.497	404.56
418.72	409.56
418.943	421.56
419.166	434.56
419.389	450.56
419.611	442.56
419.834	418.56
420.057	403.56
420.28	396.56
420.503	403.56
420.726	390.56
420.948	406.56
421.171	429.56
421.394	406.56
421.617	400.56
421.839	416.56
422.062	405.56
422.285	391.56
422.507	406.56
422.73	412.56
422.953	397.56
423.175	414.56
423.398	407.56
423.621	419.56
423.843	422.56
424.066	420.56
424.288	403.56
424.511	402.56
424.733	419.56
424.956	426.56
425.178	413.56
425.401	415.56
425.623	380.56
425.846	397.56
426.068	394.56
426.291	397.56
426.513	404.56
426.735	380.56
426.958	389.56
427.18	394.56
427.402	376.56
427.625	386.56
427.847	378.56
428.069	378.56
428.292	375.56
428.514	383.56
428.736	364.56
428.958	365.56
429.181	373.56
429.403	383.56
429.625	364.56
429.847	378.56
430.069	386.56
430.292	386.56
430.514	374.56
430.736	377.56
430.958	370.56
431.18	383.56
431.402	370.56
431.624	378.56
431.846	370.56
432.068	373.56
432.29	381.56
432.512	367.56
432.734	367.56
432.956	371.56
433.178	375.56
433.4	382.56
433.622	371.56
433.844	393.56
434.066	370.56
434.287	368.56
434.509	390.56
434.731	400.56
434.953	416.56
435.175	402.56
435.397	392.56
435.618	393.56
435.84	397.56
436.062	372.56
436.284	377.56
436.505	380.56
436.727	359.56
436.949	389.56
437.17	374.56
437.392	382.56
437.614	359.56
437.835	362.56
438.057	363.56
438.278	384.56
438.5	375.56
438.721	375.56
438.943	382.56
439.165	378.56
439.386	377.56
439.608	376.56
439.829	394.56
440.05	390.56
440.272	397.56
440.493	378.56
440.715	389.56
440.936	415.56
441.158	390.56
441.379	406.56
441.6	415.56
441.822	429.56
442.043	399.56
442.264	420.56
442.486	407.56
442.707	434.56
442.928	420.56
443.149	415.56
443.371	424.56
443.592	410.56
443.813	440.56
444.034	424.56
444.255	440.56
444.476	451.56
444.698	465.56
444.919	465.56
445.14	573.56
445.361	488.56
445.582	426.56
445.803	431.56
446.024	392.56
446.245	403.56
446.466	412.56
446.687	403.56
446.908	400.56
447.129	380.56
447.35	382.56
447.571	401.56
447.792	363.56
448.013	373.56
448.234	363.56
448.455	375.56
448.675	376.56
448.896	372.56
449.117	373.56
449.338	347.56
449.559	360.56
449.779	369.56
450	354.56
450.221	362.56
450.442	373.56
450.662	372.56
450.883	379.56
451.104	371.56
451.324	348.56
451.545	366.56
451.766	364.56
451.986	359.56
452.207	354.56
452.428	352.56
452.648	345.56
452.869	356.56
453.089	368.56
453.31	339.56
453.53	321.56
453.751	344.56
453.971	341.56
454.192	339.56
454.412	358.56
454.633	335.56
454.853	340.56
455.073	335.56
455.294	333.56
455.514	341.56
455.734	334.56
455.955	348.56
456.175	346.56
456.395	342.56
456.616	330.56
456.836	336.56
457.056	341.56
457.276	323.56
457.497	336.56
457.717	331.56
457.937	333.56
458.157	349.56
458.377	356.56
458.598	353.56
458.818	344.56
459.038	356.56
459.258	378.56
459.478	368.56
459.698	388.56
459.918	390.56
460.138	390.56
460.358	420.56
460.578	446.56
460.798	426.56
461.018	424.56
461.238	436.56
461.458	411.56
461.678	424.56
461.898	416.56
462.118	432.56
462.338	456.56
462.558	474.56
462.777	472.56
462.997	519.56
463.217	532.56
463.437	514.56
463.657	499.56
463.876	482.56
464.096	482.56
464.316	479.56
464.536	479.56
464.755	479.56
464.975	441.56
465.195	432.56
465.414	408.56
465.634	419.56
465.854	390.56
466.073	385.56
466.293	380.56
466.512	382.56
466.732	375.56
466.951	377.56
467.171	371.56
467.391	372.56
467.61	371.56
467.829	388.56
468.049	384.56
468.268	367.56
468.488	370.56
468.707	370.56
468.927	367.56
469.146	386.56
469.365	359.56
469.585	360.56
469.804	382.56
470.023	363.56
470.243	378.56
470.462	376.56
470.681	394.56
470.901	356.56
471.12	404.56
471.339	384.56
471.558	371.56
471.777	350.56
471.997	354.56
472.216	374.56
472.435	361.56
472.654	344.56
472.873	353.56
473.092	346.56
473.311	350.56
473.53	352.56
473.749	336.56
473.968	362.56
474.187	332.56
474.406	356.56
474.625	341.56
474.844	361.56
475.063	342.56
475.282	348.56
475.501	356.56
475.72	360.56
475.939	335.56
476.158	373.56
476.377	356.56
476.596	370.56
476.814	367.56
477.033	370.56
477.252	373.56
477.471	383.56
477.69	379.56
477.908	394.56
478.127	395.56
478.346	415.56
478.564	409.56
478.783	418.56
479.002	425.56
479.22	416.56
479.439	407.56
479.658	416.56
479.876	392.56
480.095	437.56
480.313	420.56
480.532	425.56
480.751	413.56
480.969	437.56
481.188	420.56
481.406	394.56
481.624	408.56
481.843	409.56
482.061	396.56
482.28	386.56
482.498	378.56
482.717	398.56
482.935	380.56
483.153	403.56
483.372	386.56
483.59	388.56
483.808	394.56
484.027	369.56
484.245	386.56
484.463	390.56
484.681	405.56
484.9	383.56
485.118	396.56
485.336	394.56
485.554	416.56
485.772	385.56
485.99	409.56
486.209	391.56
486.427	390.56
486.645	426.56
486.863	401.56
487.081	379.56
487.299	410.56
487.517	382.56
487.735	389.56
487.953	415.56
488.171	408.56
488.389	400.56
488.607	396.56
488.825	409.56
489.043	402.56
489.261	404.56
489.479	391.56
489.696	396.56
489.914	391.56
490.132	407.56
490.35	406.56
490.568	398.56
490.786	427.56
491.003	398.56
491.221	406.56
491.439	385.56
491.657	394.56
491.874	430.56
492.092	407.56
492.31	426.56
492.527	426.56
492.745	423.56
492.963	409.56
493.18	427.56
493.398	428.56
493.615	430.56
493.833	415.56
494.05	419.56
494.268	421.56
494.485	424.56
494.703	415.56
494.92	413.56
495.138	411.56
495.355	436.56
495.573	424.56
495.79	432.56
496.008	440.56
496.225	431.56
496.442	441.56
496.66	450.56
496.877	459.56
497.094	462.56
497.312	464.56
497.529	474.56
497.746	484.56
497.963	477.56
498.181	500.56
498.398	508.56
498.615	527.56
498.832	546.56
499.049	610.56
499.267	653.56
499.484	671.56
499.701	737.56
499.918	821.56
500.135	902.56
500.352	976.56
500.569	999.56
500.786	977.56
501.003	893.56
501.22	836.56
501.437	775.56
501.654	698.56
501.871	653.56
502.088	625.56
502.305	602.56
