Data from Fe(NO3)3@0.025M.TitratingCurve.Agarose3%dH2O.NegLispCup.LampEnergy10.LIBS07252019_HRD10591_16-56-22-342.txt Node
Date: Thu Jul 25 16:56:22 EDT 2019
User: cochatt
Spectrometer: HR+D1059
Trigger mode: 1
Integration Time (sec): 1.000000E-1
Scans to average: 1
Electric dark correction enabled: true
Nonlinearity correction enabled: false
Boxcar width: 0
XAxis mode: Wavelengths
Number of Pixels in Spectrum: 2048
>>>>>Begin Spectral Data<<<<<
223.165	-17.94
223.4	-17.94
223.635	-17.94
223.869	-13.94
224.104	-19.94
224.338	-14.94
224.573	-5.94
224.808	-1.94
225.042	-15.94
225.277	-11.94
225.511	-6.94
225.746	-7.94
225.98	1.06
226.215	9.06
226.449	17.06
226.683	27.06
226.918	28.06
227.152	35.06
227.387	38.06
227.621	28.06
227.856	59.06
228.09	41.06
228.324	27.06
228.559	45.06
228.793	59.06
229.027	77.06
229.262	75.06
229.496	83.06
229.73	85.06
229.964	99.06
230.199	86.06
230.433	97.06
230.667	91.06
230.901	96.06
231.136	97.06
231.37	106.06
231.604	93.06
231.838	97.06
232.072	100.06
232.306	113.06
232.541	98.06
232.775	96.06
233.009	93.06
233.243	82.06
233.477	103.06
233.711	107.06
233.945	112.06
234.179	99.06
234.413	104.06
234.647	101.06
234.881	99.06
235.115	81.06
235.349	98.06
235.583	103.06
235.817	86.06
236.051	106.06
236.285	100.06
236.519	105.06
236.753	113.06
236.987	112.06
237.221	101.06
237.455	94.06
237.689	102.06
237.922	109.06
238.156	105.06
238.39	111.06
238.624	111.06
238.858	93.06
239.091	103.06
239.325	106.06
239.559	109.06
239.793	104.06
240.027	101.06
240.26	99.06
240.494	113.06
240.728	105.06
240.961	99.06
241.195	128.06
241.429	114.06
241.662	102.06
241.896	99.06
242.13	104.06
242.363	107.06
242.597	101.06
242.83	101.06
243.064	97.06
243.298	95.06
243.531	116.06
243.765	100.06
243.998	113.06
244.232	112.06
244.465	101.06
244.699	116.06
244.932	112.06
245.166	124.06
245.399	113.06
245.633	110.06
245.866	126.06
246.099	119.06
246.333	118.06
246.566	114.06
246.8	98.06
247.033	106.06
247.266	117.06
247.5	103.06
247.733	128.06
247.966	108.06
248.2	117.06
248.433	124.06
248.666	122.06
248.899	105.06
249.133	129.06
249.366	136.06
249.599	123.06
249.832	142.06
250.066	128.06
250.299	124.06
250.532	106.06
250.765	120.06
250.998	119.06
251.231	106.06
251.465	132.06
251.698	129.06
251.931	140.06
252.164	130.06
252.397	130.06
252.63	130.06
252.863	126.06
253.096	133.06
253.329	143.06
253.562	129.06
253.795	122.06
254.028	128.06
254.261	136.06
254.494	147.06
254.727	140.06
254.96	152.06
255.193	128.06
255.426	141.06
255.659	129.06
255.892	125.06
256.124	154.06
256.357	143.06
256.59	132.06
256.823	132.06
257.056	137.06
257.289	151.06
257.521	142.06
257.754	138.06
257.987	136.06
258.22	140.06
258.452	137.06
258.685	154.06
258.918	152.06
259.151	146.06
259.383	156.06
259.616	150.06
259.849	143.06
260.081	144.06
260.314	148.06
260.547	155.06
260.779	150.06
261.012	148.06
261.244	140.06
261.477	144.06
261.71	155.06
261.942	164.06
262.175	148.06
262.407	156.06
262.64	138.06
262.872	150.06
263.105	155.06
263.337	166.06
263.57	160.06
263.802	154.06
264.035	144.06
264.267	150.06
264.499	174.06
264.732	160.06
264.964	158.06
265.197	168.06
265.429	168.06
265.661	157.06
265.894	152.06
266.126	160.06
266.358	162.06
266.591	163.06
266.823	166.06
267.055	150.06
267.287	166.06
267.52	167.06
267.752	172.06
267.984	162.06
268.216	178.06
268.448	171.06
268.681	171.06
268.913	172.06
269.145	195.06
269.377	164.06
269.609	161.06
269.841	180.06
270.073	182.06
270.306	173.06
270.538	165.06
270.77	160.06
271.002	180.06
271.234	175.06
271.466	181.06
271.698	180.06
271.93	170.06
272.162	160.06
272.394	195.06
272.626	171.06
272.858	196.06
273.09	192.06
273.322	188.06
273.553	165.06
273.785	180.06
274.017	188.06
274.249	202.06
274.481	190.06
274.713	189.06
274.945	187.06
275.176	186.06
275.408	190.06
275.64	191.06
275.872	192.06
276.104	194.06
276.335	194.06
276.567	195.06
276.799	165.06
277.031	193.06
277.262	199.06
277.494	185.06
277.726	179.06
277.957	184.06
278.189	188.06
278.421	188.06
278.652	194.06
278.884	202.06
279.115	193.06
279.347	187.06
279.579	183.06
279.81	202.06
280.042	204.06
280.273	213.06
280.505	200.06
280.736	212.06
280.968	193.06
281.199	202.06
281.431	206.06
281.662	213.06
281.894	191.06
282.125	201.06
282.356	220.06
282.588	213.06
282.819	202.06
283.051	203.06
283.282	196.06
283.513	194.06
283.745	218.06
283.976	213.06
284.207	202.06
284.439	211.06
284.67	217.06
284.901	213.06
285.132	225.06
285.364	197.06
285.595	212.06
285.826	214.06
286.057	219.06
286.288	210.06
286.52	192.06
286.751	228.06
286.982	230.06
287.213	220.06
287.444	224.06
287.675	240.06
287.906	222.06
288.138	228.06
288.369	240.06
288.6	219.06
288.831	225.06
289.062	223.06
289.293	228.06
289.524	234.06
289.755	220.06
289.986	228.06
290.217	231.06
290.448	228.06
290.679	241.06
290.91	252.06
291.141	229.06
291.371	244.06
291.602	220.06
291.833	235.06
292.064	220.06
292.295	211.06
292.526	230.06
292.757	234.06
292.987	225.06
293.218	215.06
293.449	231.06
293.68	234.06
293.91	233.06
294.141	233.06
294.372	222.06
294.603	250.06
294.833	237.06
295.064	235.06
295.295	233.06
295.525	234.06
295.756	242.06
295.987	254.06
296.217	231.06
296.448	234.06
296.679	221.06
296.909	253.06
297.14	252.06
297.37	253.06
297.601	234.06
297.831	249.06
298.062	266.06
298.292	252.06
298.523	244.06
298.753	260.06
298.984	246.06
299.214	241.06
299.445	253.06
299.675	255.06
299.905	244.06
300.136	234.06
300.366	262.06
300.597	258.06
300.827	245.06
301.057	271.06
301.288	248.06
301.518	253.06
301.748	282.06
301.979	288.06
302.209	269.06
302.439	278.06
302.669	262.06
302.9	272.06
303.13	249.06
303.36	277.06
303.59	267.06
303.82	265.06
304.051	257.06
304.281	271.06
304.511	273.06
304.741	271.06
304.971	268.06
305.201	276.06
305.431	295.06
305.661	229.06
305.891	289.06
306.121	278.06
306.352	272.06
306.582	270.06
306.812	268.06
307.042	261.06
307.272	282.06
307.502	275.06
307.731	270.06
307.961	277.06
308.191	272.06
308.421	279.06
308.651	269.06
308.881	268.06
309.111	268.06
309.341	283.06
309.571	264.06
309.8	270.06
310.03	262.06
310.26	285.06
310.49	277.06
310.72	277.06
310.949	276.06
311.179	283.06
311.409	289.06
311.639	288.06
311.868	265.06
312.098	280.06
312.328	286.06
312.557	279.06
312.787	293.06
313.017	278.06
313.246	287.06
313.476	290.06
313.706	293.06
313.935	281.06
314.165	308.06
314.394	308.06
314.624	293.06
314.853	287.06
315.083	278.06
315.312	295.06
315.542	280.06
315.771	309.06
316.001	286.06
316.23	293.06
316.46	302.06
316.689	297.06
316.919	288.06
317.148	308.06
317.377	319.06
317.607	294.06
317.836	295.06
318.065	291.06
318.295	310.06
318.524	285.06
318.753	299.06
318.983	289.06
319.212	297.06
319.441	304.06
319.67	283.06
319.9	319.06
320.129	306.06
320.358	293.06
320.587	298.06
320.816	294.06
321.046	293.06
321.275	308.06
321.504	295.06
321.733	296.06
321.962	299.06
322.191	299.06
322.42	308.06
322.649	314.06
322.878	313.06
323.108	308.06
323.337	312.06
323.566	323.06
323.795	307.06
324.024	288.06
324.253	313.06
324.482	309.06
324.71	320.06
324.939	324.06
325.168	306.06
325.397	328.06
325.626	323.06
325.855	320.06
326.084	334.06
326.313	309.06
326.542	305.06
326.77	316.06
326.999	320.06
327.228	300.06
327.457	329.06
327.686	329.06
327.914	328.06
328.143	334.06
328.372	324.06
328.6	340.06
328.829	324.06
329.058	334.06
329.287	315.06
329.515	333.06
329.744	347.06
329.972	328.06
330.201	339.06
330.43	314.06
330.658	326.06
330.887	328.06
331.115	337.06
331.344	335.06
331.572	337.06
331.801	347.06
332.03	356.06
332.258	350.06
332.486	386.06
332.715	358.06
332.943	368.06
333.172	361.06
333.4	376.06
333.629	382.06
333.857	375.06
334.085	387.06
334.314	399.06
334.542	384.06
334.771	384.06
334.999	397.06
335.227	388.06
335.455	396.06
335.684	389.06
335.912	388.06
336.14	380.06
336.369	372.06
336.597	385.06
336.825	372.06
337.053	371.06
337.281	369.06
337.51	352.06
337.738	364.06
337.966	368.06
338.194	360.06
338.422	349.06
338.65	353.06
338.878	365.06
339.106	376.06
339.334	380.06
339.562	356.06
339.79	349.06
340.018	358.06
340.246	352.06
340.474	357.06
340.702	345.06
340.93	343.06
341.158	353.06
341.386	356.06
341.614	354.06
341.842	347.06
342.07	352.06
342.298	338.06
342.526	364.06
342.754	363.06
342.981	359.06
343.209	361.06
343.437	382.06
343.665	365.06
343.893	392.06
344.12	386.06
344.348	381.06
344.576	372.06
344.804	360.06
345.031	375.06
345.259	349.06
345.487	334.06
345.714	361.06
345.942	345.06
346.17	340.06
346.397	356.06
346.625	342.06
346.853	334.06
347.08	335.06
347.308	347.06
347.535	349.06
347.763	349.06
347.99	334.06
348.218	333.06
348.445	337.06
348.673	345.06
348.9	354.06
349.128	338.06
349.355	338.06
349.583	359.06
349.81	357.06
350.037	337.06
350.265	348.06
350.492	330.06
350.72	330.06
350.947	333.06
351.174	351.06
351.402	323.06
351.629	337.06
351.856	360.06
352.083	345.06
352.311	330.06
352.538	331.06
352.765	332.06
352.992	349.06
353.22	324.06
353.447	330.06
353.674	331.06
353.901	324.06
354.128	343.06
354.355	328.06
354.583	337.06
354.81	348.06
355.037	353.06
355.264	353.06
355.491	339.06
355.718	347.06
355.945	349.06
356.172	346.06
356.399	339.06
356.626	324.06
356.853	349.06
357.08	338.06
357.307	342.06
357.534	359.06
357.761	355.06
357.988	354.06
358.215	334.06
358.441	357.06
358.668	332.06
358.895	331.06
359.122	332.06
359.349	342.06
359.576	352.06
359.802	338.06
360.029	331.06
360.256	350.06
360.483	349.06
360.709	340.06
360.936	347.06
361.163	337.06
361.39	341.06
361.616	341.06
361.843	348.06
362.07	337.06
362.296	352.06
362.523	329.06
362.749	338.06
362.976	337.06
363.203	343.06
363.429	365.06
363.656	335.06
363.882	331.06
364.109	361.06
364.335	350.06
364.562	346.06
364.788	347.06
365.015	329.06
365.241	360.06
365.468	353.06
365.694	349.06
365.92	354.06
366.147	356.06
366.373	346.06
366.599	335.06
366.826	333.06
367.052	328.06
367.278	342.06
367.505	361.06
367.731	346.06
367.957	347.06
368.184	372.06
368.41	354.06
368.636	354.06
368.862	351.06
369.089	361.06
369.315	366.06
369.541	364.06
369.767	349.06
369.993	366.06
370.219	372.06
370.445	359.06
370.672	374.06
370.898	368.06
371.124	364.06
371.35	372.06
371.576	361.06
371.802	361.06
372.028	369.06
372.254	378.06
372.48	365.06
372.706	378.06
372.932	376.06
373.158	377.06
373.384	368.06
373.61	378.06
373.835	372.06
374.061	379.06
374.287	362.06
374.513	370.06
374.739	381.06
374.965	380.06
375.191	390.06
375.416	391.06
375.642	379.06
375.868	378.06
376.094	384.06
376.319	382.06
376.545	361.06
376.771	376.06
376.997	393.06
377.222	364.06
377.448	361.06
377.674	360.06
377.899	369.06
378.125	364.06
378.35	368.06
378.576	353.06
378.802	348.06
379.027	374.06
379.253	370.06
379.478	366.06
379.704	362.06
379.929	356.06
380.155	376.06
380.38	370.06
380.606	367.06
380.831	372.06
381.057	405.06
381.282	368.06
381.507	388.06
381.733	357.06
381.958	373.06
382.184	388.06
382.409	399.06
382.634	390.06
382.86	390.06
383.085	377.06
383.31	397.06
383.535	415.06
383.761	409.06
383.986	422.06
384.211	392.06
384.436	415.06
384.662	405.06
384.887	401.06
385.112	404.06
385.337	407.06
385.562	422.06
385.787	424.06
386.013	433.06
386.238	408.06
386.463	408.06
386.688	407.06
386.913	411.06
387.138	437.06
387.363	412.06
387.588	418.06
387.813	435.06
388.038	428.06
388.263	426.06
388.488	427.06
388.713	430.06
388.938	425.06
389.163	437.06
389.387	441.06
389.612	402.06
389.837	430.06
390.062	444.06
390.287	435.06
390.512	436.06
390.736	411.06
390.961	436.06
391.186	449.06
391.411	469.06
391.636	459.06
391.86	466.06
392.085	462.06
392.31	446.06
392.534	442.06
392.759	460.06
392.984	442.06
393.208	459.06
393.433	440.06
393.658	442.06
393.882	452.06
394.107	458.06
394.331	473.06
394.556	449.06
394.78	432.06
395.005	447.06
395.229	466.06
395.454	470.06
395.678	471.06
395.903	466.06
396.127	460.06
396.352	464.06
396.576	443.06
396.801	455.06
397.025	449.06
397.249	469.06
397.474	466.06
397.698	456.06
397.922	495.06
398.147	469.06
398.371	485.06
398.595	513.06
398.82	498.06
399.044	547.06
399.268	578.06
399.492	608.06
399.717	601.06
399.941	630.06
400.165	601.06
400.389	591.06
400.613	540.06
400.837	533.06
401.062	526.06
401.286	503.06
401.51	533.06
401.734	508.06
401.958	528.06
402.182	522.06
402.406	517.06
402.63	524.06
402.854	512.06
403.078	516.06
403.302	538.06
403.526	524.06
403.75	525.06
403.974	541.06
404.198	517.06
404.422	547.06
404.645	524.06
404.869	547.06
405.093	541.06
405.317	523.06
405.541	536.06
405.765	541.06
405.988	534.06
406.212	546.06
406.436	549.06
406.66	558.06
406.883	574.06
407.107	597.06
407.331	578.06
407.555	576.06
407.778	580.06
408.002	584.06
408.226	545.06
408.449	545.06
408.673	559.06
408.896	556.06
409.12	539.06
409.344	548.06
409.567	555.06
409.791	543.06
410.014	536.06
410.238	543.06
410.461	527.06
410.685	533.06
410.908	532.06
411.132	550.06
411.355	497.06
411.578	512.06
411.802	540.06
412.025	521.06
412.249	504.06
412.472	536.06
412.695	512.06
412.919	506.06
413.142	516.06
413.365	509.06
413.589	524.06
413.812	532.06
414.035	508.06
414.258	513.06
414.482	523.06
414.705	509.06
414.928	506.06
415.151	524.06
415.374	493.06
415.597	485.06
415.821	500.06
416.044	497.06
416.267	497.06
416.49	507.06
416.713	498.06
416.936	506.06
417.159	486.06
417.382	483.06
417.605	516.06
417.828	496.06
418.051	494.06
418.274	498.06
418.497	501.06
418.72	487.06
418.943	497.06
419.166	509.06
419.389	536.06
419.611	521.06
419.834	506.06
420.057	508.06
420.28	480.06
420.503	471.06
420.726	491.06
420.948	482.06
421.171	468.06
421.394	491.06
421.617	472.06
421.839	492.06
422.062	498.06
422.285	483.06
422.507	502.06
422.73	474.06
422.953	482.06
423.175	480.06
423.398	498.06
423.621	494.06
423.843	499.06
424.066	488.06
424.288	484.06
424.511	512.06
424.733	485.06
424.956	477.06
425.178	479.06
425.401	472.06
425.623	491.06
425.846	458.06
426.068	459.06
426.291	475.06
426.513	476.06
426.735	476.06
426.958	474.06
427.18	463.06
427.402	472.06
427.625	465.06
427.847	446.06
428.069	454.06
428.292	446.06
428.514	469.06
428.736	476.06
428.958	453.06
429.181	446.06
429.403	438.06
429.625	451.06
429.847	439.06
430.069	459.06
430.292	439.06
430.514	447.06
430.736	447.06
430.958	448.06
431.18	452.06
431.402	449.06
431.624	452.06
431.846	467.06
432.068	461.06
432.29	453.06
432.512	437.06
432.734	453.06
432.956	443.06
433.178	456.06
433.4	457.06
433.622	448.06
433.844	465.06
434.066	465.06
434.287	477.06
434.509	473.06
434.731	470.06
434.953	476.06
435.175	452.06
435.397	480.06
435.618	488.06
435.84	469.06
436.062	450.06
436.284	446.06
436.505	454.06
436.727	438.06
436.949	454.06
437.17	461.06
437.392	454.06
437.614	434.06
437.835	436.06
438.057	434.06
438.278	446.06
438.5	445.06
438.721	428.06
438.943	442.06
439.165	436.06
439.386	441.06
439.608	432.06
439.829	422.06
440.05	430.06
440.272	436.06
440.493	441.06
440.715	453.06
440.936	444.06
441.158	442.06
441.379	472.06
441.6	463.06
441.822	460.06
442.043	479.06
442.264	491.06
442.486	451.06
442.707	471.06
442.928	460.06
443.149	475.06
443.371	454.06
443.592	474.06
443.813	467.06
444.034	475.06
444.255	489.06
444.476	514.06
444.698	484.06
444.919	489.06
445.14	569.06
445.361	520.06
445.582	490.06
445.803	464.06
446.024	464.06
446.245	449.06
446.466	440.06
446.687	434.06
446.908	447.06
447.129	444.06
447.35	433.06
447.571	441.06
447.792	425.06
448.013	402.06
448.234	423.06
448.455	422.06
448.675	432.06
448.896	422.06
449.117	396.06
449.338	409.06
449.559	389.06
449.779	425.06
450	420.06
450.221	412.06
450.442	396.06
450.662	402.06
450.883	395.06
451.104	412.06
451.324	407.06
451.545	403.06
451.766	399.06
451.986	393.06
452.207	386.06
452.428	404.06
452.648	399.06
452.869	386.06
453.089	392.06
453.31	405.06
453.53	394.06
453.751	406.06
453.971	409.06
454.192	402.06
454.412	386.06
454.633	392.06
454.853	399.06
455.073	396.06
455.294	383.06
455.514	381.06
455.734	391.06
455.955	390.06
456.175	386.06
456.395	408.06
456.616	396.06
456.836	390.06
457.056	375.06
457.276	372.06
457.497	388.06
457.717	392.06
457.937	401.06
458.157	426.06
458.377	385.06
458.598	425.06
458.818	449.06
459.038	439.06
459.258	433.06
459.478	456.06
459.698	442.06
459.918	480.06
460.138	487.06
460.358	477.06
460.578	477.06
460.798	485.06
461.018	498.06
461.238	512.06
461.458	487.06
461.678	488.06
461.898	493.06
462.118	503.06
462.338	522.06
462.558	539.06
462.777	547.06
462.997	582.06
463.217	576.06
463.437	564.06
463.657	543.06
463.876	555.06
464.096	552.06
464.316	564.06
464.536	538.06
464.755	518.06
464.975	516.06
465.195	498.06
465.414	475.06
465.634	470.06
465.854	451.06
466.073	459.06
466.293	459.06
466.512	442.06
466.732	428.06
466.951	440.06
467.171	444.06
467.391	420.06
467.61	432.06
467.829	432.06
468.049	417.06
468.268	420.06
468.488	438.06
468.707	413.06
468.927	432.06
469.146	427.06
469.365	418.06
469.585	414.06
469.804	405.06
470.023	426.06
470.243	434.06
470.462	426.06
470.681	437.06
470.901	432.06
471.12	467.06
471.339	441.06
471.558	433.06
471.777	451.06
471.997	430.06
472.216	420.06
472.435	424.06
472.654	413.06
472.873	424.06
473.092	432.06
473.311	436.06
473.53	429.06
473.749	407.06
473.968	418.06
474.187	426.06
474.406	423.06
474.625	423.06
474.844	404.06
475.063	442.06
475.282	413.06
475.501	439.06
475.72	454.06
475.939	414.06
476.158	446.06
476.377	444.06
476.596	448.06
476.814	458.06
477.033	460.06
477.252	459.06
477.471	444.06
477.69	486.06
477.908	475.06
478.127	478.06
478.346	465.06
478.564	510.06
478.783	503.06
479.002	501.06
479.22	484.06
479.439	500.06
479.658	482.06
479.876	509.06
480.095	525.06
480.313	515.06
480.532	514.06
480.751	546.06
480.969	530.06
481.188	514.06
481.406	502.06
481.624	500.06
481.843	500.06
482.061	521.06
482.28	515.06
482.498	464.06
482.717	504.06
482.935	514.06
483.153	500.06
483.372	509.06
483.59	516.06
483.808	488.06
484.027	502.06
484.245	488.06
484.463	496.06
484.681	544.06
484.9	522.06
485.118	505.06
485.336	510.06
485.554	512.06
485.772	535.06
485.99	521.06
486.209	513.06
486.427	521.06
486.645	514.06
486.863	522.06
487.081	507.06
487.299	524.06
487.517	523.06
487.735	518.06
487.953	494.06
488.171	496.06
488.389	532.06
488.607	500.06
488.825	484.06
489.043	470.06
489.261	521.06
489.479	520.06
489.696	508.06
489.914	533.06
490.132	500.06
490.35	521.06
490.568	528.06
490.786	512.06
491.003	525.06
491.221	526.06
491.439	518.06
491.657	518.06
491.874	508.06
492.092	517.06
492.31	518.06
492.527	531.06
492.745	544.06
492.963	527.06
493.18	539.06
493.398	547.06
493.615	536.06
493.833	523.06
494.05	542.06
494.268	514.06
494.485	540.06
494.703	526.06
494.92	555.06
495.138	536.06
495.355	535.06
495.573	533.06
495.79	554.06
496.008	563.06
496.225	580.06
496.442	571.06
496.66	580.06
496.877	570.06
497.094	594.06
497.312	597.06
497.529	586.06
497.746	624.06
497.963	620.06
498.181	651.06
498.398	663.06
498.615	704.06
498.832	709.06
499.049	764.06
499.267	819.06
499.484	810.06
499.701	861.06
499.918	910.06
500.135	982.06
500.352	1030.06
500.569	1050.06
500.786	1058.06
501.003	1010.06
501.22	974.06
501.437	925.06
501.654	853.06
501.871	784.06
