Data from Fe(NO3)3@0.05M.TitratingCurve.Agarose3%dH2O.NegLispCup.LampEnergy10.LIBS07252019_HRD10591_16-45-58-334.txt Node
Date: Thu Jul 25 16:45:58 EDT 2019
User: cochatt
Spectrometer: HR+D1059
Trigger mode: 1
Integration Time (sec): 1.000000E-1
Scans to average: 1
Electric dark correction enabled: true
Nonlinearity correction enabled: false
Boxcar width: 0
XAxis mode: Wavelengths
Number of Pixels in Spectrum: 2048
>>>>>Begin Spectral Data<<<<<
223.165	-7.25
223.4	-7.25
223.635	-7.25
223.869	-21.25
224.104	-29.25
224.338	-16.25
224.573	-6.25
224.808	-11.25
225.042	-5.25
225.277	-10.25
225.511	0.75
225.746	2.75
225.98	8.75
226.215	-0.25
226.449	12.75
226.683	25.75
226.918	25.75
227.152	30.75
227.387	27.75
227.621	42.75
227.856	42.75
228.09	46.75
228.324	38.75
228.559	50.75
228.793	72.75
229.027	87.75
229.262	105.75
229.496	119.75
229.73	102.75
229.964	103.75
230.199	104.75
230.433	113.75
230.667	117.75
230.901	114.75
231.136	105.75
231.37	102.75
231.604	120.75
231.838	132.75
232.072	101.75
232.306	125.75
232.541	125.75
232.775	126.75
233.009	127.75
233.243	119.75
233.477	126.75
233.711	141.75
233.945	130.75
234.179	127.75
234.413	131.75
234.647	116.75
234.881	139.75
235.115	133.75
235.349	136.75
235.583	130.75
235.817	133.75
236.051	131.75
236.285	129.75
236.519	123.75
236.753	135.75
236.987	146.75
237.221	138.75
237.455	143.75
237.689	135.75
237.922	150.75
238.156	152.75
238.39	153.75
238.624	163.75
238.858	177.75
239.091	141.75
239.325	143.75
239.559	165.75
239.793	148.75
240.027	174.75
240.26	165.75
240.494	154.75
240.728	165.75
240.961	185.75
241.195	157.75
241.429	171.75
241.662	162.75
241.896	159.75
242.13	158.75
242.363	143.75
242.597	162.75
242.83	152.75
243.064	147.75
243.298	160.75
243.531	166.75
243.765	181.75
243.998	170.75
244.232	163.75
244.465	171.75
244.699	147.75
244.932	167.75
245.166	172.75
245.399	166.75
245.633	162.75
245.866	158.75
246.099	171.75
246.333	170.75
246.566	161.75
246.8	175.75
247.033	181.75
247.266	172.75
247.5	189.75
247.733	186.75
247.966	169.75
248.2	181.75
248.433	190.75
248.666	201.75
248.899	196.75
249.133	185.75
249.366	193.75
249.599	217.75
249.832	209.75
250.066	202.75
250.299	199.75
250.532	180.75
250.765	180.75
250.998	192.75
251.231	188.75
251.465	179.75
251.698	201.75
251.931	189.75
252.164	199.75
252.397	210.75
252.63	203.75
252.863	214.75
253.096	225.75
253.329	226.75
253.562	201.75
253.795	222.75
254.028	211.75
254.261	248.75
254.494	236.75
254.727	223.75
254.96	228.75
255.193	197.75
255.426	220.75
255.659	217.75
255.892	218.75
256.124	218.75
256.357	213.75
256.59	246.75
256.823	219.75
257.056	236.75
257.289	231.75
257.521	231.75
257.754	222.75
257.987	210.75
258.22	234.75
258.452	242.75
258.685	234.75
258.918	230.75
259.151	237.75
259.383	249.75
259.616	230.75
259.849	267.75
260.081	298.75
260.314	335.75
260.547	266.75
260.779	226.75
261.012	275.75
261.244	246.75
261.477	278.75
261.71	268.75
261.942	241.75
262.175	239.75
262.407	263.75
262.64	250.75
262.872	263.75
263.105	290.75
263.337	276.75
263.57	270.75
263.802	258.75
264.035	246.75
264.267	251.75
264.499	242.75
264.732	243.75
264.964	238.75
265.197	233.75
265.429	251.75
265.661	234.75
265.894	247.75
266.126	245.75
266.358	234.75
266.591	248.75
266.823	266.75
267.055	249.75
267.287	263.75
267.52	236.75
267.752	239.75
267.984	245.75
268.216	259.75
268.448	269.75
268.681	247.75
268.913	274.75
269.145	266.75
269.377	279.75
269.609	268.75
269.841	275.75
270.073	270.75
270.306	275.75
270.538	275.75
270.77	262.75
271.002	262.75
271.234	264.75
271.466	285.75
271.698	283.75
271.93	277.75
272.162	276.75
272.394	284.75
272.626	294.75
272.858	284.75
273.09	302.75
273.322	305.75
273.553	275.75
273.785	308.75
274.017	335.75
274.249	353.75
274.481	354.75
274.713	354.75
274.945	379.75
275.176	389.75
275.408	366.75
275.64	363.75
275.872	350.75
276.104	331.75
276.335	317.75
276.567	307.75
276.799	312.75
277.031	326.75
277.262	309.75
277.494	315.75
277.726	316.75
277.957	312.75
278.189	295.75
278.421	322.75
278.652	316.75
278.884	307.75
279.115	296.75
279.347	301.75
279.579	303.75
279.81	330.75
280.042	325.75
280.273	303.75
280.505	305.75
280.736	311.75
280.968	321.75
281.199	322.75
281.431	309.75
281.662	332.75
281.894	299.75
282.125	318.75
282.356	319.75
282.588	326.75
282.819	334.75
283.051	309.75
283.282	318.75
283.513	329.75
283.745	336.75
283.976	332.75
284.207	350.75
284.439	335.75
284.67	329.75
284.901	332.75
285.132	351.75
285.364	340.75
285.595	342.75
285.826	343.75
286.057	335.75
286.288	337.75
286.52	341.75
286.751	321.75
286.982	346.75
287.213	328.75
287.444	324.75
287.675	325.75
287.906	347.75
288.138	357.75
288.369	345.75
288.6	328.75
288.831	345.75
289.062	340.75
289.293	338.75
289.524	356.75
289.755	345.75
289.986	347.75
290.217	333.75
290.448	339.75
290.679	344.75
290.91	351.75
291.141	347.75
291.371	320.75
291.602	335.75
291.833	347.75
292.064	362.75
292.295	342.75
292.526	338.75
292.757	361.75
292.987	340.75
293.218	360.75
293.449	350.75
293.68	345.75
293.91	360.75
294.141	333.75
294.372	348.75
294.603	362.75
294.833	362.75
295.064	341.75
295.295	359.75
295.525	345.75
295.756	372.75
295.987	350.75
296.217	364.75
296.448	369.75
296.679	366.75
296.909	368.75
297.14	366.75
297.37	383.75
297.601	369.75
297.831	355.75
298.062	357.75
298.292	358.75
298.523	378.75
298.753	396.75
298.984	365.75
299.214	366.75
299.445	391.75
299.675	358.75
299.905	366.75
300.136	383.75
300.366	377.75
300.597	363.75
300.827	375.75
301.057	381.75
301.288	382.75
301.518	382.75
301.748	406.75
301.979	409.75
302.209	402.75
302.439	397.75
302.669	373.75
302.9	367.75
303.13	391.75
303.36	390.75
303.59	402.75
303.82	381.75
304.051	397.75
304.281	400.75
304.511	385.75
304.741	395.75
304.971	410.75
305.201	414.75
305.431	388.75
305.661	394.75
305.891	399.75
306.121	378.75
306.352	399.75
306.582	398.75
306.812	378.75
307.042	387.75
307.272	389.75
307.502	407.75
307.731	388.75
307.961	410.75
308.191	393.75
308.421	385.75
308.651	409.75
308.881	404.75
309.111	392.75
309.341	376.75
309.571	400.75
309.8	386.75
310.03	394.75
310.26	399.75
310.49	398.75
310.72	408.75
310.949	434.75
311.179	410.75
311.409	425.75
311.639	425.75
311.868	435.75
312.098	414.75
312.328	405.75
312.557	411.75
312.787	409.75
313.017	425.75
313.246	410.75
313.476	405.75
313.706	419.75
313.935	418.75
314.165	429.75
314.394	441.75
314.624	426.75
314.853	414.75
315.083	435.75
315.312	417.75
315.542	444.75
315.771	436.75
316.001	442.75
316.23	441.75
316.46	448.75
316.689	423.75
316.919	427.75
317.148	452.75
317.377	437.75
317.607	442.75
317.836	435.75
318.065	447.75
318.295	441.75
318.524	395.75
318.753	422.75
318.983	436.75
319.212	424.75
319.441	433.75
319.67	437.75
319.9	450.75
320.129	431.75
320.358	455.75
320.587	431.75
320.816	467.75
321.046	454.75
321.275	446.75
321.504	434.75
321.733	434.75
321.962	417.75
322.191	452.75
322.42	445.75
322.649	464.75
322.878	450.75
323.108	443.75
323.337	452.75
323.566	456.75
323.795	442.75
324.024	457.75
324.253	440.75
324.482	434.75
324.71	440.75
324.939	471.75
325.168	458.75
325.397	462.75
325.626	464.75
325.855	457.75
326.084	462.75
326.313	469.75
326.542	469.75
326.77	474.75
326.999	466.75
327.228	456.75
327.457	462.75
327.686	488.75
327.914	466.75
328.143	465.75
328.372	455.75
328.6	478.75
328.829	473.75
329.058	458.75
329.287	474.75
329.515	459.75
329.744	485.75
329.972	462.75
330.201	467.75
330.43	463.75
330.658	488.75
330.887	472.75
331.115	483.75
331.344	484.75
331.572	476.75
331.801	492.75
332.03	483.75
332.258	486.75
332.486	502.75
332.715	516.75
332.943	492.75
333.172	499.75
333.4	503.75
333.629	525.75
333.857	531.75
334.085	526.75
334.314	531.75
334.542	540.75
334.771	540.75
334.999	554.75
335.227	533.75
335.455	534.75
335.684	539.75
335.912	563.75
336.14	568.75
336.369	536.75
336.597	530.75
336.825	533.75
337.053	535.75
337.281	520.75
337.51	515.75
337.738	536.75
337.966	493.75
338.194	521.75
338.422	508.75
338.65	486.75
338.878	521.75
339.106	501.75
339.334	506.75
339.562	522.75
339.79	525.75
340.018	509.75
340.246	513.75
340.474	515.75
340.702	500.75
340.93	501.75
341.158	514.75
341.386	502.75
341.614	511.75
341.842	521.75
342.07	493.75
342.298	492.75
342.526	492.75
342.754	494.75
342.981	507.75
343.209	509.75
343.437	513.75
343.665	516.75
343.893	534.75
344.12	545.75
344.348	559.75
344.576	550.75
344.804	538.75
345.031	518.75
345.259	498.75
345.487	516.75
345.714	473.75
345.942	478.75
346.17	491.75
346.397	488.75
346.625	484.75
346.853	476.75
347.08	483.75
347.308	499.75
347.535	487.75
347.763	489.75
347.99	482.75
348.218	495.75
348.445	472.75
348.673	462.75
348.9	488.75
349.128	462.75
349.355	473.75
349.583	483.75
349.81	483.75
350.037	474.75
350.265	469.75
350.492	471.75
350.72	470.75
350.947	472.75
351.174	453.75
351.402	469.75
351.629	464.75
351.856	493.75
352.083	469.75
352.311	459.75
352.538	483.75
352.765	481.75
352.992	485.75
353.22	470.75
353.447	475.75
353.674	469.75
353.901	482.75
354.128	477.75
354.355	474.75
354.583	468.75
354.81	473.75
355.037	474.75
355.264	469.75
355.491	486.75
355.718	484.75
355.945	472.75
356.172	473.75
356.399	494.75
356.626	504.75
356.853	488.75
357.08	499.75
357.307	497.75
357.534	477.75
357.761	484.75
357.988	506.75
358.215	516.75
358.441	518.75
358.668	500.75
358.895	493.75
359.122	479.75
359.349	475.75
359.576	455.75
359.802	503.75
360.029	457.75
360.256	474.75
360.483	491.75
360.709	505.75
360.936	501.75
361.163	503.75
361.39	484.75
361.616	480.75
361.843	473.75
362.07	500.75
362.296	501.75
362.523	489.75
362.749	494.75
362.976	481.75
363.203	504.75
363.429	498.75
363.656	477.75
363.882	483.75
364.109	485.75
364.335	503.75
364.562	476.75
364.788	489.75
365.015	486.75
365.241	483.75
365.468	479.75
365.694	486.75
365.92	488.75
366.147	499.75
366.373	516.75
366.599	505.75
366.826	490.75
367.052	497.75
367.278	506.75
367.505	499.75
367.731	522.75
367.957	498.75
368.184	499.75
368.41	504.75
368.636	530.75
368.862	520.75
369.089	513.75
369.315	527.75
369.541	507.75
369.767	500.75
369.993	502.75
370.219	509.75
370.445	512.75
370.672	550.75
370.898	525.75
371.124	531.75
371.35	529.75
371.576	525.75
371.802	545.75
372.028	545.75
372.254	566.75
372.48	529.75
372.706	542.75
372.932	577.75
373.158	568.75
373.384	572.75
373.61	579.75
373.835	578.75
374.061	579.75
374.287	539.75
374.513	549.75
374.739	580.75
374.965	605.75
375.191	574.75
375.416	579.75
375.642	547.75
375.868	559.75
376.094	573.75
376.319	543.75
376.545	563.75
376.771	553.75
376.997	544.75
377.222	554.75
377.448	532.75
377.674	536.75
377.899	557.75
378.125	533.75
378.35	541.75
378.576	536.75
378.802	541.75
379.027	540.75
379.253	547.75
379.478	531.75
379.704	535.75
379.929	550.75
380.155	538.75
380.38	563.75
380.606	551.75
380.831	547.75
381.057	549.75
381.282	535.75
381.507	555.75
381.733	572.75
381.958	571.75
382.184	601.75
382.409	605.75
382.634	585.75
382.86	583.75
383.085	601.75
383.31	567.75
383.535	597.75
383.761	585.75
383.986	574.75
384.211	609.75
384.436	614.75
384.662	599.75
384.887	607.75
385.112	606.75
385.337	615.75
385.562	595.75
385.787	602.75
386.013	643.75
386.238	627.75
386.463	627.75
386.688	621.75
386.913	597.75
387.138	638.75
387.363	637.75
387.588	622.75
387.813	645.75
388.038	651.75
388.263	638.75
388.488	626.75
388.713	636.75
388.938	645.75
389.163	649.75
389.387	617.75
389.612	629.75
389.837	667.75
390.062	632.75
390.287	636.75
390.512	648.75
390.736	619.75
390.961	654.75
391.186	664.75
391.411	655.75
391.636	654.75
391.86	642.75
392.085	677.75
392.31	675.75
392.534	678.75
392.759	661.75
392.984	697.75
393.208	664.75
393.433	666.75
393.658	639.75
393.882	671.75
394.107	650.75
394.331	659.75
394.556	685.75
394.78	654.75
395.005	670.75
395.229	676.75
395.454	695.75
395.678	666.75
395.903	669.75
396.127	663.75
396.352	692.75
396.576	681.75
396.801	703.75
397.025	705.75
397.249	694.75
397.474	667.75
397.698	689.75
397.922	712.75
398.147	694.75
398.371	715.75
398.595	723.75
398.82	736.75
399.044	755.75
399.268	778.75
399.492	833.75
399.717	822.75
399.941	877.75
400.165	852.75
400.389	842.75
400.613	813.75
400.837	806.75
401.062	798.75
401.286	784.75
401.51	746.75
401.734	742.75
401.958	774.75
402.182	756.75
402.406	750.75
402.63	753.75
402.854	761.75
403.078	750.75
403.302	796.75
403.526	761.75
403.75	765.75
403.974	770.75
404.198	764.75
404.422	751.75
404.645	790.75
404.869	788.75
405.093	785.75
405.317	801.75
405.541	783.75
405.765	787.75
405.988	805.75
406.212	803.75
406.436	810.75
406.66	819.75
406.883	829.75
407.107	832.75
407.331	842.75
407.555	890.75
407.778	899.75
408.002	877.75
408.226	861.75
408.449	846.75
408.673	870.75
408.896	859.75
409.12	825.75
409.344	848.75
409.567	828.75
409.791	846.75
410.014	822.75
410.238	817.75
410.461	839.75
410.685	844.75
410.908	811.75
411.132	817.75
411.355	798.75
411.578	796.75
411.802	805.75
412.025	803.75
412.249	824.75
412.472	797.75
412.695	791.75
412.919	824.75
413.142	790.75
413.365	799.75
413.589	804.75
413.812	750.75
414.035	779.75
414.258	801.75
414.482	772.75
414.705	787.75
414.928	779.75
415.151	792.75
415.374	796.75
415.597	761.75
415.821	771.75
416.044	761.75
416.267	778.75
416.49	742.75
416.713	748.75
416.936	753.75
417.159	757.75
417.382	720.75
417.605	749.75
417.828	759.75
418.051	775.75
418.274	728.75
418.497	730.75
418.72	762.75
418.943	738.75
419.166	798.75
419.389	841.75
419.611	823.75
419.834	771.75
420.057	772.75
420.28	770.75
420.503	750.75
420.726	714.75
420.948	735.75
421.171	724.75
421.394	726.75
421.617	731.75
421.839	768.75
422.062	730.75
422.285	719.75
422.507	735.75
422.73	749.75
422.953	727.75
423.175	740.75
423.398	742.75
423.621	742.75
423.843	744.75
424.066	764.75
424.288	762.75
424.511	732.75
424.733	745.75
424.956	757.75
425.178	737.75
425.401	755.75
425.623	755.75
425.846	735.75
426.068	719.75
426.291	744.75
426.513	720.75
426.735	748.75
426.958	726.75
427.18	725.75
427.402	741.75
427.625	720.75
427.847	721.75
428.069	728.75
428.292	746.75
428.514	709.75
428.736	707.75
428.958	705.75
429.181	713.75
429.403	727.75
429.625	707.75
429.847	710.75
430.069	720.75
430.292	713.75
430.514	695.75
430.736	721.75
430.958	725.75
431.18	730.75
431.402	730.75
431.624	714.75
431.846	713.75
432.068	730.75
432.29	721.75
432.512	715.75
432.734	748.75
432.956	738.75
433.178	740.75
433.4	742.75
433.622	731.75
433.844	730.75
434.066	745.75
434.287	753.75
434.509	740.75
434.731	736.75
434.953	734.75
435.175	738.75
435.397	720.75
435.618	764.75
435.84	720.75
436.062	731.75
436.284	734.75
436.505	713.75
436.727	697.75
436.949	718.75
437.17	738.75
437.392	722.75
437.614	707.75
437.835	689.75
438.057	689.75
438.278	698.75
438.5	714.75
438.721	714.75
438.943	694.75
439.165	684.75
439.386	694.75
439.608	729.75
439.829	721.75
440.05	708.75
440.272	709.75
440.493	706.75
440.715	733.75
440.936	728.75
441.158	703.75
441.379	749.75
441.6	772.75
441.822	757.75
442.043	750.75
442.264	755.75
442.486	745.75
442.707	750.75
442.928	743.75
443.149	725.75
443.371	735.75
443.592	741.75
443.813	758.75
444.034	747.75
444.255	759.75
444.476	743.75
444.698	761.75
444.919	777.75
445.14	892.75
445.361	809.75
445.582	769.75
445.803	756.75
446.024	740.75
446.245	758.75
446.466	769.75
446.687	714.75
446.908	732.75
447.129	719.75
447.35	716.75
447.571	727.75
447.792	701.75
448.013	700.75
448.234	695.75
448.455	707.75
448.675	691.75
448.896	680.75
449.117	683.75
449.338	690.75
449.559	683.75
449.779	654.75
450	703.75
450.221	661.75
450.442	674.75
450.662	671.75
450.883	661.75
451.104	678.75
451.324	686.75
451.545	690.75
451.766	670.75
451.986	672.75
452.207	667.75
452.428	665.75
452.648	669.75
452.869	630.75
453.089	637.75
453.31	656.75
453.53	665.75
453.751	607.75
453.971	652.75
454.192	646.75
454.412	630.75
454.633	628.75
454.853	663.75
455.073	648.75
455.294	635.75
455.514	610.75
455.734	625.75
455.955	625.75
456.175	619.75
456.395	637.75
456.616	625.75
456.836	647.75
457.056	626.75
457.276	645.75
457.497	638.75
457.717	654.75
457.937	638.75
458.157	668.75
458.377	645.75
458.598	669.75
458.818	653.75
459.038	658.75
459.258	702.75
459.478	718.75
459.698	695.75
459.918	693.75
460.138	726.75
460.358	739.75
460.578	751.75
460.798	738.75
461.018	779.75
461.238	758.75
461.458	753.75
461.678	756.75
461.898	776.75
462.118	746.75
462.338	797.75
462.558	811.75
462.777	811.75
462.997	838.75
463.217	847.75
463.437	875.75
463.657	843.75
463.876	850.75
464.096	851.75
464.316	833.75
464.536	823.75
464.755	810.75
464.975	794.75
465.195	772.75
465.414	759.75
465.634	746.75
465.854	779.75
466.073	770.75
466.293	733.75
466.512	711.75
466.732	725.75
466.951	715.75
467.171	707.75
467.391	709.75
467.61	703.75
467.829	709.75
468.049	706.75
468.268	675.75
468.488	692.75
468.707	695.75
468.927	702.75
469.146	687.75
469.365	709.75
469.585	694.75
469.804	729.75
470.023	723.75
470.243	725.75
470.462	710.75
470.681	702.75
470.901	695.75
471.12	726.75
471.339	739.75
471.558	706.75
471.777	707.75
471.997	725.75
472.216	693.75
472.435	706.75
472.654	680.75
472.873	675.75
473.092	683.75
473.311	727.75
473.53	693.75
473.749	673.75
473.968	683.75
474.187	700.75
474.406	708.75
474.625	713.75
474.844	714.75
475.063	705.75
475.282	714.75
475.501	683.75
475.72	722.75
475.939	686.75
476.158	714.75
476.377	733.75
476.596	756.75
476.814	781.75
477.033	762.75
477.252	750.75
477.471	736.75
477.69	771.75
477.908	765.75
478.127	808.75
478.346	771.75
478.564	777.75
478.783	796.75
479.002	793.75
479.22	830.75
479.439	871.75
479.658	825.75
479.876	807.75
480.095	803.75
480.313	859.75
480.532	848.75
480.751	833.75
480.969	828.75
481.188	853.75
481.406	856.75
481.624	838.75
481.843	811.75
482.061	811.75
482.28	830.75
482.498	855.75
482.717	823.75
482.935	834.75
483.153	799.75
483.372	814.75
483.59	807.75
483.808	824.75
484.027	811.75
484.245	826.75
484.463	821.75
484.681	834.75
484.9	840.75
485.118	843.75
485.336	855.75
485.554	823.75
485.772	834.75
485.99	847.75
486.209	845.75
486.427	839.75
486.645	836.75
486.863	854.75
487.081	862.75
487.299	870.75
487.517	876.75
487.735	860.75
487.953	883.75
488.171	863.75
488.389	876.75
488.607	860.75
488.825	842.75
489.043	797.75
489.261	861.75
489.479	857.75
489.696	844.75
489.914	827.75
490.132	842.75
490.35	838.75
490.568	872.75
490.786	840.75
491.003	867.75
491.221	885.75
491.439	873.75
491.657	869.75
491.874	901.75
492.092	909.75
492.31	893.75
492.527	901.75
492.745	876.75
492.963	862.75
493.18	877.75
493.398	898.75
493.615	901.75
493.833	877.75
494.05	875.75
494.268	882.75
494.485	912.75
494.703	863.75
494.92	872.75
495.138	883.75
495.355	903.75
495.573	915.75
495.79	921.75
496.008	919.75
496.225	912.75
496.442	908.75
496.66	933.75
496.877	936.75
497.094	976.75
497.312	972.75
497.529	948.75
497.746	985.75
497.963	1002.75
498.181	997.75
498.398	1034.75
498.615	1066.75
498.832	1102.75
499.049	1123.75
499.267	1151.75
499.484	1221.75
499.701	1249.75
499.918	1295.75
500.135	1351.75
500.352	1405.75
500.569	1408.75
500.786	1397.75
501.003	1399.75
501.22	1365.75
501.437	1315.75
