Data from Fe(NO3)3@0.05M.TitratingCurve.Agarose3%dH2O.NegLispCup.LampEnergy10.LIBS07252019_HRD10591_16-46-20-333.txt Node
Date: Thu Jul 25 16:46:20 EDT 2019
User: cochatt
Spectrometer: HR+D1059
Trigger mode: 1
Integration Time (sec): 1.000000E-1
Scans to average: 1
Electric dark correction enabled: true
Nonlinearity correction enabled: false
Boxcar width: 0
XAxis mode: Wavelengths
Number of Pixels in Spectrum: 2048
>>>>>Begin Spectral Data<<<<<
223.165	-18.94
223.4	-18.94
223.635	-18.94
223.869	-5.94
224.104	-17.94
224.338	-17.94
224.573	-18.94
224.808	-6.94
225.042	-8.94
225.277	-9.94
225.511	-9.94
225.746	10.06
225.98	13.06
226.215	9.06
226.449	9.06
226.683	17.06
226.918	29.06
227.152	28.06
227.387	25.06
227.621	49.06
227.856	41.06
228.09	58.06
228.324	37.06
228.559	49.06
228.793	81.06
229.027	134.06
229.262	159.06
229.496	171.06
229.73	156.06
229.964	169.06
230.199	193.06
230.433	180.06
230.667	188.06
230.901	180.06
231.136	190.06
231.37	178.06
231.604	202.06
231.838	187.06
232.072	208.06
232.306	206.06
232.541	213.06
232.775	205.06
233.009	212.06
233.243	202.06
233.477	203.06
233.711	222.06
233.945	222.06
234.179	212.06
234.413	234.06
234.647	221.06
234.881	251.06
235.115	247.06
235.349	245.06
235.583	234.06
235.817	261.06
236.051	247.06
236.285	235.06
236.519	236.06
236.753	254.06
236.987	258.06
237.221	267.06
237.455	253.06
237.689	247.06
237.922	254.06
238.156	285.06
238.39	284.06
238.624	301.06
238.858	297.06
239.091	290.06
239.325	285.06
239.559	287.06
239.793	313.06
240.027	317.06
240.26	306.06
240.494	305.06
240.728	321.06
240.961	317.06
241.195	324.06
241.429	321.06
241.662	309.06
241.896	311.06
242.13	318.06
242.363	321.06
242.597	296.06
242.83	313.06
243.064	337.06
243.298	342.06
243.531	339.06
243.765	350.06
243.998	348.06
244.232	362.06
244.465	342.06
244.699	332.06
244.932	347.06
245.166	354.06
245.399	337.06
245.633	355.06
245.866	351.06
246.099	359.06
246.333	372.06
246.566	355.06
246.8	383.06
247.033	371.06
247.266	385.06
247.5	381.06
247.733	369.06
247.966	375.06
248.2	376.06
248.433	387.06
248.666	415.06
248.899	417.06
249.133	411.06
249.366	418.06
249.599	425.06
249.832	457.06
250.066	421.06
250.299	410.06
250.532	431.06
250.765	420.06
250.998	420.06
251.231	449.06
251.465	428.06
251.698	407.06
251.931	426.06
252.164	440.06
252.397	450.06
252.63	486.06
252.863	463.06
253.096	488.06
253.329	481.06
253.562	472.06
253.795	512.06
254.028	539.06
254.261	549.06
254.494	499.06
254.727	479.06
254.96	498.06
255.193	494.06
255.426	503.06
255.659	485.06
255.892	475.06
256.124	462.06
256.357	513.06
256.59	506.06
256.823	500.06
257.056	513.06
257.289	503.06
257.521	505.06
257.754	504.06
257.987	506.06
258.22	497.06
258.452	511.06
258.685	546.06
258.918	545.06
259.151	545.06
259.383	537.06
259.616	565.06
259.849	571.06
260.081	648.06
260.314	681.06
260.547	612.06
260.779	577.06
261.012	593.06
261.244	582.06
261.477	649.06
261.71	618.06
261.942	551.06
262.175	564.06
262.407	572.06
262.64	577.06
262.872	603.06
263.105	619.06
263.337	636.06
263.57	652.06
263.802	556.06
264.035	558.06
264.267	567.06
264.499	561.06
264.732	574.06
264.964	569.06
265.197	569.06
265.429	575.06
265.661	558.06
265.894	583.06
266.126	594.06
266.358	606.06
266.591	593.06
266.823	606.06
267.055	637.06
267.287	620.06
267.52	596.06
267.752	607.06
267.984	622.06
268.216	606.06
268.448	604.06
268.681	610.06
268.913	630.06
269.145	617.06
269.377	637.06
269.609	606.06
269.841	642.06
270.073	639.06
270.306	642.06
270.538	645.06
270.77	642.06
271.002	675.06
271.234	630.06
271.466	676.06
271.698	687.06
271.93	665.06
272.162	665.06
272.394	697.06
272.626	669.06
272.858	709.06
273.09	693.06
273.322	685.06
273.553	687.06
273.785	737.06
274.017	797.06
274.249	839.06
274.481	812.06
274.713	877.06
274.945	889.06
275.176	912.06
275.408	855.06
275.64	843.06
275.872	831.06
276.104	780.06
276.335	724.06
276.567	730.06
276.799	746.06
277.031	753.06
277.262	735.06
277.494	734.06
277.726	734.06
277.957	721.06
278.189	759.06
278.421	767.06
278.652	757.06
278.884	736.06
279.115	718.06
279.347	761.06
279.579	753.06
279.81	767.06
280.042	770.06
280.273	757.06
280.505	753.06
280.736	754.06
280.968	766.06
281.199	783.06
281.431	787.06
281.662	800.06
281.894	786.06
282.125	784.06
282.356	799.06
282.588	781.06
282.819	787.06
283.051	793.06
283.282	779.06
283.513	800.06
283.745	804.06
283.976	818.06
284.207	835.06
284.439	798.06
284.67	850.06
284.901	808.06
285.132	828.06
285.364	822.06
285.595	838.06
285.826	836.06
286.057	842.06
286.288	843.06
286.52	855.06
286.751	823.06
286.982	807.06
287.213	844.06
287.444	834.06
287.675	867.06
287.906	844.06
288.138	859.06
288.369	831.06
288.6	856.06
288.831	878.06
289.062	862.06
289.293	860.06
289.524	886.06
289.755	869.06
289.986	849.06
290.217	840.06
290.448	867.06
290.679	872.06
290.91	857.06
291.141	865.06
291.371	871.06
291.602	889.06
291.833	837.06
292.064	875.06
292.295	854.06
292.526	864.06
292.757	885.06
292.987	856.06
293.218	876.06
293.449	876.06
293.68	871.06
293.91	871.06
294.141	866.06
294.372	858.06
294.603	890.06
294.833	894.06
295.064	886.06
295.295	886.06
295.525	911.06
295.756	893.06
295.987	895.06
296.217	889.06
296.448	918.06
296.679	924.06
296.909	939.06
297.14	916.06
297.37	935.06
297.601	922.06
297.831	947.06
298.062	933.06
298.292	929.06
298.523	940.06
298.753	959.06
298.984	958.06
299.214	939.06
299.445	901.06
299.675	956.06
299.905	952.06
300.136	927.06
300.366	934.06
300.597	932.06
300.827	966.06
301.057	986.06
301.288	960.06
301.518	937.06
301.748	977.06
301.979	1002.06
302.209	1007.06
302.439	996.06
302.669	981.06
302.9	944.06
303.13	999.06
303.36	1001.06
303.59	1002.06
303.82	979.06
304.051	1014.06
304.281	1003.06
304.511	966.06
304.741	973.06
304.971	998.06
305.201	1000.06
305.431	978.06
305.661	1013.06
305.891	968.06
306.121	997.06
306.352	993.06
306.582	1009.06
306.812	978.06
307.042	1037.06
307.272	1006.06
307.502	989.06
307.731	1011.06
307.961	999.06
308.191	1006.06
308.421	993.06
308.651	1004.06
308.881	985.06
309.111	1013.06
309.341	995.06
309.571	1004.06
309.8	1003.06
310.03	994.06
310.26	999.06
310.49	1021.06
310.72	1025.06
310.949	1013.06
311.179	1012.06
311.409	1015.06
311.639	1051.06
311.868	1059.06
312.098	1068.06
312.328	1067.06
312.557	1035.06
312.787	1051.06
313.017	1049.06
313.246	1066.06
313.476	1047.06
313.706	1069.06
313.935	1082.06
314.165	1071.06
314.394	1059.06
314.624	1116.06
314.853	1083.06
315.083	1107.06
315.312	1085.06
315.542	1104.06
315.771	1094.06
316.001	1123.06
316.23	1086.06
316.46	1085.06
316.689	1094.06
316.919	1129.06
317.148	1100.06
317.377	1105.06
317.607	1093.06
317.836	1095.06
318.065	1133.06
318.295	1123.06
318.524	1120.06
318.753	1092.06
318.983	1075.06
319.212	1104.06
319.441	1124.06
319.67	1078.06
319.9	1106.06
320.129	1118.06
320.358	1123.06
320.587	1094.06
320.816	1099.06
321.046	1126.06
321.275	1117.06
321.504	1132.06
321.733	1135.06
321.962	1138.06
322.191	1130.06
322.42	1133.06
322.649	1126.06
322.878	1101.06
323.108	1115.06
323.337	1154.06
323.566	1158.06
323.795	1134.06
324.024	1173.06
324.253	1159.06
324.482	1131.06
324.71	1168.06
324.939	1149.06
325.168	1159.06
325.397	1168.06
325.626	1173.06
325.855	1154.06
326.084	1188.06
326.313	1214.06
326.542	1187.06
326.77	1199.06
326.999	1174.06
327.228	1183.06
327.457	1190.06
327.686	1165.06
327.914	1182.06
328.143	1240.06
328.372	1193.06
328.6	1189.06
328.829	1208.06
329.058	1195.06
329.287	1218.06
329.515	1214.06
329.744	1211.06
329.972	1210.06
330.201	1235.06
330.43	1240.06
330.658	1229.06
330.887	1250.06
331.115	1257.06
331.344	1265.06
331.572	1263.06
331.801	1255.06
332.03	1302.06
332.258	1314.06
332.486	1281.06
332.715	1289.06
332.943	1302.06
333.172	1313.06
333.4	1324.06
333.629	1343.06
333.857	1365.06
334.085	1380.06
334.314	1378.06
334.542	1393.06
334.771	1401.06
334.999	1403.06
335.227	1396.06
335.455	1375.06
335.684	1370.06
335.912	1384.06
336.14	1380.06
336.369	1403.06
336.597	1397.06
336.825	1400.06
337.053	1408.06
337.281	1361.06
337.51	1329.06
337.738	1348.06
337.966	1337.06
338.194	1331.06
338.422	1347.06
338.65	1335.06
338.878	1308.06
339.106	1320.06
339.334	1326.06
339.562	1329.06
339.79	1353.06
340.018	1320.06
340.246	1290.06
340.474	1308.06
340.702	1275.06
340.93	1277.06
341.158	1274.06
341.386	1281.06
341.614	1302.06
341.842	1295.06
342.07	1273.06
342.298	1280.06
342.526	1305.06
342.754	1263.06
342.981	1303.06
343.209	1270.06
343.437	1286.06
343.665	1357.06
343.893	1358.06
344.12	1378.06
344.348	1384.06
344.576	1404.06
344.804	1375.06
345.031	1356.06
345.259	1320.06
345.487	1328.06
345.714	1303.06
345.942	1298.06
346.17	1279.06
346.397	1262.06
346.625	1272.06
346.853	1250.06
347.08	1245.06
347.308	1265.06
347.535	1211.06
347.763	1234.06
347.99	1228.06
348.218	1232.06
348.445	1251.06
348.673	1210.06
348.9	1244.06
349.128	1234.06
349.355	1237.06
349.583	1214.06
349.81	1210.06
350.037	1201.06
350.265	1191.06
350.492	1242.06
350.72	1224.06
350.947	1216.06
351.174	1204.06
351.402	1201.06
351.629	1223.06
351.856	1195.06
352.083	1212.06
352.311	1221.06
352.538	1207.06
352.765	1217.06
352.992	1206.06
353.22	1203.06
353.447	1229.06
353.674	1213.06
353.901	1202.06
354.128	1220.06
354.355	1215.06
354.583	1187.06
354.81	1193.06
355.037	1230.06
355.264	1219.06
355.491	1225.06
355.718	1217.06
355.945	1210.06
356.172	1241.06
356.399	1186.06
356.626	1251.06
356.853	1237.06
357.08	1254.06
357.307	1240.06
357.534	1242.06
357.761	1223.06
357.988	1260.06
358.215	1244.06
358.441	1252.06
358.668	1251.06
358.895	1239.06
359.122	1212.06
359.349	1201.06
359.576	1222.06
359.802	1226.06
360.029	1222.06
360.256	1238.06
360.483	1243.06
360.709	1235.06
360.936	1204.06
361.163	1244.06
361.39	1225.06
361.616	1231.06
361.843	1258.06
362.07	1250.06
362.296	1233.06
362.523	1268.06
362.749	1260.06
362.976	1257.06
363.203	1224.06
363.429	1266.06
363.656	1263.06
363.882	1236.06
364.109	1240.06
364.335	1220.06
364.562	1230.06
364.788	1237.06
365.015	1268.06
365.241	1275.06
365.468	1236.06
365.694	1233.06
365.92	1258.06
366.147	1237.06
366.373	1230.06
366.599	1246.06
366.826	1239.06
367.052	1272.06
367.278	1257.06
367.505	1238.06
367.731	1301.06
367.957	1265.06
368.184	1293.06
368.41	1294.06
368.636	1293.06
368.862	1317.06
369.089	1314.06
369.315	1334.06
369.541	1293.06
369.767	1286.06
369.993	1293.06
370.219	1252.06
370.445	1307.06
370.672	1313.06
370.898	1348.06
371.124	1319.06
371.35	1353.06
371.576	1339.06
371.802	1347.06
372.028	1330.06
372.254	1371.06
372.48	1341.06
372.706	1383.06
372.932	1396.06
373.158	1363.06
373.384	1383.06
373.61	1430.06
373.835	1401.06
374.061	1361.06
374.287	1382.06
374.513	1377.06
374.739	1433.06
374.965	1451.06
375.191	1451.06
375.416	1422.06
375.642	1374.06
375.868	1409.06
376.094	1398.06
376.319	1374.06
376.545	1425.06
376.771	1405.06
376.997	1355.06
377.222	1335.06
377.448	1353.06
377.674	1357.06
377.899	1347.06
378.125	1340.06
378.35	1301.06
378.576	1345.06
378.802	1328.06
379.027	1343.06
379.253	1364.06
379.478	1337.06
379.704	1354.06
379.929	1355.06
380.155	1361.06
380.38	1333.06
380.606	1336.06
380.831	1359.06
381.057	1365.06
381.282	1351.06
381.507	1380.06
381.733	1415.06
381.958	1419.06
382.184	1434.06
382.409	1437.06
382.634	1441.06
382.86	1421.06
383.085	1445.06
383.31	1432.06
383.535	1429.06
383.761	1478.06
383.986	1449.06
384.211	1506.06
384.436	1508.06
384.662	1524.06
384.887	1491.06
385.112	1500.06
385.337	1559.06
385.562	1547.06
385.787	1526.06
386.013	1583.06
386.238	1565.06
386.463	1572.06
386.688	1554.06
386.913	1572.06
387.138	1544.06
387.363	1531.06
387.588	1550.06
387.813	1608.06
388.038	1606.06
388.263	1583.06
388.488	1622.06
388.713	1607.06
388.938	1610.06
389.163	1596.06
389.387	1595.06
389.612	1581.06
389.837	1628.06
390.062	1582.06
390.287	1608.06
390.512	1598.06
390.736	1609.06
390.961	1606.06
391.186	1603.06
391.411	1631.06
391.636	1655.06
391.86	1675.06
392.085	1680.06
392.31	1673.06
392.534	1693.06
392.759	1723.06
392.984	1670.06
393.208	1631.06
393.433	1655.06
393.658	1663.06
393.882	1610.06
394.107	1624.06
394.331	1687.06
394.556	1627.06
394.78	1677.06
395.005	1671.06
395.229	1680.06
395.454	1679.06
395.678	1716.06
395.903	1750.06
396.127	1719.06
396.352	1678.06
396.576	1709.06
396.801	1713.06
397.025	1754.06
397.249	1753.06
397.474	1783.06
397.698	1764.06
397.922	1822.06
398.147	1765.06
398.371	1851.06
398.595	1864.06
398.82	1902.06
399.044	1966.06
399.268	2041.06
399.492	2053.06
399.717	2166.06
399.941	2246.06
400.165	2165.06
400.389	2138.06
400.613	2073.06
400.837	2007.06
401.062	1977.06
401.286	1937.06
401.51	1953.06
401.734	1912.06
401.958	1934.06
402.182	1935.06
402.406	1894.06
402.63	1921.06
402.854	1890.06
403.078	1933.06
403.302	1921.06
403.526	1931.06
403.75	1942.06
403.974	1949.06
404.198	1913.06
404.422	1955.06
404.645	1963.06
404.869	1943.06
405.093	1983.06
405.317	1949.06
405.541	1978.06
405.765	1987.06
405.988	2017.06
406.212	2020.06
406.436	2037.06
406.66	2112.06
406.883	2088.06
407.107	2108.06
407.331	2184.06
407.555	2222.06
407.778	2184.06
408.002	2203.06
408.226	2187.06
408.449	2177.06
408.673	2141.06
408.896	2078.06
409.12	2092.06
409.344	2114.06
409.567	2024.06
409.791	2066.06
410.014	2049.06
410.238	2026.06
410.461	2045.06
410.685	2021.06
410.908	1988.06
411.132	1973.06
411.355	1944.06
411.578	1950.06
411.802	1982.06
412.025	2019.06
412.249	2011.06
412.472	2001.06
412.695	1990.06
412.919	1936.06
413.142	1960.06
413.365	1919.06
413.589	1978.06
413.812	1936.06
414.035	1902.06
414.258	1939.06
414.482	1927.06
414.705	1941.06
414.928	1921.06
415.151	1949.06
415.374	1914.06
415.597	1907.06
415.821	1891.06
416.044	1846.06
416.267	1857.06
416.49	1874.06
416.713	1836.06
416.936	1862.06
417.159	1861.06
417.382	1877.06
417.605	1831.06
417.828	1832.06
418.051	1833.06
418.274	1888.06
418.497	1812.06
418.72	1882.06
418.943	1805.06
419.166	1915.06
419.389	1996.06
419.611	1986.06
419.834	1954.06
420.057	1901.06
420.28	1869.06
420.503	1819.06
420.726	1811.06
420.948	1814.06
421.171	1805.06
421.394	1793.06
421.617	1787.06
421.839	1830.06
422.062	1772.06
422.285	1777.06
422.507	1827.06
422.73	1814.06
422.953	1825.06
423.175	1841.06
423.398	1819.06
423.621	1761.06
423.843	1807.06
424.066	1811.06
424.288	1778.06
424.511	1829.06
424.733	1807.06
424.956	1805.06
425.178	1786.06
425.401	1794.06
425.623	1842.06
425.846	1761.06
426.068	1801.06
426.291	1792.06
426.513	1786.06
426.735	1723.06
426.958	1763.06
427.18	1730.06
427.402	1765.06
427.625	1778.06
427.847	1730.06
428.069	1740.06
428.292	1762.06
428.514	1703.06
428.736	1684.06
428.958	1722.06
429.181	1704.06
429.403	1699.06
429.625	1703.06
429.847	1673.06
430.069	1725.06
430.292	1724.06
430.514	1706.06
430.736	1734.06
430.958	1677.06
431.18	1766.06
431.402	1720.06
431.624	1730.06
431.846	1714.06
432.068	1732.06
432.29	1780.06
432.512	1769.06
432.734	1772.06
432.956	1762.06
433.178	1760.06
433.4	1772.06
433.622	1781.06
433.844	1744.06
434.066	1757.06
434.287	1739.06
434.509	1792.06
434.731	1805.06
434.953	1785.06
435.175	1827.06
435.397	1817.06
435.618	1811.06
435.84	1759.06
436.062	1740.06
436.284	1796.06
436.505	1752.06
436.727	1747.06
436.949	1743.06
437.17	1725.06
437.392	1719.06
437.614	1677.06
437.835	1687.06
438.057	1713.06
438.278	1687.06
438.5	1691.06
438.721	1703.06
438.943	1723.06
439.165	1647.06
439.386	1697.06
439.608	1731.06
439.829	1711.06
440.05	1699.06
440.272	1743.06
440.493	1717.06
440.715	1741.06
440.936	1711.06
441.158	1734.06
441.379	1766.06
441.6	1768.06
441.822	1757.06
442.043	1782.06
442.264	1767.06
442.486	1744.06
442.707	1779.06
442.928	1833.06
443.149	1802.06
443.371	1815.06
443.592	1765.06
443.813	1749.06
444.034	1808.06
444.255	1842.06
444.476	1845.06
444.698	1857.06
444.919	1878.06
445.14	2003.06
445.361	1918.06
445.582	1843.06
445.803	1779.06
446.024	1763.06
446.245	1742.06
446.466	1771.06
446.687	1715.06
446.908	1715.06
447.129	1704.06
447.35	1685.06
447.571	1665.06
447.792	1615.06
448.013	1633.06
448.234	1609.06
448.455	1595.06
448.675	1580.06
448.896	1623.06
449.117	1579.06
449.338	1590.06
449.559	1579.06
449.779	1576.06
450	1548.06
450.221	1571.06
450.442	1597.06
450.662	1546.06
450.883	1522.06
451.104	1540.06
451.324	1561.06
451.545	1565.06
451.766	1547.06
451.986	1566.06
452.207	1521.06
452.428	1522.06
452.648	1569.06
452.869	1491.06
453.089	1523.06
453.31	1530.06
453.53	1508.06
453.751	1527.06
453.971	1553.06
454.192	1540.06
454.412	1488.06
454.633	1499.06
454.853	1476.06
455.073	1478.06
455.294	1494.06
455.514	1539.06
455.734	1491.06
455.955	1470.06
456.175	1487.06
456.395	1505.06
456.616	1493.06
456.836	1512.06
457.056	1509.06
457.276	1518.06
457.497	1530.06
457.717	1525.06
457.937	1500.06
458.157	1545.06
458.377	1571.06
458.598	1558.06
458.818	1600.06
459.038	1617.06
459.258	1659.06
459.478	1714.06
459.698	1679.06
459.918	1718.06
460.138	1743.06
460.358	1817.06
460.578	1779.06
460.798	1838.06
461.018	1854.06
461.238	1868.06
461.458	1887.06
461.678	1830.06
461.898	1903.06
462.118	1875.06
462.338	1941.06
462.558	1976.06
462.777	1992.06
462.997	2022.06
463.217	2122.06
463.437	2084.06
463.657	2033.06
463.876	2060.06
464.096	2025.06
464.316	2006.06
464.536	1992.06
464.755	1975.06
464.975	1974.06
465.195	1919.06
465.414	1868.06
465.634	1789.06
465.854	1767.06
466.073	1769.06
466.293	1742.06
466.512	1734.06
466.732	1737.06
466.951	1695.06
467.171	1724.06
467.391	1663.06
467.61	1661.06
467.829	1686.06
468.049	1678.06
468.268	1598.06
468.488	1630.06
468.707	1654.06
468.927	1681.06
469.146	1682.06
469.365	1653.06
469.585	1618.06
469.804	1667.06
470.023	1663.06
470.243	1687.06
470.462	1701.06
470.681	1659.06
470.901	1685.06
471.12	1661.06
471.339	1681.06
471.558	1634.06
471.777	1656.06
471.997	1653.06
472.216	1716.06
472.435	1703.06
472.654	1668.06
472.873	1629.06
473.092	1691.06
473.311	1697.06
473.53	1653.06
473.749	1654.06
473.968	1649.06
474.187	1679.06
474.406	1681.06
474.625	1718.06
474.844	1664.06
475.063	1655.06
475.282	1706.06
475.501	1704.06
475.72	1710.06
475.939	1692.06
476.158	1753.06
476.377	1763.06
476.596	1813.06
476.814	1864.06
477.033	1813.06
477.252	1818.06
477.471	1818.06
477.69	1852.06
477.908	1831.06
478.127	1897.06
478.346	1886.06
478.564	1945.06
478.783	1958.06
479.002	1961.06
479.22	2029.06
479.439	2055.06
479.658	2065.06
479.876	2002.06
480.095	2058.06
480.313	2057.06
480.532	2023.06
480.751	2085.06
480.969	2003.06
481.188	2079.06
481.406	2046.06
481.624	2007.06
481.843	2042.06
482.061	2032.06
482.28	2014.06
482.498	2075.06
482.717	1957.06
482.935	2020.06
483.153	2000.06
483.372	2007.06
483.59	1980.06
483.808	2005.06
484.027	2010.06
484.245	2029.06
484.463	2033.06
484.681	2033.06
484.9	2010.06
485.118	2088.06
485.336	2026.06
485.554	2058.06
485.772	2077.06
485.99	2076.06
486.209	2040.06
486.427	2095.06
486.645	2104.06
486.863	2080.06
487.081	2080.06
487.299	2118.06
487.517	2100.06
487.735	2124.06
487.953	2083.06
488.171	2114.06
488.389	2084.06
488.607	2069.06
488.825	2049.06
489.043	2049.06
489.261	2082.06
489.479	2102.06
489.696	2069.06
489.914	2078.06
490.132	2075.06
490.35	2120.06
