Data from Fe(NO3)3@0.025M.TitratingCurve.Agarose3%dH2O.NegLispCup.LampEnergy10.LIBS07252019_HRD10591_16-54-06-336.txt Node
Date: Thu Jul 25 16:54:06 EDT 2019
User: cochatt
Spectrometer: HR+D1059
Trigger mode: 1
Integration Time (sec): 1.000000E-1
Scans to average: 1
Electric dark correction enabled: true
Nonlinearity correction enabled: false
Boxcar width: 0
XAxis mode: Wavelengths
Number of Pixels in Spectrum: 2048
>>>>>Begin Spectral Data<<<<<
223.165	-11.94
223.4	-11.94
223.635	-11.94
223.869	-24.94
224.104	-12.94
224.338	-17.94
224.573	-22.94
224.808	-13.94
225.042	-9.94
225.277	-12.94
225.511	2.06
225.746	-0.94
225.98	0.06
226.215	10.06
226.449	29.06
226.683	40.06
226.918	30.06
227.152	17.06
227.387	36.06
227.621	22.06
227.856	51.06
228.09	57.06
228.324	49.06
228.559	51.06
228.793	63.06
229.027	81.06
229.262	82.06
229.496	92.06
229.73	103.06
229.964	104.06
230.199	92.06
230.433	102.06
230.667	110.06
230.901	94.06
231.136	102.06
231.37	112.06
231.604	103.06
231.838	116.06
232.072	107.06
232.306	112.06
232.541	122.06
232.775	115.06
233.009	120.06
233.243	119.06
233.477	108.06
233.711	126.06
233.945	124.06
234.179	120.06
234.413	114.06
234.647	128.06
234.881	128.06
235.115	137.06
235.349	123.06
235.583	117.06
235.817	114.06
236.051	118.06
236.285	122.06
236.519	121.06
236.753	126.06
236.987	124.06
237.221	119.06
237.455	128.06
237.689	133.06
237.922	134.06
238.156	145.06
238.39	135.06
238.624	138.06
238.858	148.06
239.091	132.06
239.325	140.06
239.559	126.06
239.793	127.06
240.027	143.06
240.26	128.06
240.494	136.06
240.728	140.06
240.961	160.06
241.195	151.06
241.429	134.06
241.662	130.06
241.896	137.06
242.13	150.06
242.363	149.06
242.597	139.06
242.83	135.06
243.064	135.06
243.298	141.06
243.531	145.06
243.765	135.06
243.998	154.06
244.232	134.06
244.465	135.06
244.699	141.06
244.932	140.06
245.166	131.06
245.399	152.06
245.633	135.06
245.866	144.06
246.099	148.06
246.333	162.06
246.566	150.06
246.8	166.06
247.033	142.06
247.266	149.06
247.5	158.06
247.733	156.06
247.966	171.06
248.2	181.06
248.433	176.06
248.666	161.06
248.899	164.06
249.133	175.06
249.366	167.06
249.599	177.06
249.832	151.06
250.066	178.06
250.299	170.06
250.532	163.06
250.765	173.06
250.998	166.06
251.231	169.06
251.465	164.06
251.698	162.06
251.931	166.06
252.164	168.06
252.397	177.06
252.63	184.06
252.863	190.06
253.096	188.06
253.329	186.06
253.562	189.06
253.795	200.06
254.028	209.06
254.261	190.06
254.494	195.06
254.727	199.06
254.96	194.06
255.193	184.06
255.426	194.06
255.659	189.06
255.892	202.06
256.124	170.06
256.357	182.06
256.59	191.06
256.823	177.06
257.056	209.06
257.289	193.06
257.521	187.06
257.754	190.06
257.987	192.06
258.22	198.06
258.452	185.06
258.685	222.06
258.918	206.06
259.151	188.06
259.383	220.06
259.616	200.06
259.849	227.06
260.081	234.06
260.314	240.06
260.547	232.06
260.779	206.06
261.012	231.06
261.244	212.06
261.477	233.06
261.71	236.06
261.942	213.06
262.175	216.06
262.407	214.06
262.64	219.06
262.872	215.06
263.105	238.06
263.337	244.06
263.57	232.06
263.802	215.06
264.035	199.06
264.267	217.06
264.499	226.06
264.732	209.06
264.964	222.06
265.197	198.06
265.429	203.06
265.661	226.06
265.894	217.06
266.126	210.06
266.358	235.06
266.591	223.06
266.823	226.06
267.055	225.06
267.287	230.06
267.52	217.06
267.752	216.06
267.984	218.06
268.216	224.06
268.448	230.06
268.681	228.06
268.913	231.06
269.145	225.06
269.377	240.06
269.609	236.06
269.841	233.06
270.073	207.06
270.306	218.06
270.538	240.06
270.77	240.06
271.002	247.06
271.234	234.06
271.466	238.06
271.698	241.06
271.93	260.06
272.162	258.06
272.394	219.06
272.626	246.06
272.858	243.06
273.09	258.06
273.322	266.06
273.553	255.06
273.785	262.06
274.017	267.06
274.249	274.06
274.481	305.06
274.713	311.06
274.945	304.06
275.176	306.06
275.408	298.06
275.64	280.06
275.872	280.06
276.104	268.06
276.335	261.06
276.567	282.06
276.799	266.06
277.031	277.06
277.262	266.06
277.494	272.06
277.726	274.06
277.957	279.06
278.189	258.06
278.421	260.06
278.652	267.06
278.884	270.06
279.115	250.06
279.347	271.06
279.579	264.06
279.81	268.06
280.042	289.06
280.273	268.06
280.505	266.06
280.736	292.06
280.968	268.06
281.199	264.06
281.431	284.06
281.662	284.06
281.894	285.06
282.125	286.06
282.356	262.06
282.588	284.06
282.819	287.06
283.051	290.06
283.282	273.06
283.513	295.06
283.745	294.06
283.976	297.06
284.207	309.06
284.439	276.06
284.67	289.06
284.901	283.06
285.132	313.06
285.364	305.06
285.595	295.06
285.826	298.06
286.057	304.06
286.288	293.06
286.52	292.06
286.751	296.06
286.982	308.06
287.213	297.06
287.444	314.06
287.675	298.06
287.906	302.06
288.138	315.06
288.369	309.06
288.6	304.06
288.831	293.06
289.062	311.06
289.293	314.06
289.524	309.06
289.755	300.06
289.986	300.06
290.217	300.06
290.448	304.06
290.679	310.06
290.91	306.06
291.141	311.06
291.371	325.06
291.602	313.06
291.833	312.06
292.064	320.06
292.295	318.06
292.526	324.06
292.757	307.06
292.987	339.06
293.218	299.06
293.449	306.06
293.68	311.06
293.91	314.06
294.141	328.06
294.372	313.06
294.603	294.06
294.833	308.06
295.064	324.06
295.295	311.06
295.525	343.06
295.756	322.06
295.987	316.06
296.217	305.06
296.448	326.06
296.679	315.06
296.909	316.06
297.14	305.06
297.37	320.06
297.601	349.06
297.831	329.06
298.062	336.06
298.292	334.06
298.523	328.06
298.753	343.06
298.984	339.06
299.214	335.06
299.445	328.06
299.675	327.06
299.905	329.06
300.136	337.06
300.366	326.06
300.597	326.06
300.827	348.06
301.057	338.06
301.288	343.06
301.518	349.06
301.748	345.06
301.979	354.06
302.209	363.06
302.439	382.06
302.669	347.06
302.9	361.06
303.13	342.06
303.36	351.06
303.59	369.06
303.82	354.06
304.051	369.06
304.281	364.06
304.511	353.06
304.741	336.06
304.971	342.06
305.201	370.06
305.431	376.06
305.661	358.06
305.891	341.06
306.121	347.06
306.352	369.06
306.582	356.06
306.812	368.06
307.042	370.06
307.272	366.06
307.502	373.06
307.731	355.06
307.961	380.06
308.191	376.06
308.421	349.06
308.651	328.06
308.881	361.06
309.111	353.06
309.341	371.06
309.571	358.06
309.8	373.06
310.03	373.06
310.26	368.06
310.49	350.06
310.72	358.06
310.949	363.06
311.179	371.06
311.409	371.06
311.639	355.06
311.868	365.06
312.098	360.06
312.328	376.06
312.557	372.06
312.787	377.06
313.017	372.06
313.246	381.06
313.476	401.06
313.706	386.06
313.935	397.06
314.165	384.06
314.394	384.06
314.624	381.06
314.853	374.06
315.083	375.06
315.312	394.06
315.542	376.06
315.771	387.06
316.001	395.06
316.23	387.06
316.46	391.06
316.689	384.06
316.919	394.06
317.148	385.06
317.377	409.06
317.607	391.06
317.836	389.06
318.065	403.06
318.295	403.06
318.524	388.06
318.753	391.06
318.983	395.06
319.212	389.06
319.441	405.06
319.67	417.06
319.9	376.06
320.129	391.06
320.358	402.06
320.587	400.06
320.816	408.06
321.046	410.06
321.275	393.06
321.504	401.06
321.733	402.06
321.962	405.06
322.191	417.06
322.42	386.06
322.649	383.06
322.878	395.06
323.108	390.06
323.337	416.06
323.566	410.06
323.795	399.06
324.024	417.06
324.253	391.06
324.482	414.06
324.71	418.06
324.939	420.06
325.168	415.06
325.397	412.06
325.626	424.06
325.855	407.06
326.084	422.06
326.313	422.06
326.542	431.06
326.77	438.06
326.999	410.06
327.228	420.06
327.457	434.06
327.686	423.06
327.914	432.06
328.143	442.06
328.372	452.06
328.6	403.06
328.829	433.06
329.058	431.06
329.287	448.06
329.515	446.06
329.744	424.06
329.972	434.06
330.201	447.06
330.43	430.06
330.658	440.06
330.887	434.06
331.115	414.06
331.344	444.06
331.572	449.06
331.801	440.06
332.03	438.06
332.258	449.06
332.486	461.06
332.715	444.06
332.943	467.06
333.172	484.06
333.4	458.06
333.629	498.06
333.857	483.06
334.085	474.06
334.314	485.06
334.542	487.06
334.771	478.06
334.999	484.06
335.227	461.06
335.455	487.06
335.684	527.06
335.912	512.06
336.14	503.06
336.369	508.06
336.597	483.06
336.825	477.06
337.053	478.06
337.281	482.06
337.51	473.06
337.738	480.06
337.966	462.06
338.194	486.06
338.422	473.06
338.65	464.06
338.878	464.06
339.106	479.06
339.334	465.06
339.562	459.06
339.79	472.06
340.018	457.06
340.246	457.06
340.474	464.06
340.702	442.06
340.93	447.06
341.158	456.06
341.386	449.06
341.614	460.06
341.842	436.06
342.07	457.06
342.298	447.06
342.526	466.06
342.754	466.06
342.981	464.06
343.209	459.06
343.437	469.06
343.665	481.06
343.893	477.06
344.12	497.06
344.348	512.06
344.576	462.06
344.804	479.06
345.031	474.06
345.259	472.06
345.487	463.06
345.714	487.06
345.942	457.06
346.17	447.06
346.397	466.06
346.625	460.06
346.853	443.06
347.08	437.06
347.308	447.06
347.535	450.06
347.763	447.06
347.99	466.06
348.218	456.06
348.445	443.06
348.673	468.06
348.9	459.06
349.128	442.06
349.355	439.06
349.583	458.06
349.81	458.06
350.037	447.06
350.265	445.06
350.492	428.06
350.72	432.06
350.947	447.06
351.174	438.06
351.402	430.06
351.629	441.06
351.856	442.06
352.083	426.06
352.311	435.06
352.538	416.06
352.765	447.06
352.992	434.06
353.22	456.06
353.447	444.06
353.674	417.06
353.901	418.06
354.128	431.06
354.355	434.06
354.583	428.06
354.81	449.06
355.037	439.06
355.264	448.06
355.491	446.06
355.718	433.06
355.945	440.06
356.172	455.06
356.399	437.06
356.626	440.06
356.853	445.06
357.08	442.06
357.307	438.06
357.534	438.06
357.761	435.06
357.988	467.06
358.215	464.06
358.441	439.06
358.668	438.06
358.895	463.06
359.122	440.06
359.349	437.06
359.576	443.06
359.802	426.06
360.029	443.06
360.256	456.06
360.483	445.06
360.709	445.06
360.936	440.06
361.163	461.06
361.39	436.06
361.616	443.06
361.843	443.06
362.07	443.06
362.296	467.06
362.523	454.06
362.749	444.06
362.976	449.06
363.203	445.06
363.429	445.06
363.656	441.06
363.882	420.06
364.109	458.06
364.335	456.06
364.562	425.06
364.788	448.06
365.015	449.06
365.241	433.06
365.468	458.06
365.694	450.06
365.92	446.06
366.147	456.06
366.373	444.06
366.599	454.06
366.826	445.06
367.052	453.06
367.278	454.06
367.505	450.06
367.731	465.06
367.957	457.06
368.184	448.06
368.41	458.06
368.636	450.06
368.862	459.06
369.089	470.06
369.315	460.06
369.541	473.06
369.767	470.06
369.993	458.06
370.219	461.06
370.445	462.06
370.672	463.06
370.898	473.06
371.124	464.06
371.35	478.06
371.576	491.06
371.802	492.06
372.028	468.06
372.254	487.06
372.48	487.06
372.706	459.06
372.932	480.06
373.158	480.06
373.384	517.06
373.61	498.06
373.835	495.06
374.061	487.06
374.287	491.06
374.513	485.06
374.739	500.06
374.965	478.06
375.191	479.06
375.416	493.06
375.642	520.06
375.868	491.06
376.094	506.06
376.319	494.06
376.545	473.06
376.771	515.06
376.997	472.06
377.222	473.06
377.448	484.06
377.674	475.06
377.899	478.06
378.125	478.06
378.35	478.06
378.576	499.06
378.802	495.06
379.027	458.06
379.253	462.06
379.478	460.06
379.704	471.06
379.929	471.06
380.155	471.06
380.38	479.06
380.606	494.06
380.831	478.06
381.057	496.06
381.282	480.06
381.507	512.06
381.733	489.06
381.958	495.06
382.184	492.06
382.409	506.06
382.634	492.06
382.86	497.06
383.085	524.06
383.31	538.06
383.535	498.06
383.761	516.06
383.986	516.06
384.211	523.06
384.436	503.06
384.662	517.06
384.887	511.06
385.112	530.06
385.337	525.06
385.562	540.06
385.787	544.06
386.013	571.06
386.238	571.06
386.463	538.06
386.688	549.06
386.913	558.06
387.138	547.06
387.363	538.06
387.588	566.06
387.813	562.06
388.038	568.06
388.263	523.06
388.488	535.06
388.713	550.06
388.938	552.06
389.163	550.06
389.387	547.06
389.612	552.06
389.837	562.06
390.062	550.06
390.287	533.06
390.512	554.06
390.736	543.06
390.961	553.06
391.186	559.06
391.411	558.06
391.636	582.06
391.86	566.06
392.085	576.06
392.31	588.06
392.534	598.06
392.759	579.06
392.984	582.06
393.208	546.06
393.433	594.06
393.658	580.06
393.882	571.06
394.107	564.06
394.331	566.06
394.556	574.06
394.78	620.06
395.005	571.06
395.229	572.06
395.454	593.06
395.678	582.06
395.903	598.06
396.127	605.06
396.352	617.06
396.576	607.06
396.801	595.06
397.025	586.06
397.249	616.06
397.474	612.06
397.698	625.06
397.922	632.06
398.147	613.06
398.371	628.06
398.595	621.06
398.82	667.06
399.044	665.06
399.268	718.06
399.492	724.06
399.717	718.06
399.941	754.06
400.165	716.06
400.389	704.06
400.613	704.06
400.837	708.06
401.062	662.06
401.286	664.06
401.51	655.06
401.734	662.06
401.958	648.06
402.182	655.06
402.406	662.06
402.63	651.06
402.854	651.06
403.078	649.06
403.302	656.06
403.526	683.06
403.75	659.06
403.974	638.06
404.198	649.06
404.422	640.06
404.645	658.06
404.869	640.06
405.093	634.06
405.317	653.06
405.541	656.06
405.765	667.06
405.988	699.06
406.212	701.06
406.436	668.06
406.66	683.06
406.883	694.06
407.107	700.06
407.331	726.06
407.555	727.06
407.778	703.06
408.002	714.06
408.226	721.06
408.449	741.06
408.673	686.06
408.896	682.06
409.12	707.06
409.344	700.06
409.567	696.06
409.791	674.06
410.014	688.06
410.238	651.06
410.461	671.06
410.685	696.06
410.908	677.06
411.132	678.06
411.355	675.06
411.578	659.06
411.802	664.06
412.025	673.06
412.249	663.06
412.472	684.06
412.695	660.06
412.919	670.06
413.142	676.06
413.365	670.06
413.589	679.06
413.812	642.06
414.035	650.06
414.258	661.06
414.482	645.06
414.705	638.06
414.928	657.06
415.151	648.06
415.374	644.06
415.597	632.06
415.821	630.06
416.044	630.06
416.267	634.06
416.49	624.06
416.713	607.06
416.936	647.06
417.159	636.06
417.382	612.06
417.605	619.06
417.828	607.06
418.051	598.06
418.274	626.06
418.497	606.06
418.72	616.06
418.943	614.06
419.166	635.06
419.389	668.06
419.611	652.06
419.834	672.06
420.057	658.06
420.28	615.06
420.503	614.06
420.726	619.06
420.948	612.06
421.171	630.06
421.394	615.06
421.617	607.06
421.839	604.06
422.062	602.06
422.285	606.06
422.507	610.06
422.73	600.06
422.953	594.06
423.175	633.06
423.398	615.06
423.621	582.06
423.843	614.06
424.066	629.06
424.288	595.06
424.511	596.06
424.733	611.06
424.956	596.06
425.178	596.06
425.401	606.06
425.623	597.06
425.846	609.06
426.068	588.06
426.291	604.06
426.513	583.06
426.735	588.06
426.958	577.06
427.18	582.06
427.402	582.06
427.625	610.06
427.847	558.06
428.069	606.06
428.292	593.06
428.514	570.06
428.736	585.06
428.958	594.06
429.181	581.06
429.403	585.06
429.625	584.06
429.847	574.06
430.069	566.06
430.292	575.06
430.514	586.06
430.736	587.06
430.958	611.06
431.18	614.06
431.402	574.06
431.624	565.06
431.846	570.06
432.068	591.06
432.29	606.06
432.512	573.06
432.734	589.06
432.956	600.06
433.178	563.06
433.4	562.06
433.622	596.06
433.844	564.06
434.066	577.06
434.287	596.06
434.509	598.06
434.731	586.06
434.953	603.06
435.175	587.06
435.397	610.06
435.618	626.06
435.84	580.06
436.062	617.06
436.284	600.06
436.505	583.06
436.727	572.06
436.949	600.06
437.17	610.06
437.392	585.06
437.614	570.06
437.835	579.06
438.057	558.06
438.278	578.06
438.5	579.06
438.721	560.06
438.943	558.06
439.165	543.06
439.386	570.06
439.608	539.06
439.829	569.06
440.05	579.06
440.272	573.06
440.493	572.06
440.715	596.06
440.936	602.06
441.158	573.06
441.379	567.06
441.6	588.06
441.822	597.06
442.043	596.06
442.264	598.06
442.486	582.06
442.707	606.06
442.928	574.06
443.149	577.06
443.371	590.06
443.592	570.06
443.813	607.06
444.034	598.06
444.255	602.06
444.476	608.06
444.698	598.06
444.919	602.06
445.14	739.06
445.361	679.06
445.582	615.06
445.803	587.06
446.024	581.06
446.245	588.06
446.466	586.06
446.687	559.06
446.908	587.06
447.129	560.06
447.35	536.06
447.571	584.06
447.792	559.06
448.013	544.06
448.234	543.06
448.455	529.06
448.675	541.06
448.896	538.06
449.117	516.06
449.338	548.06
449.559	545.06
449.779	532.06
450	536.06
450.221	552.06
450.442	528.06
450.662	526.06
450.883	554.06
451.104	527.06
451.324	510.06
451.545	542.06
451.766	496.06
451.986	506.06
452.207	494.06
452.428	533.06
452.648	518.06
452.869	497.06
453.089	501.06
453.31	519.06
453.53	523.06
453.751	512.06
453.971	517.06
454.192	512.06
454.412	533.06
454.633	504.06
454.853	529.06
455.073	501.06
455.294	491.06
455.514	487.06
455.734	517.06
455.955	515.06
456.175	518.06
456.395	519.06
456.616	495.06
456.836	507.06
457.056	512.06
457.276	479.06
457.497	489.06
457.717	502.06
457.937	512.06
458.157	514.06
458.377	531.06
458.598	524.06
458.818	538.06
459.038	541.06
459.258	563.06
459.478	572.06
459.698	565.06
459.918	588.06
460.138	605.06
460.358	588.06
460.578	609.06
460.798	599.06
461.018	608.06
461.238	603.06
461.458	604.06
461.678	623.06
461.898	624.06
462.118	618.06
462.338	656.06
462.558	683.06
462.777	670.06
462.997	658.06
463.217	708.06
463.437	678.06
463.657	679.06
463.876	688.06
464.096	658.06
464.316	656.06
464.536	650.06
464.755	625.06
464.975	638.06
465.195	607.06
465.414	605.06
465.634	578.06
465.854	615.06
466.073	576.06
466.293	585.06
466.512	580.06
466.732	557.06
466.951	574.06
467.171	567.06
467.391	550.06
467.61	569.06
467.829	554.06
468.049	547.06
468.268	543.06
468.488	558.06
468.707	550.06
468.927	571.06
469.146	559.06
469.365	567.06
469.585	547.06
469.804	564.06
470.023	551.06
470.243	555.06
470.462	561.06
470.681	556.06
470.901	562.06
471.12	560.06
471.339	543.06
471.558	548.06
471.777	578.06
471.997	577.06
472.216	578.06
472.435	581.06
472.654	562.06
472.873	551.06
473.092	583.06
473.311	559.06
473.53	569.06
473.749	577.06
473.968	567.06
474.187	560.06
474.406	577.06
474.625	569.06
474.844	561.06
475.063	579.06
475.282	586.06
475.501	583.06
475.72	580.06
475.939	570.06
476.158	581.06
476.377	591.06
476.596	589.06
476.814	619.06
477.033	602.06
477.252	582.06
477.471	610.06
477.69	628.06
477.908	623.06
478.127	624.06
478.346	634.06
478.564	640.06
478.783	631.06
479.002	646.06
479.22	654.06
479.439	680.06
479.658	647.06
479.876	656.06
480.095	663.06
480.313	683.06
480.532	692.06
480.751	683.06
480.969	663.06
481.188	676.06
481.406	698.06
481.624	671.06
481.843	672.06
482.061	645.06
482.28	662.06
482.498	693.06
482.717	671.06
482.935	678.06
483.153	666.06
483.372	675.06
483.59	674.06
483.808	667.06
484.027	655.06
484.245	659.06
484.463	663.06
484.681	681.06
484.9	715.06
485.118	709.06
485.336	682.06
485.554	692.06
485.772	686.06
485.99	671.06
486.209	674.06
486.427	689.06
486.645	678.06
486.863	704.06
487.081	704.06
487.299	689.06
487.517	700.06
487.735	676.06
487.953	684.06
488.171	692.06
488.389	715.06
488.607	692.06
488.825	698.06
489.043	696.06
489.261	711.06
489.479	703.06
489.696	697.06
489.914	666.06
490.132	705.06
490.35	672.06
490.568	670.06
490.786	697.06
491.003	680.06
491.221	695.06
491.439	688.06
491.657	683.06
491.874	719.06
492.092	705.06
492.31	702.06
492.527	706.06
492.745	706.06
492.963	704.06
493.18	709.06
493.398	704.06
493.615	676.06
493.833	706.06
494.05	719.06
494.268	716.06
494.485	712.06
494.703	712.06
494.92	715.06
495.138	692.06
495.355	713.06
495.573	697.06
495.79	719.06
496.008	755.06
496.225	758.06
496.442	754.06
496.66	740.06
496.877	747.06
497.094	771.06
497.312	773.06
497.529	787.06
497.746	786.06
497.963	835.06
498.181	836.06
498.398	857.06
498.615	879.06
498.832	898.06
499.049	949.06
499.267	964.06
499.484	1000.06
499.701	1045.06
499.918	1052.06
500.135	1085.06
500.352	1171.06
500.569	1136.06
500.786	1151.06
501.003	1135.06
501.22	1110.06
501.437	1071.06
