Data from Fe(NO3)3@0.025M.TitratingCurve.Agarose3%dH2O.NegLispCup.LampEnergy10.LIBS07252019_HRD10591_16-55-41-336.txt Node
Date: Thu Jul 25 16:55:41 EDT 2019
User: cochatt
Spectrometer: HR+D1059
Trigger mode: 1
Integration Time (sec): 1.000000E-1
Scans to average: 1
Electric dark correction enabled: true
Nonlinearity correction enabled: false
Boxcar width: 0
XAxis mode: Wavelengths
Number of Pixels in Spectrum: 2048
>>>>>Begin Spectral Data<<<<<
223.165	-14
223.4	-14
223.635	-14
223.869	-26
224.104	-12
224.338	-25
224.573	-4
224.808	-13
225.042	-7
225.277	0
225.511	3
225.746	3
225.98	6
226.215	13
226.449	12
226.683	11
226.918	30
227.152	23
227.387	33
227.621	28
227.856	40
228.09	41
228.324	49
228.559	61
228.793	55
229.027	78
229.262	75
229.496	81
229.73	77
229.964	85
230.199	89
230.433	76
230.667	95
230.901	88
231.136	102
231.37	93
231.604	98
231.838	101
232.072	99
232.306	105
232.541	90
232.775	91
233.009	94
233.243	82
233.477	102
233.711	97
233.945	97
234.179	105
234.413	94
234.647	93
234.881	94
235.115	98
235.349	100
235.583	85
235.817	100
236.051	85
236.285	99
236.519	100
236.753	104
236.987	93
237.221	94
237.455	103
237.689	91
237.922	109
238.156	89
238.39	93
238.624	107
238.858	94
239.091	104
239.325	100
239.559	92
239.793	92
240.027	112
240.26	100
240.494	101
240.728	118
240.961	103
241.195	102
241.429	101
241.662	104
241.896	106
242.13	110
242.363	98
242.597	125
242.83	106
243.064	90
243.298	106
243.531	101
243.765	112
243.998	132
244.232	122
244.465	117
244.699	106
244.932	112
245.166	128
245.399	122
245.633	110
245.866	104
246.099	116
246.333	111
246.566	132
246.8	113
247.033	125
247.266	124
247.5	112
247.733	114
247.966	134
248.2	118
248.433	120
248.666	122
248.899	122
249.133	132
249.366	115
249.599	119
249.832	124
250.066	125
250.299	119
250.532	124
250.765	123
250.998	134
251.231	132
251.465	131
251.698	139
251.931	126
252.164	117
252.397	120
252.63	132
252.863	122
253.096	107
253.329	126
253.562	140
253.795	125
254.028	131
254.261	137
254.494	143
254.727	125
254.96	134
255.193	150
255.426	144
255.659	133
255.892	122
256.124	145
256.357	144
256.59	142
256.823	140
257.056	134
257.289	128
257.521	141
257.754	149
257.987	130
258.22	132
258.452	153
258.685	154
258.918	140
259.151	148
259.383	141
259.616	136
259.849	154
260.081	137
260.314	156
260.547	134
260.779	136
261.012	172
261.244	152
261.477	148
261.71	146
261.942	145
262.175	152
262.407	146
262.64	149
262.872	153
263.105	163
263.337	150
263.57	156
263.802	159
264.035	147
264.267	155
264.499	149
264.732	156
264.964	154
265.197	146
265.429	145
265.661	155
265.894	140
266.126	145
266.358	157
266.591	151
266.823	164
267.055	161
267.287	146
267.52	189
267.752	148
267.984	151
268.216	161
268.448	172
268.681	163
268.913	188
269.145	160
269.377	164
269.609	153
269.841	172
270.073	154
270.306	178
270.538	153
270.77	168
271.002	179
271.234	163
271.466	176
271.698	161
271.93	158
272.162	185
272.394	179
272.626	168
272.858	183
273.09	172
273.322	176
273.553	153
273.785	174
274.017	196
274.249	175
274.481	189
274.713	181
274.945	171
275.176	187
275.408	185
275.64	156
275.872	182
276.104	195
276.335	178
276.567	193
276.799	192
277.031	192
277.262	164
277.494	180
277.726	188
277.957	195
278.189	214
278.421	178
278.652	183
278.884	202
279.115	190
279.347	194
279.579	184
279.81	189
280.042	188
280.273	195
280.505	191
280.736	202
280.968	190
281.199	199
281.431	198
281.662	204
281.894	202
282.125	194
282.356	209
282.588	188
282.819	198
283.051	190
283.282	208
283.513	204
283.745	197
283.976	197
284.207	199
284.439	201
284.67	213
284.901	205
285.132	207
285.364	215
285.595	220
285.826	210
286.057	212
286.288	206
286.52	203
286.751	204
286.982	216
287.213	207
287.444	206
287.675	211
287.906	207
288.138	217
288.369	209
288.6	225
288.831	217
289.062	216
289.293	224
289.524	230
289.755	220
289.986	209
290.217	235
290.448	217
290.679	223
290.91	222
291.141	214
291.371	222
291.602	226
291.833	233
292.064	230
292.295	227
292.526	212
292.757	225
292.987	230
293.218	237
293.449	234
293.68	237
293.91	233
294.141	236
294.372	225
294.603	224
294.833	240
295.064	230
295.295	236
295.525	226
295.756	240
295.987	245
296.217	241
296.448	242
296.679	240
296.909	232
297.14	242
297.37	234
297.601	252
297.831	246
298.062	237
298.292	245
298.523	248
298.753	251
298.984	260
299.214	238
299.445	250
299.675	231
299.905	250
300.136	234
300.366	267
300.597	236
300.827	222
301.057	260
301.288	242
301.518	248
301.748	242
301.979	246
302.209	252
302.439	255
302.669	272
302.9	261
303.13	260
303.36	241
303.59	248
303.82	282
304.051	264
304.281	273
304.511	257
304.741	269
304.971	255
305.201	249
305.431	257
305.661	258
305.891	259
306.121	274
306.352	274
306.582	254
306.812	251
307.042	268
307.272	264
307.502	270
307.731	265
307.961	261
308.191	274
308.421	266
308.651	268
308.881	246
309.111	258
309.341	264
309.571	254
309.8	279
310.03	256
310.26	252
310.49	274
310.72	273
310.949	250
311.179	276
311.409	278
311.639	283
311.868	281
312.098	268
312.328	280
312.557	288
312.787	281
313.017	267
313.246	278
313.476	270
313.706	280
313.935	288
314.165	296
314.394	291
314.624	287
314.853	278
315.083	297
315.312	279
315.542	294
315.771	285
316.001	277
316.23	284
316.46	292
316.689	290
316.919	284
317.148	288
317.377	292
317.607	296
317.836	284
318.065	290
318.295	298
318.524	297
318.753	279
318.983	284
319.212	279
319.441	265
319.67	292
319.9	294
320.129	287
320.358	299
320.587	286
320.816	264
321.046	284
321.275	297
321.504	284
321.733	301
321.962	290
322.191	295
322.42	278
322.649	299
322.878	304
323.108	297
323.337	308
323.566	284
323.795	306
324.024	310
324.253	298
324.482	299
324.71	309
324.939	300
325.168	300
325.397	283
325.626	313
325.855	298
326.084	304
326.313	317
326.542	314
326.77	311
326.999	300
327.228	317
327.457	314
327.686	320
327.914	306
328.143	311
328.372	323
328.6	300
328.829	317
329.058	307
329.287	322
329.515	324
329.744	334
329.972	326
330.201	327
330.43	328
330.658	332
330.887	325
331.115	331
331.344	339
331.572	341
331.801	343
332.03	330
332.258	354
332.486	333
332.715	358
332.943	351
333.172	345
333.4	372
333.629	387
333.857	395
334.085	393
334.314	373
334.542	392
334.771	391
334.999	378
335.227	361
335.455	378
335.684	376
335.912	378
336.14	392
336.369	392
336.597	350
336.825	377
337.053	370
337.281	365
337.51	330
337.738	369
337.966	357
338.194	357
338.422	345
338.65	328
338.878	361
339.106	338
339.334	367
339.562	332
339.79	357
340.018	322
340.246	326
340.474	341
340.702	339
340.93	345
341.158	332
341.386	341
341.614	348
341.842	334
342.07	318
342.298	354
342.526	348
342.754	342
342.981	334
343.209	357
343.437	345
343.665	375
343.893	379
344.12	370
344.348	384
344.576	361
344.804	356
345.031	337
345.259	352
345.487	342
345.714	348
345.942	346
346.17	346
346.397	331
346.625	330
346.853	324
347.08	328
347.308	341
347.535	342
347.763	325
347.99	334
348.218	332
348.445	330
348.673	341
348.9	338
349.128	322
349.355	328
349.583	329
349.81	322
350.037	359
350.265	330
350.492	332
350.72	316
350.947	322
351.174	330
351.402	340
351.629	314
351.856	342
352.083	324
352.311	317
352.538	329
352.765	321
352.992	326
353.22	349
353.447	318
353.674	320
353.901	325
354.128	318
354.355	323
354.583	308
354.81	321
355.037	324
355.264	350
355.491	337
355.718	326
355.945	313
356.172	326
356.399	323
356.626	334
356.853	358
357.08	322
357.307	347
357.534	322
357.761	327
357.988	337
358.215	326
358.441	340
358.668	331
358.895	326
359.122	355
359.349	332
359.576	333
359.802	320
360.029	320
360.256	349
360.483	330
360.709	332
360.936	335
361.163	322
361.39	332
361.616	334
361.843	324
362.07	338
362.296	330
362.523	329
362.749	325
362.976	324
363.203	350
363.429	345
363.656	364
363.882	339
364.109	342
364.335	353
364.562	324
364.788	336
365.015	338
365.241	335
365.468	340
365.694	333
365.92	344
366.147	332
366.373	333
366.599	343
366.826	341
367.052	333
367.278	348
367.505	354
367.731	340
367.957	340
368.184	352
368.41	347
368.636	322
368.862	355
369.089	358
369.315	355
369.541	346
369.767	347
369.993	362
370.219	340
370.445	360
370.672	373
370.898	362
371.124	357
371.35	337
371.576	368
371.802	348
372.028	372
372.254	386
372.48	385
372.706	358
372.932	370
373.158	376
373.384	381
373.61	388
373.835	373
374.061	353
374.287	384
374.513	378
374.739	403
374.965	400
375.191	394
375.416	376
375.642	370
375.868	379
376.094	369
376.319	360
376.545	354
376.771	376
376.997	368
377.222	363
377.448	357
377.674	370
377.899	345
378.125	358
378.35	366
378.576	351
378.802	341
379.027	371
379.253	353
379.478	345
379.704	346
379.929	373
380.155	372
380.38	391
380.606	390
380.831	369
381.057	381
381.282	361
381.507	372
381.733	380
381.958	389
382.184	376
382.409	376
382.634	381
382.86	379
383.085	365
383.31	386
383.535	416
383.761	395
383.986	381
384.211	394
384.436	415
384.662	391
384.887	401
385.112	395
385.337	412
385.562	397
385.787	402
386.013	436
386.238	433
386.463	419
386.688	417
386.913	395
387.138	405
387.363	416
387.588	402
387.813	427
388.038	425
388.263	433
388.488	440
388.713	420
388.938	425
389.163	418
389.387	421
389.612	412
389.837	426
390.062	408
390.287	440
390.512	420
390.736	438
390.961	426
391.186	458
391.411	453
391.636	436
391.86	458
392.085	482
392.31	462
392.534	443
392.759	452
392.984	457
393.208	439
393.433	461
393.658	437
393.882	437
394.107	447
394.331	444
394.556	436
394.78	453
395.005	444
395.229	457
395.454	463
395.678	464
395.903	455
396.127	466
396.352	482
396.576	448
396.801	472
397.025	482
397.249	475
397.474	469
397.698	494
397.922	476
398.147	477
398.371	511
398.595	502
398.82	519
399.044	539
399.268	557
399.492	580
399.717	626
399.941	622
400.165	610
400.389	592
400.613	565
400.837	538
401.062	540
401.286	519
401.51	516
401.734	474
401.958	538
402.182	518
402.406	528
402.63	501
402.854	509
403.078	515
403.302	521
403.526	541
403.75	514
403.974	532
404.198	521
404.422	526
404.645	549
404.869	541
405.093	525
405.317	535
405.541	527
405.765	535
405.988	529
406.212	528
406.436	542
406.66	548
406.883	551
407.107	573
407.331	604
407.555	625
407.778	598
408.002	572
408.226	564
408.449	565
408.673	584
408.896	546
409.12	556
409.344	542
409.567	541
409.791	550
410.014	545
410.238	522
410.461	544
410.685	523
410.908	542
411.132	512
411.355	515
411.578	530
411.802	509
412.025	537
412.249	525
412.472	524
412.695	548
412.919	513
413.142	514
413.365	516
413.589	525
413.812	520
414.035	508
414.258	509
414.482	526
414.705	533
414.928	500
415.151	491
415.374	499
415.597	503
415.821	499
416.044	508
416.267	506
416.49	502
416.713	499
416.936	503
417.159	485
417.382	492
417.605	489
417.828	496
418.051	478
418.274	501
418.497	496
418.72	523
418.943	496
419.166	512
419.389	530
419.611	532
419.834	504
420.057	509
420.28	461
420.503	458
420.726	481
420.948	487
421.171	468
421.394	498
421.617	470
421.839	482
422.062	480
422.285	501
422.507	492
422.73	466
422.953	473
423.175	485
423.398	500
423.621	457
423.843	471
424.066	494
424.288	504
424.511	488
424.733	502
424.956	485
425.178	487
425.401	501
425.623	474
425.846	485
426.068	480
426.291	469
426.513	466
426.735	468
426.958	476
427.18	470
427.402	484
427.625	459
427.847	447
428.069	458
428.292	484
428.514	461
428.736	440
428.958	451
429.181	466
429.403	460
429.625	433
429.847	428
430.069	466
430.292	450
430.514	421
430.736	441
430.958	456
431.18	450
431.402	461
431.624	465
431.846	438
432.068	429
432.29	447
432.512	452
432.734	457
432.956	474
433.178	460
433.4	464
433.622	453
433.844	451
434.066	456
434.287	454
434.509	490
434.731	474
434.953	474
435.175	480
435.397	498
435.618	473
435.84	462
436.062	451
436.284	451
436.505	457
436.727	441
436.949	428
437.17	428
437.392	446
437.614	452
437.835	440
438.057	440
438.278	435
438.5	424
438.721	440
438.943	431
439.165	412
439.386	432
439.608	464
439.829	456
440.05	484
440.272	445
440.493	440
440.715	460
440.936	451
441.158	448
441.379	458
441.6	483
441.822	480
442.043	464
442.264	484
442.486	489
442.707	472
442.928	453
443.149	477
443.371	483
443.592	454
443.813	504
444.034	510
444.255	492
444.476	480
444.698	516
444.919	515
445.14	599
445.361	541
445.582	482
445.803	483
446.024	461
446.245	466
446.466	471
446.687	464
446.908	434
447.129	430
447.35	460
447.571	440
447.792	426
448.013	411
448.234	432
448.455	418
448.675	418
448.896	400
449.117	429
449.338	405
449.559	410
449.779	410
450	408
450.221	423
450.442	426
450.662	407
450.883	402
451.104	396
451.324	409
451.545	411
451.766	399
451.986	400
452.207	410
452.428	398
452.648	393
452.869	390
453.089	400
453.31	406
453.53	401
453.751	394
453.971	394
454.192	398
454.412	418
454.633	415
454.853	381
455.073	374
455.294	404
455.514	378
455.734	392
455.955	387
456.175	394
456.395	380
456.616	395
456.836	399
457.056	398
457.276	402
457.497	386
457.717	388
457.937	402
458.157	396
458.377	411
458.598	417
458.818	428
459.038	413
459.258	449
459.478	450
459.698	459
459.918	476
460.138	465
460.358	473
460.578	509
460.798	494
461.018	503
461.238	466
461.458	486
461.678	489
461.898	480
462.118	518
462.338	537
462.558	537
462.777	554
462.997	567
463.217	574
463.437	588
463.657	550
463.876	555
464.096	554
464.316	537
464.536	548
464.755	537
464.975	538
465.195	496
465.414	491
465.634	464
465.854	458
466.073	476
466.293	441
466.512	448
466.732	438
466.951	430
467.171	449
467.391	428
467.61	422
467.829	433
468.049	439
468.268	425
468.488	418
468.707	436
468.927	432
469.146	417
469.365	426
469.585	446
469.804	422
470.023	446
470.243	452
470.462	454
470.681	450
470.901	441
471.12	427
471.339	438
471.558	437
471.777	433
471.997	435
472.216	434
472.435	437
472.654	411
472.873	416
473.092	427
473.311	435
473.53	438
473.749	408
473.968	433
474.187	432
474.406	421
474.625	435
474.844	431
475.063	429
475.282	442
475.501	456
475.72	452
475.939	444
476.158	464
476.377	443
476.596	459
476.814	451
477.033	465
477.252	462
477.471	465
477.69	483
477.908	504
478.127	491
478.346	477
478.564	478
478.783	492
479.002	501
479.22	487
479.439	502
479.658	525
479.876	511
480.095	518
480.313	520
480.532	526
480.751	502
480.969	515
481.188	512
481.406	513
481.624	515
481.843	499
482.061	504
482.28	497
482.498	498
482.717	497
482.935	480
483.153	464
483.372	499
483.59	512
483.808	494
484.027	498
484.245	500
484.463	479
484.681	510
484.9	488
485.118	529
485.336	492
485.554	486
485.772	493
485.99	498
486.209	495
486.427	521
486.645	492
486.863	491
487.081	483
487.299	517
487.517	514
487.735	489
487.953	510
488.171	518
488.389	493
488.607	496
488.825	516
489.043	489
489.261	500
489.479	514
489.696	502
489.914	500
490.132	526
490.35	521
490.568	521
490.786	505
491.003	496
491.221	532
491.439	511
491.657	508
491.874	511
492.092	516
492.31	520
492.527	516
492.745	525
492.963	525
493.18	534
493.398	540
493.615	534
493.833	541
494.05	534
494.268	533
494.485	530
494.703	560
494.92	521
495.138	530
495.355	542
495.573	537
495.79	561
496.008	561
496.225	569
496.442	572
496.66	582
496.877	596
497.094	572
497.312	591
497.529	610
497.746	632
497.963	646
498.181	657
498.398	710
498.615	707
498.832	743
499.049	772
499.267	804
499.484	857
499.701	902
499.918	924
500.135	966
500.352	1045
500.569	1033
500.786	1046
501.003	1009
501.22	965
501.437	939
501.654	863
501.871	847
502.088	794
502.305	726
502.522	670
502.739	685
502.956	670
503.172	654
503.389	642
503.606	618
503.823	624
504.04	609
504.256	617
504.473	601
504.69	567
504.907	577
505.123	572
505.34	554
505.557	564
505.773	516
505.99	524
506.207	532
506.423	517
506.64	504
506.856	500
507.073	483
507.289	497
507.506	496
507.722	477
507.939	454
508.155	468
508.372	484
508.588	462
508.805	470
509.021	468
509.238	448
509.454	452
509.67	456
509.887	459
510.103	450
510.319	437
510.536	461
510.752	444
510.968	444
511.184	454
511.401	452
511.617	448
511.833	456
512.049	434
512.265	436
512.481	445
512.698	442
512.914	448
513.13	450
513.346	457
513.562	443
513.778	466
513.994	445
514.21	451
514.426	458
514.642	454
514.858	461
515.074	456
515.29	482
515.506	451
515.721	459
515.937	461
516.153	477
516.369	497
516.585	482
516.801	490
517.016	492
517.232	541
517.448	534
517.664	514
517.879	532
518.095	533
518.311	540
518.527	513
518.742	501
518.958	514
519.173	500
519.389	470
519.605	485
519.82	483
520.036	456
520.251	460
520.467	466
520.682	454
520.898	428
521.113	455
521.329	445
521.544	429
521.76	427
521.975	433
522.19	406
522.406	429
522.621	427
522.836	431
523.052	461
523.267	420
523.482	430
523.698	426
523.913	400
524.128	428
524.343	418
524.559	410
524.774	406
524.989	412
525.204	419
525.419	408
525.634	395
525.849	421
526.064	410
526.28	414
526.495	404
526.71	392
526.925	423
527.14	409
527.355	403
527.57	402
527.785	404
527.999	403
528.214	402
528.429	393
528.644	400
528.859	412
529.074	425
529.289	388
529.503	391
529.718	397
529.933	381
530.148	418
530.363	408
530.577	393
530.792	402
531.007	388
531.221	411
531.436	382
531.651	404
531.865	416
532.08	409
532.295	389
532.509	409
532.724	394
532.938	397
533.153	399
533.367	391
533.582	393
533.796	395
534.011	394
534.225	394
534.44	409
534.654	402
534.868	394
535.083	402
535.297	404
535.511	379
535.726	422
535.94	385
536.154	394
536.369	389
536.583	378
536.797	390
537.011	376
537.225	390
537.44	384
537.654	392
537.868	375
538.082	380
538.296	374
538.51	388
538.724	369
538.938	382
539.153	375
539.367	376
539.581	388
539.795	364
540.009	342
540.222	359
540.436	367
540.65	351
540.864	379
541.078	356
541.292	379
541.506	374
541.72	365
541.934	368
542.147	368
542.361	377
542.575	382
542.789	348
543.002	388
543.216	376
543.43	386
543.644	366
543.857	357
544.071	372
544.285	357
544.498	360
544.712	369
544.925	359
545.139	366
545.352	370
545.566	374
545.779	382
545.993	395
546.206	370
546.42	370
546.633	394
546.847	380
547.06	388
547.274	370
547.487	384
547.7	392
547.914	373
548.127	375
548.34	377
548.554	366
548.767	378
548.98	392
549.193	387
549.407	392
549.62	392
549.833	375
550.046	380
550.259	370
550.473	369
550.686	381
550.899	376
551.112	381
551.325	359
551.538	370
551.751	387
551.964	388
552.177	387
552.39	375
552.603	396
552.816	393
553.029	384
553.242	419
553.455	416
553.667	397
553.88	410
554.093	380
554.306	376
554.519	375
554.732	376
554.944	364
555.157	351
555.37	370
555.583	368
555.795	352
556.008	338
556.221	347
556.433	341
556.646	364
556.859	340
557.071	345
557.284	341
557.496	318
557.709	330
557.921	330
558.134	340
558.346	334
558.559	352
558.771	326
558.984	329
559.196	312
559.409	313
559.621	329
559.833	349
560.046	327
560.258	321
560.47	335
560.683	324
560.895	339
561.107	325
561.32	320
561.532	340
561.744	319
561.956	336
562.168	325
562.381	346
562.593	324
562.805	334
563.017	310
563.229	325
563.441	329
563.653	342
