Data from Fe(NO3)3@0.05M.TitratingCurve.Agarose3%dH2O.NegLispCup.LampEnergy10.LIBS07252019_HRD10591_16-46-30-334.txt Node
Date: Thu Jul 25 16:46:30 EDT 2019
User: cochatt
Spectrometer: HR+D1059
Trigger mode: 1
Integration Time (sec): 1.000000E-1
Scans to average: 1
Electric dark correction enabled: true
Nonlinearity correction enabled: false
Boxcar width: 0
XAxis mode: Wavelengths
Number of Pixels in Spectrum: 2048
>>>>>Begin Spectral Data<<<<<
223.165	-9.94
223.4	-9.94
223.635	-9.94
223.869	-18.94
224.104	-13.94
224.338	-19.94
224.573	-16.94
224.808	-2.94
225.042	-6.94
225.277	-5.94
225.511	-10.94
225.746	-3.94
225.98	3.06
226.215	3.06
226.449	17.06
226.683	19.06
226.918	26.06
227.152	42.06
227.387	33.06
227.621	40.06
227.856	47.06
228.09	53.06
228.324	62.06
228.559	43.06
228.793	78.06
229.027	104.06
229.262	100.06
229.496	115.06
229.73	105.06
229.964	115.06
230.199	121.06
230.433	123.06
230.667	127.06
230.901	139.06
231.136	127.06
231.37	140.06
231.604	133.06
231.838	142.06
232.072	136.06
232.306	128.06
232.541	142.06
232.775	152.06
233.009	161.06
233.243	153.06
233.477	148.06
233.711	155.06
233.945	142.06
234.179	155.06
234.413	143.06
234.647	151.06
234.881	173.06
235.115	162.06
235.349	157.06
235.583	152.06
235.817	145.06
236.051	161.06
236.285	177.06
236.519	178.06
236.753	161.06
236.987	167.06
237.221	181.06
237.455	173.06
237.689	161.06
237.922	155.06
238.156	165.06
238.39	191.06
238.624	201.06
238.858	191.06
239.091	186.06
239.325	173.06
239.559	182.06
239.793	195.06
240.027	196.06
240.26	199.06
240.494	189.06
240.728	190.06
240.961	185.06
241.195	197.06
241.429	199.06
241.662	198.06
241.896	200.06
242.13	183.06
242.363	197.06
242.597	197.06
242.83	213.06
243.064	189.06
243.298	205.06
243.531	205.06
243.765	222.06
243.998	215.06
244.232	194.06
244.465	203.06
244.699	237.06
244.932	215.06
245.166	219.06
245.399	210.06
245.633	211.06
245.866	219.06
246.099	214.06
246.333	220.06
246.566	233.06
246.8	221.06
247.033	247.06
247.266	230.06
247.5	241.06
247.733	230.06
247.966	230.06
248.2	243.06
248.433	237.06
248.666	245.06
248.899	253.06
249.133	245.06
249.366	271.06
249.599	245.06
249.832	257.06
250.066	251.06
250.299	266.06
250.532	256.06
250.765	241.06
250.998	240.06
251.231	258.06
251.465	277.06
251.698	261.06
251.931	271.06
252.164	264.06
252.397	263.06
252.63	272.06
252.863	295.06
253.096	288.06
253.329	266.06
253.562	286.06
253.795	299.06
254.028	318.06
254.261	292.06
254.494	285.06
254.727	274.06
254.96	277.06
255.193	293.06
255.426	305.06
255.659	285.06
255.892	296.06
256.124	289.06
256.357	300.06
256.59	302.06
256.823	276.06
257.056	291.06
257.289	303.06
257.521	288.06
257.754	276.06
257.987	299.06
258.22	301.06
258.452	295.06
258.685	318.06
258.918	319.06
259.151	320.06
259.383	309.06
259.616	310.06
259.849	319.06
260.081	370.06
260.314	377.06
260.547	327.06
260.779	341.06
261.012	343.06
261.244	343.06
261.477	343.06
261.71	348.06
261.942	319.06
262.175	328.06
262.407	331.06
262.64	335.06
262.872	360.06
263.105	367.06
263.337	380.06
263.57	367.06
263.802	333.06
264.035	361.06
264.267	322.06
264.499	341.06
264.732	332.06
264.964	325.06
265.197	328.06
265.429	327.06
265.661	337.06
265.894	329.06
266.126	325.06
266.358	328.06
266.591	340.06
266.823	358.06
267.055	353.06
267.287	354.06
267.52	348.06
267.752	354.06
267.984	353.06
268.216	340.06
268.448	354.06
268.681	356.06
268.913	355.06
269.145	379.06
269.377	358.06
269.609	379.06
269.841	363.06
270.073	373.06
270.306	379.06
270.538	379.06
270.77	369.06
271.002	358.06
271.234	372.06
271.466	360.06
271.698	369.06
271.93	405.06
272.162	391.06
272.394	388.06
272.626	386.06
272.858	405.06
273.09	407.06
273.322	400.06
273.553	389.06
273.785	420.06
274.017	411.06
274.249	443.06
274.481	451.06
274.713	483.06
274.945	483.06
275.176	487.06
275.408	485.06
275.64	452.06
275.872	459.06
276.104	456.06
276.335	412.06
276.567	403.06
276.799	394.06
277.031	436.06
277.262	421.06
277.494	426.06
277.726	419.06
277.957	398.06
278.189	439.06
278.421	438.06
278.652	417.06
278.884	447.06
279.115	406.06
279.347	430.06
279.579	412.06
279.81	414.06
280.042	423.06
280.273	424.06
280.505	413.06
280.736	443.06
280.968	434.06
281.199	449.06
281.431	424.06
281.662	454.06
281.894	447.06
282.125	436.06
282.356	457.06
282.588	458.06
282.819	447.06
283.051	434.06
283.282	446.06
283.513	449.06
283.745	459.06
283.976	445.06
284.207	467.06
284.439	479.06
284.67	470.06
284.901	461.06
285.132	467.06
285.364	469.06
285.595	477.06
285.826	470.06
286.057	489.06
286.288	476.06
286.52	490.06
286.751	474.06
286.982	484.06
287.213	483.06
287.444	482.06
287.675	487.06
287.906	476.06
288.138	468.06
288.369	483.06
288.6	479.06
288.831	498.06
289.062	499.06
289.293	502.06
289.524	489.06
289.755	486.06
289.986	479.06
290.217	482.06
290.448	474.06
290.679	488.06
290.91	491.06
291.141	481.06
291.371	482.06
291.602	487.06
291.833	491.06
292.064	474.06
292.295	500.06
292.526	489.06
292.757	504.06
292.987	499.06
293.218	493.06
293.449	504.06
293.68	492.06
293.91	497.06
294.141	484.06
294.372	509.06
294.603	501.06
294.833	508.06
295.064	519.06
295.295	499.06
295.525	494.06
295.756	511.06
295.987	498.06
296.217	510.06
296.448	524.06
296.679	501.06
296.909	519.06
297.14	515.06
297.37	523.06
297.601	533.06
297.831	506.06
298.062	520.06
298.292	512.06
298.523	553.06
298.753	546.06
298.984	540.06
299.214	538.06
299.445	539.06
299.675	522.06
299.905	537.06
300.136	545.06
300.366	548.06
300.597	553.06
300.827	555.06
301.057	562.06
301.288	557.06
301.518	549.06
301.748	527.06
301.979	562.06
302.209	589.06
302.439	567.06
302.669	541.06
302.9	584.06
303.13	565.06
303.36	584.06
303.59	556.06
303.82	542.06
304.051	541.06
304.281	569.06
304.511	570.06
304.741	565.06
304.971	572.06
305.201	572.06
305.431	550.06
305.661	569.06
305.891	579.06
306.121	558.06
306.352	562.06
306.582	555.06
306.812	549.06
307.042	590.06
307.272	553.06
307.502	566.06
307.731	573.06
307.961	574.06
308.191	567.06
308.421	571.06
308.651	572.06
308.881	566.06
309.111	581.06
309.341	561.06
309.571	585.06
309.8	574.06
310.03	548.06
310.26	556.06
310.49	583.06
310.72	593.06
310.949	582.06
311.179	584.06
311.409	574.06
311.639	579.06
311.868	579.06
312.098	580.06
312.328	594.06
312.557	611.06
312.787	599.06
313.017	594.06
313.246	595.06
313.476	602.06
313.706	614.06
313.935	574.06
314.165	607.06
314.394	607.06
314.624	596.06
314.853	589.06
315.083	606.06
315.312	617.06
315.542	606.06
315.771	593.06
316.001	613.06
316.23	621.06
316.46	643.06
316.689	619.06
316.919	639.06
317.148	630.06
317.377	611.06
317.607	618.06
317.836	595.06
318.065	611.06
318.295	629.06
318.524	638.06
318.753	621.06
318.983	612.06
319.212	617.06
319.441	617.06
319.67	630.06
319.9	608.06
320.129	617.06
320.358	634.06
320.587	625.06
320.816	609.06
321.046	605.06
321.275	639.06
321.504	621.06
321.733	621.06
321.962	636.06
322.191	633.06
322.42	631.06
322.649	636.06
322.878	635.06
323.108	629.06
323.337	646.06
323.566	649.06
323.795	646.06
324.024	641.06
324.253	637.06
324.482	651.06
324.71	625.06
324.939	664.06
325.168	661.06
325.397	673.06
325.626	657.06
325.855	673.06
326.084	669.06
326.313	656.06
326.542	657.06
326.77	681.06
326.999	650.06
327.228	673.06
327.457	642.06
327.686	654.06
327.914	671.06
328.143	669.06
328.372	663.06
328.6	653.06
328.829	654.06
329.058	683.06
329.287	674.06
329.515	685.06
329.744	674.06
329.972	671.06
330.201	689.06
330.43	679.06
330.658	666.06
330.887	687.06
331.115	709.06
331.344	696.06
331.572	700.06
331.801	699.06
332.03	703.06
332.258	723.06
332.486	733.06
332.715	729.06
332.943	756.06
333.172	754.06
333.4	775.06
333.629	757.06
333.857	785.06
334.085	762.06
334.314	797.06
334.542	783.06
334.771	794.06
334.999	778.06
335.227	812.06
335.455	821.06
335.684	798.06
335.912	780.06
336.14	790.06
336.369	798.06
336.597	804.06
336.825	766.06
337.053	759.06
337.281	759.06
337.51	784.06
337.738	806.06
337.966	743.06
338.194	728.06
338.422	750.06
338.65	714.06
338.878	754.06
339.106	749.06
339.334	751.06
339.562	729.06
339.79	734.06
340.018	745.06
340.246	707.06
340.474	731.06
340.702	719.06
340.93	725.06
341.158	698.06
341.386	706.06
341.614	730.06
341.842	710.06
342.07	702.06
342.298	723.06
342.526	736.06
342.754	702.06
342.981	714.06
343.209	713.06
343.437	718.06
343.665	738.06
343.893	771.06
344.12	773.06
344.348	776.06
344.576	750.06
344.804	746.06
345.031	730.06
345.259	730.06
345.487	748.06
345.714	708.06
345.942	718.06
346.17	713.06
346.397	709.06
346.625	702.06
346.853	693.06
347.08	702.06
347.308	701.06
347.535	712.06
347.763	686.06
347.99	689.06
348.218	694.06
348.445	715.06
348.673	683.06
348.9	699.06
349.128	691.06
349.355	699.06
349.583	688.06
349.81	695.06
350.037	653.06
350.265	675.06
350.492	685.06
350.72	669.06
350.947	670.06
351.174	653.06
351.402	655.06
351.629	704.06
351.856	691.06
352.083	673.06
352.311	691.06
352.538	661.06
352.765	674.06
352.992	693.06
353.22	655.06
353.447	679.06
353.674	669.06
353.901	674.06
354.128	691.06
354.355	655.06
354.583	676.06
354.81	665.06
355.037	675.06
355.264	689.06
355.491	665.06
355.718	667.06
355.945	675.06
356.172	703.06
356.399	702.06
356.626	659.06
356.853	695.06
357.08	695.06
357.307	703.06
357.534	681.06
357.761	683.06
357.988	705.06
358.215	691.06
358.441	693.06
358.668	685.06
358.895	684.06
359.122	681.06
359.349	680.06
359.576	675.06
359.802	693.06
360.029	639.06
360.256	693.06
360.483	699.06
360.709	697.06
360.936	709.06
361.163	709.06
361.39	683.06
361.616	676.06
361.843	672.06
362.07	694.06
362.296	705.06
362.523	694.06
362.749	683.06
362.976	710.06
363.203	713.06
363.429	702.06
363.656	711.06
363.882	678.06
364.109	706.06
364.335	705.06
364.562	714.06
364.788	697.06
365.015	696.06
365.241	699.06
365.468	715.06
365.694	689.06
365.92	699.06
366.147	697.06
366.373	713.06
366.599	701.06
366.826	711.06
367.052	682.06
367.278	681.06
367.505	716.06
367.731	708.06
367.957	705.06
368.184	725.06
368.41	714.06
368.636	715.06
368.862	729.06
369.089	726.06
369.315	708.06
369.541	725.06
369.767	723.06
369.993	734.06
370.219	722.06
370.445	757.06
370.672	753.06
370.898	756.06
371.124	765.06
371.35	765.06
371.576	739.06
371.802	746.06
372.028	771.06
372.254	750.06
372.48	743.06
372.706	746.06
372.932	773.06
373.158	769.06
373.384	785.06
373.61	803.06
373.835	776.06
374.061	750.06
374.287	763.06
374.513	771.06
374.739	815.06
374.965	805.06
375.191	788.06
375.416	788.06
375.642	772.06
375.868	763.06
376.094	765.06
376.319	765.06
376.545	774.06
376.771	759.06
376.997	778.06
377.222	757.06
377.448	771.06
377.674	736.06
377.899	755.06
378.125	770.06
378.35	743.06
378.576	760.06
378.802	771.06
379.027	762.06
379.253	740.06
379.478	767.06
379.704	756.06
379.929	770.06
380.155	774.06
380.38	759.06
380.606	765.06
380.831	742.06
381.057	759.06
381.282	763.06
381.507	766.06
381.733	791.06
381.958	775.06
382.184	766.06
382.409	824.06
382.634	843.06
382.86	812.06
383.085	818.06
383.31	805.06
383.535	804.06
383.761	807.06
383.986	817.06
384.211	817.06
384.436	864.06
384.662	847.06
384.887	832.06
385.112	861.06
385.337	854.06
385.562	876.06
385.787	851.06
386.013	902.06
386.238	921.06
386.463	872.06
386.688	888.06
386.913	868.06
387.138	899.06
387.363	892.06
387.588	889.06
387.813	887.06
388.038	909.06
388.263	915.06
388.488	885.06
388.713	894.06
388.938	889.06
389.163	876.06
389.387	915.06
389.612	885.06
389.837	897.06
390.062	895.06
390.287	918.06
390.512	895.06
390.736	883.06
390.961	895.06
391.186	933.06
391.411	961.06
391.636	974.06
391.86	935.06
392.085	976.06
392.31	947.06
392.534	936.06
392.759	957.06
392.984	921.06
393.208	934.06
393.433	950.06
393.658	943.06
393.882	958.06
394.107	908.06
394.331	949.06
394.556	919.06
394.78	958.06
395.005	943.06
395.229	934.06
395.454	968.06
395.678	959.06
395.903	979.06
396.127	986.06
396.352	951.06
396.576	976.06
396.801	947.06
397.025	995.06
397.249	978.06
397.474	1012.06
397.698	997.06
397.922	1026.06
398.147	1025.06
398.371	1007.06
398.595	1062.06
398.82	1102.06
399.044	1102.06
399.268	1138.06
399.492	1194.06
399.717	1253.06
399.941	1284.06
400.165	1239.06
400.389	1232.06
400.613	1151.06
400.837	1152.06
401.062	1106.06
401.286	1113.06
401.51	1103.06
401.734	1071.06
401.958	1082.06
402.182	1087.06
402.406	1106.06
402.63	1070.06
402.854	1085.06
403.078	1058.06
403.302	1098.06
403.526	1115.06
403.75	1115.06
403.974	1104.06
404.198	1092.06
404.422	1100.06
404.645	1139.06
404.869	1098.06
405.093	1091.06
405.317	1107.06
405.541	1155.06
405.765	1142.06
405.988	1122.06
406.212	1148.06
406.436	1160.06
406.66	1181.06
406.883	1156.06
407.107	1201.06
407.331	1218.06
407.555	1241.06
407.778	1259.06
408.002	1236.06
408.226	1244.06
408.449	1241.06
408.673	1196.06
408.896	1185.06
409.12	1197.06
409.344	1201.06
409.567	1170.06
409.791	1165.06
410.014	1142.06
410.238	1171.06
410.461	1163.06
410.685	1123.06
410.908	1148.06
411.132	1112.06
411.355	1114.06
411.578	1114.06
411.802	1131.06
412.025	1142.06
412.249	1153.06
412.472	1119.06
412.695	1107.06
412.919	1116.06
413.142	1103.06
413.365	1111.06
413.589	1103.06
413.812	1091.06
414.035	1091.06
414.258	1068.06
414.482	1087.06
414.705	1108.06
414.928	1071.06
415.151	1085.06
415.374	1092.06
415.597	1090.06
415.821	1057.06
416.044	1045.06
416.267	1061.06
416.49	1063.06
416.713	1047.06
416.936	1099.06
417.159	1043.06
417.382	1023.06
417.605	1042.06
417.828	1042.06
418.051	1085.06
418.274	1057.06
418.497	1012.06
418.72	1044.06
418.943	1045.06
419.166	1082.06
419.389	1179.06
419.611	1168.06
419.834	1098.06
420.057	1067.06
420.28	1066.06
420.503	1045.06
420.726	1057.06
420.948	1031.06
421.171	1036.06
421.394	1047.06
421.617	1022.06
421.839	1038.06
422.062	1032.06
422.285	1047.06
422.507	1039.06
422.73	1036.06
422.953	1006.06
423.175	1042.06
423.398	1049.06
423.621	1026.06
423.843	1070.06
424.066	1049.06
424.288	1041.06
424.511	1021.06
424.733	1034.06
424.956	1028.06
425.178	1010.06
425.401	1061.06
425.623	1041.06
425.846	1002.06
426.068	1037.06
426.291	1039.06
426.513	1031.06
426.735	994.06
426.958	1000.06
427.18	996.06
427.402	1011.06
427.625	994.06
427.847	972.06
428.069	982.06
428.292	1023.06
428.514	997.06
428.736	994.06
428.958	1005.06
429.181	955.06
429.403	983.06
429.625	986.06
429.847	970.06
430.069	966.06
430.292	1005.06
430.514	986.06
430.736	970.06
430.958	957.06
431.18	970.06
431.402	998.06
431.624	966.06
431.846	993.06
432.068	967.06
432.29	987.06
432.512	996.06
432.734	1001.06
432.956	984.06
433.178	990.06
433.4	998.06
433.622	1009.06
433.844	995.06
434.066	1005.06
434.287	981.06
434.509	1053.06
434.731	1029.06
434.953	1013.06
435.175	1011.06
435.397	1021.06
435.618	1007.06
435.84	1006.06
436.062	952.06
436.284	1002.06
436.505	974.06
436.727	973.06
436.949	979.06
437.17	978.06
437.392	960.06
437.614	981.06
437.835	951.06
438.057	938.06
438.278	948.06
438.5	965.06
438.721	981.06
438.943	961.06
439.165	938.06
439.386	983.06
439.608	988.06
439.829	993.06
440.05	964.06
440.272	986.06
440.493	998.06
440.715	1011.06
440.936	991.06
441.158	1019.06
441.379	1027.06
441.6	1032.06
441.822	1048.06
442.043	1011.06
442.264	1014.06
442.486	1006.06
442.707	1022.06
442.928	1025.06
443.149	991.06
443.371	976.06
443.592	1015.06
443.813	1029.06
444.034	1039.06
444.255	1079.06
444.476	1068.06
444.698	1078.06
444.919	1086.06
445.14	1193.06
445.361	1088.06
445.582	1043.06
445.803	1033.06
446.024	994.06
446.245	994.06
446.466	1026.06
446.687	967.06
446.908	1009.06
447.129	973.06
447.35	974.06
447.571	966.06
447.792	941.06
448.013	973.06
448.234	920.06
448.455	923.06
448.675	923.06
448.896	933.06
449.117	912.06
449.338	910.06
449.559	916.06
449.779	917.06
450	898.06
450.221	891.06
450.442	899.06
450.662	890.06
450.883	890.06
451.104	907.06
451.324	899.06
451.545	900.06
451.766	907.06
451.986	913.06
452.207	899.06
452.428	909.06
452.648	854.06
452.869	854.06
453.089	868.06
453.31	867.06
453.53	860.06
453.751	874.06
453.971	870.06
454.192	864.06
454.412	862.06
454.633	847.06
454.853	854.06
455.073	863.06
455.294	875.06
455.514	879.06
455.734	860.06
455.955	857.06
456.175	845.06
456.395	867.06
456.616	842.06
456.836	863.06
457.056	872.06
457.276	866.06
457.497	872.06
457.717	825.06
457.937	859.06
458.157	882.06
458.377	884.06
458.598	898.06
458.818	918.06
459.038	929.06
459.258	926.06
459.478	979.06
459.698	982.06
459.918	995.06
460.138	1013.06
460.358	1017.06
460.578	1005.06
460.798	1050.06
461.018	1069.06
461.238	1057.06
461.458	1037.06
461.678	1093.06
461.898	1078.06
462.118	1113.06
462.338	1135.06
462.558	1107.06
462.777	1164.06
462.997	1182.06
463.217	1199.06
463.437	1240.06
463.657	1178.06
463.876	1193.06
464.096	1198.06
464.316	1131.06
464.536	1126.06
464.755	1146.06
464.975	1123.06
465.195	1099.06
465.414	1040.06
465.634	1037.06
465.854	1021.06
466.073	986.06
466.293	986.06
466.512	971.06
466.732	974.06
466.951	963.06
467.171	959.06
467.391	980.06
467.61	955.06
467.829	965.06
468.049	933.06
468.268	950.06
468.488	922.06
468.707	909.06
468.927	943.06
469.146	930.06
469.365	913.06
469.585	943.06
469.804	949.06
470.023	974.06
470.243	945.06
470.462	955.06
470.681	951.06
470.901	968.06
471.12	966.06
471.339	942.06
471.558	969.06
471.777	985.06
471.997	918.06
472.216	954.06
472.435	965.06
472.654	911.06
472.873	938.06
473.092	927.06
473.311	943.06
473.53	944.06
473.749	937.06
473.968	958.06
474.187	917.06
474.406	950.06
474.625	935.06
474.844	976.06
475.063	935.06
475.282	960.06
475.501	957.06
475.72	983.06
475.939	985.06
476.158	976.06
476.377	990.06
476.596	1050.06
476.814	1046.06
477.033	1005.06
477.252	1028.06
477.471	1033.06
477.69	1014.06
477.908	1049.06
478.127	1086.06
478.346	1064.06
478.564	1090.06
478.783	1113.06
479.002	1084.06
479.22	1126.06
479.439	1179.06
479.658	1153.06
479.876	1129.06
480.095	1149.06
480.313	1173.06
480.532	1138.06
480.751	1164.06
480.969	1147.06
481.188	1143.06
481.406	1166.06
481.624	1149.06
481.843	1129.06
482.061	1111.06
482.28	1120.06
482.498	1151.06
482.717	1093.06
482.935	1111.06
483.153	1114.06
483.372	1126.06
483.59	1122.06
483.808	1117.06
484.027	1102.06
484.245	1109.06
484.463	1140.06
484.681	1145.06
484.9	1140.06
485.118	1133.06
485.336	1127.06
485.554	1117.06
485.772	1129.06
485.99	1135.06
486.209	1159.06
486.427	1147.06
486.645	1151.06
486.863	1160.06
487.081	1150.06
487.299	1135.06
487.517	1149.06
487.735	1141.06
487.953	1165.06
488.171	1172.06
488.389	1173.06
488.607	1143.06
488.825	1152.06
489.043	1134.06
489.261	1155.06
489.479	1139.06
489.696	1125.06
489.914	1128.06
490.132	1147.06
490.35	1147.06
490.568	1150.06
490.786	1135.06
491.003	1142.06
491.221	1181.06
491.439	1186.06
491.657	1171.06
491.874	1165.06
492.092	1195.06
492.31	1207.06
492.527	1186.06
492.745	1171.06
492.963	1165.06
493.18	1170.06
493.398	1201.06
493.615	1185.06
493.833	1198.06
494.05	1165.06
494.268	1230.06
494.485	1193.06
494.703	1220.06
494.92	1229.06
495.138	1196.06
495.355	1205.06
495.573	1225.06
495.79	1202.06
496.008	1282.06
496.225	1251.06
496.442	1241.06
496.66	1269.06
496.877	1291.06
497.094	1274.06
497.312	1304.06
497.529	1326.06
