Data from Fe(NO3)3@0.1M.TitratingCurve.Agarose3%dH2O.NegLispCup.LampEnergy10.LIBS07252019_HRD10591_16-37-49-331.txt Node
Date: Thu Jul 25 16:37:49 EDT 2019
User: cochatt
Spectrometer: HR+D1059
Trigger mode: 1
Integration Time (sec): 1.000000E-1
Scans to average: 1
Electric dark correction enabled: true
Nonlinearity correction enabled: false
Boxcar width: 0
XAxis mode: Wavelengths
Number of Pixels in Spectrum: 2048
>>>>>Begin Spectral Data<<<<<
223.165	-11.06
223.4	-11.06
223.635	-11.06
223.869	-10.06
224.104	-23.06
224.338	-12.06
224.573	-13.06
224.808	-11.06
225.042	-8.06
225.277	-14.06
225.511	0.94
225.746	4.94
225.98	-0.06
226.215	10.94
226.449	16.94
226.683	11.94
226.918	16.94
227.152	39.94
227.387	37.94
227.621	25.94
227.856	39.94
228.09	42.94
228.324	53.94
228.559	59.94
228.793	58.94
229.027	86.94
229.262	85.94
229.496	89.94
229.73	90.94
229.964	78.94
230.199	93.94
230.433	104.94
230.667	90.94
230.901	94.94
231.136	107.94
231.37	92.94
231.604	106.94
231.838	102.94
232.072	96.94
232.306	106.94
232.541	94.94
232.775	122.94
233.009	105.94
233.243	102.94
233.477	114.94
233.711	100.94
233.945	102.94
234.179	102.94
234.413	93.94
234.647	119.94
234.881	110.94
235.115	107.94
235.349	102.94
235.583	109.94
235.817	106.94
236.051	107.94
236.285	101.94
236.519	103.94
236.753	105.94
236.987	114.94
237.221	113.94
237.455	105.94
237.689	108.94
237.922	114.94
238.156	127.94
238.39	102.94
238.624	129.94
238.858	119.94
239.091	123.94
239.325	116.94
239.559	121.94
239.793	116.94
240.027	101.94
240.26	121.94
240.494	104.94
240.728	115.94
240.961	104.94
241.195	127.94
241.429	117.94
241.662	128.94
241.896	117.94
242.13	121.94
242.363	105.94
242.597	116.94
242.83	109.94
243.064	143.94
243.298	134.94
243.531	118.94
243.765	113.94
243.998	129.94
244.232	143.94
244.465	118.94
244.699	124.94
244.932	142.94
245.166	133.94
245.399	124.94
245.633	130.94
245.866	132.94
246.099	148.94
246.333	146.94
246.566	130.94
246.8	127.94
247.033	139.94
247.266	139.94
247.5	129.94
247.733	133.94
247.966	142.94
248.2	149.94
248.433	159.94
248.666	135.94
248.899	145.94
249.133	158.94
249.366	154.94
249.599	137.94
249.832	141.94
250.066	138.94
250.299	139.94
250.532	144.94
250.765	148.94
250.998	153.94
251.231	137.94
251.465	153.94
251.698	149.94
251.931	150.94
252.164	155.94
252.397	161.94
252.63	150.94
252.863	145.94
253.096	165.94
253.329	184.94
253.562	145.94
253.795	150.94
254.028	162.94
254.261	161.94
254.494	150.94
254.727	169.94
254.96	141.94
255.193	170.94
255.426	163.94
255.659	162.94
255.892	179.94
256.124	159.94
256.357	156.94
256.59	173.94
256.823	165.94
257.056	167.94
257.289	165.94
257.521	178.94
257.754	185.94
257.987	182.94
258.22	171.94
258.452	161.94
258.685	170.94
258.918	192.94
259.151	181.94
259.383	172.94
259.616	167.94
259.849	164.94
260.081	193.94
260.314	183.94
260.547	178.94
260.779	163.94
261.012	201.94
261.244	180.94
261.477	211.94
261.71	191.94
261.942	202.94
262.175	177.94
262.407	185.94
262.64	180.94
262.872	189.94
263.105	198.94
263.337	206.94
263.57	175.94
263.802	199.94
264.035	203.94
264.267	187.94
264.499	182.94
264.732	181.94
264.964	178.94
265.197	201.94
265.429	188.94
265.661	187.94
265.894	183.94
266.126	202.94
266.358	197.94
266.591	189.94
266.823	178.94
267.055	190.94
267.287	204.94
267.52	202.94
267.752	202.94
267.984	198.94
268.216	202.94
268.448	201.94
268.681	201.94
268.913	205.94
269.145	190.94
269.377	190.94
269.609	204.94
269.841	212.94
270.073	215.94
270.306	214.94
270.538	203.94
270.77	199.94
271.002	198.94
271.234	203.94
271.466	214.94
271.698	207.94
271.93	224.94
272.162	219.94
272.394	207.94
272.626	202.94
272.858	213.94
273.09	207.94
273.322	205.94
273.553	218.94
273.785	209.94
274.017	232.94
274.249	237.94
274.481	230.94
274.713	217.94
274.945	222.94
275.176	223.94
275.408	237.94
275.64	232.94
275.872	234.94
276.104	220.94
276.335	246.94
276.567	238.94
276.799	230.94
277.031	220.94
277.262	233.94
277.494	223.94
277.726	227.94
277.957	221.94
278.189	232.94
278.421	227.94
278.652	248.94
278.884	246.94
279.115	228.94
279.347	231.94
279.579	231.94
279.81	230.94
280.042	238.94
280.273	221.94
280.505	238.94
280.736	243.94
280.968	232.94
281.199	234.94
281.431	234.94
281.662	232.94
281.894	260.94
282.125	233.94
282.356	259.94
282.588	243.94
282.819	225.94
283.051	242.94
283.282	235.94
283.513	253.94
283.745	257.94
283.976	246.94
284.207	255.94
284.439	244.94
284.67	258.94
284.901	257.94
285.132	276.94
285.364	257.94
285.595	253.94
285.826	253.94
286.057	262.94
286.288	244.94
286.52	251.94
286.751	259.94
286.982	273.94
287.213	263.94
287.444	252.94
287.675	250.94
287.906	266.94
288.138	262.94
288.369	252.94
288.6	266.94
288.831	272.94
289.062	266.94
289.293	275.94
289.524	257.94
289.755	271.94
289.986	276.94
290.217	274.94
290.448	277.94
290.679	280.94
290.91	269.94
291.141	262.94
291.371	275.94
291.602	282.94
291.833	275.94
292.064	267.94
292.295	285.94
292.526	262.94
292.757	283.94
292.987	275.94
293.218	268.94
293.449	281.94
293.68	275.94
293.91	273.94
294.141	277.94
294.372	273.94
294.603	275.94
294.833	270.94
295.064	283.94
295.295	290.94
295.525	285.94
295.756	263.94
295.987	272.94
296.217	279.94
296.448	283.94
296.679	286.94
296.909	292.94
297.14	281.94
297.37	291.94
297.601	277.94
297.831	277.94
298.062	307.94
298.292	286.94
298.523	290.94
298.753	295.94
298.984	315.94
299.214	293.94
299.445	276.94
299.675	289.94
299.905	300.94
300.136	286.94
300.366	290.94
300.597	306.94
300.827	301.94
301.057	310.94
301.288	302.94
301.518	298.94
301.748	313.94
301.979	295.94
302.209	306.94
302.439	311.94
302.669	314.94
302.9	283.94
303.13	300.94
303.36	322.94
303.59	293.94
303.82	313.94
304.051	311.94
304.281	310.94
304.511	318.94
304.741	311.94
304.971	295.94
305.201	315.94
305.431	318.94
305.661	318.94
305.891	311.94
306.121	307.94
306.352	306.94
306.582	314.94
306.812	303.94
307.042	293.94
307.272	312.94
307.502	309.94
307.731	307.94
307.961	301.94
308.191	310.94
308.421	322.94
308.651	307.94
308.881	315.94
309.111	313.94
309.341	289.94
309.571	302.94
309.8	306.94
310.03	306.94
310.26	311.94
310.49	302.94
310.72	295.94
310.949	323.94
311.179	328.94
311.409	320.94
311.639	324.94
311.868	318.94
312.098	293.94
312.328	331.94
312.557	326.94
312.787	329.94
313.017	318.94
313.246	325.94
313.476	326.94
313.706	314.94
313.935	323.94
314.165	323.94
314.394	334.94
314.624	347.94
314.853	330.94
315.083	323.94
315.312	333.94
315.542	350.94
315.771	327.94
316.001	319.94
316.23	334.94
316.46	320.94
316.689	323.94
316.919	325.94
317.148	324.94
317.377	318.94
317.607	326.94
317.836	343.94
318.065	330.94
318.295	321.94
318.524	333.94
318.753	332.94
318.983	317.94
319.212	324.94
319.441	339.94
319.67	311.94
319.9	313.94
320.129	323.94
320.358	329.94
320.587	334.94
320.816	323.94
321.046	329.94
321.275	331.94
321.504	356.94
321.733	335.94
321.962	343.94
322.191	328.94
322.42	352.94
322.649	328.94
322.878	315.94
323.108	328.94
323.337	341.94
323.566	350.94
323.795	343.94
324.024	320.94
324.253	335.94
324.482	356.94
324.71	352.94
324.939	367.94
325.168	323.94
325.397	344.94
325.626	350.94
325.855	351.94
326.084	355.94
326.313	373.94
326.542	357.94
326.77	354.94
326.999	354.94
327.228	342.94
327.457	358.94
327.686	369.94
327.914	357.94
328.143	367.94
328.372	347.94
328.6	370.94
328.829	362.94
329.058	355.94
329.287	370.94
329.515	359.94
329.744	379.94
329.972	358.94
330.201	357.94
330.43	384.94
330.658	366.94
330.887	358.94
331.115	355.94
331.344	381.94
331.572	381.94
331.801	387.94
332.03	398.94
332.258	403.94
332.486	403.94
332.715	390.94
332.943	417.94
333.172	437.94
333.4	442.94
333.629	444.94
333.857	452.94
334.085	458.94
334.314	428.94
334.542	453.94
334.771	442.94
334.999	437.94
335.227	415.94
335.455	444.94
335.684	422.94
335.912	440.94
336.14	417.94
336.369	398.94
336.597	420.94
336.825	412.94
337.053	412.94
337.281	412.94
337.51	413.94
337.738	391.94
337.966	399.94
338.194	397.94
338.422	400.94
338.65	410.94
338.878	385.94
339.106	395.94
339.334	402.94
339.562	397.94
339.79	389.94
340.018	374.94
340.246	355.94
340.474	393.94
340.702	383.94
340.93	374.94
341.158	400.94
341.386	384.94
341.614	377.94
341.842	375.94
342.07	369.94
342.298	390.94
342.526	362.94
342.754	391.94
342.981	397.94
343.209	367.94
343.437	403.94
343.665	445.94
343.893	421.94
344.12	466.94
344.348	418.94
344.576	418.94
344.804	395.94
345.031	379.94
345.259	376.94
345.487	378.94
345.714	385.94
345.942	366.94
346.17	375.94
346.397	361.94
346.625	381.94
346.853	369.94
347.08	363.94
347.308	369.94
347.535	379.94
347.763	357.94
347.99	367.94
348.218	383.94
348.445	362.94
348.673	381.94
348.9	368.94
349.128	388.94
349.355	369.94
349.583	364.94
349.81	362.94
350.037	354.94
350.265	352.94
350.492	363.94
350.72	382.94
350.947	345.94
351.174	359.94
351.402	377.94
351.629	354.94
351.856	367.94
352.083	361.94
352.311	373.94
352.538	357.94
352.765	347.94
352.992	366.94
353.22	357.94
353.447	354.94
353.674	341.94
353.901	381.94
354.128	361.94
354.355	359.94
354.583	351.94
354.81	368.94
355.037	359.94
355.264	362.94
355.491	380.94
355.718	350.94
355.945	373.94
356.172	389.94
356.399	354.94
356.626	359.94
356.853	356.94
357.08	373.94
357.307	366.94
357.534	360.94
357.761	383.94
357.988	376.94
358.215	361.94
358.441	375.94
358.668	356.94
358.895	357.94
359.122	351.94
359.349	351.94
359.576	360.94
359.802	350.94
360.029	373.94
360.256	359.94
360.483	359.94
360.709	369.94
360.936	377.94
361.163	370.94
361.39	401.94
361.616	364.94
361.843	371.94
362.07	363.94
362.296	350.94
362.523	363.94
362.749	365.94
362.976	362.94
363.203	362.94
363.429	357.94
363.656	340.94
363.882	342.94
364.109	375.94
364.335	341.94
364.562	373.94
364.788	379.94
365.015	372.94
365.241	372.94
365.468	369.94
365.694	368.94
365.92	371.94
366.147	359.94
366.373	362.94
366.599	370.94
366.826	369.94
367.052	365.94
367.278	385.94
367.505	363.94
367.731	362.94
367.957	370.94
368.184	362.94
368.41	354.94
368.636	362.94
368.862	387.94
369.089	373.94
369.315	387.94
369.541	384.94
369.767	376.94
369.993	380.94
370.219	380.94
370.445	375.94
370.672	356.94
370.898	401.94
371.124	395.94
371.35	397.94
371.576	394.94
371.802	391.94
372.028	389.94
372.254	395.94
372.48	400.94
372.706	404.94
372.932	412.94
373.158	415.94
373.384	425.94
373.61	407.94
373.835	407.94
374.061	387.94
374.287	415.94
374.513	412.94
374.739	413.94
374.965	422.94
375.191	429.94
375.416	412.94
375.642	428.94
375.868	405.94
376.094	422.94
376.319	414.94
376.545	399.94
376.771	388.94
376.997	382.94
377.222	381.94
377.448	393.94
377.674	391.94
377.899	404.94
378.125	390.94
378.35	391.94
378.576	387.94
378.802	402.94
379.027	411.94
379.253	400.94
379.478	390.94
379.704	393.94
379.929	394.94
380.155	409.94
380.38	408.94
380.606	408.94
380.831	383.94
381.057	375.94
381.282	394.94
381.507	430.94
381.733	410.94
381.958	409.94
382.184	396.94
382.409	395.94
382.634	416.94
382.86	427.94
383.085	423.94
383.31	442.94
383.535	446.94
383.761	450.94
383.986	440.94
384.211	457.94
384.436	464.94
384.662	471.94
384.887	467.94
385.112	463.94
385.337	465.94
385.562	468.94
385.787	466.94
386.013	485.94
386.238	468.94
386.463	479.94
386.688	474.94
386.913	471.94
387.138	483.94
387.363	478.94
387.588	474.94
387.813	471.94
388.038	451.94
388.263	469.94
388.488	476.94
388.713	465.94
388.938	466.94
389.163	467.94
389.387	474.94
389.612	472.94
389.837	442.94
390.062	469.94
390.287	483.94
390.512	469.94
390.736	485.94
390.961	484.94
391.186	488.94
391.411	508.94
391.636	531.94
391.86	526.94
392.085	525.94
392.31	531.94
392.534	511.94
392.759	506.94
392.984	515.94
393.208	524.94
393.433	517.94
393.658	501.94
393.882	487.94
394.107	486.94
394.331	490.94
394.556	488.94
394.78	503.94
395.005	511.94
395.229	485.94
395.454	517.94
395.678	526.94
395.903	535.94
396.127	513.94
396.352	514.94
396.576	512.94
396.801	505.94
397.025	492.94
397.249	519.94
397.474	548.94
397.698	515.94
397.922	529.94
398.147	508.94
398.371	537.94
398.595	575.94
398.82	573.94
399.044	617.94
399.268	660.94
399.492	729.94
399.717	807.94
399.941	773.94
400.165	716.94
400.389	665.94
400.613	622.94
400.837	622.94
401.062	585.94
401.286	583.94
401.51	589.94
401.734	567.94
401.958	571.94
402.182	603.94
402.406	588.94
402.63	582.94
402.854	611.94
403.078	599.94
403.302	605.94
403.526	603.94
403.75	624.94
403.974	626.94
404.198	643.94
404.422	620.94
404.645	637.94
404.869	622.94
405.093	606.94
405.317	627.94
405.541	621.94
405.765	617.94
405.988	591.94
406.212	639.94
406.436	612.94
406.66	637.94
406.883	672.94
407.107	683.94
407.331	674.94
407.555	702.94
407.778	678.94
408.002	693.94
408.226	654.94
408.449	684.94
408.673	641.94
408.896	644.94
409.12	640.94
409.344	643.94
409.567	623.94
409.791	667.94
410.014	637.94
410.238	608.94
410.461	643.94
410.685	614.94
410.908	621.94
411.132	616.94
411.355	590.94
411.578	591.94
411.802	599.94
412.025	599.94
412.249	620.94
412.472	630.94
412.695	598.94
412.919	557.94
413.142	582.94
413.365	602.94
413.589	586.94
413.812	594.94
414.035	590.94
414.258	583.94
414.482	582.94
414.705	576.94
414.928	585.94
415.151	570.94
415.374	580.94
415.597	580.94
415.821	574.94
416.044	575.94
416.267	574.94
416.49	571.94
416.713	564.94
416.936	543.94
417.159	571.94
417.382	562.94
417.605	551.94
417.828	566.94
418.051	573.94
418.274	568.94
418.497	571.94
418.72	567.94
418.943	572.94
419.166	599.94
419.389	652.94
419.611	633.94
419.834	610.94
420.057	571.94
420.28	580.94
420.503	556.94
420.726	552.94
420.948	558.94
421.171	555.94
421.394	573.94
421.617	571.94
421.839	544.94
422.062	561.94
422.285	557.94
422.507	596.94
422.73	585.94
422.953	583.94
423.175	564.94
423.398	581.94
423.621	580.94
423.843	589.94
424.066	586.94
424.288	572.94
424.511	586.94
424.733	571.94
424.956	574.94
425.178	585.94
425.401	569.94
425.623	568.94
425.846	545.94
426.068	550.94
426.291	540.94
426.513	535.94
426.735	517.94
426.958	536.94
427.18	526.94
427.402	533.94
427.625	514.94
427.847	540.94
428.069	513.94
428.292	527.94
428.514	534.94
428.736	510.94
428.958	503.94
429.181	535.94
429.403	521.94
429.625	502.94
429.847	503.94
430.069	505.94
430.292	507.94
430.514	511.94
430.736	505.94
430.958	525.94
431.18	519.94
431.402	505.94
431.624	509.94
431.846	530.94
432.068	511.94
432.29	531.94
432.512	507.94
432.734	513.94
432.956	510.94
433.178	513.94
433.4	521.94
433.622	525.94
433.844	524.94
434.066	551.94
434.287	524.94
434.509	544.94
434.731	542.94
434.953	568.94
435.175	560.94
435.397	547.94
435.618	535.94
435.84	539.94
436.062	553.94
436.284	507.94
436.505	534.94
436.727	506.94
436.949	535.94
437.17	500.94
437.392	517.94
437.614	499.94
437.835	497.94
438.057	514.94
438.278	497.94
438.5	478.94
438.721	493.94
438.943	523.94
439.165	521.94
439.386	502.94
439.608	515.94
439.829	501.94
440.05	524.94
440.272	514.94
440.493	525.94
440.715	510.94
440.936	518.94
441.158	537.94
441.379	536.94
441.6	557.94
441.822	539.94
442.043	554.94
442.264	553.94
442.486	551.94
442.707	549.94
442.928	549.94
443.149	565.94
443.371	554.94
443.592	532.94
443.813	565.94
444.034	578.94
444.255	580.94
444.476	581.94
444.698	638.94
444.919	637.94
445.14	738.94
445.361	628.94
445.582	564.94
445.803	563.94
446.024	558.94
446.245	542.94
446.466	531.94
446.687	512.94
446.908	511.94
447.129	517.94
447.35	510.94
447.571	507.94
447.792	507.94
448.013	519.94
448.234	484.94
448.455	484.94
448.675	461.94
448.896	466.94
449.117	457.94
449.338	469.94
449.559	491.94
449.779	485.94
450	467.94
450.221	464.94
450.442	477.94
450.662	469.94
450.883	470.94
451.104	483.94
451.324	478.94
451.545	458.94
451.766	457.94
451.986	459.94
452.207	475.94
452.428	459.94
452.648	469.94
452.869	467.94
453.089	475.94
453.31	464.94
453.53	458.94
453.751	444.94
453.971	442.94
454.192	455.94
454.412	440.94
454.633	452.94
454.853	457.94
455.073	449.94
455.294	469.94
455.514	472.94
455.734	430.94
455.955	445.94
456.175	435.94
456.395	457.94
456.616	449.94
456.836	477.94
457.056	446.94
457.276	443.94
457.497	461.94
457.717	451.94
457.937	454.94
458.157	485.94
458.377	465.94
458.598	462.94
458.818	479.94
459.038	481.94
459.258	512.94
459.478	517.94
459.698	533.94
459.918	537.94
460.138	543.94
460.358	566.94
460.578	575.94
460.798	569.94
461.018	592.94
461.238	567.94
461.458	587.94
461.678	599.94
461.898	611.94
462.118	606.94
462.338	633.94
462.558	636.94
462.777	634.94
462.997	694.94
463.217	723.94
463.437	724.94
463.657	668.94
463.876	640.94
464.096	657.94
464.316	673.94
464.536	658.94
464.755	649.94
464.975	591.94
465.195	603.94
465.414	558.94
465.634	559.94
465.854	531.94
466.073	522.94
466.293	519.94
466.512	517.94
466.732	522.94
466.951	515.94
467.171	503.94
467.391	497.94
467.61	497.94
467.829	499.94
468.049	466.94
468.268	469.94
468.488	468.94
468.707	487.94
468.927	483.94
469.146	464.94
469.365	496.94
469.585	499.94
469.804	483.94
470.023	474.94
470.243	486.94
470.462	531.94
470.681	523.94
470.901	506.94
471.12	497.94
471.339	487.94
471.558	500.94
471.777	489.94
471.997	472.94
472.216	471.94
472.435	470.94
472.654	478.94
472.873	455.94
473.092	467.94
473.311	490.94
473.53	460.94
473.749	474.94
473.968	498.94
474.187	467.94
474.406	460.94
474.625	472.94
474.844	469.94
475.063	477.94
475.282	476.94
475.501	484.94
475.72	471.94
475.939	468.94
476.158	492.94
476.377	491.94
476.596	496.94
476.814	492.94
477.033	513.94
477.252	499.94
477.471	533.94
477.69	517.94
477.908	540.94
478.127	532.94
478.346	545.94
478.564	542.94
478.783	565.94
479.002	553.94
479.22	571.94
479.439	583.94
479.658	536.94
479.876	560.94
480.095	572.94
480.313	599.94
480.532	580.94
480.751	580.94
480.969	554.94
481.188	575.94
481.406	542.94
481.624	571.94
481.843	553.94
482.061	544.94
482.28	540.94
482.498	519.94
482.717	526.94
482.935	523.94
483.153	505.94
483.372	541.94
483.59	548.94
483.808	532.94
484.027	532.94
484.245	536.94
484.463	527.94
484.681	563.94
484.9	556.94
485.118	554.94
485.336	530.94
485.554	538.94
485.772	556.94
485.99	568.94
486.209	531.94
486.427	536.94
486.645	536.94
486.863	543.94
487.081	540.94
487.299	541.94
487.517	556.94
487.735	550.94
487.953	553.94
488.171	554.94
488.389	553.94
488.607	551.94
488.825	530.94
489.043	555.94
489.261	528.94
489.479	545.94
489.696	579.94
489.914	562.94
490.132	563.94
490.35	554.94
490.568	570.94
490.786	555.94
491.003	551.94
491.221	551.94
491.439	566.94
491.657	549.94
491.874	550.94
492.092	560.94
492.31	560.94
492.527	580.94
492.745	570.94
492.963	573.94
493.18	589.94
493.398	571.94
493.615	588.94
493.833	575.94
494.05	588.94
494.268	571.94
494.485	595.94
494.703	591.94
494.92	566.94
495.138	615.94
495.355	599.94
495.573	582.94
495.79	602.94
496.008	602.94
496.225	622.94
496.442	633.94
496.66	605.94
496.877	623.94
497.094	645.94
497.312	661.94
497.529	649.94
497.746	684.94
497.963	686.94
498.181	702.94
498.398	725.94
498.615	767.94
498.832	791.94
499.049	831.94
499.267	908.94
499.484	947.94
499.701	1057.94
499.918	1156.94
500.135	1240.94
500.352	1391.94
500.569	1409.94
500.786	1377.94
501.003	1316.94
501.22	1221.94
501.437	1106.94
501.654	1011.94
