Data from Fe(NO3)3@0.025M.TitratingCurve.Agarose3%dH2O.NegLispCup.LampEnergy10.LIBS07252019_HRD10591_16-56-10-335.txt Node
Date: Thu Jul 25 16:56:10 EDT 2019
User: cochatt
Spectrometer: HR+D1059
Trigger mode: 1
Integration Time (sec): 1.000000E-1
Scans to average: 1
Electric dark correction enabled: true
Nonlinearity correction enabled: false
Boxcar width: 0
XAxis mode: Wavelengths
Number of Pixels in Spectrum: 2048
>>>>>Begin Spectral Data<<<<<
223.165	-21.88
223.4	-21.88
223.635	-21.88
223.869	-23.88
224.104	-12.88
224.338	-7.88
224.573	-22.88
224.808	-20.88
225.042	8.12
225.277	-7.88
225.511	4.12
225.746	6.12
225.98	11.12
226.215	7.12
226.449	4.12
226.683	25.12
226.918	19.12
227.152	33.12
227.387	42.12
227.621	44.12
227.856	43.12
228.09	38.12
228.324	55.12
228.559	76.12
228.793	68.12
229.027	69.12
229.262	67.12
229.496	67.12
229.73	81.12
229.964	76.12
230.199	81.12
230.433	88.12
230.667	85.12
230.901	88.12
231.136	85.12
231.37	89.12
231.604	78.12
231.838	88.12
232.072	102.12
232.306	98.12
232.541	93.12
232.775	99.12
233.009	109.12
233.243	90.12
233.477	97.12
233.711	98.12
233.945	99.12
234.179	99.12
234.413	95.12
234.647	80.12
234.881	97.12
235.115	93.12
235.349	97.12
235.583	95.12
235.817	101.12
236.051	98.12
236.285	100.12
236.519	97.12
236.753	96.12
236.987	90.12
237.221	101.12
237.455	90.12
237.689	89.12
237.922	82.12
238.156	88.12
238.39	100.12
238.624	104.12
238.858	105.12
239.091	97.12
239.325	85.12
239.559	101.12
239.793	105.12
240.027	115.12
240.26	95.12
240.494	90.12
240.728	117.12
240.961	120.12
241.195	95.12
241.429	99.12
241.662	99.12
241.896	105.12
242.13	111.12
242.363	105.12
242.597	97.12
242.83	111.12
243.064	94.12
243.298	90.12
243.531	100.12
243.765	95.12
243.998	110.12
244.232	102.12
244.465	100.12
244.699	113.12
244.932	112.12
245.166	109.12
245.399	99.12
245.633	112.12
245.866	118.12
246.099	102.12
246.333	101.12
246.566	105.12
246.8	101.12
247.033	108.12
247.266	111.12
247.5	113.12
247.733	105.12
247.966	92.12
248.2	109.12
248.433	121.12
248.666	110.12
248.899	107.12
249.133	111.12
249.366	120.12
249.599	120.12
249.832	129.12
250.066	120.12
250.299	115.12
250.532	119.12
250.765	108.12
250.998	105.12
251.231	127.12
251.465	117.12
251.698	123.12
251.931	125.12
252.164	117.12
252.397	115.12
252.63	136.12
252.863	116.12
253.096	123.12
253.329	132.12
253.562	122.12
253.795	127.12
254.028	124.12
254.261	115.12
254.494	108.12
254.727	112.12
254.96	116.12
255.193	115.12
255.426	113.12
255.659	134.12
255.892	121.12
256.124	126.12
256.357	119.12
256.59	124.12
256.823	139.12
257.056	124.12
257.289	115.12
257.521	127.12
257.754	139.12
257.987	119.12
258.22	119.12
258.452	117.12
258.685	114.12
258.918	128.12
259.151	130.12
259.383	131.12
259.616	129.12
259.849	138.12
260.081	131.12
260.314	127.12
260.547	129.12
260.779	126.12
261.012	126.12
261.244	121.12
261.477	133.12
261.71	135.12
261.942	140.12
262.175	139.12
262.407	133.12
262.64	132.12
262.872	140.12
263.105	151.12
263.337	135.12
263.57	139.12
263.802	132.12
264.035	143.12
264.267	136.12
264.499	138.12
264.732	149.12
264.964	127.12
265.197	147.12
265.429	138.12
265.661	144.12
265.894	151.12
266.126	139.12
266.358	152.12
266.591	159.12
266.823	161.12
267.055	139.12
267.287	144.12
267.52	132.12
267.752	137.12
267.984	161.12
268.216	165.12
268.448	135.12
268.681	143.12
268.913	161.12
269.145	150.12
269.377	132.12
269.609	132.12
269.841	139.12
270.073	138.12
270.306	150.12
270.538	147.12
270.77	142.12
271.002	158.12
271.234	142.12
271.466	156.12
271.698	158.12
271.93	153.12
272.162	166.12
272.394	156.12
272.626	158.12
272.858	156.12
273.09	162.12
273.322	161.12
273.553	166.12
273.785	170.12
274.017	168.12
274.249	159.12
274.481	144.12
274.713	159.12
274.945	165.12
275.176	170.12
275.408	170.12
275.64	163.12
275.872	156.12
276.104	164.12
276.335	163.12
276.567	168.12
276.799	170.12
277.031	136.12
277.262	149.12
277.494	167.12
277.726	166.12
277.957	178.12
278.189	178.12
278.421	164.12
278.652	169.12
278.884	163.12
279.115	156.12
279.347	172.12
279.579	161.12
279.81	169.12
280.042	178.12
280.273	175.12
280.505	162.12
280.736	168.12
280.968	180.12
281.199	175.12
281.431	168.12
281.662	164.12
281.894	182.12
282.125	179.12
282.356	181.12
282.588	173.12
282.819	175.12
283.051	183.12
283.282	170.12
283.513	196.12
283.745	196.12
283.976	179.12
284.207	178.12
284.439	172.12
284.67	181.12
284.901	184.12
285.132	197.12
285.364	173.12
285.595	184.12
285.826	182.12
286.057	191.12
286.288	183.12
286.52	179.12
286.751	175.12
286.982	181.12
287.213	188.12
287.444	190.12
287.675	181.12
287.906	183.12
288.138	179.12
288.369	192.12
288.6	195.12
288.831	191.12
289.062	201.12
289.293	187.12
289.524	194.12
289.755	199.12
289.986	187.12
290.217	191.12
290.448	188.12
290.679	199.12
290.91	192.12
291.141	202.12
291.371	185.12
291.602	199.12
291.833	200.12
292.064	195.12
292.295	179.12
292.526	196.12
292.757	203.12
292.987	187.12
293.218	186.12
293.449	195.12
293.68	216.12
293.91	199.12
294.141	197.12
294.372	201.12
294.603	201.12
294.833	210.12
295.064	185.12
295.295	211.12
295.525	195.12
295.756	198.12
295.987	196.12
296.217	192.12
296.448	219.12
296.679	204.12
296.909	192.12
297.14	205.12
297.37	202.12
297.601	222.12
297.831	187.12
298.062	199.12
298.292	219.12
298.523	199.12
298.753	218.12
298.984	226.12
299.214	213.12
299.445	209.12
299.675	215.12
299.905	210.12
300.136	234.12
300.366	209.12
300.597	232.12
300.827	203.12
301.057	204.12
301.288	215.12
301.518	215.12
301.748	230.12
301.979	221.12
302.209	218.12
302.439	237.12
302.669	212.12
302.9	227.12
303.13	224.12
303.36	226.12
303.59	191.12
303.82	230.12
304.051	227.12
304.281	230.12
304.511	231.12
304.741	222.12
304.971	220.12
305.201	212.12
305.431	239.12
305.661	225.12
305.891	208.12
306.121	215.12
306.352	222.12
306.582	226.12
306.812	223.12
307.042	237.12
307.272	231.12
307.502	220.12
307.731	219.12
307.961	247.12
308.191	233.12
308.421	239.12
308.651	236.12
308.881	231.12
309.111	225.12
309.341	254.12
309.571	234.12
309.8	223.12
310.03	231.12
310.26	221.12
310.49	229.12
310.72	222.12
310.949	237.12
311.179	229.12
311.409	233.12
311.639	245.12
311.868	231.12
312.098	246.12
312.328	240.12
312.557	239.12
312.787	234.12
313.017	249.12
313.246	255.12
313.476	227.12
313.706	244.12
313.935	231.12
314.165	241.12
314.394	257.12
314.624	252.12
314.853	243.12
315.083	252.12
315.312	241.12
315.542	249.12
315.771	241.12
316.001	243.12
316.23	259.12
316.46	231.12
316.689	248.12
316.919	249.12
317.148	232.12
317.377	246.12
317.607	258.12
317.836	247.12
318.065	216.12
318.295	265.12
318.524	260.12
318.753	247.12
318.983	232.12
319.212	235.12
319.441	250.12
319.67	239.12
319.9	244.12
320.129	236.12
320.358	252.12
320.587	247.12
320.816	250.12
321.046	254.12
321.275	264.12
321.504	238.12
321.733	241.12
321.962	261.12
322.191	243.12
322.42	258.12
322.649	266.12
322.878	250.12
323.108	245.12
323.337	259.12
323.566	251.12
323.795	259.12
324.024	225.12
324.253	232.12
324.482	268.12
324.71	241.12
324.939	274.12
325.168	268.12
325.397	260.12
325.626	248.12
325.855	261.12
326.084	273.12
326.313	255.12
326.542	271.12
326.77	270.12
326.999	276.12
327.228	259.12
327.457	274.12
327.686	266.12
327.914	273.12
328.143	296.12
328.372	273.12
328.6	280.12
328.829	275.12
329.058	269.12
329.287	261.12
329.515	279.12
329.744	281.12
329.972	270.12
330.201	267.12
330.43	273.12
330.658	295.12
330.887	277.12
331.115	288.12
331.344	280.12
331.572	287.12
331.801	278.12
332.03	294.12
332.258	303.12
332.486	298.12
332.715	293.12
332.943	287.12
333.172	300.12
333.4	317.12
333.629	313.12
333.857	313.12
334.085	327.12
334.314	336.12
334.542	328.12
334.771	315.12
334.999	312.12
335.227	336.12
335.455	332.12
335.684	332.12
335.912	322.12
336.14	314.12
336.369	307.12
336.597	307.12
336.825	312.12
337.053	313.12
337.281	305.12
337.51	301.12
337.738	315.12
337.966	313.12
338.194	296.12
338.422	303.12
338.65	313.12
338.878	312.12
339.106	303.12
339.334	308.12
339.562	292.12
339.79	287.12
340.018	300.12
340.246	290.12
340.474	301.12
340.702	297.12
340.93	296.12
341.158	297.12
341.386	290.12
341.614	316.12
341.842	292.12
342.07	306.12
342.298	287.12
342.526	267.12
342.754	299.12
342.981	299.12
343.209	311.12
343.437	303.12
343.665	324.12
343.893	332.12
344.12	328.12
344.348	315.12
344.576	321.12
344.804	306.12
345.031	298.12
345.259	297.12
345.487	308.12
345.714	305.12
345.942	273.12
346.17	293.12
346.397	268.12
346.625	281.12
346.853	276.12
347.08	293.12
347.308	294.12
347.535	273.12
347.763	280.12
347.99	272.12
348.218	292.12
348.445	296.12
348.673	288.12
348.9	273.12
349.128	286.12
349.355	301.12
349.583	276.12
349.81	285.12
350.037	282.12
350.265	278.12
350.492	282.12
350.72	273.12
350.947	261.12
351.174	283.12
351.402	293.12
351.629	287.12
351.856	285.12
352.083	268.12
352.311	289.12
352.538	275.12
352.765	288.12
352.992	288.12
353.22	288.12
353.447	315.12
353.674	271.12
353.901	282.12
354.128	284.12
354.355	281.12
354.583	280.12
354.81	315.12
355.037	283.12
355.264	290.12
355.491	268.12
355.718	284.12
355.945	295.12
356.172	279.12
356.399	283.12
356.626	283.12
356.853	292.12
357.08	295.12
357.307	276.12
357.534	286.12
357.761	285.12
357.988	293.12
358.215	287.12
358.441	278.12
358.668	281.12
358.895	287.12
359.122	279.12
359.349	291.12
359.576	293.12
359.802	293.12
360.029	297.12
360.256	281.12
360.483	278.12
360.709	278.12
360.936	284.12
361.163	289.12
361.39	286.12
361.616	279.12
361.843	283.12
362.07	309.12
362.296	283.12
362.523	309.12
362.749	299.12
362.976	287.12
363.203	273.12
363.429	290.12
363.656	301.12
363.882	293.12
364.109	289.12
364.335	289.12
364.562	289.12
364.788	289.12
365.015	300.12
365.241	287.12
365.468	299.12
365.694	284.12
365.92	288.12
366.147	293.12
366.373	289.12
366.599	295.12
366.826	294.12
367.052	294.12
367.278	288.12
367.505	298.12
367.731	300.12
367.957	294.12
368.184	291.12
368.41	300.12
368.636	285.12
368.862	282.12
369.089	289.12
369.315	307.12
369.541	311.12
369.767	290.12
369.993	300.12
370.219	297.12
370.445	301.12
370.672	314.12
370.898	315.12
371.124	300.12
371.35	293.12
371.576	314.12
371.802	314.12
372.028	289.12
372.254	305.12
372.48	312.12
372.706	306.12
372.932	317.12
373.158	322.12
373.384	313.12
373.61	312.12
373.835	315.12
374.061	317.12
374.287	323.12
374.513	312.12
374.739	331.12
374.965	336.12
375.191	329.12
375.416	331.12
375.642	321.12
375.868	319.12
376.094	301.12
376.319	322.12
376.545	321.12
376.771	327.12
376.997	318.12
377.222	314.12
377.448	329.12
377.674	307.12
377.899	323.12
378.125	315.12
378.35	319.12
378.576	307.12
378.802	313.12
379.027	313.12
379.253	292.12
379.478	303.12
379.704	309.12
379.929	320.12
380.155	313.12
380.38	297.12
380.606	323.12
380.831	307.12
381.057	319.12
381.282	304.12
381.507	326.12
381.733	326.12
381.958	330.12
382.184	303.12
382.409	322.12
382.634	352.12
382.86	331.12
383.085	339.12
383.31	319.12
383.535	322.12
383.761	332.12
383.986	328.12
384.211	328.12
384.436	340.12
384.662	339.12
384.887	347.12
385.112	348.12
385.337	349.12
385.562	346.12
385.787	354.12
386.013	361.12
386.238	362.12
386.463	353.12
386.688	355.12
386.913	345.12
387.138	355.12
387.363	345.12
387.588	373.12
387.813	364.12
388.038	358.12
388.263	364.12
388.488	369.12
388.713	363.12
388.938	373.12
389.163	346.12
389.387	367.12
389.612	373.12
389.837	356.12
390.062	359.12
390.287	374.12
390.512	357.12
390.736	376.12
390.961	364.12
391.186	364.12
391.411	378.12
391.636	377.12
391.86	381.12
392.085	392.12
392.31	384.12
392.534	392.12
392.759	367.12
392.984	376.12
393.208	385.12
393.433	378.12
393.658	377.12
393.882	388.12
394.107	366.12
394.331	370.12
394.556	377.12
394.78	351.12
395.005	394.12
395.229	367.12
395.454	397.12
395.678	389.12
395.903	385.12
396.127	388.12
396.352	385.12
396.576	400.12
396.801	391.12
397.025	428.12
397.249	398.12
397.474	402.12
397.698	398.12
397.922	414.12
398.147	411.12
398.371	404.12
398.595	432.12
398.82	461.12
399.044	458.12
399.268	483.12
399.492	524.12
399.717	521.12
399.941	509.12
400.165	517.12
400.389	489.12
400.613	464.12
400.837	449.12
401.062	441.12
401.286	467.12
401.51	448.12
401.734	448.12
401.958	443.12
402.182	435.12
402.406	424.12
402.63	428.12
402.854	459.12
403.078	444.12
403.302	418.12
403.526	429.12
403.75	451.12
403.974	451.12
404.198	451.12
404.422	433.12
404.645	438.12
404.869	448.12
405.093	452.12
405.317	407.12
405.541	452.12
405.765	440.12
405.988	454.12
406.212	436.12
406.436	467.12
406.66	476.12
406.883	469.12
407.107	472.12
407.331	488.12
407.555	494.12
407.778	471.12
408.002	461.12
408.226	461.12
408.449	464.12
408.673	477.12
408.896	463.12
409.12	471.12
409.344	452.12
409.567	435.12
409.791	447.12
410.014	447.12
410.238	464.12
410.461	457.12
410.685	458.12
410.908	426.12
411.132	444.12
411.355	452.12
411.578	419.12
411.802	439.12
412.025	429.12
412.249	430.12
412.472	431.12
412.695	431.12
412.919	417.12
413.142	431.12
413.365	438.12
413.589	409.12
413.812	441.12
414.035	409.12
414.258	419.12
414.482	407.12
414.705	427.12
414.928	420.12
415.151	427.12
415.374	422.12
415.597	410.12
415.821	418.12
416.044	405.12
416.267	415.12
416.49	413.12
416.713	385.12
416.936	418.12
417.159	417.12
417.382	402.12
417.605	390.12
417.828	398.12
418.051	417.12
418.274	412.12
418.497	407.12
418.72	417.12
418.943	421.12
419.166	416.12
419.389	444.12
419.611	434.12
419.834	435.12
420.057	436.12
420.28	412.12
420.503	403.12
420.726	394.12
420.948	397.12
421.171	412.12
421.394	425.12
421.617	407.12
421.839	412.12
422.062	420.12
422.285	410.12
422.507	416.12
422.73	401.12
422.953	408.12
423.175	406.12
423.398	431.12
423.621	421.12
423.843	399.12
424.066	409.12
424.288	392.12
424.511	455.12
424.733	403.12
424.956	411.12
425.178	389.12
425.401	408.12
425.623	385.12
425.846	381.12
426.068	414.12
426.291	383.12
426.513	405.12
426.735	383.12
426.958	389.12
427.18	393.12
427.402	383.12
427.625	403.12
427.847	364.12
428.069	381.12
428.292	373.12
428.514	389.12
428.736	386.12
428.958	373.12
429.181	384.12
429.403	365.12
429.625	377.12
429.847	370.12
430.069	381.12
430.292	376.12
430.514	369.12
430.736	373.12
430.958	357.12
431.18	381.12
431.402	401.12
431.624	382.12
431.846	370.12
432.068	396.12
432.29	373.12
432.512	390.12
432.734	375.12
432.956	401.12
433.178	368.12
433.4	392.12
433.622	366.12
433.844	376.12
434.066	364.12
434.287	387.12
434.509	401.12
434.731	423.12
434.953	393.12
435.175	411.12
435.397	401.12
435.618	383.12
435.84	384.12
436.062	402.12
436.284	386.12
436.505	366.12
436.727	376.12
436.949	379.12
437.17	382.12
437.392	375.12
437.614	385.12
437.835	375.12
438.057	353.12
438.278	370.12
438.5	364.12
438.721	361.12
438.943	375.12
439.165	348.12
439.386	371.12
439.608	393.12
439.829	378.12
440.05	390.12
440.272	394.12
440.493	379.12
440.715	383.12
440.936	377.12
441.158	394.12
441.379	424.12
441.6	404.12
441.822	394.12
442.043	399.12
442.264	392.12
442.486	378.12
442.707	391.12
442.928	404.12
443.149	397.12
443.371	379.12
443.592	373.12
443.813	414.12
444.034	407.12
444.255	415.12
444.476	424.12
444.698	429.12
444.919	440.12
445.14	507.12
445.361	459.12
445.582	417.12
445.803	383.12
446.024	391.12
446.245	415.12
446.466	394.12
446.687	378.12
446.908	387.12
447.129	379.12
447.35	364.12
447.571	371.12
447.792	331.12
448.013	371.12
448.234	369.12
448.455	342.12
448.675	344.12
448.896	368.12
449.117	357.12
449.338	345.12
449.559	357.12
449.779	341.12
450	345.12
450.221	350.12
450.442	371.12
450.662	337.12
450.883	333.12
451.104	330.12
451.324	353.12
451.545	331.12
451.766	337.12
451.986	340.12
452.207	361.12
452.428	329.12
452.648	328.12
452.869	356.12
453.089	326.12
453.31	334.12
453.53	355.12
453.751	329.12
453.971	344.12
454.192	346.12
454.412	337.12
454.633	322.12
454.853	322.12
455.073	316.12
455.294	334.12
455.514	322.12
455.734	337.12
455.955	331.12
456.175	334.12
456.395	323.12
456.616	319.12
456.836	352.12
457.056	338.12
457.276	333.12
457.497	352.12
457.717	338.12
457.937	340.12
458.157	345.12
458.377	345.12
458.598	345.12
458.818	364.12
459.038	369.12
459.258	341.12
459.478	364.12
459.698	380.12
459.918	395.12
460.138	395.12
460.358	432.12
460.578	417.12
460.798	417.12
461.018	417.12
461.238	419.12
461.458	428.12
461.678	431.12
461.898	397.12
462.118	443.12
462.338	438.12
462.558	461.12
462.777	464.12
462.997	481.12
463.217	481.12
463.437	462.12
463.657	491.12
463.876	475.12
464.096	469.12
464.316	438.12
464.536	449.12
464.755	459.12
464.975	433.12
465.195	416.12
465.414	415.12
465.634	386.12
465.854	409.12
466.073	383.12
466.293	398.12
466.512	384.12
466.732	384.12
466.951	374.12
467.171	379.12
467.391	367.12
467.61	371.12
467.829	364.12
468.049	363.12
468.268	356.12
468.488	356.12
468.707	391.12
468.927	363.12
469.146	372.12
469.365	370.12
469.585	388.12
469.804	374.12
470.023	376.12
470.243	381.12
470.462	405.12
470.681	384.12
470.901	376.12
471.12	371.12
471.339	373.12
471.558	368.12
471.777	368.12
471.997	361.12
472.216	377.12
472.435	363.12
472.654	336.12
472.873	354.12
473.092	361.12
473.311	372.12
473.53	355.12
473.749	373.12
473.968	385.12
474.187	387.12
474.406	360.12
474.625	372.12
474.844	367.12
475.063	358.12
475.282	376.12
475.501	355.12
475.72	383.12
475.939	387.12
476.158	371.12
476.377	378.12
476.596	384.12
476.814	385.12
477.033	379.12
477.252	395.12
477.471	408.12
477.69	391.12
477.908	404.12
478.127	425.12
478.346	434.12
478.564	411.12
478.783	415.12
479.002	420.12
479.22	440.12
479.439	437.12
479.658	432.12
479.876	443.12
480.095	444.12
480.313	445.12
480.532	433.12
480.751	456.12
480.969	423.12
481.188	434.12
481.406	461.12
481.624	443.12
481.843	420.12
482.061	423.12
482.28	423.12
482.498	441.12
482.717	455.12
482.935	419.12
483.153	420.12
483.372	430.12
483.59	423.12
483.808	439.12
484.027	424.12
484.245	426.12
484.463	412.12
484.681	442.12
484.9	431.12
485.118	448.12
485.336	440.12
485.554	439.12
485.772	445.12
485.99	426.12
486.209	414.12
486.427	431.12
486.645	435.12
486.863	432.12
487.081	426.12
487.299	420.12
487.517	440.12
487.735	426.12
487.953	444.12
488.171	426.12
488.389	431.12
488.607	443.12
488.825	431.12
489.043	448.12
489.261	444.12
489.479	414.12
489.696	446.12
489.914	436.12
490.132	426.12
490.35	435.12
490.568	432.12
490.786	448.12
491.003	428.12
491.221	439.12
491.439	448.12
491.657	459.12
491.874	442.12
492.092	432.12
492.31	455.12
492.527	439.12
492.745	447.12
492.963	452.12
493.18	459.12
493.398	452.12
493.615	465.12
493.833	462.12
494.05	478.12
494.268	458.12
494.485	447.12
494.703	442.12
494.92	485.12
495.138	469.12
495.355	466.12
495.573	457.12
495.79	461.12
496.008	500.12
496.225	478.12
496.442	487.12
496.66	497.12
496.877	498.12
497.094	484.12
497.312	521.12
497.529	526.12
497.746	523.12
497.963	528.12
498.181	562.12
498.398	575.12
498.615	582.12
498.832	599.12
499.049	630.12
499.267	681.12
499.484	677.12
499.701	723.12
499.918	780.12
500.135	812.12
500.352	861.12
500.569	875.12
500.786	851.12
501.003	802.12
501.22	777.12
501.437	745.12
501.654	704.12
501.871	665.12
502.088	669.12
502.305	626.12
