Data from Fe(NO3)3@0.0125M.TitratingCurve.Agarose3%dH2O.NegLispCup.LampEnergy10.LIBS07252019_HRD10591_17-01-41-337.txt Node
Date: Thu Jul 25 17:01:41 EDT 2019
User: cochatt
Spectrometer: HR+D1059
Trigger mode: 1
Integration Time (sec): 1.000000E-1
Scans to average: 1
Electric dark correction enabled: true
Nonlinearity correction enabled: false
Boxcar width: 0
XAxis mode: Wavelengths
Number of Pixels in Spectrum: 2048
>>>>>Begin Spectral Data<<<<<
223.165	-8.19
223.4	-8.19
223.635	-8.19
223.869	-23.19
224.104	-30.19
224.338	-13.19
224.573	-12.19
224.808	-12.19
225.042	-15.19
225.277	-8.19
225.511	-0.19
225.746	14.81
225.98	7.81
226.215	-2.19
226.449	16.81
226.683	28.81
226.918	17.81
227.152	38.81
227.387	41.81
227.621	38.81
227.856	43.81
228.09	40.81
228.324	57.81
228.559	51.81
228.793	61.81
229.027	80.81
229.262	73.81
229.496	90.81
229.73	91.81
229.964	101.81
230.199	74.81
230.433	94.81
230.667	105.81
230.901	87.81
231.136	108.81
231.37	101.81
231.604	116.81
231.838	100.81
232.072	118.81
232.306	99.81
232.541	104.81
232.775	103.81
233.009	116.81
233.243	92.81
233.477	114.81
233.711	121.81
233.945	120.81
234.179	125.81
234.413	107.81
234.647	126.81
234.881	113.81
235.115	123.81
235.349	102.81
235.583	123.81
235.817	109.81
236.051	121.81
236.285	108.81
236.519	99.81
236.753	102.81
236.987	124.81
237.221	111.81
237.455	119.81
237.689	136.81
237.922	125.81
238.156	111.81
238.39	126.81
238.624	125.81
238.858	129.81
239.091	117.81
239.325	119.81
239.559	142.81
239.793	134.81
240.027	133.81
240.26	130.81
240.494	136.81
240.728	133.81
240.961	129.81
241.195	131.81
241.429	125.81
241.662	131.81
241.896	128.81
242.13	138.81
242.363	124.81
242.597	129.81
242.83	138.81
243.064	125.81
243.298	128.81
243.531	150.81
243.765	132.81
243.998	132.81
244.232	140.81
244.465	135.81
244.699	131.81
244.932	123.81
245.166	138.81
245.399	140.81
245.633	133.81
245.866	143.81
246.099	135.81
246.333	132.81
246.566	142.81
246.8	143.81
247.033	141.81
247.266	135.81
247.5	132.81
247.733	139.81
247.966	129.81
248.2	139.81
248.433	153.81
248.666	160.81
248.899	149.81
249.133	162.81
249.366	149.81
249.599	149.81
249.832	135.81
250.066	163.81
250.299	148.81
250.532	132.81
250.765	171.81
250.998	151.81
251.231	143.81
251.465	138.81
251.698	160.81
251.931	165.81
252.164	155.81
252.397	159.81
252.63	150.81
252.863	168.81
253.096	169.81
253.329	167.81
253.562	165.81
253.795	170.81
254.028	174.81
254.261	170.81
254.494	154.81
254.727	150.81
254.96	155.81
255.193	158.81
255.426	169.81
255.659	156.81
255.892	163.81
256.124	145.81
256.357	175.81
256.59	184.81
256.823	168.81
257.056	179.81
257.289	179.81
257.521	162.81
257.754	177.81
257.987	181.81
258.22	179.81
258.452	169.81
258.685	171.81
258.918	184.81
259.151	174.81
259.383	181.81
259.616	179.81
259.849	197.81
260.081	204.81
260.314	200.81
260.547	183.81
260.779	190.81
261.012	181.81
261.244	183.81
261.477	196.81
261.71	190.81
261.942	186.81
262.175	200.81
262.407	176.81
262.64	193.81
262.872	212.81
263.105	201.81
263.337	198.81
263.57	209.81
263.802	197.81
264.035	196.81
264.267	203.81
264.499	203.81
264.732	189.81
264.964	203.81
265.197	208.81
265.429	200.81
265.661	197.81
265.894	186.81
266.126	200.81
266.358	198.81
266.591	209.81
266.823	210.81
267.055	179.81
267.287	195.81
267.52	190.81
267.752	204.81
267.984	186.81
268.216	208.81
268.448	207.81
268.681	201.81
268.913	201.81
269.145	197.81
269.377	193.81
269.609	218.81
269.841	208.81
270.073	216.81
270.306	205.81
270.538	204.81
270.77	223.81
271.002	218.81
271.234	218.81
271.466	232.81
271.698	220.81
271.93	236.81
272.162	223.81
272.394	218.81
272.626	229.81
272.858	208.81
273.09	235.81
273.322	223.81
273.553	250.81
273.785	240.81
274.017	219.81
274.249	224.81
274.481	227.81
274.713	232.81
274.945	253.81
275.176	241.81
275.408	257.81
275.64	251.81
275.872	243.81
276.104	255.81
276.335	239.81
276.567	261.81
276.799	246.81
277.031	239.81
277.262	243.81
277.494	252.81
277.726	240.81
277.957	239.81
278.189	244.81
278.421	240.81
278.652	231.81
278.884	247.81
279.115	241.81
279.347	239.81
279.579	250.81
279.81	244.81
280.042	258.81
280.273	248.81
280.505	236.81
280.736	266.81
280.968	268.81
281.199	249.81
281.431	263.81
281.662	264.81
281.894	261.81
282.125	253.81
282.356	250.81
282.588	270.81
282.819	271.81
283.051	264.81
283.282	273.81
283.513	268.81
283.745	269.81
283.976	275.81
284.207	282.81
284.439	268.81
284.67	283.81
284.901	284.81
285.132	291.81
285.364	254.81
285.595	289.81
285.826	273.81
286.057	272.81
286.288	268.81
286.52	252.81
286.751	272.81
286.982	273.81
287.213	267.81
287.444	273.81
287.675	277.81
287.906	274.81
288.138	270.81
288.369	275.81
288.6	286.81
288.831	300.81
289.062	285.81
289.293	303.81
289.524	293.81
289.755	287.81
289.986	296.81
290.217	286.81
290.448	285.81
290.679	295.81
290.91	298.81
291.141	281.81
291.371	295.81
291.602	296.81
291.833	317.81
292.064	273.81
292.295	290.81
292.526	307.81
292.757	291.81
292.987	287.81
293.218	282.81
293.449	267.81
293.68	315.81
293.91	287.81
294.141	303.81
294.372	288.81
294.603	298.81
294.833	280.81
295.064	304.81
295.295	295.81
295.525	303.81
295.756	316.81
295.987	299.81
296.217	302.81
296.448	312.81
296.679	328.81
296.909	303.81
297.14	316.81
297.37	320.81
297.601	320.81
297.831	316.81
298.062	308.81
298.292	312.81
298.523	328.81
298.753	340.81
298.984	334.81
299.214	324.81
299.445	321.81
299.675	319.81
299.905	330.81
300.136	336.81
300.366	316.81
300.597	334.81
300.827	322.81
301.057	330.81
301.288	310.81
301.518	332.81
301.748	343.81
301.979	335.81
302.209	339.81
302.439	344.81
302.669	344.81
302.9	335.81
303.13	345.81
303.36	346.81
303.59	333.81
303.82	363.81
304.051	343.81
304.281	348.81
304.511	350.81
304.741	337.81
304.971	364.81
305.201	352.81
305.431	346.81
305.661	346.81
305.891	333.81
306.121	338.81
306.352	348.81
306.582	355.81
306.812	344.81
307.042	343.81
307.272	336.81
307.502	346.81
307.731	367.81
307.961	348.81
308.191	350.81
308.421	352.81
308.651	346.81
308.881	356.81
309.111	364.81
309.341	351.81
309.571	358.81
309.8	366.81
310.03	364.81
310.26	352.81
310.49	356.81
310.72	348.81
310.949	368.81
311.179	351.81
311.409	355.81
311.639	359.81
311.868	375.81
312.098	353.81
312.328	363.81
312.557	368.81
312.787	358.81
313.017	379.81
313.246	366.81
313.476	379.81
313.706	367.81
313.935	381.81
314.165	376.81
314.394	382.81
314.624	387.81
314.853	373.81
315.083	372.81
315.312	387.81
315.542	393.81
315.771	390.81
316.001	396.81
316.23	376.81
316.46	367.81
316.689	383.81
316.919	369.81
317.148	401.81
317.377	389.81
317.607	375.81
317.836	371.81
318.065	388.81
318.295	392.81
318.524	383.81
318.753	391.81
318.983	381.81
319.212	383.81
319.441	384.81
319.67	396.81
319.9	395.81
320.129	379.81
320.358	394.81
320.587	411.81
320.816	383.81
321.046	378.81
321.275	408.81
321.504	406.81
321.733	392.81
321.962	420.81
322.191	381.81
322.42	413.81
322.649	398.81
322.878	400.81
323.108	392.81
323.337	414.81
323.566	431.81
323.795	397.81
324.024	407.81
324.253	399.81
324.482	409.81
324.71	407.81
324.939	403.81
325.168	412.81
325.397	397.81
325.626	428.81
325.855	421.81
326.084	412.81
326.313	412.81
326.542	408.81
326.77	428.81
326.999	447.81
327.228	431.81
327.457	426.81
327.686	411.81
327.914	425.81
328.143	417.81
328.372	412.81
328.6	413.81
328.829	419.81
329.058	431.81
329.287	431.81
329.515	448.81
329.744	455.81
329.972	447.81
330.201	438.81
330.43	438.81
330.658	430.81
330.887	427.81
331.115	451.81
331.344	436.81
331.572	450.81
331.801	461.81
332.03	466.81
332.258	457.81
332.486	449.81
332.715	464.81
332.943	447.81
333.172	456.81
333.4	481.81
333.629	462.81
333.857	491.81
334.085	477.81
334.314	496.81
334.542	484.81
334.771	500.81
334.999	482.81
335.227	475.81
335.455	485.81
335.684	507.81
335.912	525.81
336.14	481.81
336.369	488.81
336.597	493.81
336.825	494.81
337.053	489.81
337.281	483.81
337.51	488.81
337.738	493.81
337.966	483.81
338.194	487.81
338.422	471.81
338.65	463.81
338.878	478.81
339.106	481.81
339.334	472.81
339.562	469.81
339.79	468.81
340.018	484.81
340.246	457.81
340.474	458.81
340.702	446.81
340.93	476.81
341.158	460.81
341.386	471.81
341.614	477.81
341.842	464.81
342.07	477.81
342.298	460.81
342.526	465.81
342.754	449.81
342.981	463.81
343.209	451.81
343.437	486.81
343.665	516.81
343.893	496.81
344.12	502.81
344.348	501.81
344.576	488.81
344.804	494.81
345.031	472.81
345.259	458.81
345.487	499.81
345.714	463.81
345.942	460.81
346.17	462.81
346.397	457.81
346.625	451.81
346.853	443.81
347.08	438.81
347.308	447.81
347.535	460.81
347.763	446.81
347.99	454.81
348.218	457.81
348.445	444.81
348.673	441.81
348.9	442.81
349.128	449.81
349.355	462.81
349.583	464.81
349.81	442.81
350.037	430.81
350.265	439.81
350.492	460.81
350.72	425.81
350.947	442.81
351.174	431.81
351.402	441.81
351.629	470.81
351.856	456.81
352.083	461.81
352.311	446.81
352.538	459.81
352.765	453.81
352.992	446.81
353.22	440.81
353.447	446.81
353.674	443.81
353.901	439.81
354.128	425.81
354.355	447.81
354.583	453.81
354.81	450.81
355.037	460.81
355.264	456.81
355.491	461.81
355.718	447.81
355.945	456.81
356.172	432.81
356.399	461.81
356.626	443.81
356.853	458.81
357.08	459.81
357.307	460.81
357.534	456.81
357.761	465.81
357.988	455.81
358.215	477.81
358.441	471.81
358.668	449.81
358.895	453.81
359.122	463.81
359.349	441.81
359.576	440.81
359.802	459.81
360.029	446.81
360.256	469.81
360.483	469.81
360.709	441.81
360.936	456.81
361.163	448.81
361.39	462.81
361.616	464.81
361.843	446.81
362.07	463.81
362.296	459.81
362.523	446.81
362.749	477.81
362.976	470.81
363.203	437.81
363.429	448.81
363.656	463.81
363.882	472.81
364.109	459.81
364.335	479.81
364.562	454.81
364.788	455.81
365.015	473.81
365.241	452.81
365.468	469.81
365.694	445.81
365.92	451.81
366.147	432.81
366.373	480.81
366.599	462.81
366.826	466.81
367.052	466.81
367.278	472.81
367.505	469.81
367.731	487.81
367.957	478.81
368.184	489.81
368.41	477.81
368.636	508.81
368.862	491.81
369.089	476.81
369.315	482.81
369.541	492.81
369.767	478.81
369.993	458.81
370.219	479.81
370.445	486.81
370.672	491.81
370.898	499.81
371.124	490.81
371.35	491.81
371.576	505.81
371.802	492.81
372.028	488.81
372.254	505.81
372.48	517.81
372.706	516.81
372.932	499.81
373.158	505.81
373.384	501.81
373.61	528.81
373.835	517.81
374.061	503.81
374.287	533.81
374.513	517.81
374.739	495.81
374.965	516.81
375.191	525.81
375.416	529.81
375.642	535.81
375.868	543.81
376.094	508.81
376.319	479.81
376.545	492.81
376.771	505.81
376.997	487.81
377.222	505.81
377.448	491.81
377.674	492.81
377.899	500.81
378.125	479.81
378.35	485.81
378.576	493.81
378.802	503.81
379.027	511.81
379.253	496.81
379.478	493.81
379.704	491.81
379.929	487.81
380.155	517.81
380.38	488.81
380.606	500.81
380.831	492.81
381.057	503.81
381.282	499.81
381.507	517.81
381.733	512.81
381.958	511.81
382.184	529.81
382.409	532.81
382.634	531.81
382.86	517.81
383.085	540.81
383.31	506.81
383.535	516.81
383.761	507.81
383.986	563.81
384.211	547.81
384.436	546.81
384.662	535.81
384.887	530.81
385.112	566.81
385.337	563.81
385.562	555.81
385.787	557.81
386.013	559.81
386.238	564.81
386.463	587.81
386.688	573.81
386.913	568.81
387.138	559.81
387.363	548.81
387.588	560.81
387.813	577.81
388.038	581.81
388.263	579.81
388.488	575.81
388.713	576.81
388.938	590.81
389.163	571.81
389.387	593.81
389.612	581.81
389.837	584.81
390.062	594.81
390.287	583.81
390.512	560.81
390.736	569.81
390.961	580.81
391.186	603.81
391.411	600.81
391.636	597.81
391.86	588.81
392.085	592.81
392.31	606.81
392.534	634.81
392.759	607.81
392.984	615.81
393.208	595.81
393.433	593.81
393.658	616.81
393.882	611.81
394.107	601.81
394.331	600.81
394.556	635.81
394.78	593.81
395.005	607.81
395.229	597.81
395.454	624.81
395.678	628.81
395.903	627.81
396.127	598.81
396.352	615.81
396.576	617.81
396.801	621.81
397.025	645.81
397.249	663.81
397.474	639.81
397.698	650.81
397.922	655.81
398.147	653.81
398.371	661.81
398.595	669.81
398.82	665.81
399.044	700.81
399.268	718.81
399.492	779.81
399.717	767.81
399.941	767.81
400.165	772.81
400.389	735.81
400.613	707.81
400.837	700.81
401.062	733.81
401.286	681.81
401.51	669.81
401.734	667.81
401.958	680.81
402.182	665.81
402.406	687.81
402.63	683.81
402.854	668.81
403.078	645.81
403.302	669.81
403.526	680.81
403.75	680.81
403.974	697.81
404.198	678.81
404.422	685.81
404.645	691.81
404.869	679.81
405.093	697.81
405.317	697.81
405.541	734.81
405.765	710.81
405.988	691.81
406.212	718.81
406.436	692.81
406.66	731.81
406.883	703.81
407.107	764.81
407.331	748.81
407.555	752.81
407.778	748.81
408.002	743.81
408.226	771.81
408.449	748.81
408.673	725.81
408.896	725.81
409.12	751.81
409.344	758.81
409.567	720.81
409.791	711.81
410.014	712.81
410.238	705.81
410.461	719.81
410.685	698.81
410.908	703.81
411.132	726.81
411.355	697.81
411.578	707.81
411.802	693.81
412.025	691.81
412.249	680.81
412.472	657.81
412.695	700.81
412.919	702.81
413.142	656.81
413.365	696.81
413.589	676.81
413.812	684.81
414.035	703.81
414.258	673.81
414.482	676.81
414.705	676.81
414.928	669.81
415.151	681.81
415.374	683.81
415.597	682.81
415.821	663.81
416.044	640.81
416.267	643.81
416.49	636.81
416.713	655.81
416.936	667.81
417.159	663.81
417.382	652.81
417.605	622.81
417.828	643.81
418.051	654.81
418.274	654.81
418.497	644.81
418.72	657.81
418.943	631.81
419.166	665.81
419.389	695.81
419.611	691.81
419.834	669.81
420.057	679.81
420.28	637.81
420.503	643.81
420.726	637.81
420.948	647.81
421.171	657.81
421.394	667.81
421.617	655.81
421.839	648.81
422.062	642.81
422.285	624.81
422.507	627.81
422.73	645.81
422.953	636.81
423.175	630.81
423.398	640.81
423.621	613.81
423.843	647.81
424.066	636.81
424.288	639.81
424.511	624.81
424.733	627.81
424.956	645.81
425.178	638.81
425.401	641.81
425.623	646.81
425.846	611.81
426.068	620.81
426.291	635.81
426.513	617.81
426.735	632.81
426.958	647.81
427.18	639.81
427.402	622.81
427.625	624.81
427.847	608.81
428.069	612.81
428.292	615.81
428.514	597.81
428.736	603.81
428.958	634.81
429.181	620.81
429.403	585.81
429.625	591.81
429.847	601.81
430.069	605.81
430.292	589.81
430.514	595.81
430.736	595.81
430.958	614.81
431.18	613.81
431.402	605.81
431.624	614.81
431.846	609.81
432.068	613.81
432.29	628.81
432.512	616.81
432.734	641.81
432.956	616.81
433.178	595.81
433.4	617.81
433.622	627.81
433.844	636.81
434.066	614.81
434.287	612.81
434.509	640.81
434.731	635.81
434.953	669.81
435.175	646.81
435.397	643.81
435.618	628.81
435.84	601.81
436.062	621.81
436.284	608.81
436.505	608.81
436.727	605.81
436.949	604.81
437.17	617.81
437.392	602.81
437.614	612.81
437.835	593.81
438.057	599.81
438.278	585.81
438.5	604.81
438.721	604.81
438.943	601.81
439.165	599.81
439.386	575.81
439.608	620.81
439.829	593.81
440.05	590.81
440.272	606.81
440.493	615.81
440.715	606.81
440.936	621.81
441.158	619.81
441.379	597.81
441.6	632.81
441.822	611.81
442.043	619.81
442.264	627.81
442.486	620.81
442.707	607.81
442.928	628.81
443.149	617.81
443.371	622.81
443.592	620.81
443.813	624.81
444.034	633.81
444.255	633.81
444.476	645.81
444.698	656.81
444.919	649.81
445.14	757.81
445.361	693.81
445.582	633.81
445.803	627.81
446.024	602.81
446.245	632.81
446.466	622.81
446.687	633.81
446.908	606.81
447.129	612.81
447.35	579.81
447.571	594.81
447.792	595.81
448.013	579.81
448.234	565.81
448.455	561.81
448.675	575.81
448.896	550.81
449.117	567.81
449.338	583.81
449.559	560.81
449.779	585.81
450	573.81
450.221	569.81
450.442	574.81
450.662	563.81
450.883	561.81
451.104	568.81
451.324	563.81
451.545	541.81
451.766	565.81
451.986	560.81
452.207	566.81
452.428	567.81
452.648	566.81
452.869	548.81
453.089	520.81
453.31	525.81
453.53	563.81
453.751	568.81
453.971	581.81
454.192	547.81
454.412	514.81
454.633	536.81
454.853	530.81
455.073	527.81
455.294	546.81
455.514	528.81
455.734	524.81
455.955	529.81
456.175	544.81
456.395	540.81
456.616	545.81
456.836	551.81
457.056	576.81
457.276	545.81
457.497	565.81
457.717	560.81
457.937	547.81
458.157	570.81
458.377	566.81
458.598	586.81
458.818	597.81
459.038	576.81
459.258	567.81
459.478	595.81
459.698	615.81
459.918	613.81
460.138	626.81
460.358	629.81
460.578	630.81
460.798	621.81
461.018	663.81
461.238	667.81
461.458	670.81
461.678	644.81
461.898	681.81
462.118	651.81
462.338	700.81
462.558	702.81
462.777	707.81
462.997	712.81
463.217	693.81
463.437	729.81
463.657	720.81
463.876	696.81
464.096	691.81
464.316	700.81
464.536	708.81
464.755	677.81
464.975	658.81
465.195	647.81
465.414	668.81
465.634	643.81
465.854	638.81
466.073	627.81
466.293	635.81
466.512	631.81
466.732	585.81
466.951	630.81
467.171	592.81
467.391	601.81
467.61	604.81
467.829	601.81
468.049	619.81
468.268	595.81
468.488	595.81
468.707	590.81
468.927	596.81
469.146	589.81
469.365	599.81
469.585	602.81
469.804	605.81
470.023	608.81
470.243	593.81
470.462	616.81
470.681	602.81
470.901	603.81
471.12	600.81
471.339	578.81
471.558	595.81
471.777	596.81
471.997	588.81
472.216	593.81
472.435	603.81
472.654	605.81
472.873	601.81
473.092	594.81
473.311	608.81
473.53	600.81
473.749	607.81
473.968	601.81
474.187	601.81
474.406	611.81
474.625	619.81
474.844	607.81
475.063	601.81
475.282	609.81
475.501	631.81
475.72	631.81
475.939	632.81
476.158	623.81
476.377	618.81
476.596	642.81
476.814	627.81
477.033	632.81
477.252	629.81
477.471	649.81
477.69	636.81
477.908	657.81
478.127	685.81
478.346	671.81
478.564	664.81
478.783	670.81
479.002	683.81
479.22	710.81
479.439	693.81
479.658	716.81
479.876	696.81
480.095	691.81
480.313	736.81
480.532	724.81
480.751	739.81
480.969	726.81
481.188	725.81
481.406	729.81
481.624	698.81
481.843	709.81
482.061	717.81
482.28	725.81
482.498	706.81
482.717	706.81
482.935	707.81
483.153	673.81
483.372	716.81
483.59	712.81
483.808	701.81
484.027	730.81
484.245	691.81
484.463	717.81
484.681	730.81
484.9	715.81
485.118	751.81
485.336	724.81
485.554	749.81
485.772	705.81
485.99	735.81
486.209	732.81
486.427	751.81
486.645	720.81
486.863	746.81
487.081	749.81
487.299	743.81
487.517	732.81
487.735	757.81
487.953	748.81
488.171	751.81
488.389	746.81
488.607	700.81
488.825	739.81
489.043	712.81
489.261	721.81
489.479	756.81
489.696	719.81
489.914	720.81
490.132	759.81
490.35	747.81
490.568	712.81
490.786	759.81
491.003	737.81
491.221	722.81
491.439	758.81
491.657	735.81
491.874	748.81
492.092	752.81
492.31	783.81
492.527	740.81
492.745	726.81
492.963	752.81
493.18	786.81
493.398	761.81
493.615	769.81
493.833	756.81
494.05	773.81
494.268	748.81
494.485	767.81
494.703	769.81
494.92	770.81
495.138	742.81
495.355	798.81
495.573	777.81
495.79	772.81
496.008	825.81
496.225	800.81
496.442	814.81
496.66	803.81
496.877	843.81
497.094	826.81
497.312	842.81
497.529	836.81
497.746	887.81
497.963	889.81
498.181	912.81
498.398	925.81
498.615	976.81
498.832	1012.81
499.049	995.81
499.267	1037.81
499.484	1083.81
499.701	1105.81
499.918	1163.81
500.135	1193.81
500.352	1233.81
500.569	1237.81
500.786	1259.81
501.003	1232.81
501.22	1200.81
501.437	1101.81
