Data from Fe(NO3)3@0.05M.TitratingCurve.Agarose3%dH2O.NegLispCup.LampEnergy10.LIBS07252019_HRD10591_16-47-43-334.txt Node
Date: Thu Jul 25 16:47:43 EDT 2019
User: cochatt
Spectrometer: HR+D1059
Trigger mode: 1
Integration Time (sec): 1.000000E-1
Scans to average: 1
Electric dark correction enabled: true
Nonlinearity correction enabled: false
Boxcar width: 0
XAxis mode: Wavelengths
Number of Pixels in Spectrum: 2048
>>>>>Begin Spectral Data<<<<<
223.165	-7.88
223.4	-7.88
223.635	-7.88
223.869	-1.88
224.104	-18.88
224.338	-13.88
224.573	-13.88
224.808	-10.88
225.042	-2.88
225.277	-0.88
225.511	-20.88
225.746	14.12
225.98	5.12
226.215	8.12
226.449	8.12
226.683	18.12
226.918	27.12
227.152	11.12
227.387	43.12
227.621	33.12
227.856	36.12
228.09	56.12
228.324	48.12
228.559	45.12
228.793	70.12
229.027	84.12
229.262	75.12
229.496	105.12
229.73	82.12
229.964	80.12
230.199	88.12
230.433	95.12
230.667	101.12
230.901	85.12
231.136	90.12
231.37	97.12
231.604	107.12
231.838	105.12
232.072	108.12
232.306	94.12
232.541	118.12
232.775	112.12
233.009	133.12
233.243	105.12
233.477	112.12
233.711	109.12
233.945	96.12
234.179	103.12
234.413	111.12
234.647	102.12
234.881	105.12
235.115	118.12
235.349	106.12
235.583	100.12
235.817	112.12
236.051	118.12
236.285	121.12
236.519	119.12
236.753	108.12
236.987	112.12
237.221	110.12
237.455	120.12
237.689	118.12
237.922	142.12
238.156	118.12
238.39	120.12
238.624	108.12
238.858	128.12
239.091	111.12
239.325	129.12
239.559	122.12
239.793	126.12
240.027	126.12
240.26	134.12
240.494	120.12
240.728	132.12
240.961	125.12
241.195	120.12
241.429	113.12
241.662	123.12
241.896	134.12
242.13	112.12
242.363	139.12
242.597	133.12
242.83	114.12
243.064	125.12
243.298	140.12
243.531	135.12
243.765	124.12
243.998	119.12
244.232	135.12
244.465	144.12
244.699	132.12
244.932	125.12
245.166	128.12
245.399	128.12
245.633	128.12
245.866	126.12
246.099	127.12
246.333	140.12
246.566	138.12
246.8	141.12
247.033	132.12
247.266	150.12
247.5	153.12
247.733	136.12
247.966	140.12
248.2	140.12
248.433	155.12
248.666	160.12
248.899	160.12
249.133	155.12
249.366	155.12
249.599	167.12
249.832	141.12
250.066	148.12
250.299	156.12
250.532	162.12
250.765	148.12
250.998	157.12
251.231	164.12
251.465	166.12
251.698	180.12
251.931	139.12
252.164	155.12
252.397	173.12
252.63	173.12
252.863	160.12
253.096	147.12
253.329	163.12
253.562	166.12
253.795	157.12
254.028	168.12
254.261	165.12
254.494	168.12
254.727	172.12
254.96	158.12
255.193	177.12
255.426	172.12
255.659	159.12
255.892	189.12
256.124	173.12
256.357	165.12
256.59	165.12
256.823	168.12
257.056	164.12
257.289	180.12
257.521	159.12
257.754	170.12
257.987	186.12
258.22	175.12
258.452	172.12
258.685	171.12
258.918	174.12
259.151	179.12
259.383	179.12
259.616	177.12
259.849	182.12
260.081	211.12
260.314	208.12
260.547	189.12
260.779	187.12
261.012	177.12
261.244	201.12
261.477	201.12
261.71	201.12
261.942	194.12
262.175	187.12
262.407	186.12
262.64	201.12
262.872	183.12
263.105	197.12
263.337	209.12
263.57	192.12
263.802	181.12
264.035	198.12
264.267	196.12
264.499	179.12
264.732	199.12
264.964	190.12
265.197	206.12
265.429	195.12
265.661	184.12
265.894	184.12
266.126	195.12
266.358	192.12
266.591	201.12
266.823	196.12
267.055	184.12
267.287	187.12
267.52	211.12
267.752	197.12
267.984	207.12
268.216	202.12
268.448	186.12
268.681	191.12
268.913	205.12
269.145	201.12
269.377	198.12
269.609	201.12
269.841	210.12
270.073	196.12
270.306	183.12
270.538	214.12
270.77	188.12
271.002	205.12
271.234	196.12
271.466	230.12
271.698	205.12
271.93	229.12
272.162	210.12
272.394	203.12
272.626	223.12
272.858	209.12
273.09	225.12
273.322	206.12
273.553	221.12
273.785	212.12
274.017	236.12
274.249	240.12
274.481	240.12
274.713	250.12
274.945	257.12
275.176	234.12
275.408	239.12
275.64	257.12
275.872	259.12
276.104	236.12
276.335	231.12
276.567	238.12
276.799	240.12
277.031	224.12
277.262	227.12
277.494	233.12
277.726	240.12
277.957	223.12
278.189	240.12
278.421	234.12
278.652	252.12
278.884	213.12
279.115	246.12
279.347	243.12
279.579	234.12
279.81	231.12
280.042	228.12
280.273	239.12
280.505	229.12
280.736	229.12
280.968	236.12
281.199	240.12
281.431	246.12
281.662	252.12
281.894	237.12
282.125	249.12
282.356	261.12
282.588	221.12
282.819	224.12
283.051	242.12
283.282	256.12
283.513	249.12
283.745	236.12
283.976	250.12
284.207	256.12
284.439	250.12
284.67	259.12
284.901	245.12
285.132	248.12
285.364	261.12
285.595	234.12
285.826	259.12
286.057	254.12
286.288	251.12
286.52	250.12
286.751	260.12
286.982	251.12
287.213	260.12
287.444	262.12
287.675	259.12
287.906	254.12
288.138	269.12
288.369	267.12
288.6	267.12
288.831	254.12
289.062	249.12
289.293	272.12
289.524	272.12
289.755	275.12
289.986	262.12
290.217	254.12
290.448	269.12
290.679	274.12
290.91	276.12
291.141	262.12
291.371	268.12
291.602	277.12
291.833	260.12
292.064	272.12
292.295	277.12
292.526	277.12
292.757	258.12
292.987	259.12
293.218	271.12
293.449	269.12
293.68	268.12
293.91	252.12
294.141	260.12
294.372	281.12
294.603	271.12
294.833	266.12
295.064	268.12
295.295	277.12
295.525	283.12
295.756	294.12
295.987	290.12
296.217	279.12
296.448	289.12
296.679	281.12
296.909	258.12
297.14	280.12
297.37	296.12
297.601	291.12
297.831	282.12
298.062	307.12
298.292	282.12
298.523	282.12
298.753	304.12
298.984	281.12
299.214	283.12
299.445	304.12
299.675	309.12
299.905	276.12
300.136	316.12
300.366	277.12
300.597	290.12
300.827	288.12
301.057	296.12
301.288	297.12
301.518	322.12
301.748	303.12
301.979	298.12
302.209	345.12
302.439	326.12
302.669	302.12
302.9	317.12
303.13	306.12
303.36	322.12
303.59	306.12
303.82	307.12
304.051	301.12
304.281	304.12
304.511	320.12
304.741	307.12
304.971	302.12
305.201	314.12
305.431	301.12
305.661	312.12
305.891	306.12
306.121	298.12
306.352	304.12
306.582	295.12
306.812	319.12
307.042	303.12
307.272	292.12
307.502	312.12
307.731	314.12
307.961	314.12
308.191	282.12
308.421	310.12
308.651	287.12
308.881	297.12
309.111	301.12
309.341	297.12
309.571	298.12
309.8	306.12
310.03	290.12
310.26	311.12
310.49	301.12
310.72	310.12
310.949	294.12
311.179	318.12
311.409	312.12
311.639	324.12
311.868	322.12
312.098	300.12
312.328	316.12
312.557	326.12
312.787	310.12
313.017	321.12
313.246	322.12
313.476	304.12
313.706	336.12
313.935	330.12
314.165	315.12
314.394	321.12
314.624	320.12
314.853	314.12
315.083	349.12
315.312	315.12
315.542	321.12
315.771	324.12
316.001	314.12
316.23	315.12
316.46	324.12
316.689	325.12
316.919	326.12
317.148	305.12
317.377	331.12
317.607	326.12
317.836	332.12
318.065	322.12
318.295	319.12
318.524	314.12
318.753	329.12
318.983	329.12
319.212	313.12
319.441	303.12
319.67	308.12
319.9	327.12
320.129	319.12
320.358	310.12
320.587	322.12
320.816	329.12
321.046	343.12
321.275	324.12
321.504	327.12
321.733	299.12
321.962	328.12
322.191	308.12
322.42	334.12
322.649	327.12
322.878	321.12
323.108	333.12
323.337	345.12
323.566	324.12
323.795	328.12
324.024	330.12
324.253	329.12
324.482	329.12
324.71	343.12
324.939	344.12
325.168	330.12
325.397	360.12
325.626	349.12
325.855	354.12
326.084	371.12
326.313	342.12
326.542	358.12
326.77	383.12
326.999	334.12
327.228	346.12
327.457	360.12
327.686	361.12
327.914	361.12
328.143	363.12
328.372	372.12
328.6	361.12
328.829	343.12
329.058	338.12
329.287	356.12
329.515	369.12
329.744	357.12
329.972	358.12
330.201	349.12
330.43	357.12
330.658	364.12
330.887	376.12
331.115	378.12
331.344	352.12
331.572	378.12
331.801	388.12
332.03	391.12
332.258	368.12
332.486	392.12
332.715	425.12
332.943	394.12
333.172	414.12
333.4	422.12
333.629	433.12
333.857	451.12
334.085	439.12
334.314	444.12
334.542	436.12
334.771	444.12
334.999	429.12
335.227	436.12
335.455	417.12
335.684	425.12
335.912	429.12
336.14	413.12
336.369	411.12
336.597	421.12
336.825	407.12
337.053	398.12
337.281	395.12
337.51	396.12
337.738	415.12
337.966	392.12
338.194	384.12
338.422	379.12
338.65	379.12
338.878	380.12
339.106	368.12
339.334	394.12
339.562	371.12
339.79	361.12
340.018	372.12
340.246	353.12
340.474	362.12
340.702	374.12
340.93	368.12
341.158	376.12
341.386	386.12
341.614	376.12
341.842	361.12
342.07	346.12
342.298	363.12
342.526	368.12
342.754	394.12
342.981	378.12
343.209	389.12
343.437	384.12
343.665	414.12
343.893	426.12
344.12	444.12
344.348	424.12
344.576	421.12
344.804	405.12
345.031	382.12
345.259	364.12
345.487	372.12
345.714	374.12
345.942	363.12
346.17	376.12
346.397	377.12
346.625	361.12
346.853	390.12
347.08	371.12
347.308	362.12
347.535	366.12
347.763	356.12
347.99	388.12
348.218	370.12
348.445	368.12
348.673	364.12
348.9	359.12
349.128	386.12
349.355	358.12
349.583	360.12
349.81	349.12
350.037	365.12
350.265	368.12
350.492	364.12
350.72	349.12
350.947	347.12
351.174	350.12
351.402	371.12
351.629	352.12
351.856	364.12
352.083	346.12
352.311	348.12
352.538	352.12
352.765	360.12
352.992	348.12
353.22	347.12
353.447	364.12
353.674	364.12
353.901	349.12
354.128	347.12
354.355	347.12
354.583	353.12
354.81	346.12
355.037	349.12
355.264	364.12
355.491	348.12
355.718	369.12
355.945	369.12
356.172	352.12
356.399	361.12
356.626	358.12
356.853	366.12
357.08	372.12
357.307	374.12
357.534	357.12
357.761	389.12
357.988	385.12
358.215	361.12
358.441	356.12
358.668	378.12
358.895	365.12
359.122	359.12
359.349	350.12
359.576	370.12
359.802	370.12
360.029	355.12
360.256	344.12
360.483	365.12
360.709	364.12
360.936	371.12
361.163	382.12
361.39	365.12
361.616	357.12
361.843	352.12
362.07	361.12
362.296	365.12
362.523	368.12
362.749	364.12
362.976	361.12
363.203	385.12
363.429	370.12
363.656	373.12
363.882	365.12
364.109	378.12
364.335	374.12
364.562	348.12
364.788	342.12
365.015	378.12
365.241	366.12
365.468	363.12
365.694	365.12
365.92	355.12
366.147	350.12
366.373	358.12
366.599	361.12
366.826	354.12
367.052	352.12
367.278	369.12
367.505	359.12
367.731	378.12
367.957	371.12
368.184	378.12
368.41	361.12
368.636	375.12
368.862	381.12
369.089	379.12
369.315	385.12
369.541	394.12
369.767	374.12
369.993	370.12
370.219	365.12
370.445	386.12
370.672	380.12
370.898	390.12
371.124	390.12
371.35	394.12
371.576	382.12
371.802	385.12
372.028	391.12
372.254	429.12
372.48	416.12
372.706	398.12
372.932	398.12
373.158	404.12
373.384	390.12
373.61	428.12
373.835	421.12
374.061	410.12
374.287	411.12
374.513	415.12
374.739	408.12
374.965	450.12
375.191	444.12
375.416	413.12
375.642	408.12
375.868	411.12
376.094	410.12
376.319	412.12
376.545	422.12
376.771	385.12
376.997	402.12
377.222	410.12
377.448	398.12
377.674	404.12
377.899	384.12
378.125	371.12
378.35	405.12
378.576	398.12
378.802	393.12
379.027	403.12
379.253	418.12
379.478	379.12
379.704	408.12
379.929	396.12
380.155	393.12
380.38	409.12
380.606	395.12
380.831	397.12
381.057	426.12
381.282	407.12
381.507	412.12
381.733	417.12
381.958	406.12
382.184	429.12
382.409	427.12
382.634	449.12
382.86	434.12
383.085	444.12
383.31	443.12
383.535	438.12
383.761	436.12
383.986	422.12
384.211	448.12
384.436	447.12
384.662	433.12
384.887	448.12
385.112	481.12
385.337	480.12
385.562	491.12
385.787	485.12
386.013	490.12
386.238	484.12
386.463	488.12
386.688	471.12
386.913	460.12
387.138	488.12
387.363	472.12
387.588	474.12
387.813	479.12
388.038	473.12
388.263	481.12
388.488	448.12
388.713	463.12
388.938	460.12
389.163	464.12
389.387	450.12
389.612	471.12
389.837	497.12
390.062	458.12
390.287	488.12
390.512	486.12
390.736	465.12
390.961	489.12
391.186	489.12
391.411	501.12
391.636	521.12
391.86	507.12
392.085	533.12
392.31	519.12
392.534	520.12
392.759	501.12
392.984	487.12
393.208	507.12
393.433	480.12
393.658	490.12
393.882	509.12
394.107	501.12
394.331	487.12
394.556	488.12
394.78	498.12
395.005	522.12
395.229	497.12
395.454	530.12
395.678	525.12
395.903	535.12
396.127	536.12
396.352	498.12
396.576	510.12
396.801	512.12
397.025	509.12
397.249	532.12
397.474	526.12
397.698	535.12
397.922	542.12
398.147	548.12
398.371	541.12
398.595	561.12
398.82	570.12
399.044	624.12
399.268	650.12
399.492	704.12
399.717	763.12
399.941	754.12
400.165	738.12
400.389	671.12
400.613	644.12
400.837	605.12
401.062	597.12
401.286	612.12
401.51	581.12
401.734	574.12
401.958	589.12
402.182	587.12
402.406	602.12
402.63	597.12
402.854	611.12
403.078	614.12
403.302	600.12
403.526	616.12
403.75	639.12
403.974	641.12
404.198	626.12
404.422	645.12
404.645	642.12
404.869	632.12
405.093	639.12
405.317	605.12
405.541	640.12
405.765	636.12
405.988	636.12
406.212	636.12
406.436	646.12
406.66	668.12
406.883	658.12
407.107	673.12
407.331	716.12
407.555	722.12
407.778	724.12
408.002	718.12
408.226	675.12
408.449	670.12
408.673	660.12
408.896	642.12
409.12	621.12
409.344	632.12
409.567	646.12
409.791	650.12
410.014	620.12
410.238	620.12
410.461	630.12
410.685	632.12
410.908	619.12
411.132	588.12
411.355	625.12
411.578	632.12
411.802	599.12
412.025	608.12
412.249	635.12
412.472	618.12
412.695	596.12
412.919	608.12
413.142	595.12
413.365	624.12
413.589	611.12
413.812	582.12
414.035	582.12
414.258	596.12
414.482	617.12
414.705	588.12
414.928	594.12
415.151	582.12
415.374	578.12
415.597	585.12
415.821	588.12
416.044	608.12
416.267	602.12
416.49	582.12
416.713	586.12
416.936	556.12
417.159	594.12
417.382	571.12
417.605	560.12
417.828	583.12
418.051	590.12
418.274	569.12
418.497	585.12
418.72	569.12
418.943	590.12
419.166	598.12
419.389	651.12
419.611	644.12
419.834	632.12
420.057	596.12
420.28	576.12
420.503	579.12
420.726	584.12
420.948	573.12
421.171	586.12
421.394	569.12
421.617	588.12
421.839	567.12
422.062	588.12
422.285	584.12
422.507	582.12
422.73	595.12
422.953	607.12
423.175	598.12
423.398	575.12
423.621	591.12
423.843	618.12
424.066	587.12
424.288	585.12
424.511	620.12
424.733	602.12
424.956	578.12
425.178	599.12
425.401	594.12
425.623	571.12
425.846	582.12
426.068	581.12
426.291	569.12
426.513	552.12
426.735	560.12
426.958	580.12
427.18	539.12
427.402	570.12
427.625	566.12
427.847	523.12
428.069	541.12
428.292	549.12
428.514	523.12
428.736	544.12
428.958	518.12
429.181	522.12
429.403	533.12
429.625	543.12
429.847	516.12
430.069	523.12
430.292	545.12
430.514	505.12
430.736	530.12
430.958	505.12
431.18	532.12
431.402	538.12
431.624	523.12
431.846	561.12
432.068	540.12
432.29	537.12
432.512	540.12
432.734	535.12
432.956	540.12
433.178	553.12
433.4	550.12
433.622	554.12
433.844	579.12
434.066	537.12
434.287	541.12
434.509	569.12
434.731	562.12
434.953	582.12
435.175	599.12
435.397	588.12
435.618	568.12
435.84	580.12
436.062	549.12
436.284	537.12
436.505	568.12
436.727	571.12
436.949	548.12
437.17	552.12
437.392	531.12
437.614	530.12
437.835	521.12
438.057	508.12
438.278	527.12
438.5	518.12
438.721	551.12
438.943	546.12
439.165	534.12
439.386	538.12
439.608	543.12
439.829	570.12
440.05	569.12
440.272	520.12
440.493	554.12
440.715	575.12
440.936	566.12
441.158	590.12
441.379	540.12
441.6	586.12
441.822	592.12
442.043	606.12
442.264	597.12
442.486	571.12
442.707	596.12
442.928	597.12
443.149	603.12
443.371	596.12
443.592	565.12
443.813	600.12
444.034	612.12
444.255	617.12
444.476	648.12
444.698	644.12
444.919	659.12
445.14	764.12
445.361	675.12
445.582	619.12
445.803	613.12
446.024	580.12
446.245	574.12
446.466	577.12
446.687	555.12
446.908	564.12
447.129	558.12
447.35	552.12
447.571	554.12
447.792	533.12
448.013	537.12
448.234	511.12
448.455	541.12
448.675	532.12
448.896	512.12
449.117	526.12
449.338	522.12
449.559	516.12
449.779	492.12
450	498.12
450.221	524.12
450.442	502.12
450.662	516.12
450.883	526.12
451.104	514.12
451.324	529.12
451.545	498.12
451.766	514.12
451.986	494.12
452.207	501.12
452.428	496.12
452.648	512.12
452.869	500.12
453.089	492.12
453.31	476.12
453.53	487.12
453.751	497.12
453.971	480.12
454.192	490.12
454.412	480.12
454.633	492.12
454.853	485.12
455.073	463.12
455.294	498.12
455.514	498.12
455.734	493.12
455.955	476.12
456.175	475.12
456.395	483.12
456.616	480.12
456.836	484.12
457.056	499.12
457.276	481.12
457.497	489.12
457.717	475.12
457.937	489.12
458.157	502.12
458.377	521.12
458.598	492.12
458.818	496.12
459.038	513.12
459.258	542.12
459.478	546.12
459.698	570.12
459.918	554.12
460.138	585.12
460.358	608.12
460.578	598.12
460.798	629.12
461.018	602.12
461.238	609.12
461.458	616.12
461.678	632.12
461.898	631.12
462.118	634.12
462.338	658.12
462.558	676.12
462.777	679.12
462.997	728.12
463.217	749.12
463.437	735.12
463.657	717.12
463.876	705.12
464.096	690.12
464.316	674.12
464.536	690.12
464.755	658.12
464.975	643.12
465.195	637.12
465.414	606.12
465.634	605.12
465.854	568.12
466.073	560.12
466.293	570.12
466.512	560.12
466.732	565.12
466.951	571.12
467.171	525.12
467.391	534.12
467.61	544.12
467.829	549.12
468.049	519.12
468.268	549.12
468.488	509.12
468.707	530.12
468.927	537.12
469.146	530.12
469.365	538.12
469.585	509.12
469.804	542.12
470.023	544.12
470.243	564.12
470.462	549.12
470.681	544.12
470.901	572.12
471.12	544.12
471.339	535.12
471.558	516.12
471.777	522.12
471.997	518.12
472.216	499.12
472.435	542.12
472.654	535.12
472.873	508.12
473.092	508.12
473.311	537.12
473.53	522.12
473.749	519.12
473.968	533.12
474.187	524.12
474.406	525.12
474.625	512.12
474.844	512.12
475.063	529.12
475.282	517.12
475.501	516.12
475.72	524.12
475.939	537.12
476.158	530.12
476.377	552.12
476.596	557.12
476.814	558.12
477.033	554.12
477.252	566.12
477.471	592.12
477.69	562.12
477.908	573.12
478.127	587.12
478.346	610.12
478.564	583.12
478.783	627.12
479.002	636.12
479.22	629.12
479.439	637.12
479.658	622.12
479.876	622.12
480.095	640.12
480.313	663.12
480.532	652.12
480.751	642.12
480.969	599.12
481.188	630.12
481.406	625.12
481.624	588.12
481.843	602.12
482.061	606.12
482.28	602.12
482.498	611.12
482.717	596.12
482.935	609.12
483.153	594.12
483.372	570.12
483.59	581.12
483.808	577.12
484.027	562.12
484.245	583.12
484.463	585.12
484.681	580.12
484.9	601.12
485.118	595.12
485.336	596.12
485.554	577.12
485.772	596.12
485.99	579.12
486.209	590.12
486.427	583.12
486.645	607.12
486.863	580.12
487.081	629.12
487.299	611.12
487.517	627.12
487.735	584.12
487.953	598.12
488.171	620.12
488.389	611.12
488.607	613.12
488.825	599.12
489.043	585.12
489.261	615.12
489.479	603.12
489.696	601.12
489.914	628.12
490.132	614.12
490.35	610.12
490.568	597.12
490.786	636.12
491.003	616.12
491.221	652.12
491.439	621.12
491.657	639.12
491.874	639.12
492.092	639.12
492.31	626.12
492.527	645.12
492.745	644.12
492.963	617.12
493.18	644.12
493.398	627.12
493.615	658.12
493.833	636.12
494.05	650.12
494.268	658.12
494.485	639.12
494.703	652.12
494.92	647.12
495.138	634.12
495.355	661.12
495.573	649.12
495.79	666.12
496.008	667.12
496.225	677.12
496.442	669.12
496.66	670.12
496.877	714.12
497.094	672.12
497.312	682.12
497.529	728.12
497.746	726.12
497.963	731.12
498.181	772.12
498.398	790.12
498.615	833.12
498.832	890.12
499.049	912.12
499.267	956.12
499.484	1024.12
499.701	1108.12
499.918	1208.12
500.135	1319.12
500.352	1429.12
500.569	1458.12
500.786	1440.12
501.003	1347.12
501.22	1296.12
501.437	1180.12
501.654	1053.12
