Data from Fe(NO3)3@0.1M.TitratingCurve.Agarose3%dH2O.NegLispCup.LampEnergy10.LIBS07252019_HRD10591_16-37-30-331.txt Node
Date: Thu Jul 25 16:37:30 EDT 2019
User: cochatt
Spectrometer: HR+D1059
Trigger mode: 1
Integration Time (sec): 1.000000E-1
Scans to average: 1
Electric dark correction enabled: true
Nonlinearity correction enabled: false
Boxcar width: 0
XAxis mode: Wavelengths
Number of Pixels in Spectrum: 2048
>>>>>Begin Spectral Data<<<<<
223.165	-12.06
223.4	-12.06
223.635	-12.06
223.869	-17.06
224.104	-22.06
224.338	-6.06
224.573	-18.06
224.808	-22.06
225.042	-11.06
225.277	-8.06
225.511	4.94
225.746	-0.06
225.98	5.94
226.215	4.94
226.449	22.94
226.683	19.94
226.918	26.94
227.152	30.94
227.387	42.94
227.621	46.94
227.856	42.94
228.09	42.94
228.324	47.94
228.559	42.94
228.793	67.94
229.027	69.94
229.262	67.94
229.496	70.94
229.73	89.94
229.964	90.94
230.199	75.94
230.433	60.94
230.667	90.94
230.901	89.94
231.136	82.94
231.37	66.94
231.604	84.94
231.838	84.94
232.072	87.94
232.306	86.94
232.541	82.94
232.775	86.94
233.009	97.94
233.243	93.94
233.477	86.94
233.711	89.94
233.945	90.94
234.179	86.94
234.413	75.94
234.647	77.94
234.881	78.94
235.115	72.94
235.349	91.94
235.583	87.94
235.817	73.94
236.051	92.94
236.285	79.94
236.519	74.94
236.753	86.94
236.987	83.94
237.221	84.94
237.455	75.94
237.689	70.94
237.922	84.94
238.156	75.94
238.39	85.94
238.624	73.94
238.858	82.94
239.091	77.94
239.325	82.94
239.559	73.94
239.793	70.94
240.027	92.94
240.26	60.94
240.494	82.94
240.728	83.94
240.961	78.94
241.195	84.94
241.429	79.94
241.662	77.94
241.896	73.94
242.13	70.94
242.363	90.94
242.597	72.94
242.83	87.94
243.064	81.94
243.298	82.94
243.531	99.94
243.765	90.94
243.998	77.94
244.232	78.94
244.465	97.94
244.699	89.94
244.932	84.94
245.166	93.94
245.399	84.94
245.633	93.94
245.866	76.94
246.099	78.94
246.333	77.94
246.566	76.94
246.8	91.94
247.033	91.94
247.266	82.94
247.5	79.94
247.733	62.94
247.966	94.94
248.2	88.94
248.433	80.94
248.666	77.94
248.899	79.94
249.133	79.94
249.366	91.94
249.599	82.94
249.832	82.94
250.066	72.94
250.299	84.94
250.532	87.94
250.765	86.94
250.998	89.94
251.231	82.94
251.465	101.94
251.698	89.94
251.931	82.94
252.164	82.94
252.397	75.94
252.63	88.94
252.863	91.94
253.096	82.94
253.329	83.94
253.562	84.94
253.795	86.94
254.028	89.94
254.261	86.94
254.494	86.94
254.727	93.94
254.96	94.94
255.193	91.94
255.426	77.94
255.659	84.94
255.892	94.94
256.124	101.94
256.357	84.94
256.59	101.94
256.823	99.94
257.056	97.94
257.289	106.94
257.521	79.94
257.754	80.94
257.987	83.94
258.22	86.94
258.452	82.94
258.685	110.94
258.918	93.94
259.151	106.94
259.383	93.94
259.616	93.94
259.849	87.94
260.081	98.94
260.314	81.94
260.547	89.94
260.779	107.94
261.012	95.94
261.244	100.94
261.477	99.94
261.71	102.94
261.942	94.94
262.175	74.94
262.407	92.94
262.64	91.94
262.872	99.94
263.105	88.94
263.337	89.94
263.57	99.94
263.802	102.94
264.035	91.94
264.267	89.94
264.499	86.94
264.732	98.94
264.964	97.94
265.197	99.94
265.429	82.94
265.661	100.94
265.894	87.94
266.126	98.94
266.358	95.94
266.591	89.94
266.823	100.94
267.055	94.94
267.287	92.94
267.52	97.94
267.752	94.94
267.984	97.94
268.216	82.94
268.448	83.94
268.681	92.94
268.913	92.94
269.145	90.94
269.377	101.94
269.609	104.94
269.841	102.94
270.073	95.94
270.306	96.94
270.538	88.94
270.77	100.94
271.002	91.94
271.234	106.94
271.466	87.94
271.698	102.94
271.93	95.94
272.162	101.94
272.394	89.94
272.626	94.94
272.858	102.94
273.09	104.94
273.322	86.94
273.553	92.94
273.785	92.94
274.017	99.94
274.249	93.94
274.481	93.94
274.713	107.94
274.945	92.94
275.176	107.94
275.408	116.94
275.64	103.94
275.872	105.94
276.104	98.94
276.335	94.94
276.567	80.94
276.799	93.94
277.031	90.94
277.262	101.94
277.494	98.94
277.726	94.94
277.957	98.94
278.189	91.94
278.421	96.94
278.652	105.94
278.884	105.94
279.115	90.94
279.347	88.94
279.579	107.94
279.81	105.94
280.042	113.94
280.273	101.94
280.505	106.94
280.736	103.94
280.968	95.94
281.199	92.94
281.431	102.94
281.662	97.94
281.894	98.94
282.125	99.94
282.356	97.94
282.588	107.94
282.819	94.94
283.051	107.94
283.282	110.94
283.513	98.94
283.745	90.94
283.976	109.94
284.207	86.94
284.439	96.94
284.67	108.94
284.901	94.94
285.132	109.94
285.364	96.94
285.595	98.94
285.826	91.94
286.057	100.94
286.288	89.94
286.52	105.94
286.751	105.94
286.982	109.94
287.213	95.94
287.444	93.94
287.675	102.94
287.906	107.94
288.138	115.94
288.369	104.94
288.6	102.94
288.831	95.94
289.062	96.94
289.293	91.94
289.524	91.94
289.755	84.94
289.986	92.94
290.217	94.94
290.448	100.94
290.679	92.94
290.91	85.94
291.141	97.94
291.371	87.94
291.602	107.94
291.833	101.94
292.064	103.94
292.295	101.94
292.526	111.94
292.757	101.94
292.987	99.94
293.218	98.94
293.449	114.94
293.68	89.94
293.91	105.94
294.141	105.94
294.372	102.94
294.603	115.94
294.833	101.94
295.064	106.94
295.295	97.94
295.525	90.94
295.756	114.94
295.987	110.94
296.217	107.94
296.448	101.94
296.679	90.94
296.909	108.94
297.14	112.94
297.37	108.94
297.601	92.94
297.831	90.94
298.062	100.94
298.292	109.94
298.523	111.94
298.753	100.94
298.984	101.94
299.214	103.94
299.445	108.94
299.675	109.94
299.905	91.94
300.136	104.94
300.366	90.94
300.597	103.94
300.827	103.94
301.057	113.94
301.288	94.94
301.518	116.94
301.748	102.94
301.979	106.94
302.209	108.94
302.439	94.94
302.669	98.94
302.9	109.94
303.13	94.94
303.36	108.94
303.59	109.94
303.82	95.94
304.051	126.94
304.281	108.94
304.511	106.94
304.741	104.94
304.971	93.94
305.201	106.94
305.431	106.94
305.661	96.94
305.891	121.94
306.121	101.94
306.352	117.94
306.582	116.94
306.812	104.94
307.042	106.94
307.272	81.94
307.502	97.94
307.731	106.94
307.961	107.94
308.191	113.94
308.421	125.94
308.651	91.94
308.881	117.94
309.111	109.94
309.341	106.94
309.571	108.94
309.8	118.94
310.03	100.94
310.26	115.94
310.49	119.94
310.72	91.94
310.949	92.94
311.179	109.94
311.409	109.94
311.639	94.94
311.868	107.94
312.098	106.94
312.328	117.94
312.557	112.94
312.787	114.94
313.017	103.94
313.246	105.94
313.476	111.94
313.706	114.94
313.935	115.94
314.165	110.94
314.394	110.94
314.624	118.94
314.853	97.94
315.083	113.94
315.312	111.94
315.542	105.94
315.771	108.94
316.001	98.94
316.23	127.94
316.46	113.94
316.689	115.94
316.919	108.94
317.148	99.94
317.377	117.94
317.607	125.94
317.836	111.94
318.065	95.94
318.295	109.94
318.524	106.94
318.753	115.94
318.983	117.94
319.212	116.94
319.441	102.94
319.67	107.94
319.9	100.94
320.129	121.94
320.358	95.94
320.587	99.94
320.816	121.94
321.046	119.94
321.275	94.94
321.504	107.94
321.733	101.94
321.962	119.94
322.191	94.94
322.42	103.94
322.649	95.94
322.878	122.94
323.108	110.94
323.337	119.94
323.566	105.94
323.795	104.94
324.024	111.94
324.253	107.94
324.482	110.94
324.71	111.94
324.939	126.94
325.168	122.94
325.397	114.94
325.626	117.94
325.855	102.94
326.084	135.94
326.313	119.94
326.542	105.94
326.77	122.94
326.999	92.94
327.228	121.94
327.457	110.94
327.686	115.94
327.914	116.94
328.143	118.94
328.372	107.94
328.6	106.94
328.829	118.94
329.058	114.94
329.287	105.94
329.515	104.94
329.744	124.94
329.972	112.94
330.201	105.94
330.43	120.94
330.658	124.94
330.887	111.94
331.115	121.94
331.344	103.94
331.572	113.94
331.801	117.94
332.03	103.94
332.258	111.94
332.486	121.94
332.715	113.94
332.943	110.94
333.172	130.94
333.4	123.94
333.629	121.94
333.857	118.94
334.085	119.94
334.314	127.94
334.542	107.94
334.771	127.94
334.999	116.94
335.227	97.94
335.455	115.94
335.684	118.94
335.912	111.94
336.14	123.94
336.369	116.94
336.597	112.94
336.825	108.94
337.053	120.94
337.281	122.94
337.51	117.94
337.738	115.94
337.966	106.94
338.194	105.94
338.422	105.94
338.65	106.94
338.878	117.94
339.106	107.94
339.334	118.94
339.562	117.94
339.79	110.94
340.018	115.94
340.246	113.94
340.474	111.94
340.702	105.94
340.93	114.94
341.158	119.94
341.386	115.94
341.614	134.94
341.842	113.94
342.07	104.94
342.298	126.94
342.526	127.94
342.754	109.94
342.981	121.94
343.209	110.94
343.437	131.94
343.665	103.94
343.893	117.94
344.12	123.94
344.348	130.94
344.576	117.94
344.804	106.94
345.031	121.94
345.259	118.94
345.487	121.94
345.714	110.94
345.942	108.94
346.17	101.94
346.397	132.94
346.625	119.94
346.853	123.94
347.08	110.94
347.308	118.94
347.535	106.94
347.763	126.94
347.99	117.94
348.218	107.94
348.445	113.94
348.673	123.94
348.9	103.94
349.128	134.94
349.355	124.94
349.583	130.94
349.81	102.94
350.037	129.94
350.265	115.94
350.492	115.94
350.72	107.94
350.947	121.94
351.174	119.94
351.402	119.94
351.629	109.94
351.856	99.94
352.083	102.94
352.311	117.94
352.538	109.94
352.765	108.94
352.992	120.94
353.22	113.94
353.447	123.94
353.674	119.94
353.901	126.94
354.128	113.94
354.355	117.94
354.583	125.94
354.81	118.94
355.037	110.94
355.264	117.94
355.491	108.94
355.718	106.94
355.945	108.94
356.172	121.94
356.399	117.94
356.626	121.94
356.853	137.94
357.08	126.94
357.307	117.94
357.534	108.94
357.761	119.94
357.988	131.94
358.215	141.94
358.441	130.94
358.668	128.94
358.895	115.94
359.122	117.94
359.349	117.94
359.576	129.94
359.802	130.94
360.029	119.94
360.256	115.94
360.483	123.94
360.709	121.94
360.936	110.94
361.163	110.94
361.39	111.94
361.616	125.94
361.843	113.94
362.07	128.94
362.296	126.94
362.523	108.94
362.749	113.94
362.976	120.94
363.203	128.94
363.429	120.94
363.656	114.94
363.882	118.94
364.109	111.94
364.335	123.94
364.562	127.94
364.788	124.94
365.015	135.94
365.241	125.94
365.468	109.94
365.694	125.94
365.92	138.94
366.147	137.94
366.373	105.94
366.599	131.94
366.826	124.94
367.052	125.94
367.278	123.94
367.505	126.94
367.731	120.94
367.957	121.94
368.184	110.94
368.41	98.94
368.636	130.94
368.862	124.94
369.089	124.94
369.315	127.94
369.541	129.94
369.767	124.94
369.993	117.94
370.219	117.94
370.445	115.94
370.672	123.94
370.898	123.94
371.124	118.94
371.35	120.94
371.576	115.94
371.802	131.94
372.028	137.94
372.254	126.94
372.48	143.94
372.706	143.94
372.932	133.94
373.158	129.94
373.384	142.94
373.61	147.94
373.835	147.94
374.061	144.94
374.287	137.94
374.513	149.94
374.739	139.94
374.965	149.94
375.191	131.94
375.416	151.94
375.642	136.94
375.868	135.94
376.094	140.94
376.319	131.94
376.545	137.94
376.771	144.94
376.997	143.94
377.222	143.94
377.448	154.94
377.674	136.94
377.899	139.94
378.125	131.94
378.35	148.94
378.576	133.94
378.802	128.94
379.027	145.94
379.253	139.94
379.478	133.94
379.704	146.94
379.929	139.94
380.155	129.94
380.38	142.94
380.606	142.94
380.831	149.94
381.057	144.94
381.282	148.94
381.507	159.94
381.733	151.94
381.958	155.94
382.184	158.94
382.409	154.94
382.634	162.94
382.86	157.94
383.085	147.94
383.31	161.94
383.535	153.94
383.761	137.94
383.986	163.94
384.211	176.94
384.436	165.94
384.662	155.94
384.887	156.94
385.112	170.94
385.337	164.94
385.562	159.94
385.787	180.94
386.013	177.94
386.238	165.94
386.463	155.94
386.688	173.94
386.913	157.94
387.138	157.94
387.363	166.94
387.588	153.94
387.813	172.94
388.038	159.94
388.263	189.94
388.488	173.94
388.713	181.94
388.938	173.94
389.163	167.94
389.387	185.94
389.612	173.94
389.837	166.94
390.062	175.94
390.287	174.94
390.512	173.94
390.736	162.94
390.961	189.94
391.186	163.94
391.411	175.94
391.636	163.94
391.86	167.94
392.085	175.94
392.31	181.94
392.534	181.94
392.759	179.94
392.984	173.94
393.208	181.94
393.433	163.94
393.658	186.94
393.882	183.94
394.107	185.94
394.331	181.94
394.556	183.94
394.78	176.94
395.005	180.94
395.229	170.94
395.454	174.94
395.678	170.94
395.903	191.94
396.127	182.94
396.352	186.94
396.576	173.94
396.801	198.94
397.025	209.94
397.249	180.94
397.474	192.94
397.698	189.94
397.922	202.94
398.147	186.94
398.371	190.94
398.595	198.94
398.82	205.94
399.044	210.94
399.268	224.94
399.492	238.94
399.717	265.94
399.941	255.94
400.165	231.94
400.389	225.94
400.613	217.94
400.837	197.94
401.062	212.94
401.286	221.94
401.51	206.94
401.734	201.94
401.958	210.94
402.182	212.94
402.406	206.94
402.63	216.94
402.854	201.94
403.078	224.94
403.302	209.94
403.526	222.94
403.75	217.94
403.974	224.94
404.198	210.94
404.422	218.94
404.645	235.94
404.869	234.94
405.093	210.94
405.317	215.94
405.541	214.94
405.765	218.94
405.988	203.94
406.212	219.94
406.436	220.94
406.66	230.94
406.883	220.94
407.107	218.94
407.331	235.94
407.555	234.94
407.778	227.94
408.002	213.94
408.226	226.94
408.449	221.94
408.673	230.94
408.896	229.94
409.12	233.94
409.344	220.94
409.567	217.94
409.791	229.94
410.014	228.94
410.238	215.94
410.461	199.94
410.685	219.94
410.908	225.94
411.132	246.94
411.355	209.94
411.578	207.94
411.802	219.94
412.025	205.94
412.249	189.94
412.472	216.94
412.695	228.94
412.919	227.94
413.142	220.94
413.365	193.94
413.589	190.94
413.812	206.94
414.035	214.94
414.258	197.94
414.482	219.94
414.705	205.94
414.928	217.94
415.151	227.94
415.374	222.94
415.597	225.94
415.821	213.94
416.044	201.94
416.267	215.94
416.49	207.94
416.713	212.94
416.936	199.94
417.159	233.94
417.382	213.94
417.605	204.94
417.828	217.94
418.051	225.94
418.274	205.94
418.497	211.94
418.72	204.94
418.943	205.94
419.166	222.94
419.389	230.94
419.611	214.94
419.834	221.94
420.057	245.94
420.28	211.94
420.503	204.94
420.726	208.94
420.948	218.94
421.171	219.94
421.394	217.94
421.617	213.94
421.839	234.94
422.062	212.94
422.285	218.94
422.507	225.94
422.73	221.94
422.953	191.94
423.175	234.94
423.398	219.94
423.621	232.94
423.843	214.94
424.066	243.94
424.288	234.94
424.511	204.94
424.733	223.94
424.956	239.94
425.178	225.94
425.401	219.94
425.623	201.94
425.846	204.94
426.068	211.94
426.291	214.94
426.513	223.94
426.735	205.94
426.958	212.94
427.18	189.94
427.402	205.94
427.625	202.94
427.847	200.94
428.069	217.94
428.292	210.94
428.514	203.94
428.736	211.94
428.958	204.94
429.181	219.94
429.403	189.94
429.625	179.94
429.847	203.94
430.069	201.94
430.292	195.94
430.514	203.94
430.736	177.94
430.958	211.94
431.18	200.94
431.402	201.94
431.624	206.94
431.846	207.94
432.068	205.94
432.29	202.94
432.512	201.94
432.734	209.94
432.956	194.94
433.178	214.94
433.4	195.94
433.622	197.94
433.844	221.94
434.066	215.94
434.287	196.94
434.509	199.94
434.731	201.94
434.953	225.94
435.175	209.94
435.397	201.94
435.618	214.94
435.84	202.94
436.062	204.94
436.284	196.94
436.505	201.94
436.727	202.94
436.949	202.94
437.17	206.94
437.392	203.94
437.614	200.94
437.835	215.94
438.057	224.94
438.278	197.94
438.5	200.94
438.721	198.94
438.943	199.94
439.165	206.94
439.386	196.94
439.608	212.94
439.829	195.94
440.05	214.94
440.272	207.94
440.493	210.94
440.715	193.94
440.936	211.94
441.158	214.94
441.379	207.94
441.6	217.94
441.822	226.94
442.043	217.94
442.264	217.94
442.486	226.94
442.707	214.94
442.928	211.94
443.149	236.94
443.371	234.94
443.592	225.94
443.813	230.94
444.034	238.94
444.255	244.94
444.476	235.94
444.698	243.94
444.919	234.94
445.14	372.94
445.361	279.94
445.582	253.94
445.803	225.94
446.024	233.94
446.245	236.94
446.466	231.94
446.687	213.94
446.908	207.94
447.129	203.94
447.35	205.94
447.571	218.94
447.792	192.94
448.013	204.94
448.234	181.94
448.455	188.94
448.675	214.94
448.896	205.94
449.117	201.94
449.338	193.94
449.559	196.94
449.779	190.94
450	198.94
450.221	212.94
450.442	206.94
450.662	213.94
450.883	214.94
451.104	216.94
451.324	194.94
451.545	198.94
451.766	219.94
451.986	192.94
452.207	202.94
452.428	182.94
452.648	187.94
452.869	187.94
453.089	189.94
453.31	205.94
453.53	184.94
453.751	185.94
453.971	203.94
454.192	177.94
454.412	188.94
454.633	193.94
454.853	198.94
455.073	193.94
455.294	190.94
455.514	185.94
455.734	189.94
455.955	192.94
456.175	202.94
456.395	200.94
456.616	197.94
456.836	186.94
457.056	200.94
457.276	199.94
457.497	185.94
457.717	206.94
457.937	190.94
458.157	194.94
458.377	213.94
458.598	198.94
458.818	191.94
459.038	194.94
459.258	203.94
459.478	215.94
459.698	233.94
459.918	201.94
460.138	214.94
460.358	226.94
460.578	231.94
460.798	200.94
461.018	241.94
461.238	236.94
461.458	225.94
461.678	237.94
461.898	227.94
462.118	228.94
462.338	255.94
462.558	237.94
462.777	244.94
462.997	275.94
463.217	273.94
463.437	277.94
463.657	259.94
463.876	253.94
464.096	236.94
464.316	247.94
464.536	253.94
464.755	235.94
464.975	244.94
465.195	244.94
465.414	225.94
465.634	221.94
465.854	230.94
466.073	226.94
466.293	206.94
466.512	198.94
466.732	224.94
466.951	218.94
467.171	197.94
467.391	201.94
467.61	220.94
467.829	226.94
468.049	207.94
468.268	211.94
468.488	187.94
468.707	197.94
468.927	211.94
469.146	217.94
469.365	199.94
469.585	201.94
469.804	209.94
470.023	217.94
470.243	212.94
470.462	211.94
470.681	217.94
470.901	212.94
471.12	230.94
471.339	205.94
471.558	187.94
471.777	222.94
471.997	202.94
472.216	215.94
472.435	201.94
472.654	198.94
472.873	211.94
473.092	201.94
473.311	207.94
473.53	201.94
473.749	208.94
473.968	212.94
474.187	195.94
474.406	197.94
474.625	194.94
474.844	219.94
475.063	214.94
475.282	209.94
475.501	189.94
475.72	214.94
475.939	186.94
476.158	213.94
476.377	224.94
476.596	230.94
476.814	205.94
477.033	211.94
477.252	213.94
477.471	219.94
477.69	216.94
477.908	234.94
478.127	241.94
478.346	210.94
478.564	213.94
478.783	213.94
479.002	234.94
479.22	223.94
479.439	245.94
479.658	227.94
479.876	230.94
480.095	246.94
480.313	243.94
480.532	258.94
480.751	250.94
480.969	234.94
481.188	231.94
481.406	230.94
481.624	235.94
481.843	234.94
482.061	221.94
482.28	236.94
482.498	227.94
482.717	211.94
482.935	204.94
483.153	227.94
483.372	235.94
483.59	228.94
483.808	234.94
484.027	226.94
484.245	230.94
484.463	235.94
484.681	223.94
484.9	231.94
485.118	230.94
485.336	234.94
485.554	245.94
485.772	218.94
485.99	226.94
486.209	233.94
486.427	227.94
486.645	232.94
486.863	242.94
487.081	238.94
487.299	230.94
487.517	237.94
487.735	256.94
487.953	236.94
488.171	239.94
488.389	233.94
488.607	229.94
488.825	220.94
489.043	226.94
489.261	226.94
489.479	230.94
489.696	241.94
489.914	233.94
490.132	237.94
490.35	254.94
490.568	243.94
490.786	250.94
491.003	250.94
491.221	250.94
491.439	249.94
491.657	247.94
491.874	259.94
492.092	250.94
492.31	270.94
492.527	262.94
492.745	258.94
492.963	263.94
493.18	234.94
493.398	241.94
493.615	273.94
493.833	252.94
494.05	249.94
494.268	262.94
494.485	267.94
494.703	271.94
494.92	251.94
495.138	236.94
495.355	269.94
495.573	245.94
495.79	235.94
496.008	237.94
496.225	257.94
496.442	263.94
496.66	254.94
496.877	250.94
497.094	263.94
497.312	269.94
497.529	261.94
497.746	260.94
497.963	277.94
498.181	284.94
498.398	309.94
498.615	309.94
498.832	309.94
499.049	331.94
499.267	323.94
499.484	356.94
499.701	399.94
499.918	391.94
500.135	454.94
500.352	485.94
500.569	472.94
500.786	476.94
501.003	456.94
501.22	421.94
501.437	389.94
501.654	365.94
501.871	358.94
502.088	311.94
502.305	307.94
502.522	309.94
502.739	279.94
502.956	293.94
503.172	267.94
503.389	278.94
503.606	281.94
503.823	292.94
504.04	269.94
504.256	254.94
504.473	289.94
504.69	273.94
504.907	270.94
505.123	248.94
