Data from Fe(NO3)3@0.025M.TitratingCurve.Agarose3%dH2O.NegLispCup.LampEnergy10.LIBS07252019_HRD10591_16-56-56-336.txt Node
Date: Thu Jul 25 16:56:56 EDT 2019
User: cochatt
Spectrometer: HR+D1059
Trigger mode: 1
Integration Time (sec): 1.000000E-1
Scans to average: 1
Electric dark correction enabled: true
Nonlinearity correction enabled: false
Boxcar width: 0
XAxis mode: Wavelengths
Number of Pixels in Spectrum: 2048
>>>>>Begin Spectral Data<<<<<
223.165	-9.69
223.4	-9.69
223.635	-9.69
223.869	-23.69
224.104	-10.69
224.338	-7.69
224.573	-4.69
224.808	-17.69
225.042	-11.69
225.277	-7.69
225.511	-17.69
225.746	7.31
225.98	-5.69
226.215	14.31
226.449	21.31
226.683	12.31
226.918	27.31
227.152	34.31
227.387	48.31
227.621	32.31
227.856	36.31
228.09	41.31
228.324	59.31
228.559	58.31
228.793	58.31
229.027	71.31
229.262	70.31
229.496	83.31
229.73	78.31
229.964	76.31
230.199	76.31
230.433	88.31
230.667	74.31
230.901	97.31
231.136	87.31
231.37	89.31
231.604	83.31
231.838	92.31
232.072	82.31
232.306	101.31
232.541	93.31
232.775	102.31
233.009	105.31
233.243	92.31
233.477	84.31
233.711	87.31
233.945	82.31
234.179	87.31
234.413	89.31
234.647	98.31
234.881	93.31
235.115	101.31
235.349	104.31
235.583	76.31
235.817	84.31
236.051	81.31
236.285	96.31
236.519	107.31
236.753	87.31
236.987	92.31
237.221	89.31
237.455	93.31
237.689	83.31
237.922	90.31
238.156	83.31
238.39	90.31
238.624	92.31
238.858	89.31
239.091	92.31
239.325	92.31
239.559	82.31
239.793	94.31
240.027	92.31
240.26	92.31
240.494	94.31
240.728	69.31
240.961	100.31
241.195	104.31
241.429	86.31
241.662	99.31
241.896	85.31
242.13	104.31
242.363	94.31
242.597	101.31
242.83	90.31
243.064	88.31
243.298	91.31
243.531	100.31
243.765	75.31
243.998	94.31
244.232	97.31
244.465	91.31
244.699	88.31
244.932	91.31
245.166	103.31
245.399	86.31
245.633	106.31
245.866	105.31
246.099	100.31
246.333	108.31
246.566	98.31
246.8	101.31
247.033	107.31
247.266	100.31
247.5	112.31
247.733	94.31
247.966	108.31
248.2	109.31
248.433	99.31
248.666	109.31
248.899	86.31
249.133	121.31
249.366	97.31
249.599	114.31
249.832	106.31
250.066	101.31
250.299	104.31
250.532	102.31
250.765	110.31
250.998	109.31
251.231	111.31
251.465	118.31
251.698	118.31
251.931	98.31
252.164	114.31
252.397	112.31
252.63	102.31
252.863	103.31
253.096	109.31
253.329	122.31
253.562	123.31
253.795	102.31
254.028	107.31
254.261	122.31
254.494	122.31
254.727	110.31
254.96	122.31
255.193	138.31
255.426	115.31
255.659	110.31
255.892	121.31
256.124	110.31
256.357	115.31
256.59	112.31
256.823	133.31
257.056	124.31
257.289	108.31
257.521	112.31
257.754	114.31
257.987	116.31
258.22	116.31
258.452	121.31
258.685	105.31
258.918	112.31
259.151	106.31
259.383	117.31
259.616	98.31
259.849	106.31
260.081	137.31
260.314	107.31
260.547	125.31
260.779	120.31
261.012	120.31
261.244	116.31
261.477	116.31
261.71	106.31
261.942	115.31
262.175	116.31
262.407	121.31
262.64	123.31
262.872	118.31
263.105	122.31
263.337	120.31
263.57	140.31
263.802	133.31
264.035	123.31
264.267	112.31
264.499	110.31
264.732	132.31
264.964	131.31
265.197	129.31
265.429	126.31
265.661	137.31
265.894	128.31
266.126	124.31
266.358	107.31
266.591	116.31
266.823	118.31
267.055	122.31
267.287	117.31
267.52	137.31
267.752	124.31
267.984	132.31
268.216	136.31
268.448	127.31
268.681	124.31
268.913	134.31
269.145	135.31
269.377	128.31
269.609	127.31
269.841	131.31
270.073	136.31
270.306	147.31
270.538	133.31
270.77	114.31
271.002	127.31
271.234	140.31
271.466	136.31
271.698	129.31
271.93	150.31
272.162	136.31
272.394	134.31
272.626	142.31
272.858	142.31
273.09	142.31
273.322	136.31
273.553	144.31
273.785	149.31
274.017	140.31
274.249	141.31
274.481	121.31
274.713	134.31
274.945	128.31
275.176	138.31
275.408	143.31
275.64	146.31
275.872	119.31
276.104	124.31
276.335	135.31
276.567	154.31
276.799	136.31
277.031	120.31
277.262	139.31
277.494	132.31
277.726	144.31
277.957	136.31
278.189	139.31
278.421	134.31
278.652	129.31
278.884	150.31
279.115	161.31
279.347	149.31
279.579	134.31
279.81	142.31
280.042	137.31
280.273	158.31
280.505	156.31
280.736	142.31
280.968	148.31
281.199	149.31
281.431	143.31
281.662	157.31
281.894	151.31
282.125	156.31
282.356	140.31
282.588	152.31
282.819	158.31
283.051	136.31
283.282	142.31
283.513	148.31
283.745	148.31
283.976	154.31
284.207	154.31
284.439	151.31
284.67	164.31
284.901	167.31
285.132	158.31
285.364	149.31
285.595	154.31
285.826	154.31
286.057	153.31
286.288	153.31
286.52	167.31
286.751	152.31
286.982	162.31
287.213	160.31
287.444	158.31
287.675	168.31
287.906	141.31
288.138	153.31
288.369	157.31
288.6	167.31
288.831	161.31
289.062	162.31
289.293	157.31
289.524	147.31
289.755	180.31
289.986	160.31
290.217	171.31
290.448	163.31
290.679	178.31
290.91	162.31
291.141	161.31
291.371	166.31
291.602	165.31
291.833	170.31
292.064	170.31
292.295	169.31
292.526	165.31
292.757	165.31
292.987	164.31
293.218	148.31
293.449	177.31
293.68	176.31
293.91	160.31
294.141	176.31
294.372	176.31
294.603	173.31
294.833	156.31
295.064	194.31
295.295	178.31
295.525	155.31
295.756	164.31
295.987	152.31
296.217	169.31
296.448	165.31
296.679	170.31
296.909	152.31
297.14	164.31
297.37	166.31
297.601	171.31
297.831	166.31
298.062	177.31
298.292	192.31
298.523	173.31
298.753	179.31
298.984	177.31
299.214	157.31
299.445	168.31
299.675	161.31
299.905	180.31
300.136	158.31
300.366	172.31
300.597	173.31
300.827	192.31
301.057	168.31
301.288	173.31
301.518	178.31
301.748	186.31
301.979	178.31
302.209	203.31
302.439	197.31
302.669	186.31
302.9	188.31
303.13	182.31
303.36	184.31
303.59	157.31
303.82	174.31
304.051	176.31
304.281	179.31
304.511	197.31
304.741	191.31
304.971	189.31
305.201	194.31
305.431	188.31
305.661	196.31
305.891	180.31
306.121	180.31
306.352	182.31
306.582	170.31
306.812	169.31
307.042	174.31
307.272	194.31
307.502	187.31
307.731	191.31
307.961	198.31
308.191	178.31
308.421	196.31
308.651	184.31
308.881	178.31
309.111	165.31
309.341	153.31
309.571	182.31
309.8	185.31
310.03	190.31
310.26	174.31
310.49	186.31
310.72	189.31
310.949	178.31
311.179	180.31
311.409	169.31
311.639	184.31
311.868	191.31
312.098	195.31
312.328	193.31
312.557	191.31
312.787	170.31
313.017	186.31
313.246	197.31
313.476	192.31
313.706	182.31
313.935	198.31
314.165	194.31
314.394	215.31
314.624	194.31
314.853	186.31
315.083	197.31
315.312	189.31
315.542	185.31
315.771	200.31
316.001	196.31
316.23	211.31
316.46	182.31
316.689	192.31
316.919	194.31
317.148	193.31
317.377	187.31
317.607	209.31
317.836	185.31
318.065	191.31
318.295	194.31
318.524	198.31
318.753	193.31
318.983	157.31
319.212	174.31
319.441	199.31
319.67	192.31
319.9	200.31
320.129	202.31
320.358	196.31
320.587	187.31
320.816	192.31
321.046	184.31
321.275	200.31
321.504	204.31
321.733	181.31
321.962	190.31
322.191	199.31
322.42	195.31
322.649	191.31
322.878	184.31
323.108	193.31
323.337	195.31
323.566	197.31
323.795	195.31
324.024	207.31
324.253	193.31
324.482	203.31
324.71	197.31
324.939	214.31
325.168	195.31
325.397	184.31
325.626	190.31
325.855	207.31
326.084	202.31
326.313	209.31
326.542	201.31
326.77	212.31
326.999	194.31
327.228	203.31
327.457	201.31
327.686	199.31
327.914	198.31
328.143	213.31
328.372	198.31
328.6	217.31
328.829	206.31
329.058	216.31
329.287	200.31
329.515	205.31
329.744	214.31
329.972	213.31
330.201	208.31
330.43	219.31
330.658	213.31
330.887	216.31
331.115	187.31
331.344	205.31
331.572	212.31
331.801	214.31
332.03	222.31
332.258	248.31
332.486	235.31
332.715	238.31
332.943	257.31
333.172	240.31
333.4	243.31
333.629	268.31
333.857	253.31
334.085	254.31
334.314	256.31
334.542	252.31
334.771	248.31
334.999	241.31
335.227	242.31
335.455	252.31
335.684	258.31
335.912	246.31
336.14	242.31
336.369	231.31
336.597	228.31
336.825	256.31
337.053	247.31
337.281	223.31
337.51	246.31
337.738	234.31
337.966	228.31
338.194	244.31
338.422	225.31
338.65	220.31
338.878	230.31
339.106	222.31
339.334	226.31
339.562	224.31
339.79	208.31
340.018	221.31
340.246	225.31
340.474	214.31
340.702	217.31
340.93	214.31
341.158	213.31
341.386	233.31
341.614	221.31
341.842	231.31
342.07	200.31
342.298	212.31
342.526	223.31
342.754	239.31
342.981	210.31
343.209	212.31
343.437	235.31
343.665	241.31
343.893	247.31
344.12	242.31
344.348	234.31
344.576	246.31
344.804	233.31
345.031	231.31
345.259	220.31
345.487	220.31
345.714	221.31
345.942	203.31
346.17	213.31
346.397	216.31
346.625	218.31
346.853	214.31
347.08	220.31
347.308	213.31
347.535	202.31
347.763	223.31
347.99	230.31
348.218	225.31
348.445	209.31
348.673	211.31
348.9	221.31
349.128	215.31
349.355	226.31
349.583	219.31
349.81	211.31
350.037	204.31
350.265	209.31
350.492	226.31
350.72	220.31
350.947	217.31
351.174	210.31
351.402	213.31
351.629	208.31
351.856	202.31
352.083	206.31
352.311	216.31
352.538	212.31
352.765	214.31
352.992	230.31
353.22	224.31
353.447	216.31
353.674	218.31
353.901	205.31
354.128	200.31
354.355	211.31
354.583	220.31
354.81	218.31
355.037	215.31
355.264	198.31
355.491	218.31
355.718	206.31
355.945	224.31
356.172	222.31
356.399	220.31
356.626	221.31
356.853	207.31
357.08	209.31
357.307	210.31
357.534	222.31
357.761	219.31
357.988	208.31
358.215	223.31
358.441	217.31
358.668	216.31
358.895	198.31
359.122	209.31
359.349	208.31
359.576	234.31
359.802	210.31
360.029	233.31
360.256	217.31
360.483	217.31
360.709	209.31
360.936	224.31
361.163	208.31
361.39	199.31
361.616	203.31
361.843	212.31
362.07	226.31
362.296	205.31
362.523	222.31
362.749	197.31
362.976	203.31
363.203	206.31
363.429	205.31
363.656	210.31
363.882	208.31
364.109	212.31
364.335	206.31
364.562	217.31
364.788	228.31
365.015	228.31
365.241	232.31
365.468	215.31
365.694	209.31
365.92	206.31
366.147	204.31
366.373	229.31
366.599	218.31
366.826	216.31
367.052	220.31
367.278	223.31
367.505	233.31
367.731	214.31
367.957	214.31
368.184	214.31
368.41	211.31
368.636	228.31
368.862	216.31
369.089	227.31
369.315	230.31
369.541	226.31
369.767	229.31
369.993	224.31
370.219	237.31
370.445	217.31
370.672	240.31
370.898	205.31
371.124	224.31
371.35	223.31
371.576	214.31
371.802	236.31
372.028	246.31
372.254	225.31
372.48	240.31
372.706	240.31
372.932	234.31
373.158	220.31
373.384	231.31
373.61	230.31
373.835	238.31
374.061	236.31
374.287	227.31
374.513	242.31
374.739	233.31
374.965	235.31
375.191	246.31
375.416	237.31
375.642	232.31
375.868	226.31
376.094	233.31
376.319	242.31
376.545	247.31
376.771	231.31
376.997	230.31
377.222	242.31
377.448	235.31
377.674	212.31
377.899	225.31
378.125	231.31
378.35	234.31
378.576	223.31
378.802	220.31
379.027	226.31
379.253	238.31
379.478	245.31
379.704	234.31
379.929	240.31
380.155	240.31
380.38	231.31
380.606	244.31
380.831	223.31
381.057	228.31
381.282	226.31
381.507	247.31
381.733	246.31
381.958	230.31
382.184	211.31
382.409	244.31
382.634	232.31
382.86	246.31
383.085	240.31
383.31	250.31
383.535	258.31
383.761	249.31
383.986	245.31
384.211	264.31
384.436	260.31
384.662	265.31
384.887	257.31
385.112	255.31
385.337	271.31
385.562	258.31
385.787	251.31
386.013	276.31
386.238	257.31
386.463	261.31
386.688	261.31
386.913	251.31
387.138	275.31
387.363	280.31
387.588	264.31
387.813	264.31
388.038	261.31
388.263	267.31
388.488	265.31
388.713	253.31
388.938	253.31
389.163	249.31
389.387	262.31
389.612	278.31
389.837	260.31
390.062	256.31
390.287	244.31
390.512	265.31
390.736	270.31
390.961	259.31
391.186	269.31
391.411	278.31
391.636	275.31
391.86	277.31
392.085	301.31
392.31	282.31
392.534	270.31
392.759	290.31
392.984	276.31
393.208	277.31
393.433	280.31
393.658	293.31
393.882	286.31
394.107	266.31
394.331	274.31
394.556	254.31
394.78	264.31
395.005	265.31
395.229	299.31
395.454	300.31
395.678	298.31
395.903	302.31
396.127	290.31
396.352	294.31
396.576	281.31
396.801	268.31
397.025	301.31
397.249	294.31
397.474	300.31
397.698	304.31
397.922	304.31
398.147	303.31
398.371	299.31
398.595	306.31
398.82	292.31
399.044	340.31
399.268	380.31
399.492	395.31
399.717	395.31
399.941	402.31
400.165	368.31
400.389	354.31
400.613	322.31
400.837	301.31
401.062	318.31
401.286	313.31
401.51	316.31
401.734	290.31
401.958	310.31
402.182	332.31
402.406	310.31
402.63	309.31
402.854	312.31
403.078	321.31
403.302	329.31
403.526	330.31
403.75	324.31
403.974	349.31
404.198	340.31
404.422	335.31
404.645	338.31
404.869	342.31
405.093	342.31
405.317	328.31
405.541	326.31
405.765	334.31
405.988	333.31
406.212	334.31
406.436	354.31
406.66	352.31
406.883	319.31
407.107	334.31
407.331	364.31
407.555	381.31
407.778	380.31
408.002	368.31
408.226	366.31
408.449	365.31
408.673	329.31
408.896	342.31
409.12	336.31
409.344	332.31
409.567	354.31
409.791	336.31
410.014	334.31
410.238	333.31
410.461	340.31
410.685	338.31
410.908	324.31
411.132	325.31
411.355	307.31
411.578	337.31
411.802	315.31
412.025	320.31
412.249	315.31
412.472	324.31
412.695	301.31
412.919	308.31
413.142	310.31
413.365	309.31
413.589	325.31
413.812	307.31
414.035	300.31
414.258	321.31
414.482	304.31
414.705	324.31
414.928	302.31
415.151	311.31
415.374	318.31
415.597	305.31
415.821	304.31
416.044	300.31
416.267	323.31
416.49	302.31
416.713	305.31
416.936	309.31
417.159	296.31
417.382	304.31
417.605	302.31
417.828	310.31
418.051	300.31
418.274	310.31
418.497	309.31
418.72	280.31
418.943	299.31
419.166	316.31
419.389	330.31
419.611	355.31
419.834	323.31
420.057	314.31
420.28	304.31
420.503	324.31
420.726	292.31
420.948	296.31
421.171	308.31
421.394	300.31
421.617	299.31
421.839	318.31
422.062	321.31
422.285	300.31
422.507	322.31
422.73	335.31
422.953	317.31
423.175	292.31
423.398	292.31
423.621	305.31
423.843	299.31
424.066	306.31
424.288	302.31
424.511	310.31
424.733	315.31
424.956	296.31
425.178	292.31
425.401	291.31
425.623	307.31
425.846	305.31
426.068	289.31
426.291	306.31
426.513	285.31
426.735	312.31
426.958	285.31
427.18	297.31
427.402	285.31
427.625	280.31
427.847	267.31
428.069	277.31
428.292	301.31
428.514	280.31
428.736	292.31
428.958	291.31
429.181	278.31
429.403	268.31
429.625	258.31
429.847	272.31
430.069	263.31
430.292	278.31
430.514	283.31
430.736	277.31
430.958	283.31
431.18	262.31
431.402	275.31
431.624	279.31
431.846	272.31
432.068	284.31
432.29	289.31
432.512	266.31
432.734	284.31
432.956	271.31
433.178	291.31
433.4	279.31
433.622	288.31
433.844	292.31
434.066	282.31
434.287	294.31
434.509	312.31
434.731	305.31
434.953	294.31
435.175	300.31
435.397	306.31
435.618	298.31
435.84	285.31
436.062	285.31
436.284	288.31
436.505	278.31
436.727	282.31
436.949	279.31
437.17	271.31
437.392	264.31
437.614	284.31
437.835	275.31
438.057	260.31
438.278	278.31
438.5	260.31
438.721	264.31
438.943	277.31
439.165	274.31
439.386	256.31
439.608	296.31
439.829	273.31
440.05	280.31
440.272	270.31
440.493	292.31
440.715	282.31
440.936	281.31
441.158	283.31
441.379	286.31
441.6	296.31
441.822	293.31
442.043	293.31
442.264	293.31
442.486	284.31
442.707	286.31
442.928	300.31
443.149	290.31
443.371	309.31
443.592	312.31
443.813	314.31
444.034	299.31
444.255	288.31
444.476	315.31
444.698	317.31
444.919	319.31
445.14	408.31
445.361	358.31
445.582	296.31
445.803	294.31
446.024	280.31
446.245	291.31
446.466	286.31
446.687	268.31
446.908	241.31
447.129	269.31
447.35	268.31
447.571	269.31
447.792	280.31
448.013	265.31
448.234	276.31
448.455	269.31
448.675	268.31
448.896	247.31
449.117	253.31
449.338	257.31
449.559	260.31
449.779	266.31
450	262.31
450.221	255.31
450.442	270.31
450.662	252.31
450.883	262.31
451.104	260.31
451.324	248.31
451.545	260.31
451.766	265.31
451.986	268.31
452.207	260.31
452.428	251.31
452.648	257.31
452.869	255.31
453.089	248.31
453.31	270.31
453.53	264.31
453.751	260.31
453.971	261.31
454.192	238.31
454.412	258.31
454.633	246.31
454.853	278.31
455.073	235.31
455.294	249.31
455.514	248.31
455.734	248.31
455.955	248.31
456.175	238.31
456.395	238.31
456.616	250.31
456.836	247.31
457.056	232.31
457.276	234.31
457.497	257.31
457.717	240.31
457.937	255.31
458.157	256.31
458.377	259.31
458.598	256.31
458.818	263.31
459.038	274.31
459.258	274.31
459.478	284.31
459.698	267.31
459.918	283.31
460.138	296.31
460.358	311.31
460.578	324.31
460.798	293.31
461.018	314.31
461.238	305.31
461.458	312.31
461.678	308.31
461.898	311.31
462.118	324.31
462.338	349.31
462.558	321.31
462.777	337.31
462.997	365.31
463.217	357.31
463.437	358.31
463.657	339.31
463.876	348.31
464.096	373.31
464.316	341.31
464.536	349.31
464.755	334.31
464.975	333.31
465.195	306.31
465.414	310.31
465.634	297.31
465.854	280.31
466.073	289.31
466.293	280.31
466.512	281.31
466.732	284.31
466.951	271.31
467.171	274.31
467.391	265.31
467.61	272.31
467.829	276.31
468.049	270.31
468.268	264.31
468.488	264.31
468.707	261.31
468.927	254.31
469.146	264.31
469.365	264.31
469.585	267.31
469.804	266.31
470.023	284.31
470.243	280.31
470.462	280.31
470.681	280.31
470.901	275.31
471.12	278.31
471.339	275.31
471.558	260.31
471.777	253.31
471.997	279.31
472.216	266.31
472.435	262.31
472.654	247.31
472.873	256.31
473.092	267.31
473.311	274.31
473.53	260.31
473.749	270.31
473.968	267.31
474.187	269.31
474.406	259.31
474.625	262.31
474.844	277.31
475.063	277.31
475.282	259.31
475.501	258.31
475.72	268.31
475.939	265.31
476.158	261.31
476.377	262.31
476.596	267.31
476.814	282.31
477.033	284.31
477.252	272.31
477.471	270.31
477.69	310.31
477.908	282.31
478.127	302.31
478.346	291.31
478.564	308.31
478.783	308.31
479.002	302.31
479.22	305.31
479.439	311.31
479.658	312.31
479.876	306.31
480.095	325.31
480.313	322.31
480.532	320.31
480.751	315.31
480.969	316.31
481.188	330.31
481.406	321.31
481.624	292.31
481.843	298.31
482.061	300.31
482.28	294.31
482.498	295.31
482.717	307.31
482.935	296.31
483.153	297.31
483.372	291.31
483.59	287.31
483.808	299.31
484.027	297.31
484.245	300.31
484.463	280.31
484.681	321.31
484.9	307.31
485.118	300.31
485.336	316.31
485.554	311.31
485.772	312.31
485.99	308.31
486.209	310.31
486.427	297.31
486.645	309.31
486.863	314.31
487.081	312.31
487.299	314.31
487.517	315.31
487.735	330.31
487.953	329.31
488.171	307.31
488.389	317.31
488.607	300.31
488.825	308.31
489.043	299.31
489.261	306.31
489.479	321.31
489.696	312.31
489.914	300.31
490.132	306.31
490.35	283.31
490.568	291.31
490.786	291.31
491.003	313.31
491.221	305.31
491.439	304.31
491.657	289.31
491.874	312.31
492.092	324.31
492.31	313.31
492.527	300.31
492.745	328.31
492.963	313.31
493.18	310.31
493.398	333.31
493.615	324.31
493.833	312.31
494.05	315.31
494.268	319.31
494.485	323.31
494.703	344.31
494.92	324.31
495.138	315.31
495.355	313.31
495.573	326.31
495.79	309.31
496.008	322.31
496.225	330.31
496.442	319.31
496.66	338.31
496.877	327.31
497.094	338.31
497.312	346.31
497.529	359.31
497.746	357.31
497.963	357.31
498.181	389.31
498.398	399.31
498.615	426.31
498.832	425.31
499.049	434.31
499.267	472.31
499.484	536.31
499.701	547.31
499.918	572.31
500.135	633.31
500.352	654.31
500.569	721.31
500.786	706.31
501.003	675.31
501.22	611.31
501.437	560.31
501.654	508.31
501.871	485.31
502.088	455.31
502.305	413.31
502.522	425.31
