Data from Fe(NO3)3@0.1M.TitratingCurve.Agarose3%dH2O.NegLispCup.LampEnergy10.LIBS07252019_HRD10591_16-38-02-332.txt Node
Date: Thu Jul 25 16:38:02 EDT 2019
User: cochatt
Spectrometer: HR+D1059
Trigger mode: 1
Integration Time (sec): 1.000000E-1
Scans to average: 1
Electric dark correction enabled: true
Nonlinearity correction enabled: false
Boxcar width: 0
XAxis mode: Wavelengths
Number of Pixels in Spectrum: 2048
>>>>>Begin Spectral Data<<<<<
223.165	-11.25
223.4	-11.25
223.635	-11.25
223.869	-25.25
224.104	-29.25
224.338	-2.25
224.573	-12.25
224.808	-21.25
225.042	-20.25
225.277	-5.25
225.511	-9.25
225.746	10.75
225.98	12.75
226.215	1.75
226.449	27.75
226.683	32.75
226.918	27.75
227.152	22.75
227.387	38.75
227.621	41.75
227.856	61.75
228.09	43.75
228.324	41.75
228.559	53.75
228.793	54.75
229.027	42.75
229.262	62.75
229.496	71.75
229.73	85.75
229.964	82.75
230.199	73.75
230.433	77.75
230.667	73.75
230.901	82.75
231.136	84.75
231.37	97.75
231.604	87.75
231.838	82.75
232.072	86.75
232.306	80.75
232.541	80.75
232.775	82.75
233.009	70.75
233.243	82.75
233.477	88.75
233.711	92.75
233.945	94.75
234.179	81.75
234.413	85.75
234.647	83.75
234.881	80.75
235.115	89.75
235.349	93.75
235.583	77.75
235.817	81.75
236.051	80.75
236.285	94.75
236.519	92.75
236.753	74.75
236.987	81.75
237.221	88.75
237.455	73.75
237.689	87.75
237.922	75.75
238.156	70.75
238.39	75.75
238.624	71.75
238.858	85.75
239.091	86.75
239.325	89.75
239.559	87.75
239.793	86.75
240.027	84.75
240.26	90.75
240.494	76.75
240.728	84.75
240.961	73.75
241.195	82.75
241.429	89.75
241.662	90.75
241.896	87.75
242.13	81.75
242.363	79.75
242.597	73.75
242.83	75.75
243.064	72.75
243.298	78.75
243.531	101.75
243.765	87.75
243.998	89.75
244.232	86.75
244.465	84.75
244.699	90.75
244.932	94.75
245.166	78.75
245.399	93.75
245.633	81.75
245.866	84.75
246.099	80.75
246.333	99.75
246.566	96.75
246.8	93.75
247.033	78.75
247.266	81.75
247.5	82.75
247.733	103.75
247.966	79.75
248.2	89.75
248.433	90.75
248.666	87.75
248.899	72.75
249.133	93.75
249.366	84.75
249.599	92.75
249.832	80.75
250.066	92.75
250.299	87.75
250.532	83.75
250.765	79.75
250.998	78.75
251.231	82.75
251.465	84.75
251.698	85.75
251.931	88.75
252.164	91.75
252.397	93.75
252.63	88.75
252.863	90.75
253.096	86.75
253.329	93.75
253.562	106.75
253.795	97.75
254.028	85.75
254.261	85.75
254.494	83.75
254.727	96.75
254.96	102.75
255.193	103.75
255.426	93.75
255.659	92.75
255.892	97.75
256.124	103.75
256.357	114.75
256.59	80.75
256.823	85.75
257.056	78.75
257.289	90.75
257.521	93.75
257.754	84.75
257.987	100.75
258.22	103.75
258.452	107.75
258.685	83.75
258.918	85.75
259.151	100.75
259.383	85.75
259.616	75.75
259.849	83.75
260.081	93.75
260.314	90.75
260.547	82.75
260.779	85.75
261.012	93.75
261.244	89.75
261.477	87.75
261.71	77.75
261.942	110.75
262.175	107.75
262.407	98.75
262.64	95.75
262.872	110.75
263.105	99.75
263.337	84.75
263.57	87.75
263.802	96.75
264.035	96.75
264.267	103.75
264.499	100.75
264.732	107.75
264.964	98.75
265.197	84.75
265.429	98.75
265.661	76.75
265.894	104.75
266.126	92.75
266.358	91.75
266.591	78.75
266.823	86.75
267.055	81.75
267.287	88.75
267.52	97.75
267.752	94.75
267.984	92.75
268.216	100.75
268.448	90.75
268.681	100.75
268.913	96.75
269.145	110.75
269.377	97.75
269.609	92.75
269.841	112.75
270.073	105.75
270.306	106.75
270.538	107.75
270.77	99.75
271.002	90.75
271.234	106.75
271.466	102.75
271.698	106.75
271.93	90.75
272.162	116.75
272.394	109.75
272.626	107.75
272.858	104.75
273.09	120.75
273.322	112.75
273.553	90.75
273.785	105.75
274.017	106.75
274.249	104.75
274.481	88.75
274.713	94.75
274.945	101.75
275.176	93.75
275.408	117.75
275.64	98.75
275.872	128.75
276.104	106.75
276.335	91.75
276.567	107.75
276.799	111.75
277.031	103.75
277.262	109.75
277.494	113.75
277.726	112.75
277.957	105.75
278.189	93.75
278.421	85.75
278.652	97.75
278.884	94.75
279.115	108.75
279.347	102.75
279.579	97.75
279.81	94.75
280.042	91.75
280.273	104.75
280.505	93.75
280.736	103.75
280.968	95.75
281.199	115.75
281.431	102.75
281.662	113.75
281.894	106.75
282.125	109.75
282.356	111.75
282.588	104.75
282.819	91.75
283.051	104.75
283.282	103.75
283.513	95.75
283.745	112.75
283.976	88.75
284.207	104.75
284.439	102.75
284.67	117.75
284.901	104.75
285.132	116.75
285.364	109.75
285.595	112.75
285.826	96.75
286.057	114.75
286.288	114.75
286.52	103.75
286.751	126.75
286.982	100.75
287.213	103.75
287.444	115.75
287.675	100.75
287.906	119.75
288.138	121.75
288.369	117.75
288.6	121.75
288.831	109.75
289.062	124.75
289.293	112.75
289.524	108.75
289.755	100.75
289.986	86.75
290.217	104.75
290.448	103.75
290.679	110.75
290.91	102.75
291.141	102.75
291.371	93.75
291.602	101.75
291.833	112.75
292.064	109.75
292.295	102.75
292.526	114.75
292.757	117.75
292.987	110.75
293.218	107.75
293.449	112.75
293.68	109.75
293.91	101.75
294.141	123.75
294.372	113.75
294.603	107.75
294.833	100.75
295.064	120.75
295.295	115.75
295.525	109.75
295.756	118.75
295.987	100.75
296.217	124.75
296.448	116.75
296.679	113.75
296.909	114.75
297.14	121.75
297.37	123.75
297.601	116.75
297.831	107.75
298.062	103.75
298.292	123.75
298.523	122.75
298.753	98.75
298.984	119.75
299.214	112.75
299.445	112.75
299.675	118.75
299.905	116.75
300.136	121.75
300.366	116.75
300.597	118.75
300.827	112.75
301.057	117.75
301.288	105.75
301.518	118.75
301.748	116.75
301.979	113.75
302.209	123.75
302.439	123.75
302.669	99.75
302.9	107.75
303.13	113.75
303.36	124.75
303.59	107.75
303.82	101.75
304.051	108.75
304.281	119.75
304.511	116.75
304.741	114.75
304.971	122.75
305.201	115.75
305.431	122.75
305.661	123.75
305.891	110.75
306.121	118.75
306.352	118.75
306.582	128.75
306.812	115.75
307.042	115.75
307.272	119.75
307.502	116.75
307.731	101.75
307.961	116.75
308.191	116.75
308.421	119.75
308.651	116.75
308.881	117.75
309.111	115.75
309.341	116.75
309.571	118.75
309.8	120.75
310.03	117.75
310.26	112.75
310.49	109.75
310.72	102.75
310.949	121.75
311.179	126.75
311.409	105.75
311.639	116.75
311.868	120.75
312.098	105.75
312.328	117.75
312.557	125.75
312.787	118.75
313.017	118.75
313.246	126.75
313.476	114.75
313.706	123.75
313.935	122.75
314.165	121.75
314.394	114.75
314.624	108.75
314.853	107.75
315.083	117.75
315.312	124.75
315.542	115.75
315.771	129.75
316.001	106.75
316.23	108.75
316.46	107.75
316.689	118.75
316.919	130.75
317.148	130.75
317.377	126.75
317.607	128.75
317.836	142.75
318.065	109.75
318.295	111.75
318.524	120.75
318.753	113.75
318.983	106.75
319.212	113.75
319.441	110.75
319.67	121.75
319.9	126.75
320.129	114.75
320.358	138.75
320.587	100.75
320.816	119.75
321.046	117.75
321.275	137.75
321.504	116.75
321.733	112.75
321.962	109.75
322.191	120.75
322.42	103.75
322.649	131.75
322.878	134.75
323.108	123.75
323.337	123.75
323.566	124.75
323.795	117.75
324.024	123.75
324.253	129.75
324.482	126.75
324.71	135.75
324.939	136.75
325.168	126.75
325.397	121.75
325.626	131.75
325.855	109.75
326.084	122.75
326.313	119.75
326.542	120.75
326.77	116.75
326.999	132.75
327.228	132.75
327.457	132.75
327.686	140.75
327.914	121.75
328.143	115.75
328.372	109.75
328.6	124.75
328.829	112.75
329.058	121.75
329.287	124.75
329.515	136.75
329.744	127.75
329.972	133.75
330.201	120.75
330.43	118.75
330.658	126.75
330.887	134.75
331.115	121.75
331.344	128.75
331.572	117.75
331.801	134.75
332.03	126.75
332.258	120.75
332.486	129.75
332.715	135.75
332.943	136.75
333.172	133.75
333.4	148.75
333.629	135.75
333.857	149.75
334.085	138.75
334.314	124.75
334.542	132.75
334.771	133.75
334.999	128.75
335.227	136.75
335.455	131.75
335.684	121.75
335.912	114.75
336.14	136.75
336.369	133.75
336.597	136.75
336.825	134.75
337.053	124.75
337.281	142.75
337.51	128.75
337.738	148.75
337.966	127.75
338.194	128.75
338.422	115.75
338.65	131.75
338.878	122.75
339.106	139.75
339.334	139.75
339.562	132.75
339.79	115.75
340.018	134.75
340.246	115.75
340.474	132.75
340.702	132.75
340.93	134.75
341.158	124.75
341.386	122.75
341.614	122.75
341.842	120.75
342.07	126.75
342.298	117.75
342.526	123.75
342.754	122.75
342.981	132.75
343.209	125.75
343.437	123.75
343.665	130.75
343.893	129.75
344.12	136.75
344.348	135.75
344.576	142.75
344.804	149.75
345.031	134.75
345.259	117.75
345.487	129.75
345.714	131.75
345.942	133.75
346.17	116.75
346.397	141.75
346.625	120.75
346.853	121.75
347.08	126.75
347.308	126.75
347.535	121.75
347.763	113.75
347.99	128.75
348.218	120.75
348.445	130.75
348.673	123.75
348.9	123.75
349.128	118.75
349.355	118.75
349.583	129.75
349.81	124.75
350.037	122.75
350.265	117.75
350.492	129.75
350.72	114.75
350.947	117.75
351.174	123.75
351.402	114.75
351.629	116.75
351.856	126.75
352.083	125.75
352.311	122.75
352.538	124.75
352.765	124.75
352.992	127.75
353.22	134.75
353.447	122.75
353.674	131.75
353.901	118.75
354.128	116.75
354.355	135.75
354.583	123.75
354.81	123.75
355.037	130.75
355.264	119.75
355.491	104.75
355.718	130.75
355.945	131.75
356.172	125.75
356.399	113.75
356.626	132.75
356.853	116.75
357.08	125.75
357.307	133.75
357.534	127.75
357.761	120.75
357.988	128.75
358.215	132.75
358.441	126.75
358.668	117.75
358.895	117.75
359.122	122.75
359.349	125.75
359.576	113.75
359.802	129.75
360.029	134.75
360.256	125.75
360.483	124.75
360.709	148.75
360.936	133.75
361.163	126.75
361.39	143.75
361.616	125.75
361.843	115.75
362.07	118.75
362.296	119.75
362.523	118.75
362.749	130.75
362.976	126.75
363.203	127.75
363.429	120.75
363.656	126.75
363.882	130.75
364.109	145.75
364.335	128.75
364.562	123.75
364.788	106.75
365.015	125.75
365.241	122.75
365.468	130.75
365.694	130.75
365.92	117.75
366.147	123.75
366.373	139.75
366.599	133.75
366.826	120.75
367.052	122.75
367.278	121.75
367.505	107.75
367.731	132.75
367.957	126.75
368.184	132.75
368.41	123.75
368.636	134.75
368.862	138.75
369.089	130.75
369.315	120.75
369.541	127.75
369.767	134.75
369.993	133.75
370.219	141.75
370.445	138.75
370.672	135.75
370.898	113.75
371.124	124.75
371.35	123.75
371.576	117.75
371.802	130.75
372.028	122.75
372.254	133.75
372.48	124.75
372.706	137.75
372.932	137.75
373.158	148.75
373.384	138.75
373.61	134.75
373.835	140.75
374.061	125.75
374.287	128.75
374.513	126.75
374.739	141.75
374.965	144.75
375.191	130.75
375.416	137.75
375.642	129.75
375.868	137.75
376.094	141.75
376.319	142.75
376.545	131.75
376.771	130.75
376.997	137.75
377.222	128.75
377.448	140.75
377.674	141.75
377.899	142.75
378.125	125.75
378.35	130.75
378.576	140.75
378.802	126.75
379.027	152.75
379.253	150.75
379.478	110.75
379.704	127.75
379.929	140.75
380.155	139.75
380.38	139.75
380.606	137.75
380.831	135.75
381.057	129.75
381.282	140.75
381.507	137.75
381.733	142.75
381.958	132.75
382.184	156.75
382.409	143.75
382.634	139.75
382.86	150.75
383.085	132.75
383.31	138.75
383.535	148.75
383.761	144.75
383.986	151.75
384.211	133.75
384.436	140.75
384.662	163.75
384.887	163.75
385.112	157.75
385.337	160.75
385.562	141.75
385.787	159.75
386.013	170.75
386.238	163.75
386.463	126.75
386.688	148.75
386.913	157.75
387.138	159.75
387.363	145.75
387.588	153.75
387.813	150.75
388.038	156.75
388.263	149.75
388.488	160.75
388.713	148.75
388.938	149.75
389.163	149.75
389.387	156.75
389.612	151.75
389.837	160.75
390.062	154.75
390.287	151.75
390.512	159.75
390.736	150.75
390.961	150.75
391.186	157.75
391.411	163.75
391.636	162.75
391.86	180.75
392.085	179.75
392.31	170.75
392.534	172.75
392.759	155.75
392.984	166.75
393.208	176.75
393.433	166.75
393.658	148.75
393.882	172.75
394.107	162.75
394.331	163.75
394.556	165.75
394.78	168.75
395.005	164.75
395.229	166.75
395.454	177.75
395.678	162.75
395.903	172.75
396.127	167.75
396.352	161.75
396.576	150.75
396.801	166.75
397.025	164.75
397.249	186.75
397.474	167.75
397.698	154.75
397.922	161.75
398.147	183.75
398.371	170.75
398.595	194.75
398.82	181.75
399.044	180.75
399.268	202.75
399.492	204.75
399.717	243.75
399.941	223.75
400.165	205.75
400.389	212.75
400.613	196.75
400.837	178.75
401.062	209.75
401.286	186.75
401.51	203.75
401.734	183.75
401.958	202.75
402.182	186.75
402.406	180.75
402.63	201.75
402.854	204.75
403.078	211.75
403.302	209.75
403.526	214.75
403.75	196.75
403.974	200.75
404.198	195.75
404.422	204.75
404.645	214.75
404.869	227.75
405.093	209.75
405.317	198.75
405.541	180.75
405.765	217.75
405.988	203.75
406.212	202.75
406.436	209.75
406.66	197.75
406.883	190.75
407.107	205.75
407.331	216.75
407.555	227.75
407.778	221.75
408.002	215.75
408.226	218.75
408.449	231.75
408.673	222.75
408.896	208.75
409.12	218.75
409.344	225.75
409.567	195.75
409.791	199.75
410.014	217.75
410.238	186.75
410.461	205.75
410.685	210.75
410.908	210.75
411.132	190.75
411.355	215.75
411.578	196.75
411.802	190.75
412.025	203.75
412.249	196.75
412.472	198.75
412.695	193.75
412.919	194.75
413.142	194.75
413.365	188.75
413.589	182.75
413.812	177.75
414.035	197.75
414.258	202.75
414.482	193.75
414.705	188.75
414.928	197.75
415.151	195.75
415.374	177.75
415.597	187.75
415.821	210.75
416.044	200.75
416.267	192.75
416.49	184.75
416.713	171.75
416.936	187.75
417.159	189.75
417.382	184.75
417.605	197.75
417.828	190.75
418.051	190.75
418.274	197.75
418.497	207.75
418.72	192.75
418.943	204.75
419.166	198.75
419.389	198.75
419.611	195.75
419.834	205.75
420.057	204.75
420.28	196.75
420.503	204.75
420.726	187.75
420.948	203.75
421.171	201.75
421.394	198.75
421.617	212.75
421.839	186.75
422.062	220.75
422.285	185.75
422.507	185.75
422.73	194.75
422.953	208.75
423.175	197.75
423.398	196.75
423.621	197.75
423.843	201.75
424.066	210.75
424.288	208.75
424.511	192.75
424.733	193.75
424.956	201.75
425.178	198.75
425.401	196.75
425.623	209.75
425.846	201.75
426.068	194.75
426.291	190.75
426.513	190.75
426.735	204.75
426.958	187.75
427.18	180.75
427.402	193.75
427.625	187.75
427.847	185.75
428.069	180.75
428.292	184.75
428.514	182.75
428.736	178.75
428.958	180.75
429.181	172.75
429.403	194.75
429.625	181.75
429.847	174.75
430.069	186.75
430.292	190.75
430.514	193.75
430.736	177.75
430.958	194.75
431.18	166.75
431.402	181.75
431.624	164.75
431.846	160.75
432.068	173.75
432.29	173.75
432.512	191.75
432.734	188.75
432.956	189.75
433.178	189.75
433.4	196.75
433.622	203.75
433.844	177.75
434.066	185.75
434.287	173.75
434.509	187.75
434.731	202.75
434.953	189.75
435.175	192.75
435.397	180.75
435.618	195.75
435.84	187.75
436.062	176.75
436.284	188.75
436.505	180.75
436.727	176.75
436.949	193.75
437.17	189.75
437.392	196.75
437.614	190.75
437.835	187.75
438.057	190.75
438.278	189.75
438.5	186.75
438.721	188.75
438.943	206.75
439.165	182.75
439.386	188.75
439.608	208.75
439.829	182.75
440.05	186.75
440.272	201.75
440.493	196.75
440.715	194.75
440.936	192.75
441.158	194.75
441.379	188.75
441.6	213.75
441.822	212.75
442.043	210.75
442.264	196.75
442.486	198.75
442.707	200.75
442.928	214.75
443.149	192.75
443.371	188.75
443.592	216.75
443.813	206.75
444.034	190.75
444.255	208.75
444.476	209.75
444.698	220.75
444.919	226.75
445.14	340.75
445.361	274.75
445.582	214.75
445.803	197.75
446.024	212.75
446.245	214.75
446.466	197.75
446.687	192.75
446.908	194.75
447.129	180.75
447.35	170.75
447.571	191.75
447.792	166.75
448.013	178.75
448.234	177.75
448.455	162.75
448.675	184.75
448.896	199.75
449.117	191.75
449.338	178.75
449.559	195.75
449.779	159.75
450	187.75
450.221	173.75
450.442	196.75
450.662	174.75
450.883	180.75
451.104	177.75
451.324	159.75
451.545	167.75
451.766	190.75
451.986	191.75
452.207	182.75
452.428	177.75
452.648	178.75
452.869	180.75
453.089	173.75
453.31	180.75
453.53	178.75
453.751	183.75
453.971	169.75
454.192	164.75
454.412	174.75
454.633	181.75
454.853	178.75
455.073	165.75
455.294	163.75
455.514	168.75
455.734	169.75
455.955	174.75
456.175	171.75
456.395	168.75
456.616	173.75
456.836	159.75
457.056	180.75
457.276	170.75
457.497	175.75
457.717	178.75
457.937	188.75
458.157	166.75
458.377	171.75
458.598	162.75
458.818	172.75
459.038	188.75
459.258	190.75
459.478	192.75
459.698	182.75
459.918	190.75
460.138	203.75
460.358	211.75
460.578	202.75
460.798	206.75
461.018	205.75
461.238	200.75
461.458	219.75
461.678	215.75
461.898	213.75
462.118	229.75
462.338	217.75
462.558	224.75
462.777	240.75
462.997	245.75
463.217	258.75
463.437	244.75
463.657	252.75
463.876	233.75
464.096	229.75
464.316	226.75
464.536	233.75
464.755	223.75
464.975	224.75
465.195	215.75
465.414	220.75
465.634	194.75
465.854	194.75
466.073	194.75
466.293	211.75
466.512	200.75
466.732	195.75
466.951	175.75
467.171	190.75
467.391	210.75
467.61	200.75
467.829	186.75
468.049	195.75
468.268	178.75
468.488	178.75
468.707	180.75
468.927	204.75
469.146	180.75
469.365	200.75
469.585	195.75
469.804	188.75
470.023	188.75
470.243	190.75
470.462	203.75
470.681	202.75
470.901	202.75
471.12	191.75
471.339	185.75
471.558	184.75
471.777	193.75
471.997	191.75
472.216	176.75
472.435	173.75
472.654	182.75
472.873	200.75
473.092	187.75
473.311	175.75
473.53	194.75
473.749	197.75
473.968	184.75
474.187	177.75
474.406	172.75
474.625	184.75
474.844	192.75
475.063	186.75
475.282	174.75
475.501	192.75
475.72	192.75
475.939	180.75
476.158	176.75
476.377	183.75
476.596	189.75
476.814	200.75
477.033	196.75
477.252	205.75
477.471	206.75
477.69	207.75
477.908	186.75
478.127	204.75
478.346	207.75
478.564	204.75
478.783	198.75
479.002	217.75
479.22	216.75
479.439	205.75
479.658	218.75
479.876	215.75
480.095	201.75
480.313	209.75
480.532	212.75
480.751	199.75
480.969	194.75
481.188	207.75
481.406	211.75
481.624	215.75
481.843	184.75
482.061	200.75
482.28	188.75
482.498	206.75
482.717	195.75
482.935	193.75
483.153	213.75
483.372	203.75
483.59	209.75
483.808	209.75
484.027	205.75
484.245	207.75
484.463	212.75
484.681	210.75
484.9	203.75
485.118	208.75
485.336	200.75
485.554	223.75
485.772	201.75
485.99	211.75
486.209	206.75
486.427	209.75
486.645	213.75
486.863	218.75
487.081	208.75
487.299	194.75
487.517	221.75
487.735	219.75
487.953	211.75
488.171	210.75
488.389	204.75
488.607	201.75
488.825	204.75
489.043	205.75
489.261	203.75
489.479	202.75
489.696	214.75
489.914	190.75
490.132	206.75
490.35	196.75
490.568	218.75
490.786	224.75
491.003	223.75
491.221	203.75
491.439	200.75
491.657	220.75
491.874	228.75
492.092	221.75
492.31	208.75
492.527	228.75
492.745	217.75
492.963	215.75
493.18	212.75
493.398	219.75
493.615	201.75
493.833	228.75
494.05	196.75
494.268	211.75
494.485	214.75
494.703	221.75
494.92	225.75
495.138	226.75
495.355	229.75
495.573	204.75
495.79	220.75
496.008	226.75
496.225	210.75
496.442	217.75
496.66	220.75
496.877	231.75
497.094	235.75
497.312	234.75
497.529	242.75
497.746	232.75
497.963	240.75
498.181	252.75
498.398	234.75
498.615	261.75
498.832	282.75
499.049	298.75
499.267	295.75
499.484	320.75
499.701	343.75
499.918	361.75
500.135	399.75
500.352	434.75
500.569	425.75
500.786	443.75
501.003	404.75
501.22	380.75
501.437	376.75
501.654	337.75
501.871	312.75
502.088	296.75
502.305	280.75
502.522	262.75
502.739	256.75
502.956	245.75
503.172	261.75
503.389	243.75
503.606	230.75
503.823	245.75
504.04	253.75
