Data from Fe(NO3)3@0.1M.TitratingCurve.Agarose3%dH2O.NegLispCup.LampEnergy10.LIBS07252019_HRD10591_16-40-57-333.txt Node
Date: Thu Jul 25 16:40:57 EDT 2019
User: cochatt
Spectrometer: HR+D1059
Trigger mode: 1
Integration Time (sec): 1.000000E-1
Scans to average: 1
Electric dark correction enabled: true
Nonlinearity correction enabled: false
Boxcar width: 0
XAxis mode: Wavelengths
Number of Pixels in Spectrum: 2048
>>>>>Begin Spectral Data<<<<<
223.165	-18.88
223.4	-18.88
223.635	-18.88
223.869	-23.88
224.104	-11.88
224.338	-17.88
224.573	-19.88
224.808	-6.88
225.042	-4.88
225.277	12.12
225.511	-6.88
225.746	-5.88
225.98	6.12
226.215	6.12
226.449	11.12
226.683	27.12
226.918	29.12
227.152	25.12
227.387	32.12
227.621	52.12
227.856	60.12
228.09	52.12
228.324	52.12
228.559	64.12
228.793	60.12
229.027	74.12
229.262	79.12
229.496	89.12
229.73	91.12
229.964	98.12
230.199	102.12
230.433	89.12
230.667	103.12
230.901	111.12
231.136	109.12
231.37	108.12
231.604	123.12
231.838	116.12
232.072	110.12
232.306	122.12
232.541	116.12
232.775	109.12
233.009	95.12
233.243	97.12
233.477	105.12
233.711	110.12
233.945	109.12
234.179	103.12
234.413	116.12
234.647	97.12
234.881	109.12
235.115	101.12
235.349	110.12
235.583	102.12
235.817	114.12
236.051	96.12
236.285	114.12
236.519	119.12
236.753	125.12
236.987	116.12
237.221	110.12
237.455	126.12
237.689	116.12
237.922	111.12
238.156	101.12
238.39	109.12
238.624	107.12
238.858	118.12
239.091	121.12
239.325	125.12
239.559	121.12
239.793	116.12
240.027	120.12
240.26	111.12
240.494	118.12
240.728	138.12
240.961	111.12
241.195	134.12
241.429	117.12
241.662	115.12
241.896	139.12
242.13	116.12
242.363	121.12
242.597	128.12
242.83	142.12
243.064	135.12
243.298	138.12
243.531	119.12
243.765	144.12
243.998	142.12
244.232	132.12
244.465	142.12
244.699	130.12
244.932	135.12
245.166	148.12
245.399	144.12
245.633	130.12
245.866	135.12
246.099	143.12
246.333	127.12
246.566	133.12
246.8	144.12
247.033	152.12
247.266	136.12
247.5	142.12
247.733	124.12
247.966	137.12
248.2	135.12
248.433	138.12
248.666	143.12
248.899	135.12
249.133	158.12
249.366	154.12
249.599	156.12
249.832	154.12
250.066	141.12
250.299	142.12
250.532	144.12
250.765	145.12
250.998	154.12
251.231	150.12
251.465	152.12
251.698	154.12
251.931	147.12
252.164	138.12
252.397	165.12
252.63	162.12
252.863	168.12
253.096	183.12
253.329	162.12
253.562	164.12
253.795	179.12
254.028	173.12
254.261	150.12
254.494	166.12
254.727	151.12
254.96	149.12
255.193	162.12
255.426	154.12
255.659	154.12
255.892	159.12
256.124	155.12
256.357	181.12
256.59	170.12
256.823	172.12
257.056	176.12
257.289	169.12
257.521	171.12
257.754	158.12
257.987	173.12
258.22	163.12
258.452	170.12
258.685	173.12
258.918	163.12
259.151	172.12
259.383	174.12
259.616	185.12
259.849	184.12
260.081	181.12
260.314	198.12
260.547	179.12
260.779	184.12
261.012	167.12
261.244	166.12
261.477	197.12
261.71	183.12
261.942	184.12
262.175	198.12
262.407	174.12
262.64	179.12
262.872	194.12
263.105	180.12
263.337	188.12
263.57	183.12
263.802	187.12
264.035	189.12
264.267	187.12
264.499	201.12
264.732	194.12
264.964	194.12
265.197	195.12
265.429	200.12
265.661	187.12
265.894	194.12
266.126	206.12
266.358	178.12
266.591	192.12
266.823	197.12
267.055	184.12
267.287	196.12
267.52	181.12
267.752	202.12
267.984	202.12
268.216	203.12
268.448	195.12
268.681	213.12
268.913	200.12
269.145	191.12
269.377	205.12
269.609	218.12
269.841	209.12
270.073	197.12
270.306	198.12
270.538	195.12
270.77	201.12
271.002	195.12
271.234	197.12
271.466	224.12
271.698	203.12
271.93	200.12
272.162	208.12
272.394	208.12
272.626	213.12
272.858	206.12
273.09	206.12
273.322	220.12
273.553	209.12
273.785	210.12
274.017	217.12
274.249	225.12
274.481	216.12
274.713	217.12
274.945	235.12
275.176	208.12
275.408	222.12
275.64	228.12
275.872	219.12
276.104	223.12
276.335	219.12
276.567	238.12
276.799	229.12
277.031	212.12
277.262	215.12
277.494	237.12
277.726	230.12
277.957	231.12
278.189	226.12
278.421	244.12
278.652	231.12
278.884	234.12
279.115	236.12
279.347	231.12
279.579	249.12
279.81	222.12
280.042	235.12
280.273	231.12
280.505	236.12
280.736	219.12
280.968	239.12
281.199	250.12
281.431	248.12
281.662	251.12
281.894	249.12
282.125	241.12
282.356	248.12
282.588	233.12
282.819	242.12
283.051	247.12
283.282	250.12
283.513	247.12
283.745	236.12
283.976	258.12
284.207	259.12
284.439	255.12
284.67	256.12
284.901	244.12
285.132	246.12
285.364	258.12
285.595	243.12
285.826	258.12
286.057	268.12
286.288	264.12
286.52	266.12
286.751	262.12
286.982	264.12
287.213	261.12
287.444	261.12
287.675	235.12
287.906	274.12
288.138	262.12
288.369	275.12
288.6	262.12
288.831	243.12
289.062	279.12
289.293	258.12
289.524	271.12
289.755	258.12
289.986	263.12
290.217	270.12
290.448	287.12
290.679	288.12
290.91	264.12
291.141	260.12
291.371	284.12
291.602	293.12
291.833	258.12
292.064	261.12
292.295	255.12
292.526	301.12
292.757	258.12
292.987	276.12
293.218	264.12
293.449	276.12
293.68	265.12
293.91	254.12
294.141	274.12
294.372	273.12
294.603	273.12
294.833	283.12
295.064	299.12
295.295	280.12
295.525	264.12
295.756	281.12
295.987	293.12
296.217	285.12
296.448	280.12
296.679	285.12
296.909	257.12
297.14	268.12
297.37	290.12
297.601	288.12
297.831	302.12
298.062	274.12
298.292	283.12
298.523	290.12
298.753	270.12
298.984	295.12
299.214	309.12
299.445	292.12
299.675	285.12
299.905	280.12
300.136	304.12
300.366	285.12
300.597	304.12
300.827	300.12
301.057	279.12
301.288	295.12
301.518	291.12
301.748	307.12
301.979	327.12
302.209	304.12
302.439	299.12
302.669	307.12
302.9	316.12
303.13	278.12
303.36	299.12
303.59	308.12
303.82	310.12
304.051	307.12
304.281	300.12
304.511	318.12
304.741	302.12
304.971	318.12
305.201	305.12
305.431	314.12
305.661	306.12
305.891	299.12
306.121	295.12
306.352	292.12
306.582	299.12
306.812	302.12
307.042	298.12
307.272	288.12
307.502	298.12
307.731	291.12
307.961	302.12
308.191	313.12
308.421	302.12
308.651	303.12
308.881	300.12
309.111	321.12
309.341	308.12
309.571	287.12
309.8	303.12
310.03	294.12
310.26	313.12
310.49	308.12
310.72	288.12
310.949	314.12
311.179	323.12
311.409	318.12
311.639	290.12
311.868	299.12
312.098	324.12
312.328	314.12
312.557	306.12
312.787	315.12
313.017	315.12
313.246	332.12
313.476	306.12
313.706	313.12
313.935	352.12
314.165	325.12
314.394	304.12
314.624	329.12
314.853	315.12
315.083	329.12
315.312	331.12
315.542	320.12
315.771	316.12
316.001	333.12
316.23	330.12
316.46	322.12
316.689	317.12
316.919	322.12
317.148	330.12
317.377	338.12
317.607	333.12
317.836	323.12
318.065	323.12
318.295	319.12
318.524	301.12
318.753	335.12
318.983	308.12
319.212	341.12
319.441	317.12
319.67	326.12
319.9	306.12
320.129	314.12
320.358	339.12
320.587	333.12
320.816	320.12
321.046	316.12
321.275	328.12
321.504	326.12
321.733	331.12
321.962	332.12
322.191	332.12
322.42	329.12
322.649	343.12
322.878	328.12
323.108	323.12
323.337	340.12
323.566	323.12
323.795	347.12
324.024	342.12
324.253	328.12
324.482	328.12
324.71	342.12
324.939	351.12
325.168	344.12
325.397	344.12
325.626	339.12
325.855	334.12
326.084	341.12
326.313	350.12
326.542	339.12
326.77	350.12
326.999	349.12
327.228	356.12
327.457	344.12
327.686	349.12
327.914	352.12
328.143	354.12
328.372	356.12
328.6	349.12
328.829	351.12
329.058	362.12
329.287	367.12
329.515	342.12
329.744	375.12
329.972	376.12
330.201	354.12
330.43	363.12
330.658	374.12
330.887	390.12
331.115	376.12
331.344	373.12
331.572	372.12
331.801	384.12
332.03	390.12
332.258	388.12
332.486	404.12
332.715	397.12
332.943	417.12
333.172	428.12
333.4	422.12
333.629	428.12
333.857	449.12
334.085	446.12
334.314	452.12
334.542	425.12
334.771	435.12
334.999	416.12
335.227	436.12
335.455	444.12
335.684	443.12
335.912	423.12
336.14	417.12
336.369	383.12
336.597	408.12
336.825	411.12
337.053	427.12
337.281	412.12
337.51	399.12
337.738	420.12
337.966	397.12
338.194	394.12
338.422	382.12
338.65	366.12
338.878	404.12
339.106	380.12
339.334	383.12
339.562	382.12
339.79	350.12
340.018	373.12
340.246	376.12
340.474	377.12
340.702	367.12
340.93	394.12
341.158	390.12
341.386	384.12
341.614	373.12
341.842	358.12
342.07	358.12
342.298	374.12
342.526	378.12
342.754	367.12
342.981	380.12
343.209	377.12
343.437	394.12
343.665	407.12
343.893	427.12
344.12	448.12
344.348	429.12
344.576	396.12
344.804	392.12
345.031	383.12
345.259	391.12
345.487	373.12
345.714	373.12
345.942	356.12
346.17	372.12
346.397	356.12
346.625	368.12
346.853	349.12
347.08	356.12
347.308	367.12
347.535	354.12
347.763	350.12
347.99	351.12
348.218	352.12
348.445	360.12
348.673	342.12
348.9	356.12
349.128	370.12
349.355	355.12
349.583	358.12
349.81	347.12
350.037	356.12
350.265	346.12
350.492	349.12
350.72	347.12
350.947	343.12
351.174	350.12
351.402	364.12
351.629	345.12
351.856	365.12
352.083	340.12
352.311	355.12
352.538	357.12
352.765	348.12
352.992	346.12
353.22	343.12
353.447	335.12
353.674	362.12
353.901	360.12
354.128	368.12
354.355	338.12
354.583	357.12
354.81	362.12
355.037	360.12
355.264	365.12
355.491	354.12
355.718	378.12
355.945	366.12
356.172	360.12
356.399	367.12
356.626	350.12
356.853	353.12
357.08	354.12
357.307	343.12
357.534	344.12
357.761	373.12
357.988	348.12
358.215	359.12
358.441	349.12
358.668	355.12
358.895	359.12
359.122	367.12
359.349	359.12
359.576	365.12
359.802	350.12
360.029	358.12
360.256	355.12
360.483	357.12
360.709	340.12
360.936	371.12
361.163	371.12
361.39	360.12
361.616	346.12
361.843	354.12
362.07	340.12
362.296	332.12
362.523	346.12
362.749	375.12
362.976	363.12
363.203	378.12
363.429	363.12
363.656	349.12
363.882	349.12
364.109	350.12
364.335	350.12
364.562	353.12
364.788	355.12
365.015	351.12
365.241	350.12
365.468	342.12
365.694	352.12
365.92	372.12
366.147	349.12
366.373	358.12
366.599	373.12
366.826	358.12
367.052	365.12
367.278	348.12
367.505	366.12
367.731	372.12
367.957	362.12
368.184	360.12
368.41	362.12
368.636	363.12
368.862	400.12
369.089	396.12
369.315	376.12
369.541	376.12
369.767	373.12
369.993	383.12
370.219	360.12
370.445	386.12
370.672	366.12
370.898	386.12
371.124	396.12
371.35	393.12
371.576	383.12
371.802	391.12
372.028	366.12
372.254	386.12
372.48	382.12
372.706	400.12
372.932	401.12
373.158	397.12
373.384	395.12
373.61	407.12
373.835	402.12
374.061	384.12
374.287	398.12
374.513	389.12
374.739	418.12
374.965	401.12
375.191	413.12
375.416	412.12
375.642	403.12
375.868	404.12
376.094	419.12
376.319	386.12
376.545	400.12
376.771	404.12
376.997	401.12
377.222	394.12
377.448	379.12
377.674	384.12
377.899	397.12
378.125	378.12
378.35	383.12
378.576	380.12
378.802	382.12
379.027	384.12
379.253	371.12
379.478	387.12
379.704	386.12
379.929	390.12
380.155	390.12
380.38	392.12
380.606	378.12
380.831	382.12
381.057	375.12
381.282	396.12
381.507	386.12
381.733	398.12
381.958	394.12
382.184	395.12
382.409	412.12
382.634	409.12
382.86	423.12
383.085	417.12
383.31	413.12
383.535	438.12
383.761	436.12
383.986	412.12
384.211	424.12
384.436	437.12
384.662	456.12
384.887	474.12
385.112	452.12
385.337	474.12
385.562	464.12
385.787	460.12
386.013	467.12
386.238	461.12
386.463	479.12
386.688	471.12
386.913	468.12
387.138	450.12
387.363	440.12
387.588	442.12
387.813	458.12
388.038	460.12
388.263	429.12
388.488	446.12
388.713	466.12
388.938	471.12
389.163	459.12
389.387	469.12
389.612	458.12
389.837	457.12
390.062	440.12
390.287	464.12
390.512	435.12
390.736	452.12
390.961	467.12
391.186	468.12
391.411	518.12
391.636	491.12
391.86	502.12
392.085	516.12
392.31	511.12
392.534	488.12
392.759	465.12
392.984	494.12
393.208	488.12
393.433	465.12
393.658	471.12
393.882	503.12
394.107	493.12
394.331	486.12
394.556	486.12
394.78	498.12
395.005	515.12
395.229	495.12
395.454	505.12
395.678	541.12
395.903	512.12
396.127	506.12
396.352	484.12
396.576	493.12
396.801	474.12
397.025	516.12
397.249	495.12
397.474	523.12
397.698	534.12
397.922	508.12
398.147	525.12
398.371	538.12
398.595	532.12
398.82	576.12
399.044	579.12
399.268	668.12
399.492	757.12
399.717	776.12
399.941	764.12
400.165	706.12
400.389	678.12
400.613	618.12
400.837	596.12
401.062	603.12
401.286	575.12
401.51	565.12
401.734	567.12
401.958	563.12
402.182	581.12
402.406	591.12
402.63	574.12
402.854	600.12
403.078	581.12
403.302	592.12
403.526	584.12
403.75	611.12
403.974	608.12
404.198	602.12
404.422	642.12
404.645	632.12
404.869	619.12
405.093	608.12
405.317	619.12
405.541	599.12
405.765	608.12
405.988	619.12
406.212	624.12
406.436	596.12
406.66	617.12
406.883	628.12
407.107	644.12
407.331	696.12
407.555	693.12
407.778	677.12
408.002	685.12
408.226	652.12
408.449	664.12
408.673	646.12
408.896	626.12
409.12	616.12
409.344	654.12
409.567	603.12
409.791	620.12
410.014	611.12
410.238	600.12
410.461	632.12
410.685	633.12
410.908	622.12
411.132	591.12
411.355	580.12
411.578	600.12
411.802	576.12
412.025	596.12
412.249	581.12
412.472	603.12
412.695	588.12
412.919	563.12
413.142	569.12
413.365	564.12
413.589	587.12
413.812	575.12
414.035	555.12
414.258	567.12
414.482	568.12
414.705	574.12
414.928	571.12
415.151	568.12
415.374	584.12
415.597	565.12
415.821	542.12
416.044	558.12
416.267	534.12
416.49	565.12
416.713	566.12
416.936	566.12
417.159	570.12
417.382	537.12
417.605	552.12
417.828	543.12
418.051	564.12
418.274	553.12
418.497	560.12
418.72	592.12
418.943	577.12
419.166	598.12
419.389	605.12
419.611	610.12
419.834	589.12
420.057	590.12
420.28	584.12
420.503	538.12
420.726	570.12
420.948	568.12
421.171	547.12
421.394	546.12
421.617	562.12
421.839	579.12
422.062	562.12
422.285	557.12
422.507	578.12
422.73	548.12
422.953	582.12
423.175	558.12
423.398	601.12
423.621	594.12
423.843	569.12
424.066	602.12
424.288	571.12
424.511	566.12
424.733	565.12
424.956	573.12
425.178	578.12
425.401	534.12
425.623	540.12
425.846	541.12
426.068	532.12
426.291	519.12
426.513	529.12
426.735	551.12
426.958	518.12
427.18	539.12
427.402	518.12
427.625	515.12
427.847	508.12
428.069	490.12
428.292	514.12
428.514	515.12
428.736	519.12
428.958	498.12
429.181	524.12
429.403	487.12
429.625	523.12
429.847	492.12
430.069	509.12
430.292	516.12
430.514	499.12
430.736	515.12
430.958	514.12
431.18	513.12
431.402	510.12
431.624	498.12
431.846	495.12
432.068	524.12
432.29	541.12
432.512	503.12
432.734	515.12
432.956	500.12
433.178	523.12
433.4	520.12
433.622	527.12
433.844	503.12
434.066	541.12
434.287	506.12
434.509	531.12
434.731	545.12
434.953	574.12
435.175	540.12
435.397	571.12
435.618	555.12
435.84	524.12
436.062	522.12
436.284	546.12
436.505	507.12
436.727	542.12
436.949	526.12
437.17	524.12
437.392	488.12
437.614	490.12
437.835	497.12
438.057	498.12
438.278	485.12
438.5	490.12
438.721	499.12
438.943	512.12
439.165	528.12
439.386	487.12
439.608	503.12
439.829	511.12
440.05	504.12
440.272	531.12
440.493	537.12
440.715	534.12
440.936	517.12
441.158	567.12
441.379	537.12
441.6	556.12
441.822	570.12
442.043	577.12
442.264	561.12
442.486	561.12
442.707	558.12
442.928	566.12
443.149	547.12
443.371	538.12
443.592	585.12
443.813	592.12
444.034	596.12
444.255	606.12
444.476	595.12
444.698	625.12
444.919	660.12
445.14	732.12
445.361	661.12
445.582	600.12
445.803	555.12
446.024	553.12
446.245	548.12
446.466	554.12
446.687	564.12
446.908	529.12
447.129	520.12
447.35	495.12
447.571	508.12
447.792	495.12
448.013	490.12
448.234	485.12
448.455	523.12
448.675	493.12
448.896	482.12
449.117	480.12
449.338	479.12
449.559	479.12
449.779	486.12
450	467.12
450.221	467.12
450.442	480.12
450.662	462.12
450.883	472.12
451.104	490.12
451.324	468.12
451.545	483.12
451.766	472.12
451.986	488.12
452.207	479.12
452.428	463.12
452.648	464.12
452.869	470.12
453.089	453.12
453.31	476.12
453.53	456.12
453.751	462.12
453.971	457.12
454.192	475.12
454.412	460.12
454.633	450.12
454.853	454.12
455.073	464.12
455.294	462.12
455.514	462.12
455.734	468.12
455.955	451.12
456.175	444.12
456.395	458.12
456.616	451.12
456.836	441.12
457.056	454.12
457.276	454.12
457.497	438.12
457.717	444.12
457.937	465.12
458.157	482.12
458.377	460.12
458.598	445.12
458.818	506.12
459.038	493.12
459.258	513.12
459.478	516.12
459.698	528.12
459.918	534.12
460.138	568.12
460.358	591.12
460.578	598.12
460.798	578.12
461.018	599.12
461.238	595.12
461.458	594.12
461.678	572.12
461.898	590.12
462.118	612.12
462.338	611.12
462.558	628.12
462.777	663.12
462.997	703.12
463.217	727.12
463.437	728.12
463.657	681.12
463.876	656.12
464.096	620.12
464.316	654.12
464.536	660.12
464.755	648.12
464.975	644.12
465.195	592.12
465.414	578.12
465.634	531.12
465.854	554.12
466.073	504.12
466.293	540.12
466.512	518.12
466.732	523.12
466.951	524.12
467.171	482.12
467.391	498.12
467.61	522.12
467.829	496.12
468.049	499.12
468.268	477.12
468.488	484.12
468.707	478.12
468.927	499.12
469.146	471.12
469.365	482.12
469.585	478.12
469.804	509.12
470.023	496.12
470.243	500.12
470.462	507.12
470.681	491.12
470.901	510.12
471.12	510.12
471.339	492.12
471.558	477.12
471.777	509.12
471.997	494.12
472.216	472.12
472.435	475.12
472.654	482.12
472.873	464.12
473.092	468.12
473.311	465.12
473.53	460.12
473.749	467.12
473.968	470.12
474.187	468.12
474.406	458.12
474.625	467.12
474.844	476.12
475.063	470.12
475.282	486.12
475.501	455.12
475.72	482.12
475.939	477.12
476.158	476.12
476.377	491.12
476.596	489.12
476.814	477.12
477.033	487.12
477.252	508.12
477.471	477.12
477.69	525.12
477.908	531.12
478.127	545.12
478.346	536.12
478.564	556.12
478.783	559.12
479.002	540.12
479.22	575.12
479.439	581.12
479.658	578.12
479.876	550.12
480.095	568.12
480.313	595.12
480.532	598.12
480.751	603.12
480.969	564.12
481.188	563.12
481.406	551.12
481.624	540.12
481.843	522.12
482.061	527.12
482.28	542.12
482.498	530.12
482.717	529.12
482.935	521.12
483.153	537.12
483.372	526.12
483.59	510.12
483.808	515.12
484.027	511.12
484.245	532.12
484.463	536.12
484.681	538.12
484.9	543.12
485.118	553.12
485.336	526.12
485.554	523.12
485.772	540.12
485.99	523.12
486.209	545.12
486.427	533.12
486.645	536.12
486.863	546.12
487.081	542.12
487.299	540.12
487.517	543.12
487.735	547.12
487.953	536.12
488.171	555.12
488.389	525.12
488.607	531.12
488.825	552.12
489.043	514.12
489.261	521.12
489.479	521.12
489.696	552.12
489.914	536.12
490.132	529.12
490.35	539.12
490.568	559.12
490.786	539.12
491.003	550.12
491.221	556.12
491.439	542.12
491.657	554.12
491.874	563.12
492.092	559.12
492.31	552.12
492.527	543.12
492.745	551.12
492.963	545.12
493.18	540.12
493.398	573.12
493.615	575.12
493.833	564.12
494.05	578.12
494.268	582.12
494.485	587.12
494.703	579.12
494.92	563.12
495.138	565.12
495.355	584.12
495.573	568.12
495.79	580.12
496.008	602.12
496.225	595.12
496.442	599.12
496.66	611.12
496.877	601.12
497.094	619.12
497.312	594.12
497.529	660.12
497.746	632.12
497.963	668.12
498.181	710.12
498.398	734.12
498.615	747.12
498.832	786.12
499.049	844.12
499.267	900.12
499.484	978.12
499.701	1046.12
499.918	1140.12
500.135	1268.12
500.352	1406.12
500.569	1445.12
500.786	1418.12
501.003	1300.12
501.22	1203.12
501.437	1102.12
501.654	994.12
