Data from Fe(NO3)3@0.1M.TitratingCurve.Agarose3%dH2O.NegLispCup.LampEnergy10.LIBS07252019_HRD10591_16-37-56-332.txt Node
Date: Thu Jul 25 16:37:56 EDT 2019
User: cochatt
Spectrometer: HR+D1059
Trigger mode: 1
Integration Time (sec): 1.000000E-1
Scans to average: 1
Electric dark correction enabled: true
Nonlinearity correction enabled: false
Boxcar width: 0
XAxis mode: Wavelengths
Number of Pixels in Spectrum: 2048
>>>>>Begin Spectral Data<<<<<
223.165	-12.75
223.4	-12.75
223.635	-12.75
223.869	-13.75
224.104	-24.75
224.338	-1.75
224.573	-16.75
224.808	0.25
225.042	-4.75
225.277	-11.75
225.511	-8.75
225.746	-10.75
225.98	1.25
226.215	14.25
226.449	16.25
226.683	28.25
226.918	16.25
227.152	29.25
227.387	55.25
227.621	50.25
227.856	39.25
228.09	52.25
228.324	53.25
228.559	59.25
228.793	71.25
229.027	76.25
229.262	83.25
229.496	71.25
229.73	70.25
229.964	93.25
230.199	86.25
230.433	92.25
230.667	93.25
230.901	105.25
231.136	100.25
231.37	101.25
231.604	101.25
231.838	99.25
232.072	108.25
232.306	104.25
232.541	90.25
232.775	100.25
233.009	87.25
233.243	96.25
233.477	103.25
233.711	108.25
233.945	108.25
234.179	82.25
234.413	100.25
234.647	105.25
234.881	92.25
235.115	118.25
235.349	87.25
235.583	107.25
235.817	80.25
236.051	105.25
236.285	116.25
236.519	107.25
236.753	94.25
236.987	97.25
237.221	101.25
237.455	119.25
237.689	98.25
237.922	100.25
238.156	112.25
238.39	109.25
238.624	114.25
238.858	115.25
239.091	93.25
239.325	95.25
239.559	125.25
239.793	122.25
240.027	103.25
240.26	106.25
240.494	104.25
240.728	102.25
240.961	102.25
241.195	125.25
241.429	124.25
241.662	112.25
241.896	114.25
242.13	119.25
242.363	107.25
242.597	114.25
242.83	114.25
243.064	121.25
243.298	106.25
243.531	111.25
243.765	119.25
243.998	118.25
244.232	122.25
244.465	117.25
244.699	101.25
244.932	126.25
245.166	117.25
245.399	122.25
245.633	123.25
245.866	110.25
246.099	114.25
246.333	114.25
246.566	110.25
246.8	118.25
247.033	127.25
247.266	140.25
247.5	125.25
247.733	136.25
247.966	138.25
248.2	121.25
248.433	131.25
248.666	120.25
248.899	123.25
249.133	126.25
249.366	130.25
249.599	134.25
249.832	123.25
250.066	136.25
250.299	132.25
250.532	116.25
250.765	120.25
250.998	144.25
251.231	134.25
251.465	139.25
251.698	137.25
251.931	134.25
252.164	135.25
252.397	130.25
252.63	142.25
252.863	138.25
253.096	142.25
253.329	132.25
253.562	127.25
253.795	140.25
254.028	138.25
254.261	138.25
254.494	147.25
254.727	128.25
254.96	126.25
255.193	132.25
255.426	140.25
255.659	126.25
255.892	150.25
256.124	129.25
256.357	145.25
256.59	132.25
256.823	137.25
257.056	143.25
257.289	137.25
257.521	154.25
257.754	148.25
257.987	131.25
258.22	138.25
258.452	148.25
258.685	144.25
258.918	153.25
259.151	147.25
259.383	150.25
259.616	148.25
259.849	163.25
260.081	152.25
260.314	148.25
260.547	156.25
260.779	152.25
261.012	148.25
261.244	145.25
261.477	184.25
261.71	155.25
261.942	150.25
262.175	166.25
262.407	151.25
262.64	147.25
262.872	155.25
263.105	155.25
263.337	165.25
263.57	145.25
263.802	140.25
264.035	173.25
264.267	148.25
264.499	172.25
264.732	179.25
264.964	156.25
265.197	176.25
265.429	157.25
265.661	156.25
265.894	163.25
266.126	173.25
266.358	162.25
266.591	158.25
266.823	163.25
267.055	157.25
267.287	152.25
267.52	159.25
267.752	161.25
267.984	150.25
268.216	171.25
268.448	166.25
268.681	178.25
268.913	175.25
269.145	162.25
269.377	158.25
269.609	170.25
269.841	163.25
270.073	174.25
270.306	171.25
270.538	170.25
270.77	148.25
271.002	175.25
271.234	193.25
271.466	173.25
271.698	164.25
271.93	173.25
272.162	150.25
272.394	165.25
272.626	188.25
272.858	166.25
273.09	173.25
273.322	200.25
273.553	190.25
273.785	183.25
274.017	176.25
274.249	190.25
274.481	185.25
274.713	176.25
274.945	192.25
275.176	195.25
275.408	188.25
275.64	177.25
275.872	182.25
276.104	176.25
276.335	188.25
276.567	204.25
276.799	180.25
277.031	199.25
277.262	187.25
277.494	199.25
277.726	178.25
277.957	192.25
278.189	181.25
278.421	181.25
278.652	183.25
278.884	200.25
279.115	190.25
279.347	169.25
279.579	191.25
279.81	189.25
280.042	195.25
280.273	198.25
280.505	197.25
280.736	191.25
280.968	190.25
281.199	202.25
281.431	188.25
281.662	190.25
281.894	209.25
282.125	199.25
282.356	206.25
282.588	203.25
282.819	210.25
283.051	182.25
283.282	189.25
283.513	186.25
283.745	199.25
283.976	214.25
284.207	189.25
284.439	210.25
284.67	200.25
284.901	203.25
285.132	215.25
285.364	215.25
285.595	179.25
285.826	203.25
286.057	205.25
286.288	190.25
286.52	203.25
286.751	200.25
286.982	214.25
287.213	207.25
287.444	202.25
287.675	221.25
287.906	208.25
288.138	204.25
288.369	200.25
288.6	211.25
288.831	208.25
289.062	219.25
289.293	218.25
289.524	206.25
289.755	213.25
289.986	223.25
290.217	195.25
290.448	209.25
290.679	215.25
290.91	225.25
291.141	218.25
291.371	223.25
291.602	216.25
291.833	220.25
292.064	215.25
292.295	213.25
292.526	222.25
292.757	221.25
292.987	224.25
293.218	226.25
293.449	225.25
293.68	218.25
293.91	200.25
294.141	211.25
294.372	213.25
294.603	214.25
294.833	214.25
295.064	208.25
295.295	202.25
295.525	204.25
295.756	221.25
295.987	209.25
296.217	218.25
296.448	224.25
296.679	220.25
296.909	231.25
297.14	238.25
297.37	212.25
297.601	217.25
297.831	238.25
298.062	236.25
298.292	217.25
298.523	233.25
298.753	204.25
298.984	227.25
299.214	246.25
299.445	216.25
299.675	232.25
299.905	215.25
300.136	228.25
300.366	235.25
300.597	234.25
300.827	231.25
301.057	221.25
301.288	236.25
301.518	232.25
301.748	227.25
301.979	226.25
302.209	230.25
302.439	235.25
302.669	236.25
302.9	218.25
303.13	231.25
303.36	240.25
303.59	233.25
303.82	237.25
304.051	257.25
304.281	242.25
304.511	239.25
304.741	237.25
304.971	225.25
305.201	247.25
305.431	235.25
305.661	226.25
305.891	237.25
306.121	242.25
306.352	243.25
306.582	248.25
306.812	237.25
307.042	234.25
307.272	245.25
307.502	229.25
307.731	227.25
307.961	227.25
308.191	247.25
308.421	237.25
308.651	216.25
308.881	237.25
309.111	238.25
309.341	240.25
309.571	238.25
309.8	242.25
310.03	234.25
310.26	253.25
310.49	242.25
310.72	250.25
310.949	261.25
311.179	227.25
311.409	235.25
311.639	228.25
311.868	259.25
312.098	252.25
312.328	242.25
312.557	247.25
312.787	258.25
313.017	248.25
313.246	238.25
313.476	258.25
313.706	248.25
313.935	246.25
314.165	248.25
314.394	235.25
314.624	243.25
314.853	246.25
315.083	238.25
315.312	257.25
315.542	255.25
315.771	257.25
316.001	275.25
316.23	224.25
316.46	263.25
316.689	252.25
316.919	237.25
317.148	266.25
317.377	247.25
317.607	244.25
317.836	251.25
318.065	263.25
318.295	271.25
318.524	244.25
318.753	271.25
318.983	268.25
319.212	248.25
319.441	256.25
319.67	248.25
319.9	261.25
320.129	251.25
320.358	242.25
320.587	262.25
320.816	261.25
321.046	234.25
321.275	273.25
321.504	250.25
321.733	261.25
321.962	238.25
322.191	253.25
322.42	263.25
322.649	269.25
322.878	262.25
323.108	268.25
323.337	247.25
323.566	252.25
323.795	263.25
324.024	266.25
324.253	273.25
324.482	262.25
324.71	266.25
324.939	256.25
325.168	252.25
325.397	263.25
325.626	279.25
325.855	268.25
326.084	278.25
326.313	286.25
326.542	291.25
326.77	272.25
326.999	261.25
327.228	266.25
327.457	254.25
327.686	283.25
327.914	261.25
328.143	276.25
328.372	271.25
328.6	273.25
328.829	268.25
329.058	272.25
329.287	277.25
329.515	280.25
329.744	275.25
329.972	262.25
330.201	260.25
330.43	270.25
330.658	291.25
330.887	278.25
331.115	273.25
331.344	282.25
331.572	296.25
331.801	294.25
332.03	274.25
332.258	307.25
332.486	318.25
332.715	296.25
332.943	307.25
333.172	328.25
333.4	323.25
333.629	319.25
333.857	343.25
334.085	318.25
334.314	344.25
334.542	319.25
334.771	340.25
334.999	335.25
335.227	335.25
335.455	333.25
335.684	334.25
335.912	334.25
336.14	309.25
336.369	326.25
336.597	340.25
336.825	326.25
337.053	320.25
337.281	295.25
337.51	296.25
337.738	313.25
337.966	301.25
338.194	271.25
338.422	293.25
338.65	282.25
338.878	289.25
339.106	324.25
339.334	298.25
339.562	302.25
339.79	277.25
340.018	285.25
340.246	292.25
340.474	299.25
340.702	275.25
340.93	285.25
341.158	302.25
341.386	276.25
341.614	289.25
341.842	279.25
342.07	294.25
342.298	279.25
342.526	294.25
342.754	282.25
342.981	263.25
343.209	294.25
343.437	318.25
343.665	335.25
343.893	325.25
344.12	320.25
344.348	322.25
344.576	323.25
344.804	296.25
345.031	302.25
345.259	301.25
345.487	290.25
345.714	283.25
345.942	282.25
346.17	271.25
346.397	277.25
346.625	282.25
346.853	292.25
347.08	264.25
347.308	275.25
347.535	263.25
347.763	272.25
347.99	264.25
348.218	285.25
348.445	278.25
348.673	259.25
348.9	272.25
349.128	283.25
349.355	281.25
349.583	279.25
349.81	272.25
350.037	269.25
350.265	269.25
350.492	272.25
350.72	261.25
350.947	297.25
351.174	285.25
351.402	272.25
351.629	275.25
351.856	274.25
352.083	271.25
352.311	270.25
352.538	279.25
352.765	260.25
352.992	274.25
353.22	271.25
353.447	257.25
353.674	270.25
353.901	279.25
354.128	277.25
354.355	264.25
354.583	268.25
354.81	272.25
355.037	262.25
355.264	284.25
355.491	256.25
355.718	279.25
355.945	266.25
356.172	276.25
356.399	285.25
356.626	254.25
356.853	293.25
357.08	290.25
357.307	286.25
357.534	262.25
357.761	268.25
357.988	275.25
358.215	267.25
358.441	276.25
358.668	272.25
358.895	282.25
359.122	279.25
359.349	280.25
359.576	279.25
359.802	267.25
360.029	276.25
360.256	270.25
360.483	272.25
360.709	276.25
360.936	277.25
361.163	269.25
361.39	271.25
361.616	280.25
361.843	277.25
362.07	274.25
362.296	271.25
362.523	279.25
362.749	273.25
362.976	282.25
363.203	290.25
363.429	271.25
363.656	278.25
363.882	276.25
364.109	281.25
364.335	285.25
364.562	263.25
364.788	266.25
365.015	271.25
365.241	289.25
365.468	258.25
365.694	286.25
365.92	263.25
366.147	270.25
366.373	277.25
366.599	291.25
366.826	271.25
367.052	266.25
367.278	286.25
367.505	273.25
367.731	282.25
367.957	268.25
368.184	293.25
368.41	291.25
368.636	281.25
368.862	271.25
369.089	272.25
369.315	268.25
369.541	284.25
369.767	294.25
369.993	285.25
370.219	289.25
370.445	290.25
370.672	294.25
370.898	307.25
371.124	295.25
371.35	298.25
371.576	307.25
371.802	289.25
372.028	283.25
372.254	287.25
372.48	294.25
372.706	290.25
372.932	298.25
373.158	301.25
373.384	305.25
373.61	295.25
373.835	298.25
374.061	307.25
374.287	304.25
374.513	322.25
374.739	314.25
374.965	340.25
375.191	296.25
375.416	322.25
375.642	314.25
375.868	316.25
376.094	326.25
376.319	317.25
376.545	314.25
376.771	299.25
376.997	334.25
377.222	292.25
377.448	290.25
377.674	308.25
377.899	297.25
378.125	312.25
378.35	294.25
378.576	293.25
378.802	288.25
379.027	284.25
379.253	303.25
379.478	294.25
379.704	294.25
379.929	310.25
380.155	310.25
380.38	275.25
380.606	291.25
380.831	296.25
381.057	303.25
381.282	313.25
381.507	306.25
381.733	315.25
381.958	313.25
382.184	307.25
382.409	304.25
382.634	312.25
382.86	325.25
383.085	328.25
383.31	314.25
383.535	330.25
383.761	315.25
383.986	336.25
384.211	340.25
384.436	324.25
384.662	333.25
384.887	318.25
385.112	348.25
385.337	347.25
385.562	358.25
385.787	370.25
386.013	356.25
386.238	355.25
386.463	357.25
386.688	360.25
386.913	352.25
387.138	334.25
387.363	344.25
387.588	350.25
387.813	371.25
388.038	350.25
388.263	347.25
388.488	331.25
388.713	359.25
388.938	360.25
389.163	349.25
389.387	354.25
389.612	348.25
389.837	348.25
390.062	359.25
390.287	351.25
390.512	364.25
390.736	381.25
390.961	356.25
391.186	368.25
391.411	381.25
391.636	362.25
391.86	377.25
392.085	382.25
392.31	393.25
392.534	370.25
392.759	386.25
392.984	382.25
393.208	363.25
393.433	343.25
393.658	385.25
393.882	366.25
394.107	365.25
394.331	384.25
394.556	380.25
394.78	368.25
395.005	384.25
395.229	377.25
395.454	373.25
395.678	416.25
395.903	379.25
396.127	400.25
396.352	381.25
396.576	367.25
396.801	390.25
397.025	372.25
397.249	395.25
397.474	411.25
397.698	401.25
397.922	388.25
398.147	394.25
398.371	379.25
398.595	407.25
398.82	428.25
399.044	458.25
399.268	472.25
399.492	527.25
399.717	569.25
399.941	564.25
400.165	514.25
400.389	505.25
400.613	452.25
400.837	454.25
401.062	441.25
401.286	432.25
401.51	432.25
401.734	425.25
401.958	446.25
402.182	438.25
402.406	435.25
402.63	427.25
402.854	460.25
403.078	469.25
403.302	450.25
403.526	454.25
403.75	448.25
403.974	462.25
404.198	445.25
404.422	472.25
404.645	471.25
404.869	464.25
405.093	467.25
405.317	468.25
405.541	466.25
405.765	452.25
405.988	429.25
406.212	455.25
406.436	461.25
406.66	485.25
406.883	471.25
407.107	498.25
407.331	487.25
407.555	507.25
407.778	514.25
408.002	505.25
408.226	510.25
408.449	509.25
408.673	470.25
408.896	475.25
409.12	491.25
409.344	480.25
409.567	470.25
409.791	485.25
410.014	464.25
410.238	472.25
410.461	470.25
410.685	460.25
410.908	470.25
411.132	457.25
411.355	460.25
411.578	448.25
411.802	445.25
412.025	471.25
412.249	439.25
412.472	446.25
412.695	446.25
412.919	446.25
413.142	439.25
413.365	444.25
413.589	447.25
413.812	442.25
414.035	430.25
414.258	435.25
414.482	448.25
414.705	434.25
414.928	440.25
415.151	470.25
415.374	428.25
415.597	421.25
415.821	422.25
416.044	414.25
416.267	428.25
416.49	421.25
416.713	423.25
416.936	418.25
417.159	401.25
417.382	411.25
417.605	408.25
417.828	418.25
418.051	443.25
418.274	439.25
418.497	417.25
418.72	428.25
418.943	422.25
419.166	444.25
419.389	460.25
419.611	478.25
419.834	446.25
420.057	446.25
420.28	426.25
420.503	424.25
420.726	427.25
420.948	407.25
421.171	446.25
421.394	438.25
421.617	415.25
421.839	424.25
422.062	427.25
422.285	420.25
422.507	410.25
422.73	457.25
422.953	441.25
423.175	448.25
423.398	442.25
423.621	422.25
423.843	426.25
424.066	456.25
424.288	441.25
424.511	437.25
424.733	440.25
424.956	406.25
425.178	401.25
425.401	426.25
425.623	430.25
425.846	401.25
426.068	424.25
426.291	407.25
426.513	400.25
426.735	408.25
426.958	410.25
427.18	409.25
427.402	378.25
427.625	404.25
427.847	394.25
428.069	408.25
428.292	408.25
428.514	377.25
428.736	392.25
428.958	375.25
429.181	380.25
429.403	391.25
429.625	377.25
429.847	383.25
430.069	389.25
430.292	390.25
430.514	365.25
430.736	354.25
430.958	380.25
431.18	378.25
431.402	391.25
431.624	406.25
431.846	405.25
432.068	388.25
432.29	398.25
432.512	367.25
432.734	382.25
432.956	401.25
433.178	399.25
433.4	399.25
433.622	409.25
433.844	414.25
434.066	406.25
434.287	401.25
434.509	416.25
434.731	428.25
434.953	404.25
435.175	435.25
435.397	409.25
435.618	400.25
435.84	406.25
436.062	387.25
436.284	386.25
436.505	397.25
436.727	402.25
436.949	384.25
437.17	384.25
437.392	397.25
437.614	386.25
437.835	380.25
438.057	368.25
438.278	375.25
438.5	387.25
438.721	376.25
438.943	381.25
439.165	376.25
439.386	388.25
439.608	378.25
439.829	396.25
440.05	386.25
440.272	380.25
440.493	395.25
440.715	391.25
440.936	403.25
441.158	398.25
441.379	396.25
441.6	431.25
441.822	418.25
442.043	434.25
442.264	423.25
442.486	391.25
442.707	422.25
442.928	429.25
443.149	416.25
443.371	414.25
443.592	412.25
443.813	419.25
444.034	441.25
444.255	448.25
444.476	448.25
444.698	473.25
444.919	488.25
445.14	611.25
445.361	505.25
445.582	461.25
445.803	409.25
446.024	408.25
446.245	403.25
446.466	426.25
446.687	407.25
446.908	380.25
447.129	390.25
447.35	389.25
447.571	393.25
447.792	389.25
448.013	371.25
448.234	357.25
448.455	372.25
448.675	371.25
448.896	372.25
449.117	370.25
449.338	375.25
449.559	346.25
449.779	372.25
450	374.25
450.221	369.25
450.442	382.25
450.662	370.25
450.883	362.25
451.104	376.25
451.324	391.25
451.545	370.25
451.766	373.25
451.986	357.25
452.207	366.25
452.428	354.25
452.648	345.25
452.869	366.25
453.089	351.25
453.31	343.25
453.53	335.25
453.751	355.25
453.971	350.25
454.192	336.25
454.412	328.25
454.633	334.25
454.853	354.25
455.073	363.25
455.294	349.25
455.514	358.25
455.734	347.25
455.955	339.25
456.175	331.25
456.395	346.25
456.616	343.25
456.836	363.25
457.056	371.25
457.276	332.25
457.497	349.25
457.717	336.25
457.937	351.25
458.157	351.25
458.377	353.25
458.598	343.25
458.818	355.25
459.038	368.25
459.258	378.25
459.478	400.25
459.698	395.25
459.918	410.25
460.138	428.25
460.358	445.25
460.578	438.25
460.798	452.25
461.018	430.25
461.238	428.25
461.458	423.25
461.678	442.25
461.898	448.25
462.118	447.25
462.338	471.25
462.558	479.25
462.777	507.25
462.997	524.25
463.217	541.25
463.437	526.25
463.657	520.25
463.876	483.25
464.096	494.25
464.316	492.25
464.536	481.25
464.755	479.25
464.975	450.25
465.195	451.25
465.414	429.25
465.634	416.25
465.854	422.25
466.073	402.25
466.293	404.25
466.512	380.25
466.732	383.25
466.951	371.25
467.171	378.25
467.391	391.25
467.61	384.25
467.829	372.25
468.049	363.25
468.268	378.25
468.488	376.25
468.707	373.25
468.927	383.25
469.146	377.25
469.365	383.25
469.585	382.25
469.804	377.25
470.023	401.25
470.243	385.25
470.462	387.25
470.681	391.25
470.901	389.25
471.12	376.25
471.339	390.25
471.558	355.25
471.777	378.25
471.997	370.25
472.216	389.25
472.435	342.25
472.654	371.25
472.873	369.25
473.092	349.25
473.311	361.25
473.53	371.25
473.749	365.25
473.968	372.25
474.187	366.25
474.406	361.25
474.625	373.25
474.844	365.25
475.063	388.25
475.282	366.25
475.501	376.25
475.72	372.25
475.939	363.25
476.158	360.25
476.377	369.25
476.596	390.25
476.814	373.25
477.033	381.25
477.252	381.25
477.471	386.25
477.69	396.25
477.908	411.25
478.127	418.25
478.346	407.25
478.564	421.25
478.783	431.25
479.002	439.25
479.22	431.25
479.439	434.25
479.658	409.25
479.876	443.25
480.095	415.25
480.313	429.25
480.532	455.25
480.751	438.25
480.969	430.25
481.188	425.25
481.406	420.25
481.624	418.25
481.843	397.25
482.061	406.25
482.28	388.25
482.498	394.25
482.717	392.25
482.935	415.25
483.153	413.25
483.372	401.25
483.59	427.25
483.808	405.25
484.027	409.25
484.245	398.25
484.463	415.25
484.681	424.25
484.9	434.25
485.118	420.25
485.336	427.25
485.554	422.25
485.772	414.25
485.99	430.25
486.209	439.25
486.427	423.25
486.645	415.25
486.863	417.25
487.081	439.25
487.299	420.25
487.517	433.25
487.735	428.25
487.953	429.25
488.171	432.25
488.389	435.25
488.607	420.25
488.825	426.25
489.043	436.25
489.261	421.25
489.479	412.25
489.696	426.25
489.914	438.25
490.132	408.25
490.35	433.25
490.568	402.25
490.786	411.25
491.003	431.25
491.221	426.25
491.439	431.25
491.657	422.25
491.874	432.25
492.092	423.25
492.31	441.25
492.527	430.25
492.745	442.25
492.963	435.25
493.18	424.25
493.398	433.25
493.615	455.25
493.833	454.25
494.05	459.25
494.268	444.25
494.485	470.25
494.703	452.25
494.92	460.25
495.138	449.25
495.355	453.25
495.573	447.25
495.79	448.25
496.008	450.25
496.225	450.25
496.442	440.25
496.66	469.25
496.877	484.25
497.094	489.25
497.312	485.25
497.529	499.25
497.746	518.25
497.963	511.25
498.181	534.25
498.398	556.25
498.615	572.25
498.832	608.25
499.049	639.25
499.267	676.25
499.484	698.25
499.701	752.25
499.918	826.25
500.135	898.25
500.352	995.25
500.569	998.25
500.786	1041.25
501.003	959.25
501.22	894.25
501.437	780.25
501.654	772.25
501.871	721.25
