Data from Fe(NO3)3@0.1M.TitratingCurve.Agarose3%dH2O.NegLispCup.LampEnergy10.LIBS07252019_HRD10591_16-38-28-332.txt Node
Date: Thu Jul 25 16:38:28 EDT 2019
User: cochatt
Spectrometer: HR+D1059
Trigger mode: 1
Integration Time (sec): 1.000000E-1
Scans to average: 1
Electric dark correction enabled: true
Nonlinearity correction enabled: false
Boxcar width: 0
XAxis mode: Wavelengths
Number of Pixels in Spectrum: 2048
>>>>>Begin Spectral Data<<<<<
223.165	-15.44
223.4	-15.44
223.635	-15.44
223.869	-20.44
224.104	-12.44
224.338	-29.44
224.573	-15.44
224.808	-15.44
225.042	-7.44
225.277	-1.44
225.511	-14.44
225.746	5.56
225.98	10.56
226.215	17.56
226.449	13.56
226.683	23.56
226.918	35.56
227.152	25.56
227.387	26.56
227.621	53.56
227.856	36.56
228.09	42.56
228.324	45.56
228.559	52.56
228.793	66.56
229.027	77.56
229.262	85.56
229.496	75.56
229.73	73.56
229.964	79.56
230.199	89.56
230.433	69.56
230.667	84.56
230.901	80.56
231.136	90.56
231.37	74.56
231.604	90.56
231.838	93.56
232.072	93.56
232.306	92.56
232.541	99.56
232.775	94.56
233.009	97.56
233.243	86.56
233.477	69.56
233.711	79.56
233.945	95.56
234.179	86.56
234.413	80.56
234.647	101.56
234.881	83.56
235.115	86.56
235.349	90.56
235.583	87.56
235.817	95.56
236.051	88.56
236.285	91.56
236.519	90.56
236.753	84.56
236.987	90.56
237.221	98.56
237.455	88.56
237.689	97.56
237.922	83.56
238.156	88.56
238.39	93.56
238.624	90.56
238.858	92.56
239.091	73.56
239.325	86.56
239.559	91.56
239.793	84.56
240.027	100.56
240.26	78.56
240.494	88.56
240.728	91.56
240.961	96.56
241.195	102.56
241.429	100.56
241.662	91.56
241.896	89.56
242.13	84.56
242.363	71.56
242.597	86.56
242.83	94.56
243.064	85.56
243.298	84.56
243.531	104.56
243.765	80.56
243.998	96.56
244.232	98.56
244.465	90.56
244.699	78.56
244.932	108.56
245.166	98.56
245.399	102.56
245.633	97.56
245.866	84.56
246.099	84.56
246.333	100.56
246.566	94.56
246.8	84.56
247.033	88.56
247.266	103.56
247.5	91.56
247.733	92.56
247.966	88.56
248.2	83.56
248.433	114.56
248.666	94.56
248.899	104.56
249.133	85.56
249.366	101.56
249.599	102.56
249.832	104.56
250.066	99.56
250.299	90.56
250.532	92.56
250.765	95.56
250.998	98.56
251.231	89.56
251.465	107.56
251.698	95.56
251.931	96.56
252.164	90.56
252.397	100.56
252.63	95.56
252.863	122.56
253.096	114.56
253.329	122.56
253.562	102.56
253.795	93.56
254.028	107.56
254.261	101.56
254.494	109.56
254.727	96.56
254.96	113.56
255.193	99.56
255.426	95.56
255.659	106.56
255.892	108.56
256.124	84.56
256.357	108.56
256.59	107.56
256.823	96.56
257.056	102.56
257.289	103.56
257.521	103.56
257.754	98.56
257.987	88.56
258.22	97.56
258.452	102.56
258.685	121.56
258.918	95.56
259.151	122.56
259.383	110.56
259.616	112.56
259.849	114.56
260.081	108.56
260.314	103.56
260.547	107.56
260.779	107.56
261.012	116.56
261.244	109.56
261.477	110.56
261.71	113.56
261.942	114.56
262.175	98.56
262.407	98.56
262.64	114.56
262.872	110.56
263.105	97.56
263.337	124.56
263.57	111.56
263.802	88.56
264.035	101.56
264.267	99.56
264.499	87.56
264.732	104.56
264.964	107.56
265.197	115.56
265.429	101.56
265.661	104.56
265.894	106.56
266.126	121.56
266.358	112.56
266.591	101.56
266.823	102.56
267.055	109.56
267.287	122.56
267.52	108.56
267.752	100.56
267.984	116.56
268.216	109.56
268.448	114.56
268.681	118.56
268.913	107.56
269.145	118.56
269.377	124.56
269.609	122.56
269.841	121.56
270.073	116.56
270.306	113.56
270.538	104.56
270.77	114.56
271.002	109.56
271.234	115.56
271.466	116.56
271.698	119.56
271.93	133.56
272.162	123.56
272.394	114.56
272.626	124.56
272.858	112.56
273.09	110.56
273.322	125.56
273.553	104.56
273.785	121.56
274.017	127.56
274.249	112.56
274.481	124.56
274.713	121.56
274.945	117.56
275.176	127.56
275.408	122.56
275.64	119.56
275.872	102.56
276.104	114.56
276.335	102.56
276.567	124.56
276.799	118.56
277.031	124.56
277.262	114.56
277.494	119.56
277.726	121.56
277.957	134.56
278.189	136.56
278.421	122.56
278.652	129.56
278.884	108.56
279.115	124.56
279.347	130.56
279.579	127.56
279.81	131.56
280.042	122.56
280.273	123.56
280.505	113.56
280.736	112.56
280.968	113.56
281.199	126.56
281.431	134.56
281.662	130.56
281.894	126.56
282.125	106.56
282.356	126.56
282.588	117.56
282.819	132.56
283.051	126.56
283.282	117.56
283.513	132.56
283.745	120.56
283.976	120.56
284.207	122.56
284.439	127.56
284.67	115.56
284.901	119.56
285.132	131.56
285.364	129.56
285.595	128.56
285.826	133.56
286.057	136.56
286.288	126.56
286.52	104.56
286.751	122.56
286.982	136.56
287.213	117.56
287.444	128.56
287.675	132.56
287.906	127.56
288.138	142.56
288.369	135.56
288.6	122.56
288.831	122.56
289.062	132.56
289.293	138.56
289.524	138.56
289.755	125.56
289.986	124.56
290.217	140.56
290.448	131.56
290.679	122.56
290.91	140.56
291.141	138.56
291.371	137.56
291.602	138.56
291.833	128.56
292.064	126.56
292.295	140.56
292.526	129.56
292.757	120.56
292.987	146.56
293.218	141.56
293.449	141.56
293.68	130.56
293.91	126.56
294.141	125.56
294.372	125.56
294.603	135.56
294.833	148.56
295.064	143.56
295.295	126.56
295.525	131.56
295.756	130.56
295.987	139.56
296.217	148.56
296.448	126.56
296.679	124.56
296.909	131.56
297.14	128.56
297.37	146.56
297.601	140.56
297.831	154.56
298.062	127.56
298.292	132.56
298.523	140.56
298.753	129.56
298.984	130.56
299.214	148.56
299.445	132.56
299.675	153.56
299.905	140.56
300.136	130.56
300.366	144.56
300.597	141.56
300.827	123.56
301.057	134.56
301.288	140.56
301.518	141.56
301.748	147.56
301.979	145.56
302.209	128.56
302.439	136.56
302.669	134.56
302.9	142.56
303.13	131.56
303.36	137.56
303.59	143.56
303.82	148.56
304.051	137.56
304.281	148.56
304.511	148.56
304.741	146.56
304.971	142.56
305.201	120.56
305.431	155.56
305.661	136.56
305.891	145.56
306.121	140.56
306.352	147.56
306.582	130.56
306.812	139.56
307.042	148.56
307.272	149.56
307.502	133.56
307.731	129.56
307.961	148.56
308.191	148.56
308.421	148.56
308.651	150.56
308.881	147.56
309.111	142.56
309.341	134.56
309.571	150.56
309.8	119.56
310.03	138.56
310.26	123.56
310.49	136.56
310.72	142.56
310.949	156.56
311.179	132.56
311.409	141.56
311.639	152.56
311.868	156.56
312.098	145.56
312.328	156.56
312.557	136.56
312.787	148.56
313.017	139.56
313.246	148.56
313.476	152.56
313.706	128.56
313.935	146.56
314.165	142.56
314.394	150.56
314.624	140.56
314.853	148.56
315.083	162.56
315.312	149.56
315.542	139.56
315.771	161.56
316.001	148.56
316.23	141.56
316.46	150.56
316.689	155.56
316.919	151.56
317.148	149.56
317.377	146.56
317.607	140.56
317.836	155.56
318.065	142.56
318.295	160.56
318.524	159.56
318.753	135.56
318.983	145.56
319.212	130.56
319.441	143.56
319.67	152.56
319.9	141.56
320.129	135.56
320.358	159.56
320.587	141.56
320.816	156.56
321.046	141.56
321.275	165.56
321.504	135.56
321.733	141.56
321.962	150.56
322.191	150.56
322.42	148.56
322.649	155.56
322.878	155.56
323.108	147.56
323.337	147.56
323.566	148.56
323.795	146.56
324.024	149.56
324.253	155.56
324.482	155.56
324.71	153.56
324.939	154.56
325.168	137.56
325.397	158.56
325.626	152.56
325.855	160.56
326.084	150.56
326.313	153.56
326.542	151.56
326.77	169.56
326.999	166.56
327.228	137.56
327.457	139.56
327.686	158.56
327.914	152.56
328.143	157.56
328.372	151.56
328.6	160.56
328.829	147.56
329.058	157.56
329.287	156.56
329.515	167.56
329.744	166.56
329.972	158.56
330.201	152.56
330.43	148.56
330.658	170.56
330.887	154.56
331.115	160.56
331.344	156.56
331.572	151.56
331.801	163.56
332.03	164.56
332.258	179.56
332.486	171.56
332.715	169.56
332.943	167.56
333.172	166.56
333.4	180.56
333.629	178.56
333.857	183.56
334.085	189.56
334.314	177.56
334.542	178.56
334.771	184.56
334.999	173.56
335.227	174.56
335.455	164.56
335.684	168.56
335.912	171.56
336.14	165.56
336.369	186.56
336.597	177.56
336.825	181.56
337.053	169.56
337.281	174.56
337.51	169.56
337.738	178.56
337.966	173.56
338.194	165.56
338.422	185.56
338.65	160.56
338.878	161.56
339.106	179.56
339.334	169.56
339.562	170.56
339.79	154.56
340.018	162.56
340.246	168.56
340.474	153.56
340.702	164.56
340.93	158.56
341.158	172.56
341.386	142.56
341.614	148.56
341.842	164.56
342.07	151.56
342.298	157.56
342.526	144.56
342.754	169.56
342.981	157.56
343.209	155.56
343.437	178.56
343.665	164.56
343.893	179.56
344.12	192.56
344.348	172.56
344.576	172.56
344.804	164.56
345.031	160.56
345.259	164.56
345.487	147.56
345.714	163.56
345.942	151.56
346.17	154.56
346.397	151.56
346.625	169.56
346.853	143.56
347.08	163.56
347.308	152.56
347.535	155.56
347.763	163.56
347.99	163.56
348.218	163.56
348.445	157.56
348.673	152.56
348.9	165.56
349.128	152.56
349.355	168.56
349.583	157.56
349.81	159.56
350.037	162.56
350.265	164.56
350.492	168.56
350.72	164.56
350.947	132.56
351.174	154.56
351.402	176.56
351.629	164.56
351.856	149.56
352.083	156.56
352.311	148.56
352.538	145.56
352.765	167.56
352.992	161.56
353.22	145.56
353.447	153.56
353.674	151.56
353.901	151.56
354.128	160.56
354.355	160.56
354.583	149.56
354.81	168.56
355.037	156.56
355.264	158.56
355.491	162.56
355.718	157.56
355.945	148.56
356.172	158.56
356.399	170.56
356.626	154.56
356.853	149.56
357.08	167.56
357.307	168.56
357.534	171.56
357.761	170.56
357.988	152.56
358.215	161.56
358.441	160.56
358.668	154.56
358.895	158.56
359.122	155.56
359.349	147.56
359.576	154.56
359.802	160.56
360.029	157.56
360.256	150.56
360.483	152.56
360.709	148.56
360.936	156.56
361.163	144.56
361.39	164.56
361.616	167.56
361.843	155.56
362.07	155.56
362.296	164.56
362.523	155.56
362.749	147.56
362.976	163.56
363.203	152.56
363.429	152.56
363.656	154.56
363.882	164.56
364.109	156.56
364.335	154.56
364.562	156.56
364.788	157.56
365.015	170.56
365.241	146.56
365.468	158.56
365.694	156.56
365.92	157.56
366.147	162.56
366.373	154.56
366.599	160.56
366.826	166.56
367.052	158.56
367.278	184.56
367.505	146.56
367.731	161.56
367.957	156.56
368.184	169.56
368.41	165.56
368.636	175.56
368.862	164.56
369.089	171.56
369.315	195.56
369.541	166.56
369.767	163.56
369.993	184.56
370.219	179.56
370.445	163.56
370.672	158.56
370.898	178.56
371.124	160.56
371.35	185.56
371.576	167.56
371.802	177.56
372.028	167.56
372.254	161.56
372.48	164.56
372.706	172.56
372.932	173.56
373.158	170.56
373.384	173.56
373.61	152.56
373.835	177.56
374.061	179.56
374.287	176.56
374.513	177.56
374.739	180.56
374.965	188.56
375.191	188.56
375.416	186.56
375.642	172.56
375.868	172.56
376.094	185.56
376.319	167.56
376.545	162.56
376.771	158.56
376.997	177.56
377.222	180.56
377.448	162.56
377.674	160.56
377.899	153.56
378.125	164.56
378.35	181.56
378.576	162.56
378.802	183.56
379.027	178.56
379.253	184.56
379.478	167.56
379.704	159.56
379.929	165.56
380.155	192.56
380.38	165.56
380.606	185.56
380.831	165.56
381.057	181.56
381.282	164.56
381.507	172.56
381.733	172.56
381.958	202.56
382.184	181.56
382.409	177.56
382.634	190.56
382.86	174.56
383.085	183.56
383.31	176.56
383.535	196.56
383.761	181.56
383.986	200.56
384.211	198.56
384.436	193.56
384.662	204.56
384.887	184.56
385.112	204.56
385.337	193.56
385.562	202.56
385.787	199.56
386.013	197.56
386.238	209.56
386.463	207.56
386.688	197.56
386.913	189.56
387.138	180.56
387.363	198.56
387.588	193.56
387.813	180.56
388.038	200.56
388.263	204.56
388.488	199.56
388.713	202.56
388.938	205.56
389.163	188.56
389.387	203.56
389.612	192.56
389.837	212.56
390.062	205.56
390.287	200.56
390.512	192.56
390.736	212.56
390.961	200.56
391.186	197.56
391.411	227.56
391.636	217.56
391.86	225.56
392.085	232.56
392.31	220.56
392.534	210.56
392.759	205.56
392.984	214.56
393.208	214.56
393.433	233.56
393.658	204.56
393.882	209.56
394.107	218.56
394.331	206.56
394.556	214.56
394.78	213.56
395.005	214.56
395.229	215.56
395.454	218.56
395.678	234.56
395.903	209.56
396.127	213.56
396.352	202.56
396.576	214.56
396.801	197.56
397.025	218.56
397.249	207.56
397.474	219.56
397.698	221.56
397.922	230.56
398.147	221.56
398.371	224.56
398.595	237.56
398.82	254.56
399.044	231.56
399.268	287.56
399.492	279.56
399.717	319.56
399.941	301.56
400.165	291.56
400.389	270.56
400.613	266.56
400.837	245.56
401.062	233.56
401.286	223.56
401.51	220.56
401.734	238.56
401.958	236.56
402.182	249.56
402.406	254.56
402.63	244.56
402.854	247.56
403.078	240.56
403.302	263.56
403.526	252.56
403.75	255.56
403.974	270.56
404.198	276.56
404.422	273.56
404.645	259.56
404.869	261.56
405.093	258.56
405.317	279.56
405.541	269.56
405.765	256.56
405.988	268.56
406.212	276.56
406.436	262.56
406.66	263.56
406.883	272.56
407.107	278.56
407.331	285.56
407.555	309.56
407.778	289.56
408.002	295.56
408.226	284.56
408.449	279.56
408.673	263.56
408.896	271.56
409.12	269.56
409.344	262.56
409.567	267.56
409.791	265.56
410.014	274.56
410.238	290.56
410.461	276.56
410.685	274.56
410.908	257.56
411.132	251.56
411.355	248.56
411.578	269.56
411.802	247.56
412.025	255.56
412.249	239.56
412.472	258.56
412.695	230.56
412.919	238.56
413.142	235.56
413.365	245.56
413.589	243.56
413.812	242.56
414.035	257.56
414.258	250.56
414.482	255.56
414.705	253.56
414.928	256.56
415.151	280.56
415.374	266.56
415.597	277.56
415.821	263.56
416.044	228.56
416.267	251.56
416.49	236.56
416.713	229.56
416.936	235.56
417.159	240.56
417.382	240.56
417.605	257.56
417.828	242.56
418.051	235.56
418.274	249.56
418.497	247.56
418.72	247.56
418.943	247.56
419.166	265.56
419.389	265.56
419.611	263.56
419.834	249.56
420.057	258.56
420.28	252.56
420.503	230.56
420.726	236.56
420.948	244.56
421.171	237.56
421.394	242.56
421.617	247.56
421.839	264.56
422.062	259.56
422.285	243.56
422.507	254.56
422.73	262.56
422.953	270.56
423.175	257.56
423.398	234.56
423.621	264.56
423.843	264.56
424.066	267.56
424.288	261.56
424.511	268.56
424.733	254.56
424.956	249.56
425.178	259.56
425.401	244.56
425.623	244.56
425.846	259.56
426.068	240.56
426.291	226.56
426.513	245.56
426.735	223.56
426.958	258.56
427.18	247.56
427.402	235.56
427.625	245.56
427.847	222.56
428.069	232.56
428.292	232.56
428.514	233.56
428.736	229.56
428.958	211.56
429.181	231.56
429.403	248.56
429.625	211.56
429.847	222.56
430.069	244.56
430.292	230.56
430.514	222.56
430.736	226.56
430.958	229.56
431.18	231.56
431.402	223.56
431.624	233.56
431.846	218.56
432.068	251.56
432.29	223.56
432.512	229.56
432.734	228.56
432.956	260.56
433.178	229.56
433.4	246.56
433.622	233.56
433.844	254.56
434.066	237.56
434.287	235.56
434.509	225.56
434.731	236.56
434.953	232.56
435.175	263.56
435.397	253.56
435.618	242.56
435.84	238.56
436.062	232.56
436.284	227.56
436.505	235.56
436.727	231.56
436.949	231.56
437.17	229.56
437.392	229.56
437.614	236.56
437.835	231.56
438.057	224.56
438.278	211.56
438.5	234.56
438.721	227.56
438.943	224.56
439.165	230.56
439.386	234.56
439.608	237.56
439.829	244.56
440.05	240.56
440.272	229.56
440.493	224.56
440.715	237.56
440.936	226.56
441.158	241.56
441.379	242.56
441.6	249.56
441.822	252.56
442.043	258.56
442.264	240.56
442.486	253.56
442.707	253.56
442.928	236.56
443.149	249.56
443.371	247.56
443.592	266.56
443.813	270.56
444.034	241.56
444.255	246.56
444.476	266.56
444.698	280.56
444.919	288.56
445.14	374.56
445.361	322.56
445.582	250.56
445.803	244.56
446.024	249.56
446.245	232.56
446.466	252.56
446.687	229.56
446.908	228.56
447.129	228.56
447.35	225.56
447.571	224.56
447.792	233.56
448.013	218.56
448.234	216.56
448.455	216.56
448.675	219.56
448.896	235.56
449.117	230.56
449.338	224.56
449.559	213.56
449.779	216.56
450	219.56
450.221	232.56
450.442	216.56
450.662	224.56
450.883	230.56
451.104	230.56
451.324	209.56
451.545	216.56
451.766	220.56
451.986	221.56
452.207	193.56
452.428	214.56
452.648	219.56
452.869	212.56
453.089	204.56
453.31	209.56
453.53	201.56
453.751	208.56
453.971	203.56
454.192	204.56
454.412	207.56
454.633	205.56
454.853	204.56
455.073	212.56
455.294	194.56
455.514	217.56
455.734	204.56
455.955	225.56
456.175	208.56
456.395	205.56
456.616	215.56
456.836	209.56
457.056	193.56
457.276	212.56
457.497	202.56
457.717	195.56
457.937	219.56
458.157	205.56
458.377	217.56
458.598	206.56
458.818	213.56
459.038	217.56
459.258	219.56
459.478	228.56
459.698	250.56
459.918	233.56
460.138	247.56
460.358	256.56
460.578	264.56
460.798	266.56
461.018	265.56
461.238	264.56
461.458	257.56
461.678	265.56
461.898	258.56
462.118	265.56
462.338	273.56
462.558	300.56
462.777	274.56
462.997	291.56
463.217	318.56
463.437	306.56
463.657	288.56
463.876	284.56
464.096	285.56
464.316	281.56
464.536	293.56
464.755	280.56
464.975	260.56
465.195	267.56
465.414	252.56
465.634	249.56
465.854	245.56
466.073	227.56
466.293	247.56
466.512	222.56
466.732	227.56
466.951	243.56
467.171	216.56
467.391	219.56
467.61	251.56
467.829	228.56
468.049	219.56
468.268	232.56
468.488	228.56
468.707	233.56
468.927	222.56
469.146	227.56
469.365	225.56
469.585	227.56
469.804	245.56
470.023	242.56
470.243	225.56
470.462	233.56
470.681	239.56
470.901	219.56
471.12	222.56
471.339	232.56
471.558	235.56
471.777	226.56
471.997	227.56
472.216	230.56
472.435	230.56
472.654	221.56
472.873	234.56
473.092	220.56
473.311	216.56
473.53	233.56
473.749	215.56
473.968	226.56
474.187	221.56
474.406	213.56
474.625	221.56
474.844	208.56
475.063	232.56
475.282	216.56
475.501	221.56
475.72	216.56
475.939	226.56
476.158	229.56
476.377	225.56
476.596	226.56
476.814	240.56
477.033	220.56
477.252	232.56
477.471	243.56
477.69	252.56
477.908	245.56
478.127	245.56
478.346	237.56
478.564	233.56
478.783	240.56
479.002	240.56
479.22	245.56
479.439	276.56
479.658	249.56
479.876	237.56
480.095	270.56
480.313	281.56
480.532	270.56
480.751	267.56
480.969	257.56
481.188	241.56
481.406	254.56
481.624	257.56
481.843	242.56
482.061	254.56
482.28	230.56
482.498	231.56
482.717	238.56
482.935	244.56
483.153	249.56
483.372	218.56
483.59	252.56
483.808	244.56
484.027	245.56
484.245	252.56
484.463	246.56
484.681	250.56
484.9	244.56
485.118	247.56
485.336	237.56
485.554	230.56
485.772	260.56
485.99	247.56
486.209	260.56
486.427	244.56
486.645	256.56
486.863	242.56
487.081	242.56
487.299	250.56
487.517	266.56
487.735	267.56
487.953	260.56
488.171	262.56
488.389	258.56
488.607	250.56
488.825	244.56
489.043	256.56
489.261	259.56
489.479	258.56
489.696	238.56
489.914	253.56
490.132	250.56
490.35	235.56
490.568	242.56
490.786	268.56
491.003	265.56
491.221	266.56
491.439	269.56
491.657	277.56
491.874	260.56
492.092	263.56
492.31	261.56
492.527	264.56
492.745	273.56
492.963	257.56
493.18	270.56
493.398	259.56
493.615	270.56
493.833	251.56
494.05	271.56
494.268	277.56
494.485	251.56
494.703	253.56
494.92	258.56
495.138	261.56
495.355	272.56
495.573	264.56
495.79	258.56
496.008	275.56
496.225	281.56
496.442	288.56
496.66	283.56
496.877	286.56
497.094	280.56
497.312	267.56
497.529	282.56
497.746	301.56
497.963	287.56
498.181	290.56
498.398	308.56
498.615	311.56
498.832	326.56
499.049	357.56
499.267	374.56
499.484	416.56
499.701	434.56
499.918	479.56
500.135	505.56
500.352	546.56
500.569	596.56
500.786	558.56
501.003	532.56
501.22	476.56
501.437	437.56
501.654	389.56
501.871	378.56
502.088	362.56
502.305	365.56
502.522	364.56
502.739	339.56
502.956	322.56
