Data from Fe(NO3)3@0.025M.TitratingCurve.Agarose3%dH2O.NegLispCup.LampEnergy10.LIBS07252019_HRD10591_16-55-28-336.txt Node
Date: Thu Jul 25 16:55:28 EDT 2019
User: cochatt
Spectrometer: HR+D1059
Trigger mode: 1
Integration Time (sec): 1.000000E-1
Scans to average: 1
Electric dark correction enabled: true
Nonlinearity correction enabled: false
Boxcar width: 0
XAxis mode: Wavelengths
Number of Pixels in Spectrum: 2048
>>>>>Begin Spectral Data<<<<<
223.165	-11.25
223.4	-11.25
223.635	-11.25
223.869	-14.25
224.104	-14.25
224.338	-13.25
224.573	-14.25
224.808	-12.25
225.042	-7.25
225.277	-11.25
225.511	-6.25
225.746	12.75
225.98	0.75
226.215	4.75
226.449	7.75
226.683	20.75
226.918	20.75
227.152	36.75
227.387	34.75
227.621	36.75
227.856	43.75
228.09	40.75
228.324	50.75
228.559	63.75
228.793	56.75
229.027	54.75
229.262	83.75
229.496	81.75
229.73	79.75
229.964	75.75
230.199	60.75
230.433	76.75
230.667	92.75
230.901	77.75
231.136	87.75
231.37	75.75
231.604	76.75
231.838	95.75
232.072	91.75
232.306	82.75
232.541	92.75
232.775	102.75
233.009	79.75
233.243	90.75
233.477	84.75
233.711	99.75
233.945	80.75
234.179	79.75
234.413	92.75
234.647	86.75
234.881	81.75
235.115	88.75
235.349	88.75
235.583	84.75
235.817	67.75
236.051	88.75
236.285	77.75
236.519	83.75
236.753	91.75
236.987	86.75
237.221	91.75
237.455	93.75
237.689	95.75
237.922	93.75
238.156	101.75
238.39	85.75
238.624	90.75
238.858	86.75
239.091	94.75
239.325	68.75
239.559	80.75
239.793	92.75
240.027	107.75
240.26	87.75
240.494	97.75
240.728	97.75
240.961	87.75
241.195	88.75
241.429	88.75
241.662	86.75
241.896	81.75
242.13	85.75
242.363	110.75
242.597	81.75
242.83	89.75
243.064	89.75
243.298	106.75
243.531	72.75
243.765	93.75
243.998	93.75
244.232	102.75
244.465	100.75
244.699	98.75
244.932	100.75
245.166	101.75
245.399	90.75
245.633	89.75
245.866	83.75
246.099	101.75
246.333	97.75
246.566	93.75
246.8	80.75
247.033	108.75
247.266	96.75
247.5	97.75
247.733	103.75
247.966	99.75
248.2	85.75
248.433	81.75
248.666	93.75
248.899	96.75
249.133	96.75
249.366	106.75
249.599	104.75
249.832	104.75
250.066	99.75
250.299	112.75
250.532	102.75
250.765	104.75
250.998	99.75
251.231	111.75
251.465	95.75
251.698	92.75
251.931	89.75
252.164	100.75
252.397	102.75
252.63	95.75
252.863	99.75
253.096	103.75
253.329	100.75
253.562	93.75
253.795	95.75
254.028	118.75
254.261	104.75
254.494	112.75
254.727	99.75
254.96	106.75
255.193	111.75
255.426	104.75
255.659	97.75
255.892	96.75
256.124	97.75
256.357	92.75
256.59	112.75
256.823	95.75
257.056	106.75
257.289	127.75
257.521	105.75
257.754	117.75
257.987	108.75
258.22	97.75
258.452	106.75
258.685	123.75
258.918	102.75
259.151	102.75
259.383	126.75
259.616	107.75
259.849	107.75
260.081	117.75
260.314	119.75
260.547	92.75
260.779	104.75
261.012	102.75
261.244	94.75
261.477	101.75
261.71	111.75
261.942	106.75
262.175	116.75
262.407	106.75
262.64	112.75
262.872	106.75
263.105	106.75
263.337	120.75
263.57	107.75
263.802	109.75
264.035	115.75
264.267	125.75
264.499	96.75
264.732	96.75
264.964	95.75
265.197	111.75
265.429	107.75
265.661	121.75
265.894	116.75
266.126	117.75
266.358	127.75
266.591	111.75
266.823	116.75
267.055	103.75
267.287	107.75
267.52	108.75
267.752	127.75
267.984	119.75
268.216	116.75
268.448	122.75
268.681	122.75
268.913	125.75
269.145	120.75
269.377	117.75
269.609	118.75
269.841	125.75
270.073	127.75
270.306	118.75
270.538	112.75
270.77	128.75
271.002	104.75
271.234	113.75
271.466	109.75
271.698	131.75
271.93	129.75
272.162	126.75
272.394	125.75
272.626	113.75
272.858	124.75
273.09	121.75
273.322	138.75
273.553	120.75
273.785	125.75
274.017	122.75
274.249	125.75
274.481	123.75
274.713	126.75
274.945	115.75
275.176	116.75
275.408	131.75
275.64	127.75
275.872	142.75
276.104	138.75
276.335	133.75
276.567	131.75
276.799	135.75
277.031	125.75
277.262	122.75
277.494	126.75
277.726	133.75
277.957	129.75
278.189	128.75
278.421	138.75
278.652	133.75
278.884	129.75
279.115	123.75
279.347	115.75
279.579	115.75
279.81	131.75
280.042	127.75
280.273	114.75
280.505	129.75
280.736	131.75
280.968	122.75
281.199	134.75
281.431	133.75
281.662	131.75
281.894	131.75
282.125	142.75
282.356	140.75
282.588	123.75
282.819	130.75
283.051	140.75
283.282	144.75
283.513	132.75
283.745	119.75
283.976	129.75
284.207	148.75
284.439	132.75
284.67	149.75
284.901	139.75
285.132	134.75
285.364	138.75
285.595	131.75
285.826	135.75
286.057	153.75
286.288	142.75
286.52	137.75
286.751	149.75
286.982	141.75
287.213	128.75
287.444	146.75
287.675	140.75
287.906	135.75
288.138	135.75
288.369	142.75
288.6	152.75
288.831	140.75
289.062	155.75
289.293	135.75
289.524	144.75
289.755	161.75
289.986	144.75
290.217	146.75
290.448	155.75
290.679	138.75
290.91	138.75
291.141	158.75
291.371	145.75
291.602	153.75
291.833	140.75
292.064	161.75
292.295	149.75
292.526	159.75
292.757	139.75
292.987	153.75
293.218	137.75
293.449	162.75
293.68	145.75
293.91	152.75
294.141	149.75
294.372	152.75
294.603	158.75
294.833	151.75
295.064	155.75
295.295	148.75
295.525	135.75
295.756	142.75
295.987	153.75
296.217	152.75
296.448	155.75
296.679	151.75
296.909	150.75
297.14	154.75
297.37	166.75
297.601	172.75
297.831	160.75
298.062	153.75
298.292	155.75
298.523	157.75
298.753	176.75
298.984	161.75
299.214	154.75
299.445	147.75
299.675	159.75
299.905	156.75
300.136	149.75
300.366	161.75
300.597	181.75
300.827	156.75
301.057	155.75
301.288	167.75
301.518	167.75
301.748	167.75
301.979	162.75
302.209	165.75
302.439	177.75
302.669	153.75
302.9	151.75
303.13	175.75
303.36	181.75
303.59	180.75
303.82	156.75
304.051	184.75
304.281	168.75
304.511	151.75
304.741	181.75
304.971	186.75
305.201	169.75
305.431	149.75
305.661	162.75
305.891	161.75
306.121	176.75
306.352	175.75
306.582	173.75
306.812	165.75
307.042	187.75
307.272	169.75
307.502	162.75
307.731	177.75
307.961	179.75
308.191	164.75
308.421	168.75
308.651	171.75
308.881	172.75
309.111	179.75
309.341	147.75
309.571	178.75
309.8	171.75
310.03	168.75
310.26	167.75
310.49	180.75
310.72	175.75
310.949	169.75
311.179	178.75
311.409	165.75
311.639	175.75
311.868	165.75
312.098	173.75
312.328	160.75
312.557	170.75
312.787	179.75
313.017	189.75
313.246	181.75
313.476	170.75
313.706	169.75
313.935	184.75
314.165	173.75
314.394	189.75
314.624	183.75
314.853	177.75
315.083	168.75
315.312	176.75
315.542	182.75
315.771	182.75
316.001	178.75
316.23	180.75
316.46	162.75
316.689	196.75
316.919	185.75
317.148	189.75
317.377	197.75
317.607	188.75
317.836	181.75
318.065	188.75
318.295	186.75
318.524	190.75
318.753	188.75
318.983	185.75
319.212	176.75
319.441	200.75
319.67	184.75
319.9	184.75
320.129	181.75
320.358	183.75
320.587	185.75
320.816	182.75
321.046	187.75
321.275	177.75
321.504	189.75
321.733	176.75
321.962	188.75
322.191	206.75
322.42	171.75
322.649	185.75
322.878	198.75
323.108	179.75
323.337	199.75
323.566	167.75
323.795	194.75
324.024	194.75
324.253	179.75
324.482	188.75
324.71	193.75
324.939	179.75
325.168	189.75
325.397	186.75
325.626	183.75
325.855	194.75
326.084	189.75
326.313	194.75
326.542	200.75
326.77	200.75
326.999	202.75
327.228	212.75
327.457	213.75
327.686	196.75
327.914	191.75
328.143	199.75
328.372	195.75
328.6	199.75
328.829	196.75
329.058	199.75
329.287	206.75
329.515	203.75
329.744	182.75
329.972	199.75
330.201	193.75
330.43	204.75
330.658	201.75
330.887	208.75
331.115	214.75
331.344	197.75
331.572	201.75
331.801	200.75
332.03	197.75
332.258	207.75
332.486	213.75
332.715	197.75
332.943	207.75
333.172	220.75
333.4	214.75
333.629	227.75
333.857	225.75
334.085	227.75
334.314	241.75
334.542	222.75
334.771	224.75
334.999	219.75
335.227	233.75
335.455	224.75
335.684	218.75
335.912	232.75
336.14	227.75
336.369	215.75
336.597	226.75
336.825	231.75
337.053	218.75
337.281	231.75
337.51	224.75
337.738	217.75
337.966	218.75
338.194	220.75
338.422	211.75
338.65	213.75
338.878	211.75
339.106	215.75
339.334	227.75
339.562	200.75
339.79	199.75
340.018	203.75
340.246	212.75
340.474	210.75
340.702	204.75
340.93	221.75
341.158	219.75
341.386	217.75
341.614	232.75
341.842	209.75
342.07	200.75
342.298	227.75
342.526	212.75
342.754	201.75
342.981	211.75
343.209	216.75
343.437	211.75
343.665	215.75
343.893	222.75
344.12	242.75
344.348	229.75
344.576	217.75
344.804	232.75
345.031	220.75
345.259	213.75
345.487	199.75
345.714	213.75
345.942	223.75
346.17	204.75
346.397	202.75
346.625	201.75
346.853	210.75
347.08	210.75
347.308	213.75
347.535	214.75
347.763	217.75
347.99	224.75
348.218	205.75
348.445	213.75
348.673	197.75
348.9	211.75
349.128	211.75
349.355	216.75
349.583	225.75
349.81	200.75
350.037	221.75
350.265	198.75
350.492	207.75
350.72	200.75
350.947	201.75
351.174	197.75
351.402	204.75
351.629	200.75
351.856	207.75
352.083	199.75
352.311	209.75
352.538	204.75
352.765	205.75
352.992	186.75
353.22	215.75
353.447	208.75
353.674	216.75
353.901	200.75
354.128	220.75
354.355	186.75
354.583	221.75
354.81	218.75
355.037	204.75
355.264	203.75
355.491	221.75
355.718	204.75
355.945	203.75
356.172	220.75
356.399	188.75
356.626	193.75
356.853	205.75
357.08	219.75
357.307	187.75
357.534	224.75
357.761	204.75
357.988	208.75
358.215	216.75
358.441	204.75
358.668	208.75
358.895	205.75
359.122	217.75
359.349	184.75
359.576	221.75
359.802	202.75
360.029	199.75
360.256	205.75
360.483	204.75
360.709	219.75
360.936	211.75
361.163	205.75
361.39	219.75
361.616	205.75
361.843	203.75
362.07	195.75
362.296	213.75
362.523	198.75
362.749	199.75
362.976	202.75
363.203	225.75
363.429	203.75
363.656	217.75
363.882	196.75
364.109	209.75
364.335	209.75
364.562	210.75
364.788	207.75
365.015	190.75
365.241	209.75
365.468	210.75
365.694	205.75
365.92	226.75
366.147	212.75
366.373	217.75
366.599	219.75
366.826	217.75
367.052	217.75
367.278	210.75
367.505	212.75
367.731	210.75
367.957	218.75
368.184	205.75
368.41	204.75
368.636	225.75
368.862	213.75
369.089	215.75
369.315	201.75
369.541	227.75
369.767	227.75
369.993	205.75
370.219	189.75
370.445	226.75
370.672	213.75
370.898	239.75
371.124	225.75
371.35	220.75
371.576	219.75
371.802	229.75
372.028	216.75
372.254	227.75
372.48	227.75
372.706	230.75
372.932	202.75
373.158	220.75
373.384	222.75
373.61	221.75
373.835	224.75
374.061	229.75
374.287	216.75
374.513	231.75
374.739	220.75
374.965	222.75
375.191	230.75
375.416	229.75
375.642	249.75
375.868	249.75
376.094	236.75
376.319	220.75
376.545	224.75
376.771	225.75
376.997	228.75
377.222	229.75
377.448	224.75
377.674	226.75
377.899	233.75
378.125	222.75
378.35	219.75
378.576	216.75
378.802	234.75
379.027	228.75
379.253	205.75
379.478	226.75
379.704	245.75
379.929	227.75
380.155	234.75
380.38	213.75
380.606	239.75
380.831	218.75
381.057	228.75
381.282	225.75
381.507	235.75
381.733	217.75
381.958	225.75
382.184	239.75
382.409	233.75
382.634	230.75
382.86	248.75
383.085	234.75
383.31	231.75
383.535	250.75
383.761	243.75
383.986	235.75
384.211	253.75
384.436	247.75
384.662	242.75
384.887	253.75
385.112	239.75
385.337	256.75
385.562	244.75
385.787	250.75
386.013	243.75
386.238	244.75
386.463	274.75
386.688	264.75
386.913	251.75
387.138	240.75
387.363	257.75
387.588	244.75
387.813	267.75
388.038	259.75
388.263	282.75
388.488	250.75
388.713	276.75
388.938	279.75
389.163	279.75
389.387	264.75
389.612	253.75
389.837	264.75
390.062	264.75
390.287	293.75
390.512	261.75
390.736	263.75
390.961	282.75
391.186	263.75
391.411	291.75
391.636	281.75
391.86	282.75
392.085	256.75
392.31	283.75
392.534	277.75
392.759	284.75
392.984	276.75
393.208	291.75
393.433	283.75
393.658	259.75
393.882	274.75
394.107	271.75
394.331	277.75
394.556	291.75
394.78	279.75
395.005	276.75
395.229	265.75
395.454	283.75
395.678	264.75
395.903	272.75
396.127	293.75
396.352	268.75
396.576	287.75
396.801	290.75
397.025	292.75
397.249	306.75
397.474	312.75
397.698	286.75
397.922	291.75
398.147	298.75
398.371	298.75
398.595	304.75
398.82	312.75
399.044	326.75
399.268	341.75
399.492	339.75
399.717	356.75
399.941	361.75
400.165	347.75
400.389	332.75
400.613	340.75
400.837	337.75
401.062	341.75
401.286	312.75
401.51	339.75
401.734	311.75
401.958	331.75
402.182	327.75
402.406	289.75
402.63	315.75
402.854	320.75
403.078	326.75
403.302	304.75
403.526	305.75
403.75	314.75
403.974	316.75
404.198	312.75
404.422	309.75
404.645	340.75
404.869	317.75
405.093	312.75
405.317	309.75
405.541	317.75
405.765	308.75
405.988	336.75
406.212	331.75
406.436	345.75
406.66	336.75
406.883	336.75
407.107	346.75
407.331	347.75
407.555	352.75
407.778	355.75
408.002	346.75
408.226	351.75
408.449	337.75
408.673	345.75
408.896	338.75
409.12	326.75
409.344	329.75
409.567	322.75
409.791	297.75
410.014	337.75
410.238	309.75
410.461	331.75
410.685	327.75
410.908	321.75
411.132	309.75
411.355	313.75
411.578	315.75
411.802	319.75
412.025	306.75
412.249	308.75
412.472	308.75
412.695	313.75
412.919	305.75
413.142	301.75
413.365	300.75
413.589	321.75
413.812	303.75
414.035	301.75
414.258	323.75
414.482	316.75
414.705	300.75
414.928	329.75
415.151	289.75
415.374	291.75
415.597	304.75
415.821	289.75
416.044	286.75
416.267	298.75
416.49	300.75
416.713	311.75
416.936	304.75
417.159	306.75
417.382	321.75
417.605	300.75
417.828	300.75
418.051	304.75
418.274	303.75
418.497	296.75
418.72	313.75
418.943	304.75
419.166	305.75
419.389	320.75
419.611	316.75
419.834	308.75
420.057	298.75
420.28	298.75
420.503	288.75
420.726	287.75
420.948	292.75
421.171	311.75
421.394	321.75
421.617	293.75
421.839	291.75
422.062	297.75
422.285	301.75
422.507	276.75
422.73	304.75
422.953	290.75
423.175	304.75
423.398	314.75
423.621	295.75
423.843	282.75
424.066	293.75
424.288	303.75
424.511	294.75
424.733	304.75
424.956	300.75
425.178	288.75
425.401	296.75
425.623	287.75
425.846	281.75
426.068	292.75
426.291	278.75
426.513	273.75
426.735	276.75
426.958	277.75
427.18	292.75
427.402	279.75
427.625	282.75
427.847	268.75
428.069	287.75
428.292	277.75
428.514	275.75
428.736	277.75
428.958	286.75
429.181	266.75
429.403	261.75
429.625	276.75
429.847	283.75
430.069	284.75
430.292	271.75
430.514	274.75
430.736	280.75
430.958	279.75
431.18	268.75
431.402	279.75
431.624	292.75
431.846	276.75
432.068	293.75
432.29	284.75
432.512	277.75
432.734	284.75
432.956	280.75
433.178	288.75
433.4	296.75
433.622	278.75
433.844	288.75
434.066	288.75
434.287	291.75
434.509	295.75
434.731	279.75
434.953	293.75
435.175	300.75
435.397	276.75
435.618	291.75
435.84	283.75
436.062	287.75
436.284	270.75
436.505	295.75
436.727	281.75
436.949	289.75
437.17	287.75
437.392	299.75
437.614	267.75
437.835	267.75
438.057	261.75
438.278	263.75
438.5	280.75
438.721	291.75
438.943	267.75
439.165	262.75
439.386	260.75
439.608	279.75
439.829	258.75
440.05	271.75
440.272	276.75
440.493	283.75
440.715	278.75
440.936	284.75
441.158	274.75
441.379	285.75
441.6	283.75
441.822	274.75
442.043	304.75
442.264	303.75
442.486	297.75
442.707	294.75
442.928	282.75
443.149	298.75
443.371	280.75
443.592	289.75
443.813	290.75
444.034	301.75
444.255	307.75
444.476	313.75
444.698	298.75
444.919	319.75
445.14	360.75
445.361	324.75
445.582	317.75
445.803	308.75
446.024	275.75
446.245	305.75
446.466	268.75
446.687	267.75
446.908	278.75
447.129	283.75
447.35	272.75
447.571	295.75
447.792	259.75
448.013	266.75
448.234	278.75
448.455	267.75
448.675	263.75
448.896	249.75
449.117	261.75
449.338	257.75
449.559	258.75
449.779	250.75
450	276.75
450.221	255.75
450.442	256.75
450.662	239.75
450.883	243.75
451.104	265.75
451.324	263.75
451.545	233.75
451.766	259.75
451.986	255.75
452.207	265.75
452.428	249.75
452.648	254.75
452.869	251.75
453.089	236.75
453.31	240.75
453.53	260.75
453.751	237.75
453.971	247.75
454.192	253.75
454.412	251.75
454.633	255.75
454.853	251.75
455.073	261.75
455.294	257.75
455.514	236.75
455.734	263.75
455.955	259.75
456.175	260.75
456.395	226.75
456.616	251.75
456.836	233.75
457.056	268.75
457.276	263.75
457.497	258.75
457.717	265.75
457.937	255.75
458.157	247.75
458.377	256.75
458.598	268.75
458.818	287.75
459.038	273.75
459.258	300.75
459.478	282.75
459.698	285.75
459.918	269.75
460.138	290.75
460.358	303.75
460.578	307.75
460.798	286.75
461.018	311.75
461.238	319.75
461.458	316.75
461.678	319.75
461.898	306.75
462.118	321.75
462.338	337.75
462.558	329.75
462.777	323.75
462.997	352.75
463.217	368.75
463.437	367.75
463.657	326.75
463.876	339.75
464.096	349.75
464.316	345.75
464.536	343.75
464.755	327.75
464.975	336.75
465.195	311.75
465.414	311.75
465.634	284.75
465.854	295.75
466.073	275.75
466.293	289.75
466.512	282.75
466.732	288.75
466.951	305.75
467.171	275.75
467.391	271.75
467.61	282.75
467.829	264.75
468.049	259.75
468.268	258.75
468.488	277.75
468.707	263.75
468.927	281.75
469.146	276.75
469.365	281.75
469.585	269.75
469.804	269.75
470.023	277.75
470.243	287.75
470.462	275.75
470.681	285.75
470.901	306.75
471.12	273.75
471.339	283.75
471.558	277.75
471.777	268.75
471.997	284.75
472.216	263.75
472.435	267.75
472.654	269.75
472.873	277.75
473.092	266.75
473.311	282.75
473.53	280.75
473.749	278.75
473.968	277.75
474.187	284.75
474.406	274.75
474.625	277.75
474.844	276.75
475.063	284.75
475.282	275.75
475.501	267.75
475.72	285.75
475.939	279.75
476.158	284.75
476.377	285.75
476.596	278.75
476.814	277.75
477.033	287.75
477.252	307.75
477.471	307.75
477.69	315.75
477.908	315.75
478.127	308.75
478.346	299.75
478.564	308.75
478.783	297.75
479.002	312.75
479.22	301.75
479.439	317.75
479.658	301.75
479.876	321.75
480.095	327.75
480.313	329.75
480.532	323.75
480.751	305.75
480.969	335.75
481.188	300.75
481.406	334.75
481.624	333.75
481.843	317.75
482.061	322.75
482.28	307.75
482.498	323.75
482.717	319.75
482.935	312.75
483.153	309.75
483.372	308.75
483.59	319.75
483.808	314.75
484.027	331.75
484.245	329.75
484.463	302.75
484.681	330.75
484.9	316.75
485.118	314.75
485.336	324.75
485.554	319.75
485.772	321.75
485.99	313.75
486.209	317.75
486.427	324.75
486.645	322.75
486.863	315.75
487.081	315.75
487.299	320.75
487.517	323.75
487.735	324.75
487.953	337.75
488.171	306.75
488.389	309.75
488.607	320.75
488.825	313.75
489.043	324.75
489.261	323.75
489.479	320.75
489.696	326.75
489.914	316.75
490.132	302.75
490.35	324.75
490.568	331.75
490.786	315.75
491.003	332.75
491.221	327.75
491.439	318.75
491.657	339.75
491.874	321.75
492.092	344.75
492.31	343.75
492.527	330.75
492.745	329.75
492.963	324.75
493.18	343.75
493.398	343.75
493.615	325.75
493.833	332.75
494.05	336.75
494.268	348.75
494.485	344.75
494.703	351.75
494.92	344.75
495.138	337.75
495.355	321.75
495.573	338.75
495.79	361.75
496.008	357.75
496.225	368.75
496.442	371.75
496.66	359.75
496.877	369.75
497.094	368.75
497.312	375.75
497.529	397.75
497.746	399.75
497.963	406.75
498.181	412.75
498.398	431.75
498.615	436.75
498.832	457.75
499.049	472.75
499.267	507.75
499.484	513.75
499.701	540.75
499.918	553.75
500.135	563.75
500.352	584.75
500.569	606.75
500.786	605.75
501.003	599.75
501.22	567.75
501.437	548.75
501.654	527.75
501.871	497.75
502.088	491.75
502.305	484.75
502.522	472.75
502.739	449.75
502.956	441.75
