Data from Fe(NO3)3@0.1M.TitratingCurve.Agarose3%dH2O.NegLispCup.LampEnergy10.LIBS07252019_HRD10591_16-41-17-332.txt Node
Date: Thu Jul 25 16:41:17 EDT 2019
User: cochatt
Spectrometer: HR+D1059
Trigger mode: 1
Integration Time (sec): 1.000000E-1
Scans to average: 1
Electric dark correction enabled: true
Nonlinearity correction enabled: false
Boxcar width: 0
XAxis mode: Wavelengths
Number of Pixels in Spectrum: 2048
>>>>>Begin Spectral Data<<<<<
223.165	-22.06
223.4	-22.06
223.635	-22.06
223.869	-24.06
224.104	-17.06
224.338	-3.06
224.573	-12.06
224.808	-21.06
225.042	-8.06
225.277	-15.06
225.511	-9.06
225.746	-5.06
225.98	8.94
226.215	14.94
226.449	22.94
226.683	15.94
226.918	36.94
227.152	36.94
227.387	45.94
227.621	44.94
227.856	47.94
228.09	48.94
228.324	58.94
228.559	69.94
228.793	92.94
229.027	72.94
229.262	74.94
229.496	80.94
229.73	68.94
229.964	76.94
230.199	70.94
230.433	92.94
230.667	87.94
230.901	85.94
231.136	88.94
231.37	97.94
231.604	88.94
231.838	89.94
232.072	87.94
232.306	82.94
232.541	92.94
232.775	89.94
233.009	88.94
233.243	85.94
233.477	103.94
233.711	100.94
233.945	89.94
234.179	86.94
234.413	96.94
234.647	98.94
234.881	88.94
235.115	89.94
235.349	88.94
235.583	78.94
235.817	85.94
236.051	88.94
236.285	91.94
236.519	97.94
236.753	103.94
236.987	92.94
237.221	81.94
237.455	85.94
237.689	92.94
237.922	62.94
238.156	101.94
238.39	90.94
238.624	100.94
238.858	84.94
239.091	89.94
239.325	93.94
239.559	84.94
239.793	83.94
240.027	104.94
240.26	90.94
240.494	85.94
240.728	100.94
240.961	88.94
241.195	96.94
241.429	98.94
241.662	96.94
241.896	97.94
242.13	76.94
242.363	105.94
242.597	106.94
242.83	88.94
243.064	108.94
243.298	98.94
243.531	76.94
243.765	93.94
243.998	81.94
244.232	99.94
244.465	90.94
244.699	92.94
244.932	95.94
245.166	99.94
245.399	106.94
245.633	99.94
245.866	102.94
246.099	101.94
246.333	100.94
246.566	107.94
246.8	94.94
247.033	98.94
247.266	107.94
247.5	78.94
247.733	104.94
247.966	105.94
248.2	89.94
248.433	98.94
248.666	104.94
248.899	96.94
249.133	104.94
249.366	103.94
249.599	108.94
249.832	113.94
250.066	97.94
250.299	104.94
250.532	99.94
250.765	88.94
250.998	97.94
251.231	108.94
251.465	114.94
251.698	97.94
251.931	97.94
252.164	104.94
252.397	105.94
252.63	105.94
252.863	111.94
253.096	109.94
253.329	91.94
253.562	98.94
253.795	103.94
254.028	113.94
254.261	116.94
254.494	104.94
254.727	105.94
254.96	107.94
255.193	103.94
255.426	100.94
255.659	104.94
255.892	101.94
256.124	100.94
256.357	114.94
256.59	104.94
256.823	107.94
257.056	99.94
257.289	97.94
257.521	100.94
257.754	111.94
257.987	114.94
258.22	105.94
258.452	105.94
258.685	95.94
258.918	120.94
259.151	101.94
259.383	113.94
259.616	104.94
259.849	114.94
260.081	107.94
260.314	105.94
260.547	105.94
260.779	108.94
261.012	115.94
261.244	122.94
261.477	124.94
261.71	125.94
261.942	97.94
262.175	108.94
262.407	105.94
262.64	121.94
262.872	112.94
263.105	113.94
263.337	121.94
263.57	110.94
263.802	103.94
264.035	104.94
264.267	114.94
264.499	120.94
264.732	125.94
264.964	105.94
265.197	108.94
265.429	94.94
265.661	107.94
265.894	127.94
266.126	112.94
266.358	101.94
266.591	112.94
266.823	118.94
267.055	120.94
267.287	117.94
267.52	111.94
267.752	97.94
267.984	107.94
268.216	115.94
268.448	120.94
268.681	113.94
268.913	126.94
269.145	106.94
269.377	109.94
269.609	126.94
269.841	99.94
270.073	121.94
270.306	122.94
270.538	116.94
270.77	132.94
271.002	107.94
271.234	120.94
271.466	116.94
271.698	126.94
271.93	120.94
272.162	126.94
272.394	126.94
272.626	127.94
272.858	120.94
273.09	124.94
273.322	118.94
273.553	111.94
273.785	120.94
274.017	122.94
274.249	125.94
274.481	133.94
274.713	108.94
274.945	124.94
275.176	124.94
275.408	110.94
275.64	120.94
275.872	125.94
276.104	128.94
276.335	136.94
276.567	124.94
276.799	125.94
277.031	124.94
277.262	119.94
277.494	121.94
277.726	121.94
277.957	127.94
278.189	146.94
278.421	140.94
278.652	126.94
278.884	122.94
279.115	134.94
279.347	114.94
279.579	132.94
279.81	120.94
280.042	116.94
280.273	125.94
280.505	126.94
280.736	131.94
280.968	114.94
281.199	128.94
281.431	132.94
281.662	126.94
281.894	123.94
282.125	137.94
282.356	124.94
282.588	134.94
282.819	134.94
283.051	126.94
283.282	116.94
283.513	134.94
283.745	136.94
283.976	134.94
284.207	153.94
284.439	127.94
284.67	122.94
284.901	130.94
285.132	133.94
285.364	126.94
285.595	122.94
285.826	127.94
286.057	135.94
286.288	127.94
286.52	132.94
286.751	127.94
286.982	127.94
287.213	130.94
287.444	126.94
287.675	134.94
287.906	137.94
288.138	140.94
288.369	142.94
288.6	146.94
288.831	140.94
289.062	132.94
289.293	123.94
289.524	129.94
289.755	134.94
289.986	130.94
290.217	127.94
290.448	137.94
290.679	110.94
290.91	156.94
291.141	134.94
291.371	144.94
291.602	134.94
291.833	128.94
292.064	139.94
292.295	135.94
292.526	137.94
292.757	126.94
292.987	126.94
293.218	138.94
293.449	128.94
293.68	141.94
293.91	144.94
294.141	136.94
294.372	129.94
294.603	124.94
294.833	146.94
295.064	138.94
295.295	144.94
295.525	134.94
295.756	132.94
295.987	132.94
296.217	159.94
296.448	139.94
296.679	132.94
296.909	133.94
297.14	145.94
297.37	180.94
297.601	168.94
297.831	134.94
298.062	159.94
298.292	142.94
298.523	166.94
298.753	154.94
298.984	144.94
299.214	148.94
299.445	144.94
299.675	142.94
299.905	125.94
300.136	143.94
300.366	148.94
300.597	158.94
300.827	143.94
301.057	146.94
301.288	134.94
301.518	138.94
301.748	152.94
301.979	158.94
302.209	132.94
302.439	143.94
302.669	134.94
302.9	137.94
303.13	145.94
303.36	154.94
303.59	152.94
303.82	145.94
304.051	132.94
304.281	158.94
304.511	154.94
304.741	160.94
304.971	161.94
305.201	158.94
305.431	142.94
305.661	149.94
305.891	154.94
306.121	155.94
306.352	165.94
306.582	142.94
306.812	146.94
307.042	141.94
307.272	156.94
307.502	145.94
307.731	150.94
307.961	146.94
308.191	154.94
308.421	157.94
308.651	150.94
308.881	146.94
309.111	144.94
309.341	150.94
309.571	150.94
309.8	152.94
310.03	149.94
310.26	142.94
310.49	160.94
310.72	150.94
310.949	156.94
311.179	152.94
311.409	147.94
311.639	140.94
311.868	154.94
312.098	164.94
312.328	151.94
312.557	147.94
312.787	168.94
313.017	159.94
313.246	151.94
313.476	174.94
313.706	166.94
313.935	148.94
314.165	149.94
314.394	160.94
314.624	160.94
314.853	157.94
315.083	159.94
315.312	168.94
315.542	149.94
315.771	158.94
316.001	156.94
316.23	169.94
316.46	141.94
316.689	154.94
316.919	164.94
317.148	160.94
317.377	166.94
317.607	136.94
317.836	145.94
318.065	142.94
318.295	159.94
318.524	152.94
318.753	154.94
318.983	162.94
319.212	148.94
319.441	145.94
319.67	162.94
319.9	153.94
320.129	159.94
320.358	159.94
320.587	165.94
320.816	163.94
321.046	131.94
321.275	160.94
321.504	161.94
321.733	144.94
321.962	145.94
322.191	143.94
322.42	167.94
322.649	161.94
322.878	162.94
323.108	136.94
323.337	150.94
323.566	172.94
323.795	145.94
324.024	157.94
324.253	164.94
324.482	158.94
324.71	160.94
324.939	163.94
325.168	155.94
325.397	161.94
325.626	156.94
325.855	165.94
326.084	158.94
326.313	165.94
326.542	160.94
326.77	156.94
326.999	176.94
327.228	164.94
327.457	157.94
327.686	174.94
327.914	167.94
328.143	182.94
328.372	170.94
328.6	168.94
328.829	165.94
329.058	176.94
329.287	149.94
329.515	173.94
329.744	143.94
329.972	160.94
330.201	180.94
330.43	172.94
330.658	168.94
330.887	161.94
331.115	184.94
331.344	185.94
331.572	180.94
331.801	169.94
332.03	184.94
332.258	174.94
332.486	182.94
332.715	190.94
332.943	170.94
333.172	186.94
333.4	185.94
333.629	186.94
333.857	186.94
334.085	191.94
334.314	190.94
334.542	192.94
334.771	187.94
334.999	184.94
335.227	174.94
335.455	197.94
335.684	185.94
335.912	198.94
336.14	162.94
336.369	176.94
336.597	176.94
336.825	186.94
337.053	184.94
337.281	182.94
337.51	175.94
337.738	180.94
337.966	175.94
338.194	157.94
338.422	175.94
338.65	195.94
338.878	166.94
339.106	178.94
339.334	178.94
339.562	162.94
339.79	180.94
340.018	174.94
340.246	166.94
340.474	162.94
340.702	176.94
340.93	165.94
341.158	162.94
341.386	161.94
341.614	179.94
341.842	173.94
342.07	170.94
342.298	180.94
342.526	176.94
342.754	167.94
342.981	171.94
343.209	176.94
343.437	160.94
343.665	188.94
343.893	203.94
344.12	190.94
344.348	172.94
344.576	177.94
344.804	170.94
345.031	174.94
345.259	167.94
345.487	187.94
345.714	187.94
345.942	171.94
346.17	169.94
346.397	182.94
346.625	164.94
346.853	188.94
347.08	164.94
347.308	160.94
347.535	156.94
347.763	166.94
347.99	162.94
348.218	198.94
348.445	166.94
348.673	171.94
348.9	192.94
349.128	165.94
349.355	172.94
349.583	173.94
349.81	165.94
350.037	169.94
350.265	162.94
350.492	158.94
350.72	166.94
350.947	178.94
351.174	168.94
351.402	152.94
351.629	150.94
351.856	168.94
352.083	176.94
352.311	150.94
352.538	163.94
352.765	174.94
352.992	171.94
353.22	184.94
353.447	161.94
353.674	158.94
353.901	186.94
354.128	184.94
354.355	174.94
354.583	170.94
354.81	192.94
355.037	180.94
355.264	176.94
355.491	169.94
355.718	170.94
355.945	164.94
356.172	168.94
356.399	170.94
356.626	157.94
356.853	168.94
357.08	173.94
357.307	167.94
357.534	170.94
357.761	162.94
357.988	174.94
358.215	180.94
358.441	162.94
358.668	160.94
358.895	173.94
359.122	159.94
359.349	170.94
359.576	177.94
359.802	165.94
360.029	165.94
360.256	160.94
360.483	172.94
360.709	168.94
360.936	182.94
361.163	157.94
361.39	172.94
361.616	164.94
361.843	168.94
362.07	159.94
362.296	153.94
362.523	172.94
362.749	162.94
362.976	185.94
363.203	184.94
363.429	176.94
363.656	162.94
363.882	167.94
364.109	169.94
364.335	164.94
364.562	158.94
364.788	171.94
365.015	169.94
365.241	164.94
365.468	166.94
365.694	165.94
365.92	182.94
366.147	172.94
366.373	182.94
366.599	174.94
366.826	164.94
367.052	172.94
367.278	175.94
367.505	176.94
367.731	168.94
367.957	156.94
368.184	169.94
368.41	177.94
368.636	173.94
368.862	171.94
369.089	169.94
369.315	175.94
369.541	184.94
369.767	181.94
369.993	172.94
370.219	166.94
370.445	187.94
370.672	186.94
370.898	193.94
371.124	201.94
371.35	177.94
371.576	184.94
371.802	168.94
372.028	166.94
372.254	170.94
372.48	185.94
372.706	177.94
372.932	199.94
373.158	182.94
373.384	180.94
373.61	170.94
373.835	180.94
374.061	200.94
374.287	191.94
374.513	192.94
374.739	183.94
374.965	174.94
375.191	184.94
375.416	187.94
375.642	172.94
375.868	170.94
376.094	180.94
376.319	193.94
376.545	175.94
376.771	184.94
376.997	182.94
377.222	195.94
377.448	183.94
377.674	190.94
377.899	181.94
378.125	177.94
378.35	190.94
378.576	185.94
378.802	169.94
379.027	184.94
379.253	196.94
379.478	188.94
379.704	187.94
379.929	162.94
380.155	170.94
380.38	188.94
380.606	172.94
380.831	184.94
381.057	194.94
381.282	186.94
381.507	188.94
381.733	181.94
381.958	171.94
382.184	183.94
382.409	189.94
382.634	202.94
382.86	175.94
383.085	198.94
383.31	193.94
383.535	201.94
383.761	204.94
383.986	214.94
384.211	205.94
384.436	196.94
384.662	210.94
384.887	187.94
385.112	197.94
385.337	207.94
385.562	186.94
385.787	198.94
386.013	198.94
386.238	191.94
386.463	194.94
386.688	215.94
386.913	204.94
387.138	210.94
387.363	208.94
387.588	206.94
387.813	201.94
388.038	207.94
388.263	198.94
388.488	204.94
388.713	210.94
388.938	201.94
389.163	190.94
389.387	202.94
389.612	192.94
389.837	172.94
390.062	215.94
390.287	185.94
390.512	207.94
390.736	214.94
390.961	209.94
391.186	195.94
391.411	222.94
391.636	220.94
391.86	228.94
392.085	230.94
392.31	217.94
392.534	234.94
392.759	208.94
392.984	213.94
393.208	228.94
393.433	212.94
393.658	219.94
393.882	219.94
394.107	192.94
394.331	226.94
394.556	224.94
394.78	216.94
395.005	214.94
395.229	192.94
395.454	214.94
395.678	218.94
395.903	225.94
396.127	226.94
396.352	215.94
396.576	217.94
396.801	211.94
397.025	225.94
397.249	216.94
397.474	215.94
397.698	216.94
397.922	223.94
398.147	233.94
398.371	233.94
398.595	245.94
398.82	240.94
399.044	265.94
399.268	262.94
399.492	297.94
399.717	303.94
399.941	285.94
400.165	284.94
400.389	241.94
400.613	232.94
400.837	239.94
401.062	253.94
401.286	235.94
401.51	239.94
401.734	244.94
401.958	230.94
402.182	232.94
402.406	236.94
402.63	229.94
402.854	265.94
403.078	271.94
403.302	245.94
403.526	260.94
403.75	260.94
403.974	266.94
404.198	274.94
404.422	278.94
404.645	268.94
404.869	256.94
405.093	266.94
405.317	252.94
405.541	250.94
405.765	253.94
405.988	262.94
406.212	253.94
406.436	259.94
406.66	270.94
406.883	246.94
407.107	275.94
407.331	285.94
407.555	272.94
407.778	272.94
408.002	277.94
408.226	282.94
408.449	273.94
408.673	277.94
408.896	269.94
409.12	261.94
409.344	255.94
409.567	249.94
409.791	272.94
410.014	244.94
410.238	262.94
410.461	262.94
410.685	273.94
410.908	270.94
411.132	255.94
411.355	263.94
411.578	233.94
411.802	255.94
412.025	241.94
412.249	236.94
412.472	239.94
412.695	244.94
412.919	237.94
413.142	260.94
413.365	252.94
413.589	251.94
413.812	246.94
414.035	249.94
414.258	251.94
414.482	242.94
414.705	233.94
414.928	247.94
415.151	249.94
415.374	257.94
415.597	247.94
415.821	237.94
416.044	216.94
416.267	240.94
416.49	248.94
416.713	253.94
416.936	254.94
417.159	257.94
417.382	240.94
417.605	244.94
417.828	233.94
418.051	248.94
418.274	249.94
418.497	269.94
418.72	263.94
418.943	246.94
419.166	267.94
419.389	258.94
419.611	258.94
419.834	244.94
420.057	241.94
420.28	260.94
420.503	270.94
420.726	263.94
420.948	240.94
421.171	240.94
421.394	255.94
421.617	238.94
421.839	226.94
422.062	254.94
422.285	252.94
422.507	252.94
422.73	281.94
422.953	246.94
423.175	262.94
423.398	248.94
423.621	255.94
423.843	248.94
424.066	258.94
424.288	265.94
424.511	247.94
424.733	264.94
424.956	246.94
425.178	268.94
425.401	249.94
425.623	254.94
425.846	237.94
426.068	265.94
426.291	244.94
426.513	245.94
426.735	220.94
426.958	236.94
427.18	229.94
427.402	210.94
427.625	241.94
427.847	228.94
428.069	223.94
428.292	240.94
428.514	224.94
428.736	219.94
428.958	228.94
429.181	214.94
429.403	234.94
429.625	233.94
429.847	228.94
430.069	231.94
430.292	222.94
430.514	220.94
430.736	250.94
430.958	247.94
431.18	232.94
431.402	235.94
431.624	245.94
431.846	235.94
432.068	242.94
432.29	230.94
432.512	238.94
432.734	248.94
432.956	240.94
433.178	254.94
433.4	241.94
433.622	239.94
433.844	225.94
434.066	259.94
434.287	223.94
434.509	240.94
434.731	264.94
434.953	263.94
435.175	255.94
435.397	257.94
435.618	247.94
435.84	238.94
436.062	240.94
436.284	228.94
436.505	223.94
436.727	235.94
436.949	235.94
437.17	227.94
437.392	221.94
437.614	228.94
437.835	226.94
438.057	228.94
438.278	231.94
438.5	225.94
438.721	239.94
438.943	250.94
439.165	258.94
439.386	233.94
439.608	238.94
439.829	270.94
440.05	265.94
440.272	250.94
440.493	257.94
440.715	254.94
440.936	265.94
441.158	268.94
441.379	263.94
441.6	264.94
441.822	269.94
442.043	287.94
442.264	258.94
442.486	251.94
442.707	270.94
442.928	254.94
443.149	249.94
443.371	269.94
443.592	252.94
443.813	284.94
444.034	266.94
444.255	281.94
444.476	274.94
444.698	285.94
444.919	297.94
445.14	378.94
445.361	328.94
445.582	284.94
445.803	283.94
446.024	274.94
446.245	271.94
446.466	265.94
446.687	253.94
446.908	241.94
447.129	238.94
447.35	252.94
447.571	249.94
447.792	246.94
448.013	230.94
448.234	261.94
448.455	263.94
448.675	242.94
448.896	250.94
449.117	229.94
449.338	222.94
449.559	243.94
449.779	241.94
450	242.94
450.221	260.94
450.442	241.94
450.662	230.94
450.883	225.94
451.104	229.94
451.324	220.94
451.545	241.94
451.766	229.94
451.986	241.94
452.207	246.94
452.428	229.94
452.648	225.94
452.869	215.94
453.089	200.94
453.31	222.94
453.53	218.94
453.751	218.94
453.971	214.94
454.192	212.94
454.412	204.94
454.633	211.94
454.853	244.94
455.073	208.94
455.294	242.94
455.514	219.94
455.734	213.94
455.955	221.94
456.175	226.94
456.395	219.94
456.616	205.94
456.836	214.94
457.056	220.94
457.276	211.94
457.497	217.94
457.717	205.94
457.937	214.94
458.157	212.94
458.377	212.94
458.598	203.94
458.818	225.94
459.038	231.94
459.258	234.94
459.478	237.94
459.698	234.94
459.918	250.94
460.138	251.94
460.358	273.94
460.578	264.94
460.798	262.94
461.018	285.94
461.238	275.94
461.458	276.94
461.678	282.94
461.898	256.94
462.118	263.94
462.338	292.94
462.558	282.94
462.777	300.94
462.997	306.94
463.217	325.94
463.437	320.94
463.657	302.94
463.876	281.94
464.096	305.94
464.316	293.94
464.536	305.94
464.755	297.94
464.975	280.94
465.195	268.94
465.414	261.94
465.634	257.94
465.854	245.94
466.073	242.94
466.293	240.94
466.512	237.94
466.732	227.94
466.951	244.94
467.171	247.94
467.391	239.94
467.61	237.94
467.829	237.94
468.049	240.94
468.268	237.94
468.488	242.94
468.707	229.94
468.927	245.94
469.146	240.94
469.365	251.94
469.585	220.94
469.804	224.94
470.023	238.94
470.243	230.94
470.462	241.94
470.681	243.94
470.901	240.94
471.12	259.94
471.339	236.94
471.558	249.94
471.777	239.94
471.997	238.94
472.216	243.94
472.435	228.94
472.654	244.94
472.873	216.94
473.092	229.94
473.311	234.94
473.53	232.94
473.749	216.94
473.968	229.94
474.187	240.94
474.406	231.94
474.625	236.94
474.844	244.94
475.063	242.94
475.282	247.94
475.501	224.94
475.72	222.94
475.939	228.94
476.158	228.94
476.377	230.94
476.596	238.94
476.814	239.94
477.033	234.94
477.252	244.94
477.471	231.94
477.69	249.94
477.908	253.94
478.127	271.94
478.346	274.94
478.564	280.94
478.783	262.94
479.002	253.94
479.22	269.94
479.439	258.94
479.658	248.94
479.876	247.94
480.095	250.94
480.313	249.94
480.532	268.94
480.751	273.94
480.969	262.94
481.188	232.94
481.406	240.94
481.624	254.94
481.843	255.94
482.061	254.94
482.28	249.94
482.498	236.94
482.717	254.94
482.935	247.94
483.153	239.94
483.372	252.94
483.59	262.94
483.808	253.94
484.027	252.94
484.245	226.94
484.463	238.94
484.681	266.94
484.9	260.94
485.118	257.94
485.336	248.94
485.554	258.94
485.772	260.94
485.99	250.94
486.209	263.94
486.427	255.94
486.645	266.94
486.863	256.94
487.081	257.94
487.299	245.94
487.517	268.94
487.735	263.94
487.953	261.94
488.171	266.94
488.389	264.94
488.607	272.94
488.825	250.94
489.043	249.94
489.261	232.94
489.479	260.94
489.696	245.94
489.914	249.94
490.132	256.94
490.35	260.94
490.568	252.94
490.786	266.94
491.003	246.94
491.221	276.94
491.439	266.94
491.657	262.94
491.874	263.94
492.092	281.94
492.31	286.94
492.527	263.94
492.745	269.94
492.963	262.94
493.18	276.94
493.398	257.94
493.615	256.94
493.833	275.94
494.05	251.94
494.268	276.94
494.485	248.94
494.703	268.94
494.92	261.94
495.138	256.94
495.355	272.94
495.573	275.94
495.79	280.94
496.008	274.94
496.225	273.94
496.442	271.94
496.66	296.94
496.877	280.94
497.094	274.94
497.312	282.94
497.529	284.94
497.746	283.94
497.963	296.94
498.181	316.94
498.398	292.94
498.615	312.94
498.832	338.94
499.049	356.94
499.267	379.94
499.484	402.94
499.701	421.94
499.918	461.94
500.135	498.94
500.352	579.94
500.569	541.94
500.786	541.94
501.003	515.94
501.22	503.94
501.437	416.94
501.654	382.94
501.871	375.94
502.088	360.94
502.305	336.94
502.522	312.94
502.739	312.94
