Data from Fe(NO3)3@0.025M.TitratingCurve.Agarose3%dH2O.NegLispCup.LampEnergy10.LIBS07252019_HRD10591_16-54-22-334.txt Node
Date: Thu Jul 25 16:54:22 EDT 2019
User: cochatt
Spectrometer: HR+D1059
Trigger mode: 1
Integration Time (sec): 1.000000E-1
Scans to average: 1
Electric dark correction enabled: true
Nonlinearity correction enabled: false
Boxcar width: 0
XAxis mode: Wavelengths
Number of Pixels in Spectrum: 2048
>>>>>Begin Spectral Data<<<<<
223.165	-15.25
223.4	-15.25
223.635	-15.25
223.869	-10.25
224.104	-11.25
224.338	-6.25
224.573	-15.25
224.808	-20.25
225.042	-17.25
225.277	-11.25
225.511	1.75
225.746	4.75
225.98	-0.25
226.215	2.75
226.449	25.75
226.683	18.75
226.918	22.75
227.152	30.75
227.387	38.75
227.621	24.75
227.856	40.75
228.09	45.75
228.324	56.75
228.559	55.75
228.793	58.75
229.027	89.75
229.262	97.75
229.496	92.75
229.73	97.75
229.964	114.75
230.199	105.75
230.433	107.75
230.667	112.75
230.901	110.75
231.136	112.75
231.37	120.75
231.604	106.75
231.838	128.75
232.072	137.75
232.306	126.75
232.541	122.75
232.775	111.75
233.009	126.75
233.243	128.75
233.477	120.75
233.711	106.75
233.945	132.75
234.179	116.75
234.413	130.75
234.647	141.75
234.881	146.75
235.115	130.75
235.349	135.75
235.583	126.75
235.817	134.75
236.051	141.75
236.285	131.75
236.519	138.75
236.753	137.75
236.987	130.75
237.221	128.75
237.455	141.75
237.689	129.75
237.922	154.75
238.156	144.75
238.39	139.75
238.624	162.75
238.858	158.75
239.091	139.75
239.325	150.75
239.559	130.75
239.793	175.75
240.027	169.75
240.26	161.75
240.494	133.75
240.728	155.75
240.961	161.75
241.195	162.75
241.429	152.75
241.662	164.75
241.896	143.75
242.13	131.75
242.363	130.75
242.597	154.75
242.83	163.75
243.064	158.75
243.298	149.75
243.531	155.75
243.765	175.75
243.998	154.75
244.232	192.75
244.465	166.75
244.699	162.75
244.932	152.75
245.166	166.75
245.399	164.75
245.633	163.75
245.866	168.75
246.099	169.75
246.333	188.75
246.566	165.75
246.8	180.75
247.033	178.75
247.266	166.75
247.5	170.75
247.733	186.75
247.966	188.75
248.2	203.75
248.433	182.75
248.666	200.75
248.899	187.75
249.133	210.75
249.366	201.75
249.599	218.75
249.832	199.75
250.066	196.75
250.299	204.75
250.532	202.75
250.765	187.75
250.998	208.75
251.231	203.75
251.465	198.75
251.698	203.75
251.931	210.75
252.164	203.75
252.397	207.75
252.63	225.75
252.863	223.75
253.096	229.75
253.329	214.75
253.562	216.75
253.795	227.75
254.028	222.75
254.261	229.75
254.494	228.75
254.727	228.75
254.96	214.75
255.193	225.75
255.426	234.75
255.659	223.75
255.892	203.75
256.124	206.75
256.357	214.75
256.59	223.75
256.823	233.75
257.056	223.75
257.289	234.75
257.521	220.75
257.754	224.75
257.987	230.75
258.22	231.75
258.452	226.75
258.685	247.75
258.918	239.75
259.151	237.75
259.383	253.75
259.616	244.75
259.849	254.75
260.081	288.75
260.314	302.75
260.547	279.75
260.779	241.75
261.012	276.75
261.244	258.75
261.477	284.75
261.71	270.75
261.942	259.75
262.175	244.75
262.407	258.75
262.64	255.75
262.872	265.75
263.105	244.75
263.337	274.75
263.57	280.75
263.802	246.75
264.035	244.75
264.267	251.75
264.499	227.75
264.732	247.75
264.964	240.75
265.197	246.75
265.429	251.75
265.661	240.75
265.894	270.75
266.126	264.75
266.358	258.75
266.591	262.75
266.823	254.75
267.055	261.75
267.287	263.75
267.52	257.75
267.752	270.75
267.984	269.75
268.216	249.75
268.448	265.75
268.681	269.75
268.913	274.75
269.145	277.75
269.377	272.75
269.609	269.75
269.841	268.75
270.073	266.75
270.306	267.75
270.538	258.75
270.77	270.75
271.002	268.75
271.234	307.75
271.466	295.75
271.698	316.75
271.93	303.75
272.162	284.75
272.394	301.75
272.626	288.75
272.858	298.75
273.09	297.75
273.322	308.75
273.553	302.75
273.785	312.75
274.017	329.75
274.249	377.75
274.481	344.75
274.713	357.75
274.945	404.75
275.176	386.75
275.408	379.75
275.64	366.75
275.872	352.75
276.104	341.75
276.335	328.75
276.567	322.75
276.799	332.75
277.031	309.75
277.262	339.75
277.494	318.75
277.726	308.75
277.957	322.75
278.189	316.75
278.421	318.75
278.652	327.75
278.884	330.75
279.115	317.75
279.347	314.75
279.579	334.75
279.81	326.75
280.042	309.75
280.273	322.75
280.505	324.75
280.736	330.75
280.968	330.75
281.199	297.75
281.431	327.75
281.662	328.75
281.894	331.75
282.125	329.75
282.356	319.75
282.588	343.75
282.819	325.75
283.051	344.75
283.282	359.75
283.513	349.75
283.745	339.75
283.976	331.75
284.207	343.75
284.439	348.75
284.67	339.75
284.901	342.75
285.132	345.75
285.364	344.75
285.595	345.75
285.826	343.75
286.057	335.75
286.288	359.75
286.52	327.75
286.751	345.75
286.982	346.75
287.213	352.75
287.444	369.75
287.675	348.75
287.906	361.75
288.138	362.75
288.369	354.75
288.6	348.75
288.831	359.75
289.062	347.75
289.293	357.75
289.524	366.75
289.755	331.75
289.986	376.75
290.217	376.75
290.448	360.75
290.679	361.75
290.91	360.75
291.141	339.75
291.371	354.75
291.602	368.75
291.833	372.75
292.064	374.75
292.295	368.75
292.526	342.75
292.757	337.75
292.987	371.75
293.218	362.75
293.449	368.75
293.68	370.75
293.91	341.75
294.141	378.75
294.372	362.75
294.603	365.75
294.833	376.75
295.064	382.75
295.295	376.75
295.525	382.75
295.756	379.75
295.987	375.75
296.217	380.75
296.448	378.75
296.679	379.75
296.909	384.75
297.14	390.75
297.37	401.75
297.601	385.75
297.831	381.75
298.062	374.75
298.292	388.75
298.523	384.75
298.753	384.75
298.984	416.75
299.214	401.75
299.445	394.75
299.675	375.75
299.905	402.75
300.136	407.75
300.366	395.75
300.597	400.75
300.827	411.75
301.057	425.75
301.288	370.75
301.518	407.75
301.748	404.75
301.979	404.75
302.209	438.75
302.439	408.75
302.669	419.75
302.9	388.75
303.13	426.75
303.36	424.75
303.59	376.75
303.82	405.75
304.051	434.75
304.281	425.75
304.511	410.75
304.741	414.75
304.971	409.75
305.201	410.75
305.431	405.75
305.661	401.75
305.891	430.75
306.121	424.75
306.352	419.75
306.582	430.75
306.812	421.75
307.042	410.75
307.272	411.75
307.502	399.75
307.731	401.75
307.961	407.75
308.191	415.75
308.421	415.75
308.651	443.75
308.881	414.75
309.111	425.75
309.341	439.75
309.571	425.75
309.8	410.75
310.03	391.75
310.26	420.75
310.49	436.75
310.72	429.75
310.949	434.75
311.179	420.75
311.409	433.75
311.639	428.75
311.868	440.75
312.098	434.75
312.328	424.75
312.557	441.75
312.787	443.75
313.017	449.75
313.246	458.75
313.476	442.75
313.706	456.75
313.935	411.75
314.165	448.75
314.394	448.75
314.624	444.75
314.853	430.75
315.083	474.75
315.312	451.75
315.542	442.75
315.771	446.75
316.001	461.75
316.23	464.75
316.46	449.75
316.689	459.75
316.919	465.75
317.148	449.75
317.377	451.75
317.607	451.75
317.836	434.75
318.065	454.75
318.295	454.75
318.524	435.75
318.753	451.75
318.983	453.75
319.212	464.75
319.441	453.75
319.67	460.75
319.9	439.75
320.129	451.75
320.358	439.75
320.587	465.75
320.816	470.75
321.046	481.75
321.275	464.75
321.504	468.75
321.733	457.75
321.962	465.75
322.191	472.75
322.42	455.75
322.649	450.75
322.878	458.75
323.108	460.75
323.337	467.75
323.566	486.75
323.795	488.75
324.024	488.75
324.253	478.75
324.482	468.75
324.71	463.75
324.939	482.75
325.168	488.75
325.397	480.75
325.626	480.75
325.855	498.75
326.084	469.75
326.313	473.75
326.542	473.75
326.77	483.75
326.999	470.75
327.228	489.75
327.457	495.75
327.686	484.75
327.914	509.75
328.143	522.75
328.372	488.75
328.6	487.75
328.829	487.75
329.058	497.75
329.287	491.75
329.515	499.75
329.744	490.75
329.972	491.75
330.201	486.75
330.43	504.75
330.658	526.75
330.887	519.75
331.115	513.75
331.344	528.75
331.572	520.75
331.801	520.75
332.03	535.75
332.258	534.75
332.486	524.75
332.715	547.75
332.943	551.75
333.172	540.75
333.4	584.75
333.629	562.75
333.857	574.75
334.085	576.75
334.314	568.75
334.542	581.75
334.771	562.75
334.999	588.75
335.227	574.75
335.455	575.75
335.684	561.75
335.912	610.75
336.14	558.75
336.369	578.75
336.597	564.75
336.825	567.75
337.053	552.75
337.281	560.75
337.51	564.75
337.738	555.75
337.966	550.75
338.194	547.75
338.422	531.75
338.65	549.75
338.878	555.75
339.106	542.75
339.334	540.75
339.562	528.75
339.79	542.75
340.018	537.75
340.246	549.75
340.474	534.75
340.702	538.75
340.93	543.75
341.158	536.75
341.386	538.75
341.614	540.75
341.842	546.75
342.07	532.75
342.298	506.75
342.526	514.75
342.754	510.75
342.981	533.75
343.209	531.75
343.437	534.75
343.665	549.75
343.893	564.75
344.12	555.75
344.348	559.75
344.576	577.75
344.804	558.75
345.031	553.75
345.259	544.75
345.487	530.75
345.714	536.75
345.942	529.75
346.17	530.75
346.397	521.75
346.625	501.75
346.853	518.75
347.08	520.75
347.308	514.75
347.535	535.75
347.763	526.75
347.99	512.75
348.218	519.75
348.445	507.75
348.673	499.75
348.9	531.75
349.128	530.75
349.355	491.75
349.583	508.75
349.81	503.75
350.037	502.75
350.265	519.75
350.492	505.75
350.72	499.75
350.947	502.75
351.174	509.75
351.402	505.75
351.629	482.75
351.856	505.75
352.083	500.75
352.311	500.75
352.538	495.75
352.765	489.75
352.992	519.75
353.22	511.75
353.447	506.75
353.674	487.75
353.901	503.75
354.128	485.75
354.355	510.75
354.583	499.75
354.81	501.75
355.037	488.75
355.264	503.75
355.491	486.75
355.718	500.75
355.945	530.75
356.172	502.75
356.399	494.75
356.626	509.75
356.853	508.75
357.08	522.75
357.307	494.75
357.534	500.75
357.761	511.75
357.988	519.75
358.215	511.75
358.441	508.75
358.668	504.75
358.895	495.75
359.122	506.75
359.349	518.75
359.576	502.75
359.802	507.75
360.029	505.75
360.256	530.75
360.483	485.75
360.709	507.75
360.936	532.75
361.163	533.75
361.39	491.75
361.616	514.75
361.843	531.75
362.07	511.75
362.296	528.75
362.523	527.75
362.749	513.75
362.976	514.75
363.203	513.75
363.429	525.75
363.656	511.75
363.882	495.75
364.109	527.75
364.335	507.75
364.562	495.75
364.788	508.75
365.015	517.75
365.241	526.75
365.468	515.75
365.694	528.75
365.92	536.75
366.147	511.75
366.373	520.75
366.599	512.75
366.826	515.75
367.052	524.75
367.278	514.75
367.505	544.75
367.731	526.75
367.957	525.75
368.184	518.75
368.41	530.75
368.636	511.75
368.862	523.75
369.089	524.75
369.315	515.75
369.541	513.75
369.767	542.75
369.993	540.75
370.219	526.75
370.445	540.75
370.672	545.75
370.898	565.75
371.124	543.75
371.35	551.75
371.576	532.75
371.802	552.75
372.028	540.75
372.254	546.75
372.48	558.75
372.706	567.75
372.932	554.75
373.158	558.75
373.384	576.75
373.61	587.75
373.835	566.75
374.061	542.75
374.287	537.75
374.513	571.75
374.739	586.75
374.965	604.75
375.191	581.75
375.416	595.75
375.642	593.75
375.868	567.75
376.094	555.75
376.319	577.75
376.545	576.75
376.771	530.75
376.997	526.75
377.222	546.75
377.448	554.75
377.674	552.75
377.899	548.75
378.125	546.75
378.35	534.75
378.576	546.75
378.802	539.75
379.027	541.75
379.253	534.75
379.478	554.75
379.704	545.75
379.929	561.75
380.155	559.75
380.38	573.75
380.606	546.75
380.831	531.75
381.057	542.75
381.282	542.75
381.507	550.75
381.733	548.75
381.958	566.75
382.184	585.75
382.409	581.75
382.634	581.75
382.86	577.75
383.085	582.75
383.31	575.75
383.535	578.75
383.761	581.75
383.986	598.75
384.211	600.75
384.436	607.75
384.662	594.75
384.887	597.75
385.112	614.75
385.337	607.75
385.562	607.75
385.787	618.75
386.013	629.75
386.238	658.75
386.463	631.75
386.688	631.75
386.913	594.75
387.138	631.75
387.363	624.75
387.588	630.75
387.813	628.75
388.038	643.75
388.263	635.75
388.488	636.75
388.713	629.75
388.938	628.75
389.163	630.75
389.387	635.75
389.612	615.75
389.837	638.75
390.062	634.75
390.287	622.75
390.512	616.75
390.736	630.75
390.961	655.75
391.186	652.75
391.411	656.75
391.636	664.75
391.86	672.75
392.085	667.75
392.31	664.75
392.534	657.75
392.759	681.75
392.984	667.75
393.208	660.75
393.433	655.75
393.658	676.75
393.882	659.75
394.107	647.75
394.331	674.75
394.556	675.75
394.78	671.75
395.005	648.75
395.229	656.75
395.454	691.75
395.678	687.75
395.903	699.75
396.127	696.75
396.352	698.75
396.576	674.75
396.801	672.75
397.025	682.75
397.249	657.75
397.474	696.75
397.698	708.75
397.922	687.75
398.147	710.75
398.371	725.75
398.595	737.75
398.82	739.75
399.044	755.75
399.268	794.75
399.492	831.75
399.717	914.75
399.941	877.75
400.165	855.75
400.389	835.75
400.613	776.75
400.837	790.75
401.062	788.75
401.286	798.75
401.51	756.75
401.734	740.75
401.958	740.75
402.182	735.75
402.406	751.75
402.63	721.75
402.854	762.75
403.078	776.75
403.302	772.75
403.526	737.75
403.75	756.75
403.974	784.75
404.198	760.75
404.422	789.75
404.645	789.75
404.869	793.75
405.093	777.75
405.317	784.75
405.541	800.75
405.765	771.75
405.988	775.75
406.212	794.75
406.436	802.75
406.66	793.75
406.883	839.75
407.107	837.75
407.331	849.75
407.555	880.75
407.778	871.75
408.002	830.75
408.226	845.75
408.449	855.75
408.673	808.75
408.896	825.75
409.12	827.75
409.344	796.75
409.567	799.75
409.791	807.75
410.014	817.75
410.238	802.75
410.461	802.75
410.685	798.75
410.908	786.75
411.132	777.75
411.355	785.75
411.578	779.75
411.802	775.75
412.025	781.75
412.249	772.75
412.472	757.75
412.695	776.75
412.919	760.75
413.142	771.75
413.365	763.75
413.589	746.75
413.812	732.75
414.035	731.75
414.258	749.75
414.482	774.75
414.705	772.75
414.928	776.75
415.151	757.75
415.374	747.75
415.597	740.75
415.821	724.75
416.044	755.75
416.267	726.75
416.49	726.75
416.713	713.75
416.936	716.75
417.159	704.75
417.382	741.75
417.605	698.75
417.828	705.75
418.051	727.75
418.274	734.75
418.497	728.75
418.72	738.75
418.943	715.75
419.166	739.75
419.389	783.75
419.611	793.75
419.834	762.75
420.057	731.75
420.28	744.75
420.503	698.75
420.726	724.75
420.948	719.75
421.171	717.75
421.394	693.75
421.617	693.75
421.839	734.75
422.062	721.75
422.285	688.75
422.507	728.75
422.73	721.75
422.953	704.75
423.175	715.75
423.398	746.75
423.621	711.75
423.843	717.75
424.066	724.75
424.288	704.75
424.511	722.75
424.733	698.75
424.956	703.75
425.178	714.75
425.401	700.75
425.623	698.75
425.846	715.75
426.068	698.75
426.291	683.75
426.513	704.75
426.735	693.75
426.958	683.75
427.18	680.75
427.402	695.75
427.625	686.75
427.847	705.75
428.069	672.75
428.292	669.75
428.514	660.75
428.736	648.75
428.958	698.75
429.181	667.75
429.403	681.75
429.625	670.75
429.847	680.75
430.069	662.75
430.292	658.75
430.514	659.75
430.736	683.75
430.958	680.75
431.18	644.75
431.402	627.75
431.624	690.75
431.846	682.75
432.068	694.75
432.29	666.75
432.512	673.75
432.734	684.75
432.956	646.75
433.178	688.75
433.4	660.75
433.622	671.75
433.844	653.75
434.066	663.75
434.287	684.75
434.509	693.75
434.731	702.75
434.953	728.75
435.175	707.75
435.397	692.75
435.618	692.75
435.84	671.75
436.062	672.75
436.284	694.75
436.505	665.75
436.727	670.75
436.949	661.75
437.17	689.75
437.392	652.75
437.614	668.75
437.835	644.75
438.057	647.75
438.278	638.75
438.5	645.75
438.721	648.75
438.943	646.75
439.165	656.75
439.386	658.75
439.608	670.75
439.829	663.75
440.05	650.75
440.272	658.75
440.493	648.75
440.715	665.75
440.936	660.75
441.158	668.75
441.379	709.75
441.6	692.75
441.822	680.75
442.043	691.75
442.264	662.75
442.486	654.75
442.707	677.75
442.928	700.75
443.149	682.75
443.371	695.75
443.592	707.75
443.813	679.75
444.034	686.75
444.255	702.75
444.476	727.75
444.698	733.75
444.919	744.75
445.14	867.75
445.361	739.75
445.582	711.75
445.803	697.75
446.024	696.75
446.245	670.75
446.466	649.75
446.687	645.75
446.908	633.75
447.129	638.75
447.35	636.75
447.571	608.75
447.792	654.75
448.013	635.75
448.234	608.75
448.455	623.75
448.675	612.75
448.896	612.75
449.117	596.75
449.338	581.75
449.559	596.75
449.779	594.75
450	587.75
450.221	613.75
450.442	618.75
450.662	618.75
450.883	620.75
451.104	590.75
451.324	588.75
451.545	598.75
451.766	594.75
451.986	590.75
452.207	592.75
452.428	595.75
452.648	592.75
452.869	587.75
453.089	597.75
453.31	606.75
453.53	603.75
453.751	602.75
453.971	579.75
454.192	586.75
454.412	574.75
454.633	610.75
454.853	588.75
455.073	583.75
455.294	575.75
455.514	591.75
455.734	571.75
455.955	574.75
456.175	561.75
456.395	566.75
456.616	602.75
456.836	599.75
457.056	604.75
457.276	588.75
457.497	608.75
457.717	595.75
457.937	580.75
458.157	606.75
458.377	598.75
458.598	635.75
458.818	627.75
459.038	640.75
459.258	626.75
459.478	647.75
459.698	673.75
459.918	662.75
460.138	690.75
460.358	727.75
460.578	732.75
460.798	708.75
461.018	715.75
461.238	712.75
461.458	695.75
461.678	703.75
461.898	729.75
462.118	728.75
462.338	752.75
462.558	772.75
462.777	794.75
462.997	794.75
463.217	851.75
463.437	811.75
463.657	771.75
463.876	807.75
464.096	802.75
464.316	746.75
464.536	776.75
464.755	773.75
464.975	745.75
465.195	742.75
465.414	704.75
465.634	698.75
465.854	671.75
466.073	662.75
466.293	676.75
466.512	644.75
466.732	654.75
466.951	677.75
467.171	636.75
467.391	637.75
467.61	630.75
467.829	632.75
468.049	616.75
468.268	636.75
468.488	625.75
468.707	623.75
468.927	634.75
469.146	650.75
469.365	632.75
469.585	638.75
469.804	642.75
470.023	654.75
470.243	654.75
470.462	643.75
470.681	635.75
470.901	642.75
471.12	648.75
471.339	650.75
471.558	624.75
471.777	625.75
471.997	650.75
472.216	654.75
472.435	628.75
472.654	614.75
472.873	642.75
473.092	672.75
473.311	629.75
473.53	652.75
473.749	626.75
473.968	625.75
474.187	648.75
474.406	650.75
474.625	656.75
474.844	644.75
475.063	642.75
475.282	678.75
475.501	660.75
475.72	652.75
475.939	662.75
476.158	690.75
476.377	699.75
476.596	702.75
476.814	726.75
477.033	669.75
477.252	658.75
477.471	675.75
477.69	690.75
477.908	698.75
478.127	726.75
478.346	699.75
478.564	724.75
478.783	752.75
479.002	739.75
479.22	747.75
479.439	780.75
479.658	750.75
479.876	769.75
480.095	779.75
480.313	771.75
480.532	779.75
480.751	775.75
480.969	799.75
481.188	764.75
481.406	783.75
481.624	763.75
481.843	759.75
482.061	740.75
482.28	752.75
482.498	770.75
482.717	774.75
482.935	747.75
483.153	758.75
483.372	755.75
483.59	762.75
483.808	771.75
484.027	722.75
484.245	757.75
484.463	750.75
484.681	784.75
484.9	787.75
485.118	753.75
485.336	773.75
485.554	758.75
485.772	757.75
485.99	764.75
486.209	764.75
486.427	750.75
486.645	782.75
486.863	781.75
487.081	771.75
487.299	776.75
487.517	764.75
487.735	763.75
487.953	768.75
488.171	777.75
488.389	770.75
488.607	765.75
488.825	760.75
489.043	764.75
489.261	776.75
489.479	762.75
489.696	766.75
489.914	796.75
490.132	786.75
490.35	765.75
490.568	760.75
490.786	778.75
491.003	796.75
491.221	777.75
491.439	789.75
491.657	787.75
491.874	750.75
492.092	803.75
492.31	812.75
492.527	792.75
492.745	816.75
492.963	803.75
493.18	780.75
493.398	794.75
493.615	814.75
493.833	814.75
494.05	815.75
494.268	793.75
494.485	799.75
494.703	814.75
494.92	802.75
495.138	819.75
495.355	806.75
495.573	804.75
495.79	806.75
496.008	864.75
496.225	856.75
496.442	839.75
496.66	872.75
496.877	865.75
497.094	865.75
497.312	880.75
497.529	892.75
497.746	905.75
497.963	928.75
498.181	952.75
498.398	979.75
498.615	1001.75
498.832	1066.75
499.049	1102.75
499.267	1123.75
499.484	1166.75
499.701	1225.75
499.918	1279.75
500.135	1380.75
500.352	1431.75
500.569	1449.75
500.786	1433.75
501.003	1455.75
501.22	1396.75
501.437	1275.75
