Data from Fe(NO3)3@0.0125M.TitratingCurve.Agarose3%dH2O.NegLispCup.LampEnergy10.LIBS07252019_HRD10591_17-00-52-336.txt Node
Date: Thu Jul 25 17:00:52 EDT 2019
User: cochatt
Spectrometer: HR+D1059
Trigger mode: 1
Integration Time (sec): 1.000000E-1
Scans to average: 1
Electric dark correction enabled: true
Nonlinearity correction enabled: false
Boxcar width: 0
XAxis mode: Wavelengths
Number of Pixels in Spectrum: 2048
>>>>>Begin Spectral Data<<<<<
223.165	-12.25
223.4	-12.25
223.635	-12.25
223.869	-26.25
224.104	-30.25
224.338	-0.25
224.573	1.75
224.808	-8.25
225.042	-9.25
225.277	-6.25
225.511	-16.25
225.746	15.75
225.98	9.75
226.215	-3.25
226.449	24.75
226.683	19.75
226.918	14.75
227.152	25.75
227.387	51.75
227.621	30.75
227.856	58.75
228.09	38.75
228.324	49.75
228.559	70.75
228.793	69.75
229.027	97.75
229.262	94.75
229.496	95.75
229.73	87.75
229.964	110.75
230.199	94.75
230.433	109.75
230.667	107.75
230.901	101.75
231.136	106.75
231.37	96.75
231.604	103.75
231.838	110.75
232.072	120.75
232.306	104.75
232.541	107.75
232.775	107.75
233.009	114.75
233.243	127.75
233.477	114.75
233.711	113.75
233.945	107.75
234.179	107.75
234.413	114.75
234.647	109.75
234.881	111.75
235.115	117.75
235.349	107.75
235.583	119.75
235.817	104.75
236.051	109.75
236.285	120.75
236.519	107.75
236.753	123.75
236.987	127.75
237.221	114.75
237.455	131.75
237.689	136.75
237.922	125.75
238.156	107.75
238.39	125.75
238.624	135.75
238.858	131.75
239.091	116.75
239.325	120.75
239.559	125.75
239.793	126.75
240.027	130.75
240.26	128.75
240.494	130.75
240.728	118.75
240.961	121.75
241.195	141.75
241.429	121.75
241.662	125.75
241.896	138.75
242.13	125.75
242.363	137.75
242.597	132.75
242.83	140.75
243.064	131.75
243.298	142.75
243.531	139.75
243.765	132.75
243.998	128.75
244.232	133.75
244.465	141.75
244.699	149.75
244.932	130.75
245.166	149.75
245.399	141.75
245.633	152.75
245.866	140.75
246.099	136.75
246.333	142.75
246.566	135.75
246.8	154.75
247.033	144.75
247.266	147.75
247.5	156.75
247.733	151.75
247.966	145.75
248.2	147.75
248.433	153.75
248.666	141.75
248.899	155.75
249.133	161.75
249.366	161.75
249.599	156.75
249.832	156.75
250.066	147.75
250.299	146.75
250.532	150.75
250.765	159.75
250.998	155.75
251.231	148.75
251.465	158.75
251.698	153.75
251.931	166.75
252.164	179.75
252.397	167.75
252.63	158.75
252.863	171.75
253.096	166.75
253.329	167.75
253.562	171.75
253.795	172.75
254.028	186.75
254.261	174.75
254.494	189.75
254.727	172.75
254.96	179.75
255.193	153.75
255.426	177.75
255.659	165.75
255.892	179.75
256.124	164.75
256.357	182.75
256.59	174.75
256.823	177.75
257.056	175.75
257.289	184.75
257.521	197.75
257.754	183.75
257.987	190.75
258.22	197.75
258.452	170.75
258.685	194.75
258.918	191.75
259.151	185.75
259.383	187.75
259.616	198.75
259.849	199.75
260.081	206.75
260.314	213.75
260.547	198.75
260.779	193.75
261.012	202.75
261.244	185.75
261.477	213.75
261.71	216.75
261.942	191.75
262.175	197.75
262.407	207.75
262.64	195.75
262.872	195.75
263.105	201.75
263.337	200.75
263.57	216.75
263.802	210.75
264.035	196.75
264.267	186.75
264.499	201.75
264.732	210.75
264.964	199.75
265.197	208.75
265.429	199.75
265.661	208.75
265.894	195.75
266.126	207.75
266.358	197.75
266.591	205.75
266.823	198.75
267.055	213.75
267.287	199.75
267.52	214.75
267.752	195.75
267.984	207.75
268.216	213.75
268.448	202.75
268.681	218.75
268.913	206.75
269.145	212.75
269.377	196.75
269.609	215.75
269.841	216.75
270.073	207.75
270.306	211.75
270.538	209.75
270.77	219.75
271.002	231.75
271.234	225.75
271.466	229.75
271.698	217.75
271.93	230.75
272.162	229.75
272.394	235.75
272.626	236.75
272.858	240.75
273.09	235.75
273.322	232.75
273.553	230.75
273.785	221.75
274.017	259.75
274.249	269.75
274.481	264.75
274.713	264.75
274.945	269.75
275.176	280.75
275.408	268.75
275.64	253.75
275.872	263.75
276.104	247.75
276.335	223.75
276.567	238.75
276.799	248.75
277.031	261.75
277.262	256.75
277.494	249.75
277.726	257.75
277.957	246.75
278.189	254.75
278.421	265.75
278.652	238.75
278.884	250.75
279.115	248.75
279.347	262.75
279.579	268.75
279.81	262.75
280.042	262.75
280.273	257.75
280.505	241.75
280.736	265.75
280.968	253.75
281.199	267.75
281.431	272.75
281.662	265.75
281.894	246.75
282.125	264.75
282.356	283.75
282.588	283.75
282.819	266.75
283.051	277.75
283.282	257.75
283.513	282.75
283.745	262.75
283.976	256.75
284.207	269.75
284.439	266.75
284.67	286.75
284.901	293.75
285.132	273.75
285.364	273.75
285.595	278.75
285.826	269.75
286.057	290.75
286.288	282.75
286.52	288.75
286.751	276.75
286.982	276.75
287.213	273.75
287.444	284.75
287.675	264.75
287.906	286.75
288.138	279.75
288.369	299.75
288.6	277.75
288.831	289.75
289.062	294.75
289.293	286.75
289.524	266.75
289.755	298.75
289.986	294.75
290.217	294.75
290.448	293.75
290.679	292.75
290.91	283.75
291.141	311.75
291.371	286.75
291.602	295.75
291.833	279.75
292.064	289.75
292.295	301.75
292.526	295.75
292.757	292.75
292.987	303.75
293.218	283.75
293.449	306.75
293.68	315.75
293.91	304.75
294.141	314.75
294.372	306.75
294.603	303.75
294.833	317.75
295.064	289.75
295.295	317.75
295.525	300.75
295.756	289.75
295.987	296.75
296.217	309.75
296.448	297.75
296.679	306.75
296.909	314.75
297.14	318.75
297.37	315.75
297.601	315.75
297.831	323.75
298.062	333.75
298.292	326.75
298.523	306.75
298.753	325.75
298.984	319.75
299.214	317.75
299.445	302.75
299.675	309.75
299.905	302.75
300.136	302.75
300.366	329.75
300.597	314.75
300.827	313.75
301.057	337.75
301.288	323.75
301.518	347.75
301.748	327.75
301.979	333.75
302.209	332.75
302.439	322.75
302.669	343.75
302.9	323.75
303.13	329.75
303.36	315.75
303.59	324.75
303.82	352.75
304.051	339.75
304.281	346.75
304.511	354.75
304.741	339.75
304.971	353.75
305.201	359.75
305.431	348.75
305.661	369.75
305.891	350.75
306.121	349.75
306.352	349.75
306.582	355.75
306.812	335.75
307.042	358.75
307.272	358.75
307.502	349.75
307.731	341.75
307.961	340.75
308.191	342.75
308.421	348.75
308.651	347.75
308.881	341.75
309.111	347.75
309.341	367.75
309.571	351.75
309.8	354.75
310.03	361.75
310.26	346.75
310.49	352.75
310.72	369.75
310.949	352.75
311.179	366.75
311.409	369.75
311.639	353.75
311.868	344.75
312.098	377.75
312.328	366.75
312.557	366.75
312.787	373.75
313.017	365.75
313.246	359.75
313.476	373.75
313.706	377.75
313.935	360.75
314.165	367.75
314.394	354.75
314.624	377.75
314.853	390.75
315.083	369.75
315.312	374.75
315.542	371.75
315.771	363.75
316.001	381.75
316.23	363.75
316.46	388.75
316.689	373.75
316.919	406.75
317.148	379.75
317.377	387.75
317.607	369.75
317.836	372.75
318.065	381.75
318.295	391.75
318.524	374.75
318.753	382.75
318.983	408.75
319.212	382.75
319.441	386.75
319.67	387.75
319.9	389.75
320.129	385.75
320.358	368.75
320.587	377.75
320.816	376.75
321.046	392.75
321.275	394.75
321.504	386.75
321.733	404.75
321.962	382.75
322.191	395.75
322.42	390.75
322.649	395.75
322.878	417.75
323.108	411.75
323.337	400.75
323.566	397.75
323.795	415.75
324.024	393.75
324.253	407.75
324.482	416.75
324.71	406.75
324.939	388.75
325.168	393.75
325.397	412.75
325.626	396.75
325.855	389.75
326.084	430.75
326.313	391.75
326.542	405.75
326.77	422.75
326.999	416.75
327.228	409.75
327.457	410.75
327.686	423.75
327.914	413.75
328.143	419.75
328.372	433.75
328.6	422.75
328.829	426.75
329.058	433.75
329.287	427.75
329.515	429.75
329.744	418.75
329.972	436.75
330.201	435.75
330.43	426.75
330.658	435.75
330.887	423.75
331.115	433.75
331.344	420.75
331.572	438.75
331.801	439.75
332.03	433.75
332.258	424.75
332.486	450.75
332.715	460.75
332.943	443.75
333.172	476.75
333.4	462.75
333.629	463.75
333.857	470.75
334.085	460.75
334.314	477.75
334.542	489.75
334.771	478.75
334.999	484.75
335.227	483.75
335.455	470.75
335.684	475.75
335.912	481.75
336.14	486.75
336.369	481.75
336.597	460.75
336.825	461.75
337.053	455.75
337.281	458.75
337.51	476.75
337.738	463.75
337.966	431.75
338.194	443.75
338.422	469.75
338.65	467.75
338.878	454.75
339.106	462.75
339.334	461.75
339.562	430.75
339.79	438.75
340.018	457.75
340.246	428.75
340.474	464.75
340.702	458.75
340.93	442.75
341.158	444.75
341.386	433.75
341.614	437.75
341.842	450.75
342.07	466.75
342.298	437.75
342.526	443.75
342.754	429.75
342.981	447.75
343.209	485.75
343.437	491.75
343.665	461.75
343.893	479.75
344.12	479.75
344.348	446.75
344.576	466.75
344.804	475.75
345.031	467.75
345.259	442.75
345.487	485.75
345.714	462.75
345.942	454.75
346.17	437.75
346.397	465.75
346.625	443.75
346.853	441.75
347.08	443.75
347.308	426.75
347.535	444.75
347.763	450.75
347.99	436.75
348.218	433.75
348.445	444.75
348.673	426.75
348.9	437.75
349.128	443.75
349.355	418.75
349.583	447.75
349.81	445.75
350.037	430.75
350.265	424.75
350.492	419.75
350.72	431.75
350.947	435.75
351.174	426.75
351.402	428.75
351.629	444.75
351.856	445.75
352.083	415.75
352.311	395.75
352.538	451.75
352.765	437.75
352.992	454.75
353.22	430.75
353.447	421.75
353.674	446.75
353.901	439.75
354.128	434.75
354.355	422.75
354.583	429.75
354.81	429.75
355.037	445.75
355.264	441.75
355.491	431.75
355.718	429.75
355.945	440.75
356.172	421.75
356.399	446.75
356.626	456.75
356.853	464.75
357.08	455.75
357.307	439.75
357.534	415.75
357.761	424.75
357.988	431.75
358.215	457.75
358.441	447.75
358.668	422.75
358.895	460.75
359.122	446.75
359.349	424.75
359.576	436.75
359.802	430.75
360.029	428.75
360.256	437.75
360.483	430.75
360.709	459.75
360.936	465.75
361.163	476.75
361.39	437.75
361.616	455.75
361.843	438.75
362.07	447.75
362.296	449.75
362.523	433.75
362.749	458.75
362.976	438.75
363.203	442.75
363.429	431.75
363.656	444.75
363.882	457.75
364.109	434.75
364.335	439.75
364.562	445.75
364.788	444.75
365.015	442.75
365.241	448.75
365.468	455.75
365.694	441.75
365.92	441.75
366.147	455.75
366.373	447.75
366.599	457.75
366.826	446.75
367.052	451.75
367.278	464.75
367.505	461.75
367.731	455.75
367.957	453.75
368.184	463.75
368.41	450.75
368.636	465.75
368.862	447.75
369.089	442.75
369.315	453.75
369.541	461.75
369.767	466.75
369.993	468.75
370.219	468.75
370.445	451.75
370.672	465.75
370.898	470.75
371.124	476.75
371.35	471.75
371.576	471.75
371.802	474.75
372.028	479.75
372.254	479.75
372.48	492.75
372.706	510.75
372.932	493.75
373.158	489.75
373.384	494.75
373.61	485.75
373.835	519.75
374.061	478.75
374.287	474.75
374.513	498.75
374.739	494.75
374.965	505.75
375.191	500.75
375.416	497.75
375.642	478.75
375.868	509.75
376.094	494.75
376.319	495.75
376.545	482.75
376.771	485.75
376.997	474.75
377.222	473.75
377.448	466.75
377.674	475.75
377.899	463.75
378.125	481.75
378.35	479.75
378.576	454.75
378.802	462.75
379.027	451.75
379.253	473.75
379.478	481.75
379.704	474.75
379.929	473.75
380.155	475.75
380.38	491.75
380.606	476.75
380.831	462.75
381.057	494.75
381.282	474.75
381.507	487.75
381.733	482.75
381.958	483.75
382.184	473.75
382.409	519.75
382.634	513.75
382.86	490.75
383.085	501.75
383.31	481.75
383.535	521.75
383.761	504.75
383.986	531.75
384.211	524.75
384.436	517.75
384.662	520.75
384.887	521.75
385.112	518.75
385.337	509.75
385.562	518.75
385.787	545.75
386.013	534.75
386.238	538.75
386.463	534.75
386.688	548.75
386.913	533.75
387.138	537.75
387.363	535.75
387.588	551.75
387.813	532.75
388.038	532.75
388.263	521.75
388.488	517.75
388.713	541.75
388.938	546.75
389.163	540.75
389.387	540.75
389.612	530.75
389.837	534.75
390.062	550.75
390.287	542.75
390.512	535.75
390.736	536.75
390.961	554.75
391.186	541.75
391.411	552.75
391.636	551.75
391.86	580.75
392.085	563.75
392.31	574.75
392.534	562.75
392.759	558.75
392.984	550.75
393.208	566.75
393.433	558.75
393.658	591.75
393.882	525.75
394.107	530.75
394.331	548.75
394.556	573.75
394.78	585.75
395.005	560.75
395.229	587.75
395.454	572.75
395.678	575.75
395.903	583.75
396.127	593.75
396.352	579.75
396.576	597.75
396.801	581.75
397.025	575.75
397.249	555.75
397.474	601.75
397.698	575.75
397.922	630.75
398.147	602.75
398.371	576.75
398.595	606.75
398.82	611.75
399.044	628.75
399.268	639.75
399.492	655.75
399.717	675.75
399.941	690.75
400.165	667.75
400.389	666.75
400.613	659.75
400.837	641.75
401.062	624.75
401.286	633.75
401.51	640.75
401.734	602.75
401.958	635.75
402.182	635.75
402.406	601.75
402.63	653.75
402.854	609.75
403.078	625.75
403.302	629.75
403.526	613.75
403.75	605.75
403.974	654.75
404.198	643.75
404.422	630.75
404.645	632.75
404.869	648.75
405.093	633.75
405.317	630.75
405.541	659.75
405.765	651.75
405.988	630.75
406.212	643.75
406.436	664.75
406.66	681.75
406.883	701.75
407.107	694.75
407.331	686.75
407.555	697.75
407.778	716.75
408.002	701.75
408.226	696.75
408.449	712.75
408.673	689.75
408.896	678.75
409.12	655.75
409.344	671.75
409.567	647.75
409.791	675.75
410.014	644.75
410.238	645.75
410.461	644.75
410.685	639.75
410.908	634.75
411.132	644.75
411.355	625.75
411.578	642.75
411.802	651.75
412.025	609.75
412.249	629.75
412.472	643.75
412.695	630.75
412.919	626.75
413.142	631.75
413.365	649.75
413.589	633.75
413.812	630.75
414.035	615.75
414.258	610.75
414.482	620.75
414.705	635.75
414.928	631.75
415.151	618.75
415.374	621.75
415.597	593.75
415.821	599.75
416.044	593.75
416.267	571.75
416.49	582.75
416.713	622.75
416.936	603.75
417.159	598.75
417.382	611.75
417.605	583.75
417.828	599.75
418.051	592.75
418.274	598.75
418.497	585.75
418.72	599.75
418.943	605.75
419.166	623.75
419.389	642.75
419.611	630.75
419.834	612.75
420.057	620.75
420.28	610.75
420.503	570.75
420.726	580.75
420.948	571.75
421.171	583.75
421.394	597.75
421.617	618.75
421.839	601.75
422.062	590.75
422.285	584.75
422.507	604.75
422.73	605.75
422.953	607.75
423.175	600.75
423.398	591.75
423.621	612.75
423.843	600.75
424.066	573.75
424.288	590.75
424.511	566.75
424.733	597.75
424.956	576.75
425.178	566.75
425.401	595.75
425.623	597.75
425.846	578.75
426.068	565.75
426.291	578.75
426.513	581.75
426.735	586.75
426.958	576.75
427.18	574.75
427.402	601.75
427.625	589.75
427.847	567.75
428.069	569.75
428.292	558.75
428.514	556.75
428.736	569.75
428.958	586.75
429.181	563.75
429.403	542.75
429.625	567.75
429.847	558.75
430.069	585.75
430.292	565.75
430.514	575.75
430.736	578.75
430.958	589.75
431.18	564.75
431.402	568.75
431.624	543.75
431.846	550.75
432.068	573.75
432.29	582.75
432.512	568.75
432.734	605.75
432.956	551.75
433.178	562.75
433.4	593.75
433.622	578.75
433.844	587.75
434.066	594.75
434.287	575.75
434.509	604.75
434.731	599.75
434.953	587.75
435.175	589.75
435.397	588.75
435.618	583.75
435.84	589.75
436.062	554.75
436.284	567.75
436.505	582.75
436.727	557.75
436.949	569.75
437.17	559.75
437.392	573.75
437.614	550.75
437.835	574.75
438.057	566.75
438.278	559.75
438.5	553.75
438.721	554.75
438.943	561.75
439.165	534.75
439.386	531.75
439.608	548.75
439.829	553.75
440.05	546.75
440.272	580.75
440.493	547.75
440.715	564.75
440.936	574.75
441.158	544.75
441.379	557.75
441.6	587.75
441.822	588.75
442.043	576.75
442.264	569.75
442.486	558.75
442.707	580.75
442.928	554.75
443.149	569.75
443.371	592.75
443.592	554.75
443.813	572.75
444.034	566.75
444.255	576.75
444.476	586.75
444.698	583.75
444.919	598.75
445.14	656.75
445.361	623.75
445.582	567.75
445.803	589.75
446.024	550.75
446.245	562.75
446.466	584.75
446.687	559.75
446.908	530.75
447.129	577.75
447.35	549.75
447.571	550.75
447.792	536.75
448.013	536.75
448.234	534.75
448.455	542.75
448.675	524.75
448.896	527.75
449.117	522.75
449.338	503.75
449.559	529.75
449.779	519.75
450	520.75
450.221	509.75
450.442	515.75
450.662	529.75
450.883	523.75
451.104	499.75
451.324	506.75
451.545	506.75
451.766	531.75
451.986	513.75
452.207	511.75
452.428	514.75
452.648	516.75
452.869	503.75
453.089	498.75
453.31	502.75
453.53	504.75
453.751	509.75
453.971	510.75
454.192	505.75
454.412	506.75
454.633	502.75
454.853	499.75
455.073	500.75
455.294	488.75
455.514	502.75
455.734	483.75
455.955	489.75
456.175	494.75
456.395	506.75
456.616	481.75
456.836	480.75
457.056	494.75
457.276	490.75
457.497	491.75
457.717	515.75
457.937	503.75
458.157	510.75
458.377	505.75
458.598	521.75
458.818	549.75
459.038	508.75
459.258	563.75
459.478	561.75
459.698	540.75
459.918	568.75
460.138	581.75
460.358	573.75
460.578	571.75
460.798	590.75
461.018	567.75
461.238	583.75
461.458	597.75
461.678	613.75
461.898	624.75
462.118	619.75
462.338	599.75
462.558	631.75
462.777	614.75
462.997	633.75
463.217	635.75
463.437	665.75
463.657	650.75
463.876	655.75
464.096	637.75
464.316	636.75
464.536	629.75
464.755	606.75
464.975	606.75
465.195	603.75
465.414	614.75
465.634	587.75
465.854	597.75
466.073	577.75
466.293	572.75
466.512	555.75
466.732	581.75
466.951	565.75
467.171	575.75
467.391	553.75
467.61	551.75
467.829	548.75
468.049	552.75
468.268	551.75
468.488	551.75
468.707	549.75
468.927	539.75
469.146	550.75
469.365	535.75
469.585	549.75
469.804	558.75
470.023	522.75
470.243	554.75
470.462	542.75
470.681	557.75
470.901	556.75
471.12	558.75
471.339	553.75
471.558	556.75
471.777	539.75
471.997	550.75
472.216	557.75
472.435	557.75
472.654	541.75
472.873	537.75
473.092	562.75
473.311	558.75
473.53	580.75
473.749	542.75
473.968	550.75
474.187	541.75
474.406	533.75
474.625	564.75
474.844	555.75
475.063	551.75
475.282	569.75
475.501	570.75
475.72	591.75
475.939	579.75
476.158	586.75
476.377	596.75
476.596	599.75
476.814	585.75
477.033	572.75
477.252	587.75
477.471	598.75
477.69	613.75
477.908	613.75
478.127	648.75
478.346	636.75
478.564	637.75
478.783	649.75
479.002	671.75
479.22	651.75
479.439	681.75
479.658	637.75
479.876	657.75
480.095	659.75
480.313	647.75
480.532	687.75
480.751	646.75
480.969	653.75
481.188	662.75
481.406	697.75
481.624	681.75
481.843	659.75
482.061	666.75
482.28	669.75
482.498	699.75
482.717	653.75
482.935	679.75
483.153	669.75
483.372	653.75
483.59	676.75
483.808	701.75
484.027	684.75
484.245	682.75
484.463	689.75
484.681	699.75
484.9	694.75
485.118	691.75
485.336	683.75
485.554	701.75
485.772	680.75
485.99	699.75
486.209	699.75
486.427	710.75
486.645	713.75
486.863	726.75
487.081	686.75
487.299	693.75
487.517	714.75
487.735	713.75
487.953	696.75
488.171	722.75
488.389	687.75
488.607	697.75
488.825	691.75
489.043	678.75
489.261	718.75
489.479	696.75
489.696	699.75
489.914	680.75
490.132	689.75
490.35	701.75
490.568	706.75
490.786	708.75
491.003	698.75
491.221	694.75
491.439	706.75
491.657	713.75
491.874	705.75
492.092	711.75
492.31	714.75
492.527	713.75
492.745	712.75
492.963	701.75
493.18	712.75
493.398	720.75
493.615	702.75
493.833	723.75
494.05	710.75
494.268	736.75
494.485	730.75
494.703	724.75
494.92	739.75
495.138	702.75
495.355	729.75
495.573	735.75
495.79	727.75
496.008	734.75
496.225	746.75
496.442	736.75
496.66	772.75
496.877	755.75
497.094	750.75
497.312	767.75
497.529	756.75
497.746	779.75
497.963	805.75
498.181	821.75
498.398	814.75
498.615	837.75
498.832	868.75
499.049	898.75
499.267	923.75
499.484	942.75
499.701	992.75
499.918	1031.75
500.135	1057.75
500.352	1098.75
500.569	1110.75
500.786	1065.75
501.003	1085.75
501.22	1047.75
501.437	1035.75
