Data from Fe(NO3)3@0.1M.TitratingCurve.Agarose3%dH2O.NegLispCup.LampEnergy10.LIBS07252019_HRD10591_16-40-34-333.txt Node
Date: Thu Jul 25 16:40:34 EDT 2019
User: cochatt
Spectrometer: HR+D1059
Trigger mode: 1
Integration Time (sec): 1.000000E-1
Scans to average: 1
Electric dark correction enabled: true
Nonlinearity correction enabled: false
Boxcar width: 0
XAxis mode: Wavelengths
Number of Pixels in Spectrum: 2048
>>>>>Begin Spectral Data<<<<<
223.165	-13.31
223.4	-13.31
223.635	-13.31
223.869	1.69
224.104	-31.31
224.338	-16.31
224.573	-17.31
224.808	-17.31
225.042	5.69
225.277	-2.31
225.511	-1.31
225.746	4.69
225.98	6.69
226.215	3.69
226.449	14.69
226.683	0.69
226.918	31.69
227.152	29.69
227.387	38.69
227.621	28.69
227.856	40.69
228.09	41.69
228.324	41.69
228.559	50.69
228.793	61.69
229.027	78.69
229.262	73.69
229.496	110.69
229.73	98.69
229.964	91.69
230.199	97.69
230.433	106.69
230.667	91.69
230.901	82.69
231.136	84.69
231.37	101.69
231.604	99.69
231.838	90.69
232.072	87.69
232.306	92.69
232.541	97.69
232.775	105.69
233.009	96.69
233.243	101.69
233.477	102.69
233.711	114.69
233.945	99.69
234.179	95.69
234.413	101.69
234.647	109.69
234.881	109.69
235.115	104.69
235.349	101.69
235.583	107.69
235.817	86.69
236.051	97.69
236.285	107.69
236.519	99.69
236.753	105.69
236.987	119.69
237.221	105.69
237.455	96.69
237.689	103.69
237.922	122.69
238.156	99.69
238.39	115.69
238.624	88.69
238.858	111.69
239.091	109.69
239.325	110.69
239.559	105.69
239.793	117.69
240.027	114.69
240.26	117.69
240.494	121.69
240.728	109.69
240.961	109.69
241.195	112.69
241.429	114.69
241.662	114.69
241.896	109.69
242.13	121.69
242.363	117.69
242.597	107.69
242.83	125.69
243.064	109.69
243.298	123.69
243.531	122.69
243.765	118.69
243.998	122.69
244.232	111.69
244.465	127.69
244.699	125.69
244.932	122.69
245.166	118.69
245.399	129.69
245.633	127.69
245.866	129.69
246.099	125.69
246.333	130.69
246.566	123.69
246.8	119.69
247.033	128.69
247.266	125.69
247.5	122.69
247.733	130.69
247.966	144.69
248.2	135.69
248.433	136.69
248.666	131.69
248.899	125.69
249.133	133.69
249.366	130.69
249.599	141.69
249.832	137.69
250.066	135.69
250.299	139.69
250.532	135.69
250.765	117.69
250.998	135.69
251.231	148.69
251.465	134.69
251.698	139.69
251.931	139.69
252.164	138.69
252.397	144.69
252.63	139.69
252.863	149.69
253.096	150.69
253.329	127.69
253.562	140.69
253.795	143.69
254.028	150.69
254.261	125.69
254.494	135.69
254.727	146.69
254.96	141.69
255.193	143.69
255.426	151.69
255.659	149.69
255.892	137.69
256.124	170.69
256.357	144.69
256.59	148.69
256.823	150.69
257.056	144.69
257.289	151.69
257.521	151.69
257.754	151.69
257.987	155.69
258.22	161.69
258.452	154.69
258.685	165.69
258.918	155.69
259.151	140.69
259.383	161.69
259.616	165.69
259.849	162.69
260.081	175.69
260.314	175.69
260.547	157.69
260.779	146.69
261.012	163.69
261.244	155.69
261.477	167.69
261.71	173.69
261.942	162.69
262.175	189.69
262.407	170.69
262.64	156.69
262.872	127.69
263.105	159.69
263.337	182.69
263.57	183.69
263.802	168.69
264.035	158.69
264.267	151.69
264.499	164.69
264.732	161.69
264.964	148.69
265.197	160.69
265.429	157.69
265.661	164.69
265.894	174.69
266.126	175.69
266.358	181.69
266.591	180.69
266.823	167.69
267.055	168.69
267.287	173.69
267.52	162.69
267.752	165.69
267.984	185.69
268.216	175.69
268.448	175.69
268.681	167.69
268.913	169.69
269.145	176.69
269.377	173.69
269.609	165.69
269.841	181.69
270.073	186.69
270.306	192.69
270.538	168.69
270.77	184.69
271.002	169.69
271.234	201.69
271.466	190.69
271.698	187.69
271.93	192.69
272.162	195.69
272.394	173.69
272.626	198.69
272.858	187.69
273.09	199.69
273.322	191.69
273.553	198.69
273.785	198.69
274.017	177.69
274.249	210.69
274.481	197.69
274.713	190.69
274.945	184.69
275.176	214.69
275.408	187.69
275.64	186.69
275.872	190.69
276.104	195.69
276.335	194.69
276.567	205.69
276.799	199.69
277.031	169.69
277.262	217.69
277.494	196.69
277.726	209.69
277.957	200.69
278.189	199.69
278.421	185.69
278.652	202.69
278.884	198.69
279.115	211.69
279.347	197.69
279.579	202.69
279.81	193.69
280.042	210.69
280.273	208.69
280.505	206.69
280.736	223.69
280.968	214.69
281.199	206.69
281.431	209.69
281.662	210.69
281.894	214.69
282.125	217.69
282.356	211.69
282.588	209.69
282.819	211.69
283.051	229.69
283.282	233.69
283.513	235.69
283.745	227.69
283.976	225.69
284.207	235.69
284.439	226.69
284.67	222.69
284.901	230.69
285.132	218.69
285.364	214.69
285.595	223.69
285.826	238.69
286.057	222.69
286.288	211.69
286.52	227.69
286.751	226.69
286.982	227.69
287.213	218.69
287.444	225.69
287.675	229.69
287.906	235.69
288.138	235.69
288.369	242.69
288.6	227.69
288.831	227.69
289.062	230.69
289.293	242.69
289.524	222.69
289.755	228.69
289.986	234.69
290.217	246.69
290.448	241.69
290.679	237.69
290.91	225.69
291.141	245.69
291.371	236.69
291.602	227.69
291.833	257.69
292.064	241.69
292.295	231.69
292.526	229.69
292.757	246.69
292.987	221.69
293.218	224.69
293.449	227.69
293.68	235.69
293.91	252.69
294.141	234.69
294.372	219.69
294.603	234.69
294.833	259.69
295.064	232.69
295.295	232.69
295.525	222.69
295.756	221.69
295.987	237.69
296.217	245.69
296.448	261.69
296.679	263.69
296.909	271.69
297.14	246.69
297.37	240.69
297.601	234.69
297.831	253.69
298.062	246.69
298.292	255.69
298.523	262.69
298.753	257.69
298.984	249.69
299.214	249.69
299.445	254.69
299.675	259.69
299.905	242.69
300.136	245.69
300.366	277.69
300.597	260.69
300.827	255.69
301.057	253.69
301.288	263.69
301.518	267.69
301.748	277.69
301.979	276.69
302.209	257.69
302.439	263.69
302.669	250.69
302.9	268.69
303.13	258.69
303.36	261.69
303.59	258.69
303.82	271.69
304.051	274.69
304.281	279.69
304.511	256.69
304.741	257.69
304.971	232.69
305.201	261.69
305.431	270.69
305.661	265.69
305.891	253.69
306.121	272.69
306.352	263.69
306.582	261.69
306.812	274.69
307.042	250.69
307.272	261.69
307.502	246.69
307.731	246.69
307.961	259.69
308.191	241.69
308.421	245.69
308.651	257.69
308.881	259.69
309.111	264.69
309.341	257.69
309.571	275.69
309.8	261.69
310.03	275.69
310.26	266.69
310.49	267.69
310.72	259.69
310.949	262.69
311.179	269.69
311.409	268.69
311.639	296.69
311.868	288.69
312.098	267.69
312.328	290.69
312.557	279.69
312.787	294.69
313.017	287.69
313.246	262.69
313.476	263.69
313.706	270.69
313.935	276.69
314.165	277.69
314.394	279.69
314.624	278.69
314.853	267.69
315.083	286.69
315.312	278.69
315.542	289.69
315.771	270.69
316.001	275.69
316.23	285.69
316.46	283.69
316.689	287.69
316.919	285.69
317.148	277.69
317.377	278.69
317.607	282.69
317.836	279.69
318.065	272.69
318.295	257.69
318.524	284.69
318.753	263.69
318.983	271.69
319.212	283.69
319.441	286.69
319.67	274.69
319.9	268.69
320.129	267.69
320.358	265.69
320.587	280.69
320.816	285.69
321.046	257.69
321.275	282.69
321.504	271.69
321.733	277.69
321.962	284.69
322.191	276.69
322.42	294.69
322.649	293.69
322.878	276.69
323.108	283.69
323.337	272.69
323.566	284.69
323.795	288.69
324.024	274.69
324.253	272.69
324.482	280.69
324.71	269.69
324.939	287.69
325.168	283.69
325.397	296.69
325.626	285.69
325.855	307.69
326.084	294.69
326.313	287.69
326.542	298.69
326.77	303.69
326.999	309.69
327.228	278.69
327.457	290.69
327.686	295.69
327.914	314.69
328.143	291.69
328.372	298.69
328.6	299.69
328.829	314.69
329.058	282.69
329.287	288.69
329.515	293.69
329.744	298.69
329.972	284.69
330.201	305.69
330.43	319.69
330.658	306.69
330.887	305.69
331.115	319.69
331.344	315.69
331.572	321.69
331.801	327.69
332.03	323.69
332.258	342.69
332.486	324.69
332.715	355.69
332.943	355.69
333.172	364.69
333.4	363.69
333.629	358.69
333.857	354.69
334.085	368.69
334.314	379.69
334.542	377.69
334.771	371.69
334.999	345.69
335.227	340.69
335.455	360.69
335.684	361.69
335.912	354.69
336.14	359.69
336.369	353.69
336.597	358.69
336.825	360.69
337.053	345.69
337.281	354.69
337.51	334.69
337.738	330.69
337.966	317.69
338.194	340.69
338.422	334.69
338.65	361.69
338.878	322.69
339.106	327.69
339.334	338.69
339.562	318.69
339.79	298.69
340.018	340.69
340.246	298.69
340.474	330.69
340.702	326.69
340.93	322.69
341.158	326.69
341.386	321.69
341.614	332.69
341.842	321.69
342.07	320.69
342.298	322.69
342.526	309.69
342.754	305.69
342.981	322.69
343.209	315.69
343.437	333.69
343.665	358.69
343.893	352.69
344.12	362.69
344.348	378.69
344.576	346.69
344.804	346.69
345.031	334.69
345.259	322.69
345.487	311.69
345.714	304.69
345.942	297.69
346.17	312.69
346.397	297.69
346.625	287.69
346.853	301.69
347.08	310.69
347.308	301.69
347.535	295.69
347.763	308.69
347.99	307.69
348.218	303.69
348.445	297.69
348.673	320.69
348.9	306.69
349.128	306.69
349.355	292.69
349.583	301.69
349.81	320.69
350.037	283.69
350.265	293.69
350.492	298.69
350.72	297.69
350.947	310.69
351.174	319.69
351.402	307.69
351.629	295.69
351.856	291.69
352.083	293.69
352.311	282.69
352.538	286.69
352.765	295.69
352.992	283.69
353.22	304.69
353.447	291.69
353.674	292.69
353.901	311.69
354.128	295.69
354.355	298.69
354.583	307.69
354.81	295.69
355.037	299.69
355.264	292.69
355.491	316.69
355.718	301.69
355.945	301.69
356.172	302.69
356.399	288.69
356.626	305.69
356.853	301.69
357.08	301.69
357.307	303.69
357.534	290.69
357.761	283.69
357.988	317.69
358.215	305.69
358.441	317.69
358.668	301.69
358.895	291.69
359.122	287.69
359.349	294.69
359.576	317.69
359.802	293.69
360.029	287.69
360.256	291.69
360.483	288.69
360.709	278.69
360.936	305.69
361.163	310.69
361.39	307.69
361.616	301.69
361.843	283.69
362.07	309.69
362.296	298.69
362.523	310.69
362.749	298.69
362.976	329.69
363.203	291.69
363.429	313.69
363.656	303.69
363.882	298.69
364.109	285.69
364.335	296.69
364.562	275.69
364.788	291.69
365.015	303.69
365.241	309.69
365.468	288.69
365.694	297.69
365.92	296.69
366.147	307.69
366.373	304.69
366.599	298.69
366.826	317.69
367.052	307.69
367.278	302.69
367.505	292.69
367.731	307.69
367.957	305.69
368.184	322.69
368.41	308.69
368.636	311.69
368.862	313.69
369.089	302.69
369.315	317.69
369.541	320.69
369.767	337.69
369.993	299.69
370.219	309.69
370.445	307.69
370.672	306.69
370.898	318.69
371.124	321.69
371.35	330.69
371.576	317.69
371.802	328.69
372.028	325.69
372.254	324.69
372.48	334.69
372.706	331.69
372.932	352.69
373.158	341.69
373.384	327.69
373.61	338.69
373.835	342.69
374.061	308.69
374.287	318.69
374.513	346.69
374.739	342.69
374.965	341.69
375.191	321.69
375.416	347.69
375.642	354.69
375.868	353.69
376.094	334.69
376.319	330.69
376.545	358.69
376.771	325.69
376.997	337.69
377.222	319.69
377.448	326.69
377.674	319.69
377.899	321.69
378.125	319.69
378.35	334.69
378.576	311.69
378.802	321.69
379.027	341.69
379.253	334.69
379.478	325.69
379.704	323.69
379.929	340.69
380.155	335.69
380.38	333.69
380.606	321.69
380.831	324.69
381.057	331.69
381.282	321.69
381.507	324.69
381.733	325.69
381.958	328.69
382.184	330.69
382.409	336.69
382.634	327.69
382.86	350.69
383.085	336.69
383.31	344.69
383.535	351.69
383.761	349.69
383.986	352.69
384.211	354.69
384.436	372.69
384.662	361.69
384.887	379.69
385.112	387.69
385.337	399.69
385.562	379.69
385.787	375.69
386.013	406.69
386.238	374.69
386.463	376.69
386.688	377.69
386.913	354.69
387.138	387.69
387.363	382.69
387.588	413.69
387.813	381.69
388.038	394.69
388.263	387.69
388.488	377.69
388.713	384.69
388.938	396.69
389.163	374.69
389.387	343.69
389.612	362.69
389.837	390.69
390.062	369.69
390.287	399.69
390.512	392.69
390.736	386.69
390.961	382.69
391.186	393.69
391.411	413.69
391.636	406.69
391.86	408.69
392.085	419.69
392.31	419.69
392.534	421.69
392.759	407.69
392.984	402.69
393.208	407.69
393.433	382.69
393.658	402.69
393.882	395.69
394.107	412.69
394.331	401.69
394.556	412.69
394.78	409.69
395.005	417.69
395.229	402.69
395.454	409.69
395.678	434.69
395.903	429.69
396.127	434.69
396.352	414.69
396.576	394.69
396.801	406.69
397.025	389.69
397.249	441.69
397.474	439.69
397.698	450.69
397.922	427.69
398.147	442.69
398.371	450.69
398.595	453.69
398.82	479.69
399.044	495.69
399.268	523.69
399.492	616.69
399.717	635.69
399.941	624.69
400.165	590.69
400.389	560.69
400.613	501.69
400.837	501.69
401.062	463.69
401.286	479.69
401.51	466.69
401.734	483.69
401.958	484.69
402.182	478.69
402.406	496.69
402.63	512.69
402.854	493.69
403.078	496.69
403.302	513.69
403.526	511.69
403.75	515.69
403.974	534.69
404.198	503.69
404.422	501.69
404.645	501.69
404.869	520.69
405.093	522.69
405.317	511.69
405.541	521.69
405.765	486.69
405.988	455.69
406.212	521.69
406.436	535.69
406.66	527.69
406.883	545.69
407.107	555.69
407.331	572.69
407.555	577.69
407.778	568.69
408.002	558.69
408.226	565.69
408.449	573.69
408.673	539.69
408.896	539.69
409.12	547.69
409.344	552.69
409.567	499.69
409.791	535.69
410.014	521.69
410.238	512.69
410.461	512.69
410.685	524.69
410.908	510.69
411.132	523.69
411.355	495.69
411.578	509.69
411.802	500.69
412.025	488.69
412.249	531.69
412.472	519.69
412.695	470.69
412.919	505.69
413.142	466.69
413.365	475.69
413.589	464.69
413.812	496.69
414.035	481.69
414.258	485.69
414.482	469.69
414.705	471.69
414.928	486.69
415.151	484.69
415.374	484.69
415.597	499.69
415.821	474.69
416.044	489.69
416.267	477.69
416.49	479.69
416.713	478.69
416.936	477.69
417.159	471.69
417.382	471.69
417.605	471.69
417.828	481.69
418.051	484.69
418.274	466.69
418.497	483.69
418.72	488.69
418.943	459.69
419.166	486.69
419.389	522.69
419.611	506.69
419.834	512.69
420.057	474.69
420.28	489.69
420.503	459.69
420.726	482.69
420.948	467.69
421.171	482.69
421.394	481.69
421.617	486.69
421.839	463.69
422.062	468.69
422.285	458.69
422.507	478.69
422.73	473.69
422.953	479.69
423.175	464.69
423.398	506.69
423.621	506.69
423.843	495.69
424.066	487.69
424.288	502.69
424.511	493.69
424.733	488.69
424.956	461.69
425.178	471.69
425.401	491.69
425.623	488.69
425.846	463.69
426.068	462.69
426.291	445.69
426.513	455.69
426.735	455.69
426.958	438.69
427.18	455.69
427.402	433.69
427.625	437.69
427.847	433.69
428.069	436.69
428.292	442.69
428.514	418.69
428.736	438.69
428.958	451.69
429.181	439.69
429.403	415.69
429.625	433.69
429.847	423.69
430.069	437.69
430.292	415.69
430.514	437.69
430.736	410.69
430.958	413.69
431.18	402.69
431.402	407.69
431.624	436.69
431.846	413.69
432.068	449.69
432.29	425.69
432.512	433.69
432.734	449.69
432.956	424.69
433.178	447.69
433.4	440.69
433.622	446.69
433.844	446.69
434.066	440.69
434.287	440.69
434.509	441.69
434.731	465.69
434.953	467.69
435.175	487.69
435.397	471.69
435.618	448.69
435.84	469.69
436.062	471.69
436.284	452.69
436.505	450.69
436.727	434.69
436.949	433.69
437.17	455.69
437.392	443.69
437.614	441.69
437.835	425.69
438.057	429.69
438.278	415.69
438.5	423.69
438.721	428.69
438.943	426.69
439.165	426.69
439.386	451.69
439.608	444.69
439.829	449.69
440.05	427.69
440.272	451.69
440.493	442.69
440.715	463.69
440.936	456.69
441.158	470.69
441.379	468.69
441.6	493.69
441.822	455.69
442.043	483.69
442.264	502.69
442.486	473.69
442.707	472.69
442.928	484.69
443.149	495.69
443.371	463.69
443.592	463.69
443.813	479.69
444.034	482.69
444.255	501.69
444.476	498.69
444.698	537.69
444.919	522.69
445.14	630.69
445.361	553.69
445.582	529.69
445.803	469.69
446.024	478.69
446.245	471.69
446.466	485.69
446.687	464.69
446.908	443.69
447.129	448.69
447.35	435.69
447.571	432.69
447.792	440.69
448.013	430.69
448.234	441.69
448.455	437.69
448.675	421.69
448.896	419.69
449.117	413.69
449.338	410.69
449.559	417.69
449.779	411.69
450	423.69
450.221	399.69
450.442	427.69
450.662	422.69
450.883	425.69
451.104	418.69
451.324	410.69
451.545	415.69
451.766	421.69
451.986	403.69
452.207	422.69
452.428	415.69
452.648	412.69
452.869	398.69
453.089	406.69
453.31	413.69
453.53	417.69
453.751	412.69
453.971	394.69
454.192	383.69
454.412	377.69
454.633	360.69
454.853	395.69
455.073	407.69
455.294	413.69
455.514	399.69
455.734	377.69
455.955	383.69
456.175	381.69
456.395	389.69
456.616	376.69
456.836	402.69
457.056	395.69
457.276	378.69
457.497	389.69
457.717	401.69
457.937	397.69
458.157	399.69
458.377	377.69
458.598	395.69
458.818	421.69
459.038	419.69
459.258	424.69
459.478	427.69
459.698	445.69
459.918	466.69
460.138	466.69
460.358	499.69
460.578	484.69
460.798	471.69
461.018	503.69
461.238	524.69
461.458	505.69
461.678	496.69
461.898	495.69
462.118	507.69
462.338	519.69
462.558	558.69
462.777	536.69
462.997	583.69
463.217	630.69
463.437	638.69
463.657	583.69
463.876	571.69
464.096	548.69
464.316	554.69
464.536	566.69
464.755	528.69
464.975	529.69
465.195	513.69
465.414	486.69
465.634	450.69
465.854	453.69
466.073	451.69
466.293	443.69
466.512	451.69
466.732	445.69
466.951	441.69
467.171	414.69
467.391	401.69
467.61	409.69
467.829	412.69
468.049	434.69
468.268	410.69
468.488	410.69
468.707	416.69
468.927	433.69
469.146	392.69
469.365	416.69
469.585	415.69
469.804	431.69
470.023	434.69
470.243	443.69
470.462	436.69
470.681	440.69
470.901	421.69
471.12	424.69
471.339	425.69
471.558	401.69
471.777	417.69
471.997	418.69
472.216	414.69
472.435	384.69
472.654	408.69
472.873	410.69
473.092	399.69
473.311	388.69
473.53	389.69
473.749	401.69
473.968	405.69
474.187	396.69
474.406	392.69
474.625	403.69
474.844	396.69
475.063	397.69
475.282	423.69
475.501	397.69
475.72	422.69
475.939	401.69
476.158	404.69
476.377	424.69
476.596	424.69
476.814	422.69
477.033	421.69
477.252	424.69
477.471	424.69
477.69	445.69
477.908	454.69
478.127	481.69
478.346	443.69
478.564	478.69
478.783	456.69
479.002	501.69
479.22	491.69
479.439	495.69
479.658	483.69
479.876	478.69
480.095	484.69
480.313	485.69
480.532	517.69
480.751	490.69
480.969	480.69
481.188	454.69
481.406	463.69
481.624	439.69
481.843	452.69
482.061	457.69
482.28	419.69
482.498	436.69
482.717	453.69
482.935	440.69
483.153	448.69
483.372	430.69
483.59	443.69
483.808	445.69
484.027	443.69
484.245	452.69
484.463	470.69
484.681	468.69
484.9	461.69
485.118	454.69
485.336	459.69
485.554	434.69
485.772	482.69
485.99	465.69
486.209	431.69
486.427	454.69
486.645	464.69
486.863	459.69
487.081	439.69
487.299	471.69
487.517	463.69
487.735	463.69
487.953	467.69
488.171	459.69
488.389	457.69
488.607	447.69
488.825	436.69
489.043	453.69
489.261	464.69
489.479	436.69
489.696	477.69
489.914	455.69
490.132	457.69
490.35	466.69
490.568	449.69
490.786	479.69
491.003	476.69
491.221	463.69
491.439	477.69
491.657	479.69
491.874	493.69
492.092	483.69
492.31	497.69
492.527	479.69
492.745	485.69
492.963	494.69
493.18	493.69
493.398	490.69
493.615	503.69
493.833	479.69
494.05	490.69
494.268	472.69
494.485	481.69
494.703	486.69
494.92	482.69
495.138	472.69
495.355	514.69
495.573	498.69
495.79	519.69
496.008	501.69
496.225	496.69
496.442	521.69
496.66	510.69
496.877	518.69
497.094	529.69
497.312	530.69
497.529	521.69
497.746	555.69
497.963	553.69
498.181	593.69
498.398	597.69
498.615	652.69
498.832	635.69
499.049	691.69
499.267	734.69
499.484	819.69
499.701	903.69
499.918	982.69
500.135	1064.69
500.352	1175.69
500.569	1197.69
500.786	1189.69
501.003	1127.69
501.22	1026.69
501.437	952.69
501.654	862.69
501.871	779.69
