Data from Fe(NO3)3@0.025M.TitratingCurve.Agarose3%dH2O.NegLispCup.LampEnergy10.LIBS07252019_HRD10591_16-54-03-335.txt Node
Date: Thu Jul 25 16:54:03 EDT 2019
User: cochatt
Spectrometer: HR+D1059
Trigger mode: 1
Integration Time (sec): 1.000000E-1
Scans to average: 1
Electric dark correction enabled: true
Nonlinearity correction enabled: false
Boxcar width: 0
XAxis mode: Wavelengths
Number of Pixels in Spectrum: 2048
>>>>>Begin Spectral Data<<<<<
223.165	-27.5
223.4	-27.5
223.635	-27.5
223.869	-18.5
224.104	-13.5
224.338	-12.5
224.573	-9.5
224.808	-10.5
225.042	-10.5
225.277	0.5
225.511	6.5
225.746	6.5
225.98	-7.5
226.215	10.5
226.449	17.5
226.683	20.5
226.918	25.5
227.152	22.5
227.387	38.5
227.621	36.5
227.856	38.5
228.09	43.5
228.324	56.5
228.559	60.5
228.793	62.5
229.027	67.5
229.262	67.5
229.496	90.5
229.73	94.5
229.964	94.5
230.199	88.5
230.433	93.5
230.667	98.5
230.901	100.5
231.136	99.5
231.37	97.5
231.604	91.5
231.838	102.5
232.072	90.5
232.306	96.5
232.541	105.5
232.775	101.5
233.009	99.5
233.243	88.5
233.477	94.5
233.711	107.5
233.945	97.5
234.179	107.5
234.413	102.5
234.647	111.5
234.881	122.5
235.115	113.5
235.349	108.5
235.583	102.5
235.817	96.5
236.051	107.5
236.285	116.5
236.519	100.5
236.753	107.5
236.987	118.5
237.221	105.5
237.455	94.5
237.689	108.5
237.922	106.5
238.156	105.5
238.39	112.5
238.624	120.5
238.858	122.5
239.091	124.5
239.325	114.5
239.559	100.5
239.793	122.5
240.027	126.5
240.26	115.5
240.494	105.5
240.728	116.5
240.961	108.5
241.195	123.5
241.429	126.5
241.662	121.5
241.896	103.5
242.13	123.5
242.363	125.5
242.597	115.5
242.83	105.5
243.064	114.5
243.298	114.5
243.531	123.5
243.765	126.5
243.998	131.5
244.232	116.5
244.465	120.5
244.699	126.5
244.932	118.5
245.166	122.5
245.399	126.5
245.633	131.5
245.866	120.5
246.099	125.5
246.333	126.5
246.566	131.5
246.8	139.5
247.033	132.5
247.266	133.5
247.5	133.5
247.733	128.5
247.966	131.5
248.2	129.5
248.433	146.5
248.666	134.5
248.899	139.5
249.133	133.5
249.366	141.5
249.599	130.5
249.832	129.5
250.066	137.5
250.299	124.5
250.532	141.5
250.765	140.5
250.998	150.5
251.231	126.5
251.465	126.5
251.698	141.5
251.931	129.5
252.164	141.5
252.397	146.5
252.63	133.5
252.863	156.5
253.096	158.5
253.329	151.5
253.562	147.5
253.795	156.5
254.028	162.5
254.261	158.5
254.494	154.5
254.727	168.5
254.96	148.5
255.193	148.5
255.426	148.5
255.659	140.5
255.892	134.5
256.124	149.5
256.357	161.5
256.59	161.5
256.823	165.5
257.056	144.5
257.289	155.5
257.521	168.5
257.754	163.5
257.987	152.5
258.22	172.5
258.452	149.5
258.685	158.5
258.918	165.5
259.151	162.5
259.383	169.5
259.616	163.5
259.849	172.5
260.081	175.5
260.314	188.5
260.547	166.5
260.779	176.5
261.012	182.5
261.244	174.5
261.477	166.5
261.71	164.5
261.942	160.5
262.175	168.5
262.407	172.5
262.64	152.5
262.872	171.5
263.105	178.5
263.337	170.5
263.57	177.5
263.802	165.5
264.035	164.5
264.267	164.5
264.499	173.5
264.732	185.5
264.964	161.5
265.197	159.5
265.429	174.5
265.661	169.5
265.894	162.5
266.126	156.5
266.358	190.5
266.591	178.5
266.823	178.5
267.055	173.5
267.287	183.5
267.52	174.5
267.752	189.5
267.984	177.5
268.216	189.5
268.448	182.5
268.681	158.5
268.913	182.5
269.145	188.5
269.377	175.5
269.609	182.5
269.841	182.5
270.073	197.5
270.306	197.5
270.538	197.5
270.77	195.5
271.002	193.5
271.234	190.5
271.466	190.5
271.698	189.5
271.93	203.5
272.162	200.5
272.394	198.5
272.626	191.5
272.858	203.5
273.09	207.5
273.322	193.5
273.553	199.5
273.785	195.5
274.017	218.5
274.249	204.5
274.481	215.5
274.713	220.5
274.945	212.5
275.176	256.5
275.408	227.5
275.64	226.5
275.872	222.5
276.104	202.5
276.335	215.5
276.567	214.5
276.799	215.5
277.031	203.5
277.262	217.5
277.494	201.5
277.726	204.5
277.957	207.5
278.189	212.5
278.421	209.5
278.652	206.5
278.884	219.5
279.115	214.5
279.347	227.5
279.579	203.5
279.81	234.5
280.042	207.5
280.273	210.5
280.505	201.5
280.736	225.5
280.968	221.5
281.199	225.5
281.431	211.5
281.662	220.5
281.894	214.5
282.125	219.5
282.356	209.5
282.588	210.5
282.819	226.5
283.051	226.5
283.282	230.5
283.513	228.5
283.745	232.5
283.976	229.5
284.207	225.5
284.439	236.5
284.67	223.5
284.901	237.5
285.132	234.5
285.364	238.5
285.595	242.5
285.826	225.5
286.057	227.5
286.288	212.5
286.52	235.5
286.751	218.5
286.982	235.5
287.213	254.5
287.444	245.5
287.675	234.5
287.906	240.5
288.138	232.5
288.369	244.5
288.6	244.5
288.831	237.5
289.062	240.5
289.293	227.5
289.524	250.5
289.755	250.5
289.986	229.5
290.217	241.5
290.448	243.5
290.679	235.5
290.91	244.5
291.141	223.5
291.371	246.5
291.602	252.5
291.833	237.5
292.064	244.5
292.295	250.5
292.526	246.5
292.757	244.5
292.987	241.5
293.218	240.5
293.449	246.5
293.68	244.5
293.91	240.5
294.141	244.5
294.372	253.5
294.603	244.5
294.833	244.5
295.064	258.5
295.295	265.5
295.525	234.5
295.756	235.5
295.987	243.5
296.217	239.5
296.448	253.5
296.679	258.5
296.909	249.5
297.14	267.5
297.37	242.5
297.601	257.5
297.831	262.5
298.062	256.5
298.292	273.5
298.523	253.5
298.753	260.5
298.984	250.5
299.214	264.5
299.445	281.5
299.675	263.5
299.905	261.5
300.136	261.5
300.366	276.5
300.597	264.5
300.827	262.5
301.057	269.5
301.288	268.5
301.518	269.5
301.748	267.5
301.979	288.5
302.209	269.5
302.439	297.5
302.669	275.5
302.9	274.5
303.13	296.5
303.36	276.5
303.59	260.5
303.82	282.5
304.051	276.5
304.281	292.5
304.511	273.5
304.741	278.5
304.971	268.5
305.201	292.5
305.431	280.5
305.661	281.5
305.891	293.5
306.121	285.5
306.352	265.5
306.582	277.5
306.812	274.5
307.042	274.5
307.272	296.5
307.502	270.5
307.731	293.5
307.961	294.5
308.191	267.5
308.421	285.5
308.651	287.5
308.881	282.5
309.111	288.5
309.341	274.5
309.571	286.5
309.8	281.5
310.03	289.5
310.26	291.5
310.49	292.5
310.72	261.5
310.949	274.5
311.179	275.5
311.409	298.5
311.639	296.5
311.868	304.5
312.098	290.5
312.328	306.5
312.557	284.5
312.787	271.5
313.017	298.5
313.246	307.5
313.476	302.5
313.706	298.5
313.935	282.5
314.165	297.5
314.394	309.5
314.624	294.5
314.853	296.5
315.083	304.5
315.312	296.5
315.542	302.5
315.771	321.5
316.001	295.5
316.23	310.5
316.46	310.5
316.689	294.5
316.919	308.5
317.148	288.5
317.377	302.5
317.607	300.5
317.836	309.5
318.065	305.5
318.295	318.5
318.524	317.5
318.753	320.5
318.983	299.5
319.212	310.5
319.441	304.5
319.67	322.5
319.9	313.5
320.129	328.5
320.358	319.5
320.587	301.5
320.816	294.5
321.046	307.5
321.275	314.5
321.504	312.5
321.733	314.5
321.962	312.5
322.191	336.5
322.42	329.5
322.649	326.5
322.878	332.5
323.108	299.5
323.337	324.5
323.566	315.5
323.795	331.5
324.024	313.5
324.253	309.5
324.482	312.5
324.71	308.5
324.939	335.5
325.168	304.5
325.397	315.5
325.626	326.5
325.855	339.5
326.084	325.5
326.313	350.5
326.542	334.5
326.77	304.5
326.999	309.5
327.228	335.5
327.457	326.5
327.686	344.5
327.914	321.5
328.143	340.5
328.372	336.5
328.6	339.5
328.829	324.5
329.058	322.5
329.287	321.5
329.515	330.5
329.744	339.5
329.972	341.5
330.201	323.5
330.43	340.5
330.658	343.5
330.887	340.5
331.115	361.5
331.344	356.5
331.572	350.5
331.801	348.5
332.03	338.5
332.258	348.5
332.486	341.5
332.715	341.5
332.943	336.5
333.172	370.5
333.4	364.5
333.629	362.5
333.857	376.5
334.085	365.5
334.314	354.5
334.542	374.5
334.771	376.5
334.999	382.5
335.227	389.5
335.455	370.5
335.684	344.5
335.912	370.5
336.14	384.5
336.369	370.5
336.597	376.5
336.825	371.5
337.053	375.5
337.281	403.5
337.51	386.5
337.738	388.5
337.966	358.5
338.194	378.5
338.422	388.5
338.65	376.5
338.878	358.5
339.106	378.5
339.334	365.5
339.562	360.5
339.79	349.5
340.018	364.5
340.246	368.5
340.474	368.5
340.702	348.5
340.93	357.5
341.158	349.5
341.386	344.5
341.614	363.5
341.842	365.5
342.07	368.5
342.298	366.5
342.526	359.5
342.754	375.5
342.981	353.5
343.209	363.5
343.437	361.5
343.665	375.5
343.893	375.5
344.12	385.5
344.348	388.5
344.576	372.5
344.804	374.5
345.031	356.5
345.259	379.5
345.487	364.5
345.714	372.5
345.942	354.5
346.17	371.5
346.397	368.5
346.625	361.5
346.853	343.5
347.08	354.5
347.308	339.5
347.535	344.5
347.763	369.5
347.99	363.5
348.218	355.5
348.445	324.5
348.673	334.5
348.9	347.5
349.128	335.5
349.355	358.5
349.583	364.5
349.81	335.5
350.037	330.5
350.265	346.5
350.492	334.5
350.72	360.5
350.947	344.5
351.174	339.5
351.402	344.5
351.629	328.5
351.856	344.5
352.083	340.5
352.311	346.5
352.538	347.5
352.765	346.5
352.992	346.5
353.22	354.5
353.447	344.5
353.674	346.5
353.901	333.5
354.128	360.5
354.355	341.5
354.583	342.5
354.81	351.5
355.037	346.5
355.264	344.5
355.491	345.5
355.718	350.5
355.945	346.5
356.172	354.5
356.399	347.5
356.626	370.5
356.853	357.5
357.08	349.5
357.307	353.5
357.534	360.5
357.761	336.5
357.988	347.5
358.215	349.5
358.441	357.5
358.668	361.5
358.895	331.5
359.122	342.5
359.349	345.5
359.576	351.5
359.802	342.5
360.029	354.5
360.256	342.5
360.483	340.5
360.709	354.5
360.936	373.5
361.163	356.5
361.39	360.5
361.616	345.5
361.843	352.5
362.07	364.5
362.296	360.5
362.523	348.5
362.749	352.5
362.976	359.5
363.203	354.5
363.429	360.5
363.656	356.5
363.882	355.5
364.109	348.5
364.335	347.5
364.562	360.5
364.788	349.5
365.015	336.5
365.241	344.5
365.468	352.5
365.694	342.5
365.92	356.5
366.147	363.5
366.373	362.5
366.599	350.5
366.826	330.5
367.052	344.5
367.278	354.5
367.505	357.5
367.731	373.5
367.957	366.5
368.184	358.5
368.41	371.5
368.636	368.5
368.862	370.5
369.089	382.5
369.315	349.5
369.541	365.5
369.767	372.5
369.993	351.5
370.219	365.5
370.445	379.5
370.672	368.5
370.898	373.5
371.124	388.5
371.35	377.5
371.576	361.5
371.802	396.5
372.028	392.5
372.254	392.5
372.48	396.5
372.706	378.5
372.932	371.5
373.158	391.5
373.384	403.5
373.61	403.5
373.835	407.5
374.061	388.5
374.287	378.5
374.513	380.5
374.739	408.5
374.965	390.5
375.191	403.5
375.416	375.5
375.642	391.5
375.868	392.5
376.094	386.5
376.319	387.5
376.545	380.5
376.771	380.5
376.997	364.5
377.222	388.5
377.448	388.5
377.674	397.5
377.899	383.5
378.125	377.5
378.35	373.5
378.576	383.5
378.802	370.5
379.027	371.5
379.253	358.5
379.478	363.5
379.704	370.5
379.929	362.5
380.155	370.5
380.38	382.5
380.606	377.5
380.831	370.5
381.057	402.5
381.282	404.5
381.507	406.5
381.733	389.5
381.958	397.5
382.184	399.5
382.409	381.5
382.634	401.5
382.86	405.5
383.085	399.5
383.31	401.5
383.535	396.5
383.761	390.5
383.986	399.5
384.211	405.5
384.436	420.5
384.662	416.5
384.887	411.5
385.112	422.5
385.337	425.5
385.562	432.5
385.787	424.5
386.013	432.5
386.238	420.5
386.463	426.5
386.688	424.5
386.913	422.5
387.138	409.5
387.363	413.5
387.588	428.5
387.813	420.5
388.038	430.5
388.263	440.5
388.488	433.5
388.713	424.5
388.938	434.5
389.163	437.5
389.387	428.5
389.612	431.5
389.837	448.5
390.062	428.5
390.287	460.5
390.512	461.5
390.736	446.5
390.961	435.5
391.186	435.5
391.411	449.5
391.636	454.5
391.86	461.5
392.085	449.5
392.31	459.5
392.534	454.5
392.759	448.5
392.984	454.5
393.208	441.5
393.433	447.5
393.658	472.5
393.882	472.5
394.107	451.5
394.331	441.5
394.556	464.5
394.78	461.5
395.005	456.5
395.229	462.5
395.454	451.5
395.678	476.5
395.903	487.5
396.127	483.5
396.352	470.5
396.576	470.5
396.801	466.5
397.025	467.5
397.249	460.5
397.474	469.5
397.698	484.5
397.922	471.5
398.147	502.5
398.371	493.5
398.595	508.5
398.82	498.5
399.044	514.5
399.268	535.5
399.492	535.5
399.717	566.5
399.941	555.5
400.165	554.5
400.389	563.5
400.613	538.5
400.837	535.5
401.062	533.5
401.286	525.5
401.51	514.5
401.734	495.5
401.958	526.5
402.182	518.5
402.406	503.5
402.63	494.5
402.854	492.5
403.078	486.5
403.302	481.5
403.526	510.5
403.75	506.5
403.974	503.5
404.198	504.5
404.422	503.5
404.645	507.5
404.869	512.5
405.093	505.5
405.317	520.5
405.541	511.5
405.765	519.5
405.988	519.5
406.212	524.5
406.436	524.5
406.66	546.5
406.883	534.5
407.107	546.5
407.331	544.5
407.555	552.5
407.778	545.5
408.002	540.5
408.226	561.5
408.449	557.5
408.673	543.5
408.896	566.5
409.12	537.5
409.344	548.5
409.567	542.5
409.791	527.5
410.014	524.5
410.238	520.5
410.461	522.5
410.685	552.5
410.908	507.5
411.132	514.5
411.355	512.5
411.578	507.5
411.802	520.5
412.025	504.5
412.249	519.5
412.472	517.5
412.695	500.5
412.919	485.5
413.142	504.5
413.365	526.5
413.589	513.5
413.812	487.5
414.035	517.5
414.258	512.5
414.482	521.5
414.705	493.5
414.928	519.5
415.151	498.5
415.374	481.5
415.597	512.5
415.821	513.5
416.044	518.5
416.267	491.5
416.49	475.5
416.713	476.5
416.936	489.5
417.159	472.5
417.382	483.5
417.605	472.5
417.828	484.5
418.051	465.5
418.274	473.5
418.497	488.5
418.72	453.5
418.943	467.5
419.166	497.5
419.389	516.5
419.611	520.5
419.834	501.5
420.057	471.5
420.28	472.5
420.503	451.5
420.726	483.5
420.948	476.5
421.171	462.5
421.394	484.5
421.617	469.5
421.839	479.5
422.062	465.5
422.285	460.5
422.507	487.5
422.73	466.5
422.953	467.5
423.175	470.5
423.398	461.5
423.621	464.5
423.843	480.5
424.066	453.5
424.288	474.5
424.511	460.5
424.733	455.5
424.956	452.5
425.178	477.5
425.401	459.5
425.623	469.5
425.846	452.5
426.068	456.5
426.291	462.5
426.513	474.5
426.735	445.5
426.958	467.5
427.18	465.5
427.402	468.5
427.625	472.5
427.847	436.5
428.069	448.5
428.292	450.5
428.514	421.5
428.736	467.5
428.958	461.5
429.181	481.5
429.403	462.5
429.625	452.5
429.847	457.5
430.069	445.5
430.292	437.5
430.514	436.5
430.736	459.5
430.958	454.5
431.18	465.5
431.402	456.5
431.624	449.5
431.846	440.5
432.068	441.5
432.29	425.5
432.512	447.5
432.734	463.5
432.956	467.5
433.178	459.5
433.4	459.5
433.622	459.5
433.844	468.5
434.066	464.5
434.287	473.5
434.509	476.5
434.731	480.5
434.953	475.5
435.175	476.5
435.397	468.5
435.618	468.5
435.84	463.5
436.062	443.5
436.284	459.5
436.505	481.5
436.727	449.5
436.949	464.5
437.17	472.5
437.392	442.5
437.614	445.5
437.835	442.5
438.057	462.5
438.278	443.5
438.5	440.5
438.721	445.5
438.943	451.5
439.165	420.5
439.386	433.5
439.608	444.5
439.829	467.5
440.05	450.5
440.272	438.5
440.493	449.5
440.715	446.5
440.936	446.5
441.158	456.5
441.379	452.5
441.6	461.5
441.822	458.5
442.043	445.5
442.264	460.5
442.486	439.5
442.707	454.5
442.928	475.5
443.149	467.5
443.371	472.5
443.592	478.5
443.813	458.5
444.034	471.5
444.255	452.5
444.476	458.5
444.698	466.5
444.919	444.5
445.14	562.5
445.361	525.5
445.582	478.5
445.803	476.5
446.024	479.5
446.245	457.5
446.466	441.5
446.687	462.5
446.908	450.5
447.129	438.5
447.35	445.5
447.571	441.5
447.792	436.5
448.013	437.5
448.234	422.5
448.455	421.5
448.675	433.5
448.896	419.5
449.117	414.5
449.338	435.5
449.559	428.5
449.779	436.5
450	421.5
450.221	421.5
450.442	412.5
450.662	397.5
450.883	412.5
451.104	402.5
451.324	417.5
451.545	409.5
451.766	414.5
451.986	410.5
452.207	412.5
452.428	430.5
452.648	425.5
452.869	413.5
453.089	387.5
453.31	425.5
453.53	420.5
453.751	397.5
453.971	391.5
454.192	416.5
454.412	397.5
454.633	420.5
454.853	405.5
455.073	406.5
455.294	395.5
455.514	418.5
455.734	398.5
455.955	412.5
456.175	412.5
456.395	384.5
456.616	394.5
456.836	415.5
457.056	416.5
457.276	405.5
457.497	406.5
457.717	403.5
457.937	425.5
458.157	428.5
458.377	430.5
458.598	427.5
458.818	409.5
459.038	420.5
459.258	448.5
459.478	455.5
459.698	447.5
459.918	442.5
460.138	470.5
460.358	462.5
460.578	441.5
460.798	454.5
461.018	475.5
461.238	479.5
461.458	480.5
461.678	491.5
461.898	507.5
462.118	474.5
462.338	490.5
462.558	506.5
462.777	481.5
462.997	502.5
463.217	532.5
463.437	527.5
463.657	526.5
463.876	521.5
464.096	512.5
464.316	501.5
464.536	497.5
464.755	498.5
464.975	484.5
465.195	487.5
465.414	482.5
465.634	482.5
465.854	476.5
466.073	463.5
466.293	467.5
466.512	440.5
466.732	458.5
466.951	456.5
467.171	446.5
467.391	452.5
467.61	422.5
467.829	434.5
468.049	452.5
468.268	439.5
468.488	430.5
468.707	428.5
468.927	463.5
469.146	472.5
469.365	441.5
469.585	446.5
469.804	450.5
470.023	436.5
470.243	451.5
470.462	438.5
470.681	437.5
470.901	410.5
471.12	441.5
471.339	466.5
471.558	447.5
471.777	437.5
471.997	456.5
472.216	451.5
472.435	437.5
472.654	452.5
472.873	448.5
473.092	444.5
473.311	446.5
473.53	458.5
473.749	416.5
473.968	441.5
474.187	442.5
474.406	437.5
474.625	455.5
474.844	454.5
475.063	452.5
475.282	462.5
475.501	445.5
475.72	446.5
475.939	455.5
476.158	470.5
476.377	489.5
476.596	474.5
476.814	481.5
477.033	478.5
477.252	459.5
477.471	486.5
477.69	492.5
477.908	475.5
478.127	499.5
478.346	496.5
478.564	494.5
478.783	507.5
479.002	498.5
479.22	500.5
479.439	541.5
479.658	534.5
479.876	520.5
480.095	534.5
480.313	509.5
480.532	494.5
480.751	532.5
480.969	518.5
481.188	545.5
481.406	516.5
481.624	532.5
481.843	506.5
482.061	514.5
482.28	530.5
482.498	533.5
482.717	533.5
482.935	518.5
483.153	531.5
483.372	510.5
483.59	531.5
483.808	489.5
484.027	522.5
484.245	522.5
484.463	512.5
484.681	532.5
484.9	521.5
485.118	517.5
485.336	523.5
485.554	519.5
485.772	518.5
485.99	504.5
486.209	521.5
486.427	535.5
486.645	537.5
486.863	532.5
487.081	530.5
487.299	538.5
487.517	540.5
487.735	533.5
487.953	525.5
488.171	520.5
488.389	551.5
488.607	547.5
488.825	548.5
489.043	531.5
489.261	538.5
489.479	539.5
489.696	518.5
489.914	554.5
490.132	526.5
490.35	541.5
490.568	516.5
490.786	534.5
491.003	550.5
491.221	535.5
491.439	555.5
491.657	555.5
491.874	540.5
492.092	548.5
492.31	566.5
492.527	557.5
492.745	567.5
492.963	556.5
493.18	553.5
493.398	560.5
493.615	542.5
493.833	536.5
494.05	576.5
494.268	553.5
494.485	559.5
494.703	557.5
494.92	563.5
495.138	581.5
495.355	570.5
495.573	555.5
495.79	576.5
496.008	576.5
496.225	625.5
496.442	593.5
496.66	626.5
496.877	621.5
497.094	616.5
497.312	637.5
497.529	621.5
497.746	633.5
497.963	631.5
498.181	686.5
498.398	666.5
498.615	696.5
498.832	712.5
499.049	722.5
499.267	723.5
499.484	738.5
499.701	743.5
499.918	787.5
500.135	798.5
500.352	811.5
500.569	835.5
500.786	820.5
501.003	802.5
501.22	812.5
501.437	794.5
501.654	757.5
501.871	779.5
502.088	739.5
502.305	718.5
502.522	715.5
502.739	707.5
502.956	690.5
503.172	659.5
503.389	631.5
503.606	620.5
503.823	631.5
504.04	632.5
504.256	629.5
504.473	588.5
504.69	606.5
504.907	621.5
505.123	588.5
505.34	580.5
505.557	540.5
505.773	548.5
505.99	537.5
506.207	540.5
506.423	560.5
506.64	547.5
506.856	529.5
507.073	529.5
507.289	519.5
507.506	521.5
507.722	500.5
507.939	504.5
508.155	496.5
508.372	489.5
508.588	507.5
508.805	485.5
509.021	494.5
509.238	515.5
509.454	476.5
509.67	468.5
509.887	503.5
510.103	478.5
510.319	495.5
510.536	471.5
510.752	476.5
510.968	472.5
511.184	465.5
511.401	468.5
511.617	478.5
511.833	452.5
512.049	480.5
512.265	469.5
512.481	488.5
512.698	487.5
512.914	469.5
513.13	460.5
513.346	463.5
513.562	475.5
513.778	458.5
513.994	474.5
514.21	481.5
514.426	476.5
514.642	487.5
514.858	494.5
515.074	507.5
515.29	484.5
515.506	474.5
515.721	503.5
515.937	487.5
516.153	491.5
516.369	483.5
516.585	491.5
516.801	489.5
517.016	493.5
517.232	499.5
517.448	524.5
517.664	515.5
517.879	502.5
518.095	490.5
518.311	516.5
518.527	500.5
518.742	501.5
518.958	484.5
519.173	481.5
519.389	519.5
519.605	492.5
519.82	488.5
