Data from Fe(NO3)3@0.05M.TitratingCurve.Agarose3%dH2O.NegLispCup.LampEnergy10.LIBS07252019_HRD10591_16-46-37-334.txt Node
Date: Thu Jul 25 16:46:37 EDT 2019
User: cochatt
Spectrometer: HR+D1059
Trigger mode: 1
Integration Time (sec): 1.000000E-1
Scans to average: 1
Electric dark correction enabled: true
Nonlinearity correction enabled: false
Boxcar width: 0
XAxis mode: Wavelengths
Number of Pixels in Spectrum: 2048
>>>>>Begin Spectral Data<<<<<
223.165	-27.19
223.4	-27.19
223.635	-27.19
223.869	-33.19
224.104	-10.19
224.338	-8.19
224.573	-9.19
224.808	-15.19
225.042	-7.19
225.277	-2.19
225.511	-15.19
225.746	14.81
225.98	1.81
226.215	8.81
226.449	32.81
226.683	20.81
226.918	22.81
227.152	25.81
227.387	46.81
227.621	45.81
227.856	42.81
228.09	24.81
228.324	51.81
228.559	52.81
228.793	48.81
229.027	89.81
229.262	94.81
229.496	96.81
229.73	109.81
229.964	108.81
230.199	112.81
230.433	110.81
230.667	117.81
230.901	133.81
231.136	129.81
231.37	121.81
231.604	118.81
231.838	121.81
232.072	132.81
232.306	141.81
232.541	108.81
232.775	120.81
233.009	126.81
233.243	128.81
233.477	124.81
233.711	141.81
233.945	127.81
234.179	138.81
234.413	144.81
234.647	146.81
234.881	133.81
235.115	126.81
235.349	143.81
235.583	130.81
235.817	142.81
236.051	148.81
236.285	136.81
236.519	140.81
236.753	138.81
236.987	141.81
237.221	134.81
237.455	124.81
237.689	139.81
237.922	144.81
238.156	148.81
238.39	161.81
238.624	162.81
238.858	152.81
239.091	142.81
239.325	145.81
239.559	148.81
239.793	160.81
240.027	168.81
240.26	153.81
240.494	156.81
240.728	172.81
240.961	180.81
241.195	170.81
241.429	166.81
241.662	165.81
241.896	151.81
242.13	157.81
242.363	166.81
242.597	156.81
242.83	176.81
243.064	167.81
243.298	181.81
243.531	164.81
243.765	167.81
243.998	185.81
244.232	188.81
244.465	176.81
244.699	173.81
244.932	194.81
245.166	190.81
245.399	184.81
245.633	178.81
245.866	189.81
246.099	174.81
246.333	174.81
246.566	201.81
246.8	207.81
247.033	206.81
247.266	195.81
247.5	176.81
247.733	177.81
247.966	199.81
248.2	189.81
248.433	205.81
248.666	201.81
248.899	206.81
249.133	186.81
249.366	215.81
249.599	217.81
249.832	201.81
250.066	208.81
250.299	211.81
250.532	206.81
250.765	213.81
250.998	217.81
251.231	199.81
251.465	219.81
251.698	208.81
251.931	218.81
252.164	196.81
252.397	221.81
252.63	234.81
252.863	233.81
253.096	232.81
253.329	248.81
253.562	252.81
253.795	234.81
254.028	249.81
254.261	254.81
254.494	227.81
254.727	246.81
254.96	256.81
255.193	229.81
255.426	237.81
255.659	225.81
255.892	236.81
256.124	224.81
256.357	241.81
256.59	248.81
256.823	225.81
257.056	241.81
257.289	237.81
257.521	236.81
257.754	241.81
257.987	264.81
258.22	264.81
258.452	255.81
258.685	244.81
258.918	266.81
259.151	284.81
259.383	256.81
259.616	263.81
259.849	274.81
260.081	301.81
260.314	302.81
260.547	259.81
260.779	263.81
261.012	294.81
261.244	302.81
261.477	307.81
261.71	300.81
261.942	290.81
262.175	265.81
262.407	272.81
262.64	294.81
262.872	295.81
263.105	292.81
263.337	305.81
263.57	300.81
263.802	297.81
264.035	248.81
264.267	283.81
264.499	278.81
264.732	268.81
264.964	285.81
265.197	259.81
265.429	292.81
265.661	288.81
265.894	286.81
266.126	293.81
266.358	289.81
266.591	301.81
266.823	309.81
267.055	280.81
267.287	304.81
267.52	285.81
267.752	288.81
267.984	306.81
268.216	300.81
268.448	295.81
268.681	282.81
268.913	305.81
269.145	312.81
269.377	317.81
269.609	277.81
269.841	301.81
270.073	309.81
270.306	295.81
270.538	304.81
270.77	309.81
271.002	314.81
271.234	325.81
271.466	330.81
271.698	321.81
271.93	301.81
272.162	312.81
272.394	336.81
272.626	321.81
272.858	317.81
273.09	320.81
273.322	312.81
273.553	339.81
273.785	346.81
274.017	352.81
274.249	364.81
274.481	382.81
274.713	371.81
274.945	390.81
275.176	396.81
275.408	387.81
275.64	378.81
275.872	384.81
276.104	349.81
276.335	355.81
276.567	323.81
276.799	343.81
277.031	350.81
277.262	337.81
277.494	336.81
277.726	351.81
277.957	353.81
278.189	351.81
278.421	365.81
278.652	338.81
278.884	344.81
279.115	345.81
279.347	360.81
279.579	349.81
279.81	346.81
280.042	354.81
280.273	346.81
280.505	354.81
280.736	345.81
280.968	375.81
281.199	367.81
281.431	369.81
281.662	393.81
281.894	360.81
282.125	374.81
282.356	370.81
282.588	367.81
282.819	366.81
283.051	371.81
283.282	370.81
283.513	372.81
283.745	377.81
283.976	368.81
284.207	390.81
284.439	386.81
284.67	387.81
284.901	380.81
285.132	385.81
285.364	383.81
285.595	377.81
285.826	392.81
286.057	393.81
286.288	386.81
286.52	383.81
286.751	399.81
286.982	407.81
287.213	393.81
287.444	404.81
287.675	380.81
287.906	408.81
288.138	393.81
288.369	404.81
288.6	421.81
288.831	397.81
289.062	397.81
289.293	409.81
289.524	408.81
289.755	404.81
289.986	422.81
290.217	404.81
290.448	397.81
290.679	421.81
290.91	381.81
291.141	398.81
291.371	400.81
291.602	418.81
291.833	419.81
292.064	387.81
292.295	413.81
292.526	409.81
292.757	414.81
292.987	400.81
293.218	402.81
293.449	430.81
293.68	410.81
293.91	435.81
294.141	438.81
294.372	414.81
294.603	426.81
294.833	394.81
295.064	438.81
295.295	401.81
295.525	429.81
295.756	424.81
295.987	418.81
296.217	415.81
296.448	416.81
296.679	411.81
296.909	423.81
297.14	450.81
297.37	431.81
297.601	446.81
297.831	422.81
298.062	461.81
298.292	429.81
298.523	433.81
298.753	463.81
298.984	436.81
299.214	462.81
299.445	439.81
299.675	464.81
299.905	451.81
300.136	461.81
300.366	434.81
300.597	446.81
300.827	461.81
301.057	449.81
301.288	471.81
301.518	457.81
301.748	450.81
301.979	470.81
302.209	456.81
302.439	476.81
302.669	464.81
302.9	470.81
303.13	439.81
303.36	452.81
303.59	456.81
303.82	467.81
304.051	481.81
304.281	469.81
304.511	464.81
304.741	479.81
304.971	461.81
305.201	481.81
305.431	465.81
305.661	466.81
305.891	465.81
306.121	482.81
306.352	464.81
306.582	477.81
306.812	479.81
307.042	458.81
307.272	478.81
307.502	451.81
307.731	472.81
307.961	475.81
308.191	473.81
308.421	462.81
308.651	485.81
308.881	462.81
309.111	466.81
309.341	469.81
309.571	462.81
309.8	468.81
310.03	447.81
310.26	471.81
310.49	453.81
310.72	486.81
310.949	490.81
311.179	467.81
311.409	485.81
311.639	472.81
311.868	456.81
312.098	466.81
312.328	494.81
312.557	488.81
312.787	484.81
313.017	494.81
313.246	506.81
313.476	500.81
313.706	505.81
313.935	505.81
314.165	508.81
314.394	530.81
314.624	483.81
314.853	482.81
315.083	497.81
315.312	508.81
315.542	506.81
315.771	508.81
316.001	512.81
316.23	534.81
316.46	483.81
316.689	528.81
316.919	528.81
317.148	508.81
317.377	512.81
317.607	492.81
317.836	502.81
318.065	487.81
318.295	488.81
318.524	499.81
318.753	486.81
318.983	499.81
319.212	514.81
319.441	517.81
319.67	520.81
319.9	489.81
320.129	518.81
320.358	514.81
320.587	510.81
320.816	547.81
321.046	520.81
321.275	520.81
321.504	513.81
321.733	502.81
321.962	505.81
322.191	526.81
322.42	534.81
322.649	540.81
322.878	527.81
323.108	531.81
323.337	538.81
323.566	531.81
323.795	548.81
324.024	536.81
324.253	538.81
324.482	514.81
324.71	532.81
324.939	549.81
325.168	536.81
325.397	556.81
325.626	535.81
325.855	556.81
326.084	555.81
326.313	536.81
326.542	551.81
326.77	549.81
326.999	536.81
327.228	531.81
327.457	542.81
327.686	543.81
327.914	558.81
328.143	554.81
328.372	555.81
328.6	570.81
328.829	564.81
329.058	565.81
329.287	580.81
329.515	561.81
329.744	565.81
329.972	539.81
330.201	561.81
330.43	569.81
330.658	565.81
330.887	547.81
331.115	583.81
331.344	554.81
331.572	573.81
331.801	575.81
332.03	591.81
332.258	600.81
332.486	599.81
332.715	623.81
332.943	626.81
333.172	648.81
333.4	632.81
333.629	657.81
333.857	668.81
334.085	633.81
334.314	645.81
334.542	656.81
334.771	665.81
334.999	643.81
335.227	653.81
335.455	669.81
335.684	671.81
335.912	680.81
336.14	650.81
336.369	638.81
336.597	642.81
336.825	637.81
337.053	628.81
337.281	632.81
337.51	618.81
337.738	652.81
337.966	614.81
338.194	589.81
338.422	579.81
338.65	613.81
338.878	582.81
339.106	607.81
339.334	587.81
339.562	610.81
339.79	614.81
340.018	614.81
340.246	569.81
340.474	590.81
340.702	599.81
340.93	604.81
341.158	593.81
341.386	606.81
341.614	606.81
341.842	600.81
342.07	578.81
342.298	597.81
342.526	586.81
342.754	585.81
342.981	602.81
343.209	590.81
343.437	621.81
343.665	612.81
343.893	636.81
344.12	641.81
344.348	633.81
344.576	633.81
344.804	628.81
345.031	597.81
345.259	615.81
345.487	603.81
345.714	579.81
345.942	586.81
346.17	596.81
346.397	572.81
346.625	581.81
346.853	592.81
347.08	568.81
347.308	582.81
347.535	583.81
347.763	553.81
347.99	569.81
348.218	581.81
348.445	561.81
348.673	595.81
348.9	592.81
349.128	571.81
349.355	580.81
349.583	574.81
349.81	553.81
350.037	558.81
350.265	562.81
350.492	573.81
350.72	545.81
350.947	568.81
351.174	562.81
351.402	568.81
351.629	541.81
351.856	570.81
352.083	568.81
352.311	563.81
352.538	553.81
352.765	569.81
352.992	543.81
353.22	559.81
353.447	523.81
353.674	568.81
353.901	548.81
354.128	552.81
354.355	558.81
354.583	563.81
354.81	560.81
355.037	566.81
355.264	574.81
355.491	568.81
355.718	573.81
355.945	567.81
356.172	553.81
356.399	534.81
356.626	548.81
356.853	563.81
357.08	567.81
357.307	589.81
357.534	574.81
357.761	560.81
357.988	549.81
358.215	570.81
358.441	565.81
358.668	552.81
358.895	591.81
359.122	581.81
359.349	580.81
359.576	566.81
359.802	572.81
360.029	554.81
360.256	571.81
360.483	573.81
360.709	569.81
360.936	587.81
361.163	574.81
361.39	568.81
361.616	572.81
361.843	584.81
362.07	588.81
362.296	560.81
362.523	585.81
362.749	572.81
362.976	558.81
363.203	600.81
363.429	591.81
363.656	593.81
363.882	574.81
364.109	585.81
364.335	558.81
364.562	572.81
364.788	563.81
365.015	586.81
365.241	572.81
365.468	570.81
365.694	558.81
365.92	579.81
366.147	580.81
366.373	572.81
366.599	595.81
366.826	591.81
367.052	578.81
367.278	574.81
367.505	577.81
367.731	591.81
367.957	591.81
368.184	605.81
368.41	609.81
368.636	600.81
368.862	611.81
369.089	593.81
369.315	605.81
369.541	608.81
369.767	607.81
369.993	595.81
370.219	601.81
370.445	608.81
370.672	610.81
370.898	630.81
371.124	630.81
371.35	641.81
371.576	651.81
371.802	636.81
372.028	630.81
372.254	640.81
372.48	650.81
372.706	644.81
372.932	631.81
373.158	645.81
373.384	672.81
373.61	646.81
373.835	641.81
374.061	658.81
374.287	640.81
374.513	656.81
374.739	659.81
374.965	689.81
375.191	673.81
375.416	671.81
375.642	675.81
375.868	698.81
376.094	655.81
376.319	651.81
376.545	659.81
376.771	632.81
376.997	640.81
377.222	625.81
377.448	626.81
377.674	634.81
377.899	617.81
378.125	644.81
378.35	625.81
378.576	623.81
378.802	616.81
379.027	622.81
379.253	636.81
379.478	648.81
379.704	631.81
379.929	645.81
380.155	646.81
380.38	624.81
380.606	634.81
380.831	634.81
381.057	620.81
381.282	643.81
381.507	660.81
381.733	654.81
381.958	658.81
382.184	677.81
382.409	691.81
382.634	663.81
382.86	681.81
383.085	668.81
383.31	686.81
383.535	700.81
383.761	702.81
383.986	687.81
384.211	676.81
384.436	706.81
384.662	721.81
384.887	688.81
385.112	687.81
385.337	712.81
385.562	725.81
385.787	712.81
386.013	759.81
386.238	735.81
386.463	738.81
386.688	754.81
386.913	710.81
387.138	736.81
387.363	756.81
387.588	732.81
387.813	769.81
388.038	757.81
388.263	755.81
388.488	723.81
388.713	782.81
388.938	727.81
389.163	740.81
389.387	742.81
389.612	743.81
389.837	743.81
390.062	739.81
390.287	732.81
390.512	748.81
390.736	746.81
390.961	754.81
391.186	776.81
391.411	754.81
391.636	789.81
391.86	799.81
392.085	788.81
392.31	792.81
392.534	787.81
392.759	773.81
392.984	796.81
393.208	776.81
393.433	795.81
393.658	753.81
393.882	786.81
394.107	757.81
394.331	780.81
394.556	784.81
394.78	774.81
395.005	810.81
395.229	792.81
395.454	814.81
395.678	791.81
395.903	824.81
396.127	782.81
396.352	792.81
396.576	814.81
396.801	804.81
397.025	812.81
397.249	830.81
397.474	857.81
397.698	809.81
397.922	861.81
398.147	845.81
398.371	862.81
398.595	876.81
398.82	878.81
399.044	928.81
399.268	949.81
399.492	1017.81
399.717	1076.81
399.941	1063.81
400.165	1058.81
400.389	1024.81
400.613	979.81
400.837	966.81
401.062	923.81
401.286	925.81
401.51	933.81
401.734	902.81
401.958	908.81
402.182	888.81
402.406	902.81
402.63	911.81
402.854	904.81
403.078	912.81
403.302	952.81
403.526	924.81
403.75	946.81
403.974	961.81
404.198	938.81
404.422	943.81
404.645	968.81
404.869	962.81
405.093	945.81
405.317	962.81
405.541	953.81
405.765	979.81
405.988	960.81
406.212	950.81
406.436	974.81
406.66	1033.81
406.883	1013.81
407.107	1024.81
407.331	1030.81
407.555	1059.81
407.778	1055.81
408.002	1047.81
408.226	1032.81
408.449	1062.81
408.673	1000.81
408.896	1018.81
409.12	991.81
409.344	1036.81
409.567	1016.81
409.791	983.81
410.014	980.81
410.238	960.81
410.461	988.81
410.685	987.81
410.908	987.81
411.132	960.81
411.355	941.81
411.578	960.81
411.802	951.81
412.025	955.81
412.249	968.81
412.472	949.81
412.695	932.81
412.919	932.81
413.142	966.81
413.365	928.81
413.589	933.81
413.812	906.81
414.035	922.81
414.258	913.81
414.482	949.81
414.705	935.81
414.928	937.81
415.151	930.81
415.374	944.81
415.597	906.81
415.821	916.81
416.044	902.81
416.267	895.81
416.49	899.81
416.713	892.81
416.936	913.81
417.159	892.81
417.382	881.81
417.605	881.81
417.828	887.81
418.051	873.81
418.274	906.81
418.497	855.81
418.72	900.81
418.943	898.81
419.166	918.81
419.389	990.81
419.611	981.81
419.834	964.81
420.057	929.81
420.28	901.81
420.503	873.81
420.726	880.81
420.948	887.81
421.171	870.81
421.394	886.81
421.617	872.81
421.839	892.81
422.062	900.81
422.285	883.81
422.507	870.81
422.73	864.81
422.953	879.81
423.175	885.81
423.398	866.81
423.621	901.81
423.843	924.81
424.066	876.81
424.288	890.81
424.511	896.81
424.733	899.81
424.956	900.81
425.178	872.81
425.401	888.81
425.623	866.81
425.846	843.81
426.068	845.81
426.291	882.81
426.513	846.81
426.735	832.81
426.958	882.81
427.18	820.81
427.402	834.81
427.625	832.81
427.847	856.81
428.069	838.81
428.292	860.81
428.514	840.81
428.736	840.81
428.958	814.81
429.181	821.81
429.403	837.81
429.625	839.81
429.847	818.81
430.069	806.81
430.292	823.81
430.514	809.81
430.736	854.81
430.958	827.81
431.18	850.81
431.402	826.81
431.624	846.81
431.846	844.81
432.068	827.81
432.29	852.81
432.512	813.81
432.734	832.81
432.956	827.81
433.178	814.81
433.4	833.81
433.622	850.81
433.844	848.81
434.066	846.81
434.287	843.81
434.509	857.81
434.731	873.81
434.953	849.81
435.175	888.81
435.397	880.81
435.618	881.81
435.84	842.81
436.062	833.81
436.284	836.81
436.505	819.81
436.727	809.81
436.949	827.81
437.17	829.81
437.392	845.81
437.614	814.81
437.835	833.81
438.057	821.81
438.278	805.81
438.5	816.81
438.721	828.81
438.943	817.81
439.165	814.81
439.386	801.81
439.608	825.81
439.829	833.81
440.05	830.81
440.272	828.81
440.493	855.81
440.715	850.81
440.936	852.81
441.158	862.81
441.379	855.81
441.6	891.81
441.822	867.81
442.043	889.81
442.264	892.81
442.486	859.81
442.707	866.81
442.928	865.81
443.149	895.81
443.371	900.81
443.592	857.81
443.813	898.81
444.034	883.81
444.255	884.81
444.476	926.81
444.698	911.81
444.919	970.81
445.14	1046.81
445.361	947.81
445.582	908.81
445.803	900.81
446.024	868.81
446.245	887.81
446.466	864.81
446.687	844.81
446.908	832.81
447.129	819.81
447.35	801.81
447.571	830.81
447.792	823.81
448.013	801.81
448.234	786.81
448.455	783.81
448.675	788.81
448.896	792.81
449.117	781.81
449.338	804.81
449.559	792.81
449.779	767.81
450	749.81
450.221	770.81
450.442	757.81
450.662	764.81
450.883	761.81
451.104	771.81
451.324	777.81
451.545	760.81
451.766	766.81
451.986	756.81
452.207	762.81
452.428	754.81
452.648	761.81
452.869	725.81
453.089	746.81
453.31	722.81
453.53	738.81
453.751	734.81
453.971	739.81
454.192	710.81
454.412	728.81
454.633	730.81
454.853	745.81
455.073	712.81
455.294	736.81
455.514	750.81
455.734	732.81
455.955	709.81
456.175	723.81
456.395	715.81
456.616	726.81
456.836	728.81
457.056	730.81
457.276	719.81
457.497	711.81
457.717	732.81
457.937	749.81
458.157	737.81
458.377	752.81
458.598	781.81
458.818	778.81
459.038	801.81
459.258	797.81
459.478	832.81
459.698	830.81
459.918	849.81
460.138	885.81
460.358	858.81
460.578	890.81
460.798	904.81
461.018	892.81
461.238	886.81
461.458	886.81
461.678	896.81
461.898	913.81
462.118	928.81
462.338	933.81
462.558	958.81
462.777	952.81
462.997	1022.81
463.217	1038.81
463.437	1045.81
463.657	1009.81
463.876	1018.81
464.096	1008.81
464.316	999.81
464.536	995.81
464.755	986.81
464.975	975.81
465.195	963.81
465.414	904.81
465.634	850.81
465.854	853.81
466.073	856.81
466.293	855.81
466.512	807.81
466.732	817.81
466.951	834.81
467.171	847.81
467.391	807.81
467.61	818.81
467.829	798.81
468.049	807.81
468.268	822.81
468.488	806.81
468.707	814.81
468.927	793.81
469.146	795.81
469.365	822.81
469.585	796.81
469.804	818.81
470.023	829.81
470.243	820.81
470.462	807.81
470.681	820.81
470.901	805.81
471.12	805.81
471.339	809.81
471.558	790.81
471.777	809.81
471.997	783.81
472.216	785.81
472.435	808.81
472.654	780.81
472.873	792.81
473.092	792.81
473.311	795.81
473.53	776.81
473.749	797.81
473.968	804.81
474.187	764.81
474.406	806.81
474.625	798.81
474.844	785.81
475.063	808.81
475.282	793.81
475.501	798.81
475.72	824.81
475.939	807.81
476.158	821.81
476.377	832.81
476.596	858.81
476.814	856.81
477.033	836.81
477.252	858.81
477.471	857.81
477.69	883.81
477.908	888.81
478.127	897.81
478.346	918.81
478.564	921.81
478.783	925.81
479.002	937.81
479.22	962.81
479.439	962.81
479.658	924.81
479.876	936.81
480.095	962.81
480.313	979.81
480.532	993.81
480.751	965.81
480.969	945.81
481.188	959.81
481.406	948.81
481.624	960.81
481.843	929.81
482.061	930.81
482.28	937.81
482.498	933.81
482.717	912.81
482.935	916.81
483.153	945.81
483.372	933.81
483.59	940.81
483.808	907.81
484.027	916.81
484.245	947.81
484.463	912.81
484.681	942.81
484.9	946.81
485.118	941.81
485.336	936.81
485.554	943.81
485.772	947.81
485.99	951.81
486.209	947.81
486.427	938.81
486.645	973.81
486.863	965.81
487.081	949.81
487.299	935.81
487.517	970.81
487.735	969.81
487.953	964.81
488.171	963.81
488.389	985.81
488.607	941.81
488.825	959.81
489.043	938.81
489.261	972.81
489.479	938.81
489.696	936.81
489.914	935.81
490.132	956.81
490.35	932.81
490.568	949.81
490.786	970.81
491.003	956.81
491.221	969.81
491.439	946.81
491.657	984.81
491.874	957.81
492.092	1010.81
492.31	1021.81
492.527	987.81
492.745	1024.81
492.963	1009.81
493.18	1016.81
493.398	996.81
493.615	1007.81
493.833	1028.81
494.05	991.81
494.268	1024.81
494.485	991.81
494.703	1014.81
494.92	1025.81
495.138	1055.81
495.355	1042.81
495.573	1029.81
495.79	1023.81
496.008	1053.81
496.225	1033.81
496.442	1047.81
496.66	1047.81
496.877	1077.81
497.094	1078.81
497.312	1093.81
497.529	1114.81
497.746	1136.81
497.963	1151.81
498.181	1198.81
498.398	1204.81
498.615	1278.81
498.832	1288.81
499.049	1330.81
499.267	1411.81
499.484	1492.81
499.701	1567.81
499.918	1640.81
500.135	1736.81
500.352	1841.81
500.569	1858.81
500.786	1841.81
