Data from Fe(NO3)3@0.025M.TitratingCurve.Agarose3%dH2O.NegLispCup.LampEnergy10.LIBS07252019_HRD10591_16-54-27-335.txt Node
Date: Thu Jul 25 16:54:27 EDT 2019
User: cochatt
Spectrometer: HR+D1059
Trigger mode: 1
Integration Time (sec): 1.000000E-1
Scans to average: 1
Electric dark correction enabled: true
Nonlinearity correction enabled: false
Boxcar width: 0
XAxis mode: Wavelengths
Number of Pixels in Spectrum: 2048
>>>>>Begin Spectral Data<<<<<
223.165	-12.19
223.4	-12.19
223.635	-12.19
223.869	-27.19
224.104	-18.19
224.338	-13.19
224.573	-16.19
224.808	-20.19
225.042	8.81
225.277	-20.19
225.511	-1.19
225.746	10.81
225.98	1.81
226.215	1.81
226.449	13.81
226.683	20.81
226.918	37.81
227.152	32.81
227.387	36.81
227.621	26.81
227.856	34.81
228.09	46.81
228.324	50.81
228.559	56.81
228.793	62.81
229.027	83.81
229.262	87.81
229.496	86.81
229.73	90.81
229.964	92.81
230.199	92.81
230.433	106.81
230.667	93.81
230.901	113.81
231.136	105.81
231.37	110.81
231.604	106.81
231.838	98.81
232.072	110.81
232.306	110.81
232.541	110.81
232.775	95.81
233.009	110.81
233.243	100.81
233.477	97.81
233.711	101.81
233.945	103.81
234.179	101.81
234.413	115.81
234.647	111.81
234.881	101.81
235.115	97.81
235.349	107.81
235.583	122.81
235.817	119.81
236.051	115.81
236.285	115.81
236.519	112.81
236.753	98.81
236.987	116.81
237.221	116.81
237.455	110.81
237.689	111.81
237.922	120.81
238.156	119.81
238.39	97.81
238.624	102.81
238.858	98.81
239.091	114.81
239.325	110.81
239.559	119.81
239.793	119.81
240.027	112.81
240.26	117.81
240.494	122.81
240.728	118.81
240.961	126.81
241.195	117.81
241.429	122.81
241.662	116.81
241.896	120.81
242.13	121.81
242.363	112.81
242.597	132.81
242.83	109.81
243.064	112.81
243.298	103.81
243.531	126.81
243.765	120.81
243.998	128.81
244.232	128.81
244.465	123.81
244.699	121.81
244.932	124.81
245.166	146.81
245.399	134.81
245.633	132.81
245.866	123.81
246.099	134.81
246.333	134.81
246.566	128.81
246.8	134.81
247.033	129.81
247.266	133.81
247.5	122.81
247.733	120.81
247.966	130.81
248.2	143.81
248.433	139.81
248.666	125.81
248.899	150.81
249.133	145.81
249.366	151.81
249.599	148.81
249.832	149.81
250.066	154.81
250.299	151.81
250.532	141.81
250.765	140.81
250.998	135.81
251.231	140.81
251.465	142.81
251.698	126.81
251.931	151.81
252.164	146.81
252.397	141.81
252.63	157.81
252.863	145.81
253.096	150.81
253.329	143.81
253.562	153.81
253.795	151.81
254.028	166.81
254.261	154.81
254.494	144.81
254.727	154.81
254.96	149.81
255.193	144.81
255.426	164.81
255.659	155.81
255.892	148.81
256.124	162.81
256.357	150.81
256.59	174.81
256.823	165.81
257.056	146.81
257.289	171.81
257.521	176.81
257.754	190.81
257.987	171.81
258.22	156.81
258.452	177.81
258.685	166.81
258.918	149.81
259.151	156.81
259.383	174.81
259.616	170.81
259.849	174.81
260.081	166.81
260.314	184.81
260.547	174.81
260.779	170.81
261.012	162.81
261.244	197.81
261.477	176.81
261.71	182.81
261.942	174.81
262.175	164.81
262.407	170.81
262.64	177.81
262.872	168.81
263.105	176.81
263.337	192.81
263.57	187.81
263.802	174.81
264.035	187.81
264.267	180.81
264.499	183.81
264.732	181.81
264.964	175.81
265.197	167.81
265.429	181.81
265.661	169.81
265.894	179.81
266.126	178.81
266.358	169.81
266.591	186.81
266.823	198.81
267.055	190.81
267.287	179.81
267.52	180.81
267.752	178.81
267.984	182.81
268.216	190.81
268.448	159.81
268.681	183.81
268.913	185.81
269.145	182.81
269.377	180.81
269.609	198.81
269.841	178.81
270.073	197.81
270.306	185.81
270.538	205.81
270.77	182.81
271.002	189.81
271.234	186.81
271.466	196.81
271.698	193.81
271.93	219.81
272.162	197.81
272.394	204.81
272.626	211.81
272.858	223.81
273.09	217.81
273.322	207.81
273.553	191.81
273.785	203.81
274.017	207.81
274.249	221.81
274.481	223.81
274.713	225.81
274.945	233.81
275.176	232.81
275.408	219.81
275.64	225.81
275.872	226.81
276.104	210.81
276.335	212.81
276.567	222.81
276.799	215.81
277.031	212.81
277.262	223.81
277.494	209.81
277.726	221.81
277.957	221.81
278.189	209.81
278.421	203.81
278.652	224.81
278.884	220.81
279.115	222.81
279.347	208.81
279.579	231.81
279.81	220.81
280.042	218.81
280.273	217.81
280.505	222.81
280.736	215.81
280.968	218.81
281.199	226.81
281.431	216.81
281.662	205.81
281.894	227.81
282.125	215.81
282.356	229.81
282.588	234.81
282.819	228.81
283.051	234.81
283.282	240.81
283.513	246.81
283.745	241.81
283.976	219.81
284.207	221.81
284.439	241.81
284.67	239.81
284.901	230.81
285.132	238.81
285.364	233.81
285.595	233.81
285.826	230.81
286.057	232.81
286.288	253.81
286.52	248.81
286.751	230.81
286.982	238.81
287.213	233.81
287.444	243.81
287.675	235.81
287.906	240.81
288.138	254.81
288.369	258.81
288.6	251.81
288.831	241.81
289.062	244.81
289.293	242.81
289.524	241.81
289.755	251.81
289.986	234.81
290.217	242.81
290.448	260.81
290.679	245.81
290.91	266.81
291.141	253.81
291.371	278.81
291.602	256.81
291.833	234.81
292.064	262.81
292.295	252.81
292.526	261.81
292.757	256.81
292.987	240.81
293.218	253.81
293.449	252.81
293.68	251.81
293.91	262.81
294.141	259.81
294.372	250.81
294.603	256.81
294.833	264.81
295.064	246.81
295.295	254.81
295.525	273.81
295.756	272.81
295.987	267.81
296.217	266.81
296.448	278.81
296.679	259.81
296.909	256.81
297.14	268.81
297.37	264.81
297.601	271.81
297.831	282.81
298.062	243.81
298.292	259.81
298.523	269.81
298.753	282.81
298.984	264.81
299.214	273.81
299.445	276.81
299.675	273.81
299.905	259.81
300.136	274.81
300.366	281.81
300.597	276.81
300.827	270.81
301.057	268.81
301.288	275.81
301.518	276.81
301.748	287.81
301.979	296.81
302.209	286.81
302.439	289.81
302.669	290.81
302.9	298.81
303.13	284.81
303.36	278.81
303.59	276.81
303.82	287.81
304.051	277.81
304.281	280.81
304.511	296.81
304.741	292.81
304.971	267.81
305.201	293.81
305.431	298.81
305.661	286.81
305.891	282.81
306.121	307.81
306.352	280.81
306.582	306.81
306.812	278.81
307.042	276.81
307.272	281.81
307.502	280.81
307.731	278.81
307.961	302.81
308.191	279.81
308.421	313.81
308.651	287.81
308.881	276.81
309.111	288.81
309.341	280.81
309.571	284.81
309.8	302.81
310.03	295.81
310.26	290.81
310.49	317.81
310.72	305.81
310.949	303.81
311.179	281.81
311.409	286.81
311.639	294.81
311.868	278.81
312.098	288.81
312.328	302.81
312.557	310.81
312.787	294.81
313.017	302.81
313.246	303.81
313.476	284.81
313.706	305.81
313.935	288.81
314.165	291.81
314.394	311.81
314.624	312.81
314.853	302.81
315.083	297.81
315.312	306.81
315.542	314.81
315.771	305.81
316.001	314.81
316.23	307.81
316.46	306.81
316.689	297.81
316.919	294.81
317.148	303.81
317.377	314.81
317.607	318.81
317.836	316.81
318.065	312.81
318.295	311.81
318.524	314.81
318.753	313.81
318.983	319.81
319.212	303.81
319.441	324.81
319.67	296.81
319.9	308.81
320.129	320.81
320.358	308.81
320.587	327.81
320.816	313.81
321.046	322.81
321.275	306.81
321.504	309.81
321.733	303.81
321.962	325.81
322.191	316.81
322.42	291.81
322.649	319.81
322.878	343.81
323.108	312.81
323.337	324.81
323.566	341.81
323.795	329.81
324.024	309.81
324.253	328.81
324.482	313.81
324.71	312.81
324.939	321.81
325.168	317.81
325.397	320.81
325.626	315.81
325.855	344.81
326.084	339.81
326.313	335.81
326.542	320.81
326.77	334.81
326.999	337.81
327.228	323.81
327.457	326.81
327.686	339.81
327.914	339.81
328.143	358.81
328.372	332.81
328.6	327.81
328.829	341.81
329.058	346.81
329.287	336.81
329.515	325.81
329.744	327.81
329.972	362.81
330.201	347.81
330.43	340.81
330.658	344.81
330.887	342.81
331.115	335.81
331.344	361.81
331.572	348.81
331.801	357.81
332.03	360.81
332.258	363.81
332.486	356.81
332.715	374.81
332.943	368.81
333.172	367.81
333.4	359.81
333.629	374.81
333.857	395.81
334.085	375.81
334.314	364.81
334.542	398.81
334.771	410.81
334.999	363.81
335.227	376.81
335.455	388.81
335.684	386.81
335.912	396.81
336.14	396.81
336.369	402.81
336.597	394.81
336.825	366.81
337.053	380.81
337.281	378.81
337.51	377.81
337.738	367.81
337.966	380.81
338.194	394.81
338.422	366.81
338.65	356.81
338.878	363.81
339.106	367.81
339.334	354.81
339.562	354.81
339.79	360.81
340.018	372.81
340.246	364.81
340.474	351.81
340.702	342.81
340.93	363.81
341.158	356.81
341.386	363.81
341.614	360.81
341.842	356.81
342.07	350.81
342.298	366.81
342.526	342.81
342.754	347.81
342.981	357.81
343.209	374.81
343.437	370.81
343.665	382.81
343.893	397.81
344.12	385.81
344.348	386.81
344.576	372.81
344.804	374.81
345.031	374.81
345.259	360.81
345.487	362.81
345.714	363.81
345.942	360.81
346.17	354.81
346.397	359.81
346.625	316.81
346.853	350.81
347.08	344.81
347.308	350.81
347.535	350.81
347.763	339.81
347.99	346.81
348.218	327.81
348.445	351.81
348.673	332.81
348.9	326.81
349.128	341.81
349.355	335.81
349.583	335.81
349.81	331.81
350.037	324.81
350.265	347.81
350.492	334.81
350.72	341.81
350.947	335.81
351.174	345.81
351.402	341.81
351.629	322.81
351.856	348.81
352.083	354.81
352.311	330.81
352.538	324.81
352.765	313.81
352.992	344.81
353.22	353.81
353.447	348.81
353.674	343.81
353.901	343.81
354.128	350.81
354.355	338.81
354.583	335.81
354.81	341.81
355.037	359.81
355.264	351.81
355.491	338.81
355.718	340.81
355.945	329.81
356.172	342.81
356.399	334.81
356.626	358.81
356.853	341.81
357.08	351.81
357.307	328.81
357.534	344.81
357.761	345.81
357.988	356.81
358.215	355.81
358.441	338.81
358.668	340.81
358.895	355.81
359.122	351.81
359.349	342.81
359.576	328.81
359.802	355.81
360.029	359.81
360.256	346.81
360.483	354.81
360.709	347.81
360.936	360.81
361.163	350.81
361.39	343.81
361.616	364.81
361.843	357.81
362.07	353.81
362.296	350.81
362.523	348.81
362.749	368.81
362.976	356.81
363.203	344.81
363.429	351.81
363.656	353.81
363.882	345.81
364.109	345.81
364.335	354.81
364.562	347.81
364.788	343.81
365.015	346.81
365.241	358.81
365.468	364.81
365.694	346.81
365.92	361.81
366.147	349.81
366.373	352.81
366.599	337.81
366.826	357.81
367.052	346.81
367.278	359.81
367.505	334.81
367.731	361.81
367.957	352.81
368.184	359.81
368.41	349.81
368.636	359.81
368.862	349.81
369.089	371.81
369.315	328.81
369.541	367.81
369.767	343.81
369.993	341.81
370.219	352.81
370.445	359.81
370.672	360.81
370.898	359.81
371.124	374.81
371.35	387.81
371.576	361.81
371.802	376.81
372.028	375.81
372.254	383.81
372.48	367.81
372.706	373.81
372.932	382.81
373.158	378.81
373.384	368.81
373.61	376.81
373.835	396.81
374.061	364.81
374.287	364.81
374.513	376.81
374.739	396.81
374.965	394.81
375.191	408.81
375.416	387.81
375.642	389.81
375.868	377.81
376.094	390.81
376.319	409.81
376.545	394.81
376.771	382.81
376.997	378.81
377.222	384.81
377.448	367.81
377.674	377.81
377.899	394.81
378.125	380.81
378.35	360.81
378.576	366.81
378.802	376.81
379.027	360.81
379.253	351.81
379.478	359.81
379.704	357.81
379.929	366.81
380.155	368.81
380.38	375.81
380.606	379.81
380.831	374.81
381.057	371.81
381.282	354.81
381.507	366.81
381.733	383.81
381.958	385.81
382.184	395.81
382.409	388.81
382.634	387.81
382.86	413.81
383.085	397.81
383.31	395.81
383.535	393.81
383.761	389.81
383.986	399.81
384.211	418.81
384.436	409.81
384.662	422.81
384.887	396.81
385.112	420.81
385.337	405.81
385.562	407.81
385.787	409.81
386.013	412.81
386.238	430.81
386.463	442.81
386.688	428.81
386.913	422.81
387.138	411.81
387.363	424.81
387.588	433.81
387.813	432.81
388.038	425.81
388.263	434.81
388.488	430.81
388.713	436.81
388.938	420.81
389.163	405.81
389.387	422.81
389.612	399.81
389.837	421.81
390.062	419.81
390.287	416.81
390.512	436.81
390.736	433.81
390.961	428.81
391.186	448.81
391.411	435.81
391.636	456.81
391.86	440.81
392.085	468.81
392.31	467.81
392.534	431.81
392.759	464.81
392.984	439.81
393.208	455.81
393.433	454.81
393.658	461.81
393.882	440.81
394.107	451.81
394.331	440.81
394.556	453.81
394.78	468.81
395.005	449.81
395.229	444.81
395.454	452.81
395.678	468.81
395.903	474.81
396.127	473.81
396.352	458.81
396.576	459.81
396.801	453.81
397.025	451.81
397.249	470.81
397.474	475.81
397.698	481.81
397.922	474.81
398.147	465.81
398.371	491.81
398.595	498.81
398.82	517.81
399.044	517.81
399.268	551.81
399.492	578.81
399.717	597.81
399.941	594.81
400.165	592.81
400.389	562.81
400.613	568.81
400.837	516.81
401.062	518.81
401.286	514.81
401.51	524.81
401.734	518.81
401.958	511.81
402.182	499.81
402.406	512.81
402.63	512.81
402.854	527.81
403.078	516.81
403.302	530.81
403.526	514.81
403.75	514.81
403.974	541.81
404.198	531.81
404.422	530.81
404.645	536.81
404.869	544.81
405.093	528.81
405.317	522.81
405.541	507.81
405.765	523.81
405.988	498.81
406.212	536.81
406.436	528.81
406.66	542.81
406.883	554.81
407.107	576.81
407.331	568.81
407.555	593.81
407.778	601.81
408.002	579.81
408.226	586.81
408.449	572.81
408.673	579.81
408.896	561.81
409.12	542.81
409.344	547.81
409.567	570.81
409.791	543.81
410.014	530.81
410.238	546.81
410.461	547.81
410.685	523.81
410.908	549.81
411.132	528.81
411.355	511.81
411.578	543.81
411.802	518.81
412.025	524.81
412.249	520.81
412.472	538.81
412.695	507.81
412.919	511.81
413.142	523.81
413.365	506.81
413.589	521.81
413.812	515.81
414.035	512.81
414.258	508.81
414.482	512.81
414.705	526.81
414.928	521.81
415.151	520.81
415.374	513.81
415.597	517.81
415.821	503.81
416.044	515.81
416.267	506.81
416.49	491.81
416.713	493.81
416.936	504.81
417.159	489.81
417.382	479.81
417.605	486.81
417.828	484.81
418.051	492.81
418.274	480.81
418.497	476.81
418.72	492.81
418.943	468.81
419.166	499.81
419.389	525.81
419.611	528.81
419.834	517.81
420.057	514.81
420.28	488.81
420.503	467.81
420.726	466.81
420.948	491.81
421.171	488.81
421.394	480.81
421.617	472.81
421.839	490.81
422.062	470.81
422.285	464.81
422.507	472.81
422.73	464.81
422.953	500.81
423.175	494.81
423.398	503.81
423.621	484.81
423.843	502.81
424.066	475.81
424.288	496.81
424.511	488.81
424.733	473.81
424.956	487.81
425.178	481.81
425.401	487.81
425.623	470.81
425.846	478.81
426.068	475.81
426.291	457.81
426.513	446.81
426.735	460.81
426.958	445.81
427.18	439.81
427.402	469.81
427.625	467.81
427.847	470.81
428.069	459.81
428.292	479.81
428.514	457.81
428.736	460.81
428.958	450.81
429.181	439.81
429.403	452.81
429.625	449.81
429.847	449.81
430.069	426.81
430.292	437.81
430.514	448.81
430.736	448.81
430.958	441.81
431.18	449.81
431.402	452.81
431.624	437.81
431.846	454.81
432.068	459.81
432.29	452.81
432.512	460.81
432.734	472.81
432.956	437.81
433.178	459.81
433.4	451.81
433.622	459.81
433.844	451.81
434.066	463.81
434.287	442.81
434.509	473.81
434.731	460.81
434.953	480.81
435.175	482.81
435.397	491.81
435.618	447.81
435.84	461.81
436.062	459.81
436.284	447.81
436.505	459.81
436.727	460.81
436.949	439.81
437.17	457.81
437.392	436.81
437.614	440.81
437.835	419.81
438.057	432.81
438.278	430.81
438.5	445.81
438.721	423.81
438.943	432.81
439.165	445.81
439.386	437.81
439.608	447.81
439.829	427.81
440.05	444.81
440.272	440.81
440.493	460.81
440.715	446.81
440.936	458.81
441.158	475.81
441.379	473.81
441.6	477.81
441.822	471.81
442.043	472.81
442.264	466.81
442.486	473.81
442.707	441.81
442.928	456.81
443.149	462.81
443.371	468.81
443.592	473.81
443.813	465.81
444.034	464.81
444.255	463.81
444.476	484.81
444.698	510.81
444.919	524.81
445.14	626.81
445.361	514.81
445.582	481.81
445.803	471.81
446.024	465.81
446.245	451.81
446.466	460.81
446.687	440.81
446.908	450.81
447.129	433.81
447.35	444.81
447.571	425.81
447.792	412.81
448.013	419.81
448.234	419.81
448.455	414.81
448.675	435.81
448.896	426.81
449.117	409.81
449.338	399.81
449.559	399.81
449.779	396.81
450	409.81
450.221	430.81
450.442	416.81
450.662	421.81
450.883	410.81
451.104	424.81
451.324	413.81
451.545	424.81
451.766	410.81
451.986	411.81
452.207	396.81
452.428	418.81
452.648	389.81
452.869	389.81
453.089	383.81
453.31	409.81
453.53	375.81
453.751	415.81
453.971	407.81
454.192	424.81
454.412	420.81
454.633	386.81
454.853	410.81
455.073	410.81
455.294	407.81
455.514	385.81
455.734	396.81
455.955	387.81
456.175	407.81
456.395	393.81
456.616	388.81
456.836	408.81
457.056	409.81
457.276	378.81
457.497	390.81
457.717	392.81
457.937	375.81
458.157	406.81
458.377	394.81
458.598	418.81
458.818	422.81
459.038	444.81
459.258	440.81
459.478	449.81
459.698	464.81
459.918	470.81
460.138	435.81
460.358	476.81
460.578	468.81
460.798	477.81
461.018	496.81
461.238	486.81
461.458	505.81
461.678	497.81
461.898	495.81
462.118	499.81
462.338	521.81
462.558	528.81
462.777	536.81
462.997	544.81
463.217	556.81
463.437	555.81
463.657	543.81
463.876	539.81
464.096	528.81
464.316	508.81
464.536	547.81
464.755	531.81
464.975	500.81
465.195	499.81
465.414	482.81
465.634	478.81
465.854	462.81
466.073	467.81
466.293	481.81
466.512	429.81
466.732	431.81
466.951	415.81
467.171	421.81
467.391	449.81
467.61	446.81
467.829	424.81
468.049	451.81
468.268	402.81
468.488	414.81
468.707	400.81
468.927	415.81
469.146	414.81
469.365	419.81
469.585	412.81
469.804	417.81
470.023	434.81
470.243	454.81
470.462	460.81
470.681	452.81
470.901	446.81
471.12	439.81
471.339	434.81
471.558	442.81
471.777	442.81
471.997	427.81
472.216	436.81
472.435	397.81
472.654	428.81
472.873	426.81
473.092	427.81
473.311	424.81
473.53	425.81
473.749	421.81
473.968	438.81
474.187	431.81
474.406	424.81
474.625	442.81
474.844	421.81
475.063	441.81
475.282	431.81
475.501	437.81
475.72	440.81
475.939	429.81
476.158	439.81
476.377	459.81
476.596	452.81
476.814	432.81
477.033	454.81
477.252	471.81
477.471	476.81
477.69	479.81
477.908	487.81
478.127	507.81
478.346	479.81
478.564	467.81
478.783	465.81
479.002	500.81
479.22	498.81
479.439	523.81
479.658	508.81
479.876	492.81
480.095	521.81
480.313	497.81
480.532	504.81
480.751	528.81
480.969	515.81
481.188	519.81
481.406	505.81
481.624	502.81
481.843	489.81
482.061	514.81
482.28	485.81
482.498	474.81
482.717	494.81
482.935	515.81
483.153	503.81
483.372	467.81
483.59	475.81
483.808	493.81
484.027	502.81
484.245	480.81
484.463	498.81
484.681	506.81
484.9	498.81
485.118	509.81
485.336	504.81
485.554	514.81
485.772	515.81
485.99	515.81
486.209	530.81
486.427	487.81
486.645	502.81
486.863	512.81
487.081	527.81
487.299	532.81
487.517	511.81
487.735	506.81
487.953	495.81
488.171	518.81
488.389	502.81
488.607	498.81
488.825	523.81
489.043	503.81
489.261	517.81
489.479	512.81
489.696	529.81
489.914	511.81
490.132	494.81
490.35	485.81
490.568	512.81
490.786	530.81
491.003	521.81
491.221	518.81
491.439	514.81
491.657	506.81
491.874	516.81
492.092	523.81
492.31	524.81
492.527	522.81
492.745	534.81
492.963	501.81
493.18	538.81
493.398	530.81
493.615	527.81
493.833	522.81
494.05	510.81
494.268	538.81
494.485	539.81
494.703	543.81
494.92	524.81
495.138	548.81
495.355	549.81
495.573	542.81
495.79	534.81
496.008	560.81
496.225	562.81
496.442	591.81
496.66	578.81
496.877	574.81
497.094	570.81
497.312	578.81
497.529	588.81
497.746	594.81
497.963	615.81
498.181	617.81
498.398	650.81
498.615	694.81
498.832	690.81
499.049	726.81
499.267	745.81
499.484	811.81
499.701	829.81
499.918	868.81
500.135	918.81
500.352	964.81
500.569	991.81
500.786	1007.81
501.003	985.81
501.22	913.81
501.437	889.81
501.654	832.81
