Data from Fe(NO3)3@0.05M.TitratingCurve.Agarose3%dH2O.NegLispCup.LampEnergy10.LIBS07252019_HRD10591_16-46-13-334.txt Node
Date: Thu Jul 25 16:46:13 EDT 2019
User: cochatt
Spectrometer: HR+D1059
Trigger mode: 1
Integration Time (sec): 1.000000E-1
Scans to average: 1
Electric dark correction enabled: true
Nonlinearity correction enabled: false
Boxcar width: 0
XAxis mode: Wavelengths
Number of Pixels in Spectrum: 2048
>>>>>Begin Spectral Data<<<<<
223.165	-11.06
223.4	-11.06
223.635	-11.06
223.869	-31.06
224.104	-27.06
224.338	-15.06
224.573	-16.06
224.808	-2.06
225.042	-11.06
225.277	0.94
225.511	-13.06
225.746	10.94
225.98	0.94
226.215	18.94
226.449	20.94
226.683	24.94
226.918	28.94
227.152	19.94
227.387	23.94
227.621	28.94
227.856	36.94
228.09	49.94
228.324	43.94
228.559	43.94
228.793	75.94
229.027	111.94
229.262	119.94
229.496	131.94
229.73	127.94
229.964	128.94
230.199	128.94
230.433	137.94
230.667	135.94
230.901	128.94
231.136	142.94
231.37	134.94
231.604	143.94
231.838	157.94
232.072	139.94
232.306	155.94
232.541	175.94
232.775	148.94
233.009	157.94
233.243	164.94
233.477	177.94
233.711	182.94
233.945	163.94
234.179	162.94
234.413	177.94
234.647	177.94
234.881	179.94
235.115	165.94
235.349	172.94
235.583	181.94
235.817	167.94
236.051	185.94
236.285	161.94
236.519	191.94
236.753	186.94
236.987	173.94
237.221	166.94
237.455	179.94
237.689	180.94
237.922	181.94
238.156	179.94
238.39	196.94
238.624	218.94
238.858	200.94
239.091	199.94
239.325	207.94
239.559	189.94
239.793	196.94
240.027	227.94
240.26	221.94
240.494	222.94
240.728	219.94
240.961	220.94
241.195	213.94
241.429	232.94
241.662	203.94
241.896	201.94
242.13	223.94
242.363	211.94
242.597	213.94
242.83	219.94
243.064	232.94
243.298	229.94
243.531	226.94
243.765	228.94
243.998	226.94
244.232	251.94
244.465	243.94
244.699	240.94
244.932	236.94
245.166	245.94
245.399	241.94
245.633	250.94
245.866	252.94
246.099	239.94
246.333	250.94
246.566	248.94
246.8	266.94
247.033	265.94
247.266	268.94
247.5	265.94
247.733	266.94
247.966	263.94
248.2	259.94
248.433	271.94
248.666	273.94
248.899	283.94
249.133	290.94
249.366	289.94
249.599	308.94
249.832	291.94
250.066	281.94
250.299	289.94
250.532	286.94
250.765	279.94
250.998	274.94
251.231	281.94
251.465	300.94
251.698	317.94
251.931	308.94
252.164	313.94
252.397	307.94
252.63	313.94
252.863	341.94
253.096	321.94
253.329	343.94
253.562	319.94
253.795	338.94
254.028	342.94
254.261	344.94
254.494	350.94
254.727	323.94
254.96	324.94
255.193	329.94
255.426	342.94
255.659	343.94
255.892	314.94
256.124	340.94
256.357	345.94
256.59	359.94
256.823	328.94
257.056	334.94
257.289	340.94
257.521	334.94
257.754	335.94
257.987	355.94
258.22	342.94
258.452	344.94
258.685	349.94
258.918	361.94
259.151	360.94
259.383	376.94
259.616	379.94
259.849	392.94
260.081	417.94
260.314	465.94
260.547	388.94
260.779	388.94
261.012	392.94
261.244	393.94
261.477	420.94
261.71	411.94
261.942	389.94
262.175	363.94
262.407	383.94
262.64	399.94
262.872	413.94
263.105	417.94
263.337	423.94
263.57	420.94
263.802	371.94
264.035	386.94
264.267	361.94
264.499	388.94
264.732	385.94
264.964	383.94
265.197	380.94
265.429	387.94
265.661	383.94
265.894	396.94
266.126	382.94
266.358	390.94
266.591	419.94
266.823	409.94
267.055	411.94
267.287	402.94
267.52	403.94
267.752	403.94
267.984	413.94
268.216	413.94
268.448	419.94
268.681	413.94
268.913	400.94
269.145	423.94
269.377	432.94
269.609	432.94
269.841	435.94
270.073	421.94
270.306	417.94
270.538	426.94
270.77	419.94
271.002	434.94
271.234	460.94
271.466	430.94
271.698	455.94
271.93	444.94
272.162	450.94
272.394	461.94
272.626	447.94
272.858	475.94
273.09	484.94
273.322	455.94
273.553	472.94
273.785	462.94
274.017	503.94
274.249	537.94
274.481	526.94
274.713	530.94
274.945	560.94
275.176	563.94
275.408	564.94
275.64	564.94
275.872	556.94
276.104	524.94
276.335	488.94
276.567	500.94
276.799	479.94
277.031	511.94
277.262	521.94
277.494	471.94
277.726	483.94
277.957	487.94
278.189	480.94
278.421	473.94
278.652	515.94
278.884	527.94
279.115	500.94
279.347	506.94
279.579	495.94
279.81	482.94
280.042	500.94
280.273	517.94
280.505	496.94
280.736	511.94
280.968	508.94
281.199	521.94
281.431	514.94
281.662	522.94
281.894	517.94
282.125	520.94
282.356	526.94
282.588	527.94
282.819	535.94
283.051	545.94
283.282	520.94
283.513	544.94
283.745	532.94
283.976	523.94
284.207	535.94
284.439	530.94
284.67	542.94
284.901	535.94
285.132	556.94
285.364	566.94
285.595	539.94
285.826	574.94
286.057	556.94
286.288	571.94
286.52	561.94
286.751	576.94
286.982	558.94
287.213	573.94
287.444	571.94
287.675	576.94
287.906	560.94
288.138	584.94
288.369	578.94
288.6	547.94
288.831	564.94
289.062	561.94
289.293	588.94
289.524	579.94
289.755	574.94
289.986	591.94
290.217	590.94
290.448	567.94
290.679	576.94
290.91	595.94
291.141	579.94
291.371	573.94
291.602	611.94
291.833	567.94
292.064	597.94
292.295	581.94
292.526	565.94
292.757	567.94
292.987	573.94
293.218	583.94
293.449	570.94
293.68	590.94
293.91	594.94
294.141	583.94
294.372	586.94
294.603	599.94
294.833	601.94
295.064	599.94
295.295	612.94
295.525	584.94
295.756	605.94
295.987	573.94
296.217	582.94
296.448	586.94
296.679	620.94
296.909	614.94
297.14	586.94
297.37	629.94
297.601	643.94
297.831	624.94
298.062	607.94
298.292	607.94
298.523	648.94
298.753	639.94
298.984	636.94
299.214	612.94
299.445	620.94
299.675	620.94
299.905	632.94
300.136	625.94
300.366	636.94
300.597	641.94
300.827	643.94
301.057	636.94
301.288	645.94
301.518	654.94
301.748	653.94
301.979	654.94
302.209	695.94
302.439	684.94
302.669	649.94
302.9	669.94
303.13	662.94
303.36	667.94
303.59	678.94
303.82	657.94
304.051	682.94
304.281	661.94
304.511	645.94
304.741	679.94
304.971	656.94
305.201	672.94
305.431	676.94
305.661	674.94
305.891	691.94
306.121	698.94
306.352	679.94
306.582	671.94
306.812	632.94
307.042	671.94
307.272	657.94
307.502	671.94
307.731	664.94
307.961	649.94
308.191	658.94
308.421	647.94
308.651	673.94
308.881	668.94
309.111	649.94
309.341	661.94
309.571	670.94
309.8	675.94
310.03	684.94
310.26	673.94
310.49	659.94
310.72	665.94
310.949	663.94
311.179	693.94
311.409	669.94
311.639	673.94
311.868	680.94
312.098	685.94
312.328	695.94
312.557	711.94
312.787	696.94
313.017	704.94
313.246	710.94
313.476	696.94
313.706	708.94
313.935	724.94
314.165	718.94
314.394	731.94
314.624	712.94
314.853	728.94
315.083	716.94
315.312	705.94
315.542	718.94
315.771	739.94
316.001	728.94
316.23	705.94
316.46	710.94
316.689	731.94
316.919	704.94
317.148	721.94
317.377	732.94
317.607	727.94
317.836	714.94
318.065	732.94
318.295	754.94
318.524	729.94
318.753	721.94
318.983	717.94
319.212	711.94
319.441	731.94
319.67	715.94
319.9	771.94
320.129	739.94
320.358	728.94
320.587	754.94
320.816	723.94
321.046	722.94
321.275	726.94
321.504	722.94
321.733	758.94
321.962	733.94
322.191	743.94
322.42	750.94
322.649	732.94
322.878	743.94
323.108	769.94
323.337	775.94
323.566	738.94
323.795	769.94
324.024	759.94
324.253	775.94
324.482	738.94
324.71	743.94
324.939	754.94
325.168	767.94
325.397	771.94
325.626	790.94
325.855	785.94
326.084	784.94
326.313	786.94
326.542	799.94
326.77	805.94
326.999	794.94
327.228	795.94
327.457	793.94
327.686	795.94
327.914	806.94
328.143	786.94
328.372	802.94
328.6	791.94
328.829	771.94
329.058	781.94
329.287	816.94
329.515	815.94
329.744	810.94
329.972	805.94
330.201	818.94
330.43	824.94
330.658	812.94
330.887	819.94
331.115	825.94
331.344	831.94
331.572	846.94
331.801	859.94
332.03	852.94
332.258	885.94
332.486	841.94
332.715	893.94
332.943	897.94
333.172	882.94
333.4	901.94
333.629	937.94
333.857	934.94
334.085	942.94
334.314	945.94
334.542	933.94
334.771	952.94
334.999	945.94
335.227	919.94
335.455	942.94
335.684	925.94
335.912	936.94
336.14	930.94
336.369	944.94
336.597	953.94
336.825	906.94
337.053	927.94
337.281	915.94
337.51	909.94
337.738	858.94
337.966	868.94
338.194	885.94
338.422	857.94
338.65	877.94
338.878	852.94
339.106	880.94
339.334	881.94
339.562	856.94
339.79	861.94
340.018	860.94
340.246	832.94
340.474	853.94
340.702	855.94
340.93	883.94
341.158	858.94
341.386	844.94
341.614	865.94
341.842	839.94
342.07	863.94
342.298	853.94
342.526	855.94
342.754	859.94
342.981	847.94
343.209	854.94
343.437	871.94
343.665	882.94
343.893	923.94
344.12	953.94
344.348	934.94
344.576	921.94
344.804	917.94
345.031	882.94
345.259	849.94
345.487	868.94
345.714	842.94
345.942	864.94
346.17	822.94
346.397	815.94
346.625	828.94
346.853	819.94
347.08	796.94
347.308	821.94
347.535	821.94
347.763	828.94
347.99	816.94
348.218	813.94
348.445	802.94
348.673	825.94
348.9	817.94
349.128	804.94
349.355	831.94
349.583	819.94
349.81	798.94
350.037	823.94
350.265	845.94
350.492	824.94
350.72	809.94
350.947	807.94
351.174	821.94
351.402	815.94
351.629	793.94
351.856	803.94
352.083	795.94
352.311	780.94
352.538	803.94
352.765	800.94
352.992	792.94
353.22	819.94
353.447	817.94
353.674	780.94
353.901	796.94
354.128	792.94
354.355	771.94
354.583	776.94
354.81	789.94
355.037	821.94
355.264	807.94
355.491	836.94
355.718	793.94
355.945	809.94
356.172	810.94
356.399	807.94
356.626	827.94
356.853	812.94
357.08	803.94
357.307	815.94
357.534	809.94
357.761	821.94
357.988	837.94
358.215	824.94
358.441	842.94
358.668	811.94
358.895	823.94
359.122	801.94
359.349	800.94
359.576	837.94
359.802	810.94
360.029	808.94
360.256	828.94
360.483	811.94
360.709	830.94
360.936	821.94
361.163	823.94
361.39	825.94
361.616	818.94
361.843	801.94
362.07	840.94
362.296	828.94
362.523	835.94
362.749	803.94
362.976	834.94
363.203	825.94
363.429	836.94
363.656	819.94
363.882	809.94
364.109	817.94
364.335	807.94
364.562	828.94
364.788	830.94
365.015	849.94
365.241	831.94
365.468	836.94
365.694	837.94
365.92	826.94
366.147	833.94
366.373	831.94
366.599	819.94
366.826	805.94
367.052	847.94
367.278	826.94
367.505	829.94
367.731	856.94
367.957	848.94
368.184	864.94
368.41	842.94
368.636	869.94
368.862	857.94
369.089	843.94
369.315	854.94
369.541	851.94
369.767	856.94
369.993	875.94
370.219	844.94
370.445	881.94
370.672	858.94
370.898	901.94
371.124	889.94
371.35	900.94
371.576	883.94
371.802	913.94
372.028	919.94
372.254	935.94
372.48	901.94
372.706	915.94
372.932	907.94
373.158	914.94
373.384	932.94
373.61	949.94
373.835	957.94
374.061	949.94
374.287	933.94
374.513	909.94
374.739	945.94
374.965	951.94
375.191	951.94
375.416	937.94
375.642	926.94
375.868	947.94
376.094	908.94
376.319	938.94
376.545	927.94
376.771	923.94
376.997	892.94
377.222	907.94
377.448	896.94
377.674	896.94
377.899	893.94
378.125	920.94
378.35	911.94
378.576	897.94
378.802	882.94
379.027	883.94
379.253	904.94
379.478	871.94
379.704	889.94
379.929	924.94
380.155	941.94
380.38	917.94
380.606	892.94
380.831	925.94
381.057	935.94
381.282	929.94
381.507	905.94
381.733	959.94
381.958	953.94
382.184	952.94
382.409	955.94
382.634	964.94
382.86	973.94
383.085	969.94
383.31	953.94
383.535	975.94
383.761	971.94
383.986	972.94
384.211	994.94
384.436	1014.94
384.662	983.94
384.887	989.94
385.112	1015.94
385.337	1032.94
385.562	1024.94
385.787	1028.94
386.013	1043.94
386.238	1053.94
386.463	1054.94
386.688	1073.94
386.913	1064.94
387.138	1067.94
387.363	1061.94
387.588	1049.94
387.813	1070.94
388.038	1060.94
388.263	1081.94
388.488	1061.94
388.713	1058.94
388.938	1074.94
389.163	1051.94
389.387	1095.94
389.612	1043.94
389.837	1059.94
390.062	1073.94
390.287	1077.94
390.512	1101.94
390.736	1075.94
390.961	1062.94
391.186	1099.94
391.411	1106.94
391.636	1119.94
391.86	1125.94
392.085	1165.94
392.31	1179.94
392.534	1146.94
392.759	1161.94
392.984	1127.94
393.208	1107.94
393.433	1115.94
393.658	1130.94
393.882	1121.94
394.107	1114.94
394.331	1133.94
394.556	1152.94
394.78	1114.94
395.005	1120.94
395.229	1121.94
395.454	1190.94
395.678	1155.94
395.903	1184.94
396.127	1148.94
396.352	1195.94
396.576	1158.94
396.801	1167.94
397.025	1171.94
397.249	1191.94
397.474	1202.94
397.698	1179.94
397.922	1231.94
398.147	1204.94
398.371	1259.94
398.595	1257.94
398.82	1283.94
399.044	1308.94
399.268	1391.94
399.492	1483.94
399.717	1548.94
399.941	1568.94
400.165	1527.94
400.389	1445.94
400.613	1400.94
400.837	1375.94
401.062	1345.94
401.286	1372.94
401.51	1319.94
401.734	1292.94
401.958	1311.94
402.182	1286.94
402.406	1319.94
402.63	1298.94
402.854	1317.94
403.078	1317.94
403.302	1283.94
403.526	1321.94
403.75	1346.94
403.974	1360.94
404.198	1325.94
404.422	1365.94
404.645	1385.94
404.869	1360.94
405.093	1343.94
405.317	1340.94
405.541	1354.94
405.765	1379.94
405.988	1368.94
406.212	1397.94
406.436	1403.94
406.66	1413.94
406.883	1404.94
407.107	1471.94
407.331	1493.94
407.555	1508.94
407.778	1523.94
408.002	1525.94
408.226	1509.94
408.449	1492.94
408.673	1462.94
408.896	1437.94
409.12	1409.94
409.344	1419.94
409.567	1396.94
409.791	1427.94
410.014	1406.94
410.238	1381.94
410.461	1371.94
410.685	1403.94
410.908	1374.94
411.132	1378.94
411.355	1351.94
411.578	1347.94
411.802	1336.94
412.025	1334.94
412.249	1374.94
412.472	1384.94
412.695	1358.94
412.919	1293.94
413.142	1315.94
413.365	1343.94
413.589	1367.94
413.812	1328.94
414.035	1299.94
414.258	1293.94
414.482	1306.94
414.705	1346.94
414.928	1287.94
415.151	1317.94
415.374	1302.94
415.597	1292.94
415.821	1315.94
416.044	1270.94
416.267	1293.94
416.49	1291.94
416.713	1248.94
416.936	1263.94
417.159	1249.94
417.382	1250.94
417.605	1255.94
417.828	1285.94
418.051	1283.94
418.274	1279.94
418.497	1265.94
418.72	1290.94
418.943	1245.94
419.166	1355.94
419.389	1435.94
419.611	1363.94
419.834	1337.94
420.057	1312.94
420.28	1282.94
420.503	1255.94
420.726	1263.94
420.948	1215.94
421.171	1266.94
421.394	1247.94
421.617	1233.94
421.839	1255.94
422.062	1257.94
422.285	1236.94
422.507	1227.94
422.73	1239.94
422.953	1253.94
423.175	1240.94
423.398	1252.94
423.621	1257.94
423.843	1303.94
424.066	1292.94
424.288	1256.94
424.511	1253.94
424.733	1256.94
424.956	1275.94
425.178	1252.94
425.401	1231.94
425.623	1247.94
425.846	1258.94
426.068	1235.94
426.291	1227.94
426.513	1210.94
426.735	1223.94
426.958	1225.94
427.18	1205.94
427.402	1207.94
427.625	1240.94
427.847	1178.94
428.069	1195.94
428.292	1207.94
428.514	1177.94
428.736	1210.94
428.958	1211.94
429.181	1173.94
429.403	1192.94
429.625	1186.94
429.847	1173.94
430.069	1159.94
430.292	1193.94
430.514	1195.94
430.736	1211.94
430.958	1192.94
431.18	1196.94
431.402	1194.94
431.624	1184.94
431.846	1188.94
432.068	1178.94
432.29	1219.94
432.512	1201.94
432.734	1194.94
432.956	1217.94
433.178	1205.94
433.4	1210.94
433.622	1192.94
433.844	1217.94
434.066	1236.94
434.287	1217.94
434.509	1232.94
434.731	1240.94
434.953	1217.94
435.175	1256.94
435.397	1267.94
435.618	1239.94
435.84	1196.94
436.062	1201.94
436.284	1194.94
436.505	1197.94
436.727	1207.94
436.949	1211.94
437.17	1195.94
437.392	1157.94
437.614	1168.94
437.835	1177.94
438.057	1184.94
438.278	1156.94
438.5	1150.94
438.721	1158.94
438.943	1161.94
439.165	1159.94
439.386	1193.94
439.608	1186.94
439.829	1164.94
440.05	1171.94
440.272	1186.94
440.493	1199.94
440.715	1172.94
440.936	1224.94
441.158	1226.94
441.379	1245.94
441.6	1252.94
441.822	1258.94
442.043	1249.94
442.264	1233.94
442.486	1210.94
442.707	1224.94
442.928	1263.94
443.149	1258.94
443.371	1233.94
443.592	1237.94
443.813	1253.94
444.034	1267.94
444.255	1286.94
444.476	1297.94
444.698	1317.94
444.919	1355.94
445.14	1469.94
445.361	1389.94
445.582	1283.94
445.803	1285.94
446.024	1223.94
446.245	1234.94
446.466	1249.94
446.687	1190.94
446.908	1164.94
447.129	1169.94
447.35	1177.94
447.571	1175.94
447.792	1110.94
448.013	1155.94
448.234	1138.94
448.455	1109.94
448.675	1147.94
448.896	1131.94
449.117	1089.94
449.338	1132.94
449.559	1097.94
449.779	1136.94
450	1063.94
450.221	1103.94
450.442	1123.94
450.662	1113.94
450.883	1126.94
451.104	1108.94
451.324	1116.94
451.545	1088.94
451.766	1102.94
451.986	1086.94
452.207	1083.94
452.428	1069.94
452.648	1067.94
452.869	1085.94
453.089	1078.94
453.31	1061.94
453.53	1057.94
453.751	1061.94
453.971	1065.94
454.192	1051.94
454.412	1041.94
454.633	1052.94
454.853	1069.94
455.073	1032.94
455.294	1043.94
455.514	1035.94
455.734	1018.94
455.955	1069.94
456.175	1064.94
456.395	1057.94
456.616	1003.94
456.836	1058.94
457.056	1036.94
457.276	1035.94
457.497	1051.94
457.717	1049.94
457.937	1081.94
458.157	1066.94
458.377	1077.94
458.598	1112.94
458.818	1100.94
459.038	1111.94
459.258	1123.94
459.478	1158.94
459.698	1193.94
459.918	1221.94
460.138	1226.94
460.358	1257.94
460.578	1256.94
460.798	1276.94
461.018	1291.94
461.238	1316.94
461.458	1329.94
461.678	1300.94
461.898	1315.94
462.118	1324.94
462.338	1393.94
462.558	1381.94
462.777	1434.94
462.997	1462.94
463.217	1479.94
463.437	1521.94
463.657	1459.94
463.876	1474.94
464.096	1445.94
464.316	1400.94
464.536	1426.94
464.755	1414.94
464.975	1363.94
465.195	1317.94
465.414	1299.94
465.634	1259.94
465.854	1252.94
466.073	1255.94
466.293	1192.94
466.512	1177.94
466.732	1181.94
466.951	1181.94
467.171	1149.94
467.391	1184.94
467.61	1131.94
467.829	1140.94
468.049	1175.94
468.268	1124.94
468.488	1119.94
468.707	1125.94
468.927	1190.94
469.146	1125.94
469.365	1132.94
469.585	1143.94
469.804	1164.94
470.023	1175.94
470.243	1161.94
470.462	1150.94
470.681	1201.94
470.901	1138.94
471.12	1197.94
471.339	1167.94
471.558	1187.94
471.777	1165.94
471.997	1164.94
472.216	1127.94
472.435	1177.94
472.654	1141.94
472.873	1107.94
473.092	1165.94
473.311	1169.94
473.53	1145.94
473.749	1141.94
473.968	1139.94
474.187	1120.94
474.406	1145.94
474.625	1137.94
474.844	1164.94
475.063	1163.94
475.282	1173.94
475.501	1121.94
475.72	1166.94
475.939	1171.94
476.158	1204.94
476.377	1227.94
476.596	1235.94
476.814	1266.94
477.033	1223.94
477.252	1243.94
477.471	1229.94
477.69	1265.94
477.908	1277.94
478.127	1314.94
478.346	1310.94
478.564	1306.94
478.783	1331.94
479.002	1327.94
479.22	1372.94
479.439	1414.94
479.658	1399.94
479.876	1343.94
480.095	1376.94
480.313	1404.94
480.532	1362.94
480.751	1399.94
480.969	1407.94
481.188	1403.94
481.406	1358.94
481.624	1359.94
481.843	1341.94
482.061	1354.94
482.28	1323.94
482.498	1355.94
482.717	1334.94
482.935	1357.94
483.153	1338.94
483.372	1355.94
483.59	1365.94
483.808	1350.94
484.027	1360.94
484.245	1358.94
484.463	1351.94
484.681	1351.94
484.9	1360.94
485.118	1359.94
485.336	1348.94
485.554	1383.94
485.772	1394.94
485.99	1367.94
486.209	1391.94
486.427	1349.94
486.645	1374.94
486.863	1402.94
487.081	1370.94
487.299	1424.94
487.517	1388.94
487.735	1377.94
487.953	1363.94
488.171	1433.94
488.389	1395.94
488.607	1416.94
488.825	1361.94
489.043	1393.94
489.261	1388.94
489.479	1368.94
489.696	1379.94
489.914	1381.94
490.132	1406.94
490.35	1419.94
490.568	1399.94
490.786	1416.94
491.003	1422.94
491.221	1403.94
491.439	1425.94
491.657	1397.94
491.874	1428.94
492.092	1424.94
492.31	1449.94
492.527	1445.94
492.745	1443.94
492.963	1454.94
493.18	1458.94
493.398	1439.94
493.615	1466.94
493.833	1423.94
494.05	1429.94
494.268	1478.94
494.485	1465.94
494.703	1428.94
