Data from Fe(NO3)3@0.025M.TitratingCurve.Agarose3%dH2O.NegLispCup.LampEnergy10.LIBS07252019_HRD10591_16-56-06-335.txt Node
Date: Thu Jul 25 16:56:06 EDT 2019
User: cochatt
Spectrometer: HR+D1059
Trigger mode: 1
Integration Time (sec): 1.000000E-1
Scans to average: 1
Electric dark correction enabled: true
Nonlinearity correction enabled: false
Boxcar width: 0
XAxis mode: Wavelengths
Number of Pixels in Spectrum: 2048
>>>>>Begin Spectral Data<<<<<
223.165	-12.44
223.4	-12.44
223.635	-12.44
223.869	-19.44
224.104	-12.44
224.338	-11.44
224.573	-19.44
224.808	-11.44
225.042	-23.44
225.277	-6.44
225.511	-3.44
225.746	16.56
225.98	3.56
226.215	2.56
226.449	24.56
226.683	23.56
226.918	29.56
227.152	19.56
227.387	44.56
227.621	46.56
227.856	44.56
228.09	49.56
228.324	61.56
228.559	57.56
228.793	55.56
229.027	60.56
229.262	58.56
229.496	79.56
229.73	87.56
229.964	83.56
230.199	84.56
230.433	96.56
230.667	78.56
230.901	89.56
231.136	86.56
231.37	106.56
231.604	100.56
231.838	105.56
232.072	112.56
232.306	104.56
232.541	114.56
232.775	106.56
233.009	107.56
233.243	103.56
233.477	114.56
233.711	91.56
233.945	95.56
234.179	95.56
234.413	94.56
234.647	105.56
234.881	103.56
235.115	105.56
235.349	101.56
235.583	103.56
235.817	96.56
236.051	95.56
236.285	103.56
236.519	100.56
236.753	93.56
236.987	106.56
237.221	72.56
237.455	103.56
237.689	97.56
237.922	107.56
238.156	98.56
238.39	116.56
238.624	106.56
238.858	104.56
239.091	102.56
239.325	97.56
239.559	115.56
239.793	89.56
240.027	91.56
240.26	111.56
240.494	96.56
240.728	107.56
240.961	101.56
241.195	108.56
241.429	96.56
241.662	103.56
241.896	102.56
242.13	106.56
242.363	125.56
242.597	105.56
242.83	114.56
243.064	113.56
243.298	112.56
243.531	138.56
243.765	117.56
243.998	121.56
244.232	131.56
244.465	107.56
244.699	124.56
244.932	116.56
245.166	114.56
245.399	118.56
245.633	118.56
245.866	123.56
246.099	117.56
246.333	118.56
246.566	114.56
246.8	119.56
247.033	124.56
247.266	107.56
247.5	115.56
247.733	107.56
247.966	107.56
248.2	120.56
248.433	122.56
248.666	121.56
248.899	115.56
249.133	110.56
249.366	106.56
249.599	124.56
249.832	137.56
250.066	116.56
250.299	132.56
250.532	132.56
250.765	126.56
250.998	126.56
251.231	114.56
251.465	116.56
251.698	130.56
251.931	134.56
252.164	141.56
252.397	131.56
252.63	128.56
252.863	137.56
253.096	127.56
253.329	134.56
253.562	118.56
253.795	147.56
254.028	123.56
254.261	129.56
254.494	135.56
254.727	122.56
254.96	132.56
255.193	130.56
255.426	135.56
255.659	132.56
255.892	140.56
256.124	131.56
256.357	136.56
256.59	140.56
256.823	142.56
257.056	138.56
257.289	146.56
257.521	131.56
257.754	130.56
257.987	149.56
258.22	139.56
258.452	144.56
258.685	146.56
258.918	139.56
259.151	123.56
259.383	141.56
259.616	148.56
259.849	148.56
260.081	145.56
260.314	158.56
260.547	136.56
260.779	146.56
261.012	144.56
261.244	135.56
261.477	152.56
261.71	145.56
261.942	138.56
262.175	142.56
262.407	165.56
262.64	163.56
262.872	148.56
263.105	139.56
263.337	150.56
263.57	150.56
263.802	147.56
264.035	142.56
264.267	144.56
264.499	148.56
264.732	157.56
264.964	162.56
265.197	155.56
265.429	166.56
265.661	148.56
265.894	153.56
266.126	158.56
266.358	158.56
266.591	160.56
266.823	153.56
267.055	154.56
267.287	174.56
267.52	162.56
267.752	158.56
267.984	163.56
268.216	158.56
268.448	154.56
268.681	154.56
268.913	167.56
269.145	167.56
269.377	179.56
269.609	153.56
269.841	183.56
270.073	158.56
270.306	163.56
270.538	178.56
270.77	170.56
271.002	158.56
271.234	154.56
271.466	155.56
271.698	166.56
271.93	173.56
272.162	178.56
272.394	156.56
272.626	171.56
272.858	173.56
273.09	182.56
273.322	172.56
273.553	179.56
273.785	190.56
274.017	188.56
274.249	181.56
274.481	174.56
274.713	173.56
274.945	179.56
275.176	204.56
275.408	186.56
275.64	178.56
275.872	188.56
276.104	178.56
276.335	176.56
276.567	207.56
276.799	173.56
277.031	182.56
277.262	189.56
277.494	190.56
277.726	189.56
277.957	198.56
278.189	186.56
278.421	176.56
278.652	193.56
278.884	185.56
279.115	189.56
279.347	181.56
279.579	197.56
279.81	183.56
280.042	186.56
280.273	175.56
280.505	189.56
280.736	208.56
280.968	181.56
281.199	198.56
281.431	175.56
281.662	193.56
281.894	194.56
282.125	205.56
282.356	208.56
282.588	199.56
282.819	202.56
283.051	208.56
283.282	203.56
283.513	215.56
283.745	199.56
283.976	204.56
284.207	200.56
284.439	184.56
284.67	221.56
284.901	218.56
285.132	192.56
285.364	190.56
285.595	191.56
285.826	217.56
286.057	221.56
286.288	216.56
286.52	195.56
286.751	200.56
286.982	206.56
287.213	200.56
287.444	201.56
287.675	216.56
287.906	204.56
288.138	220.56
288.369	223.56
288.6	205.56
288.831	192.56
289.062	221.56
289.293	201.56
289.524	234.56
289.755	229.56
289.986	235.56
290.217	231.56
290.448	213.56
290.679	205.56
290.91	222.56
291.141	212.56
291.371	222.56
291.602	254.56
291.833	232.56
292.064	217.56
292.295	218.56
292.526	229.56
292.757	220.56
292.987	225.56
293.218	198.56
293.449	219.56
293.68	226.56
293.91	224.56
294.141	223.56
294.372	222.56
294.603	223.56
294.833	212.56
295.064	241.56
295.295	218.56
295.525	207.56
295.756	222.56
295.987	222.56
296.217	246.56
296.448	216.56
296.679	225.56
296.909	230.56
297.14	248.56
297.37	243.56
297.601	249.56
297.831	231.56
298.062	254.56
298.292	261.56
298.523	238.56
298.753	242.56
298.984	239.56
299.214	260.56
299.445	243.56
299.675	237.56
299.905	244.56
300.136	244.56
300.366	242.56
300.597	244.56
300.827	238.56
301.057	240.56
301.288	230.56
301.518	256.56
301.748	240.56
301.979	253.56
302.209	249.56
302.439	247.56
302.669	261.56
302.9	251.56
303.13	260.56
303.36	253.56
303.59	247.56
303.82	250.56
304.051	263.56
304.281	267.56
304.511	240.56
304.741	256.56
304.971	257.56
305.201	258.56
305.431	239.56
305.661	266.56
305.891	256.56
306.121	247.56
306.352	258.56
306.582	268.56
306.812	248.56
307.042	264.56
307.272	270.56
307.502	245.56
307.731	257.56
307.961	262.56
308.191	280.56
308.421	261.56
308.651	261.56
308.881	259.56
309.111	258.56
309.341	256.56
309.571	248.56
309.8	269.56
310.03	259.56
310.26	256.56
310.49	274.56
310.72	271.56
310.949	249.56
311.179	276.56
311.409	251.56
311.639	272.56
311.868	272.56
312.098	275.56
312.328	274.56
312.557	276.56
312.787	273.56
313.017	252.56
313.246	276.56
313.476	285.56
313.706	272.56
313.935	281.56
314.165	262.56
314.394	280.56
314.624	284.56
314.853	286.56
315.083	277.56
315.312	277.56
315.542	278.56
315.771	273.56
316.001	288.56
316.23	276.56
316.46	293.56
316.689	281.56
316.919	286.56
317.148	283.56
317.377	288.56
317.607	261.56
317.836	267.56
318.065	259.56
318.295	274.56
318.524	277.56
318.753	294.56
318.983	286.56
319.212	272.56
319.441	280.56
319.67	303.56
319.9	279.56
320.129	266.56
320.358	266.56
320.587	290.56
320.816	288.56
321.046	296.56
321.275	281.56
321.504	308.56
321.733	288.56
321.962	301.56
322.191	284.56
322.42	284.56
322.649	288.56
322.878	296.56
323.108	293.56
323.337	275.56
323.566	302.56
323.795	300.56
324.024	314.56
324.253	313.56
324.482	293.56
324.71	278.56
324.939	295.56
325.168	303.56
325.397	294.56
325.626	301.56
325.855	303.56
326.084	317.56
326.313	306.56
326.542	304.56
326.77	295.56
326.999	316.56
327.228	306.56
327.457	313.56
327.686	325.56
327.914	308.56
328.143	331.56
328.372	333.56
328.6	312.56
328.829	307.56
329.058	300.56
329.287	312.56
329.515	315.56
329.744	324.56
329.972	318.56
330.201	313.56
330.43	318.56
330.658	317.56
330.887	323.56
331.115	316.56
331.344	322.56
331.572	325.56
331.801	344.56
332.03	329.56
332.258	341.56
332.486	342.56
332.715	340.56
332.943	344.56
333.172	361.56
333.4	374.56
333.629	366.56
333.857	367.56
334.085	352.56
334.314	357.56
334.542	365.56
334.771	383.56
334.999	378.56
335.227	375.56
335.455	354.56
335.684	351.56
335.912	349.56
336.14	345.56
336.369	361.56
336.597	340.56
336.825	340.56
337.053	357.56
337.281	340.56
337.51	348.56
337.738	355.56
337.966	355.56
338.194	347.56
338.422	326.56
338.65	334.56
338.878	352.56
339.106	328.56
339.334	343.56
339.562	346.56
339.79	325.56
340.018	348.56
340.246	331.56
340.474	335.56
340.702	343.56
340.93	322.56
341.158	319.56
341.386	326.56
341.614	348.56
341.842	347.56
342.07	334.56
342.298	330.56
342.526	343.56
342.754	337.56
342.981	338.56
343.209	348.56
343.437	346.56
343.665	354.56
343.893	375.56
344.12	355.56
344.348	380.56
344.576	358.56
344.804	351.56
345.031	330.56
345.259	339.56
345.487	354.56
345.714	312.56
345.942	321.56
346.17	334.56
346.397	341.56
346.625	340.56
346.853	322.56
347.08	335.56
347.308	338.56
347.535	330.56
347.763	326.56
347.99	329.56
348.218	334.56
348.445	335.56
348.673	313.56
348.9	318.56
349.128	334.56
349.355	332.56
349.583	328.56
349.81	332.56
350.037	333.56
350.265	327.56
350.492	306.56
350.72	319.56
350.947	344.56
351.174	324.56
351.402	313.56
351.629	324.56
351.856	337.56
352.083	315.56
352.311	339.56
352.538	322.56
352.765	319.56
352.992	315.56
353.22	318.56
353.447	313.56
353.674	333.56
353.901	319.56
354.128	326.56
354.355	316.56
354.583	324.56
354.81	311.56
355.037	326.56
355.264	317.56
355.491	317.56
355.718	319.56
355.945	331.56
356.172	336.56
356.399	333.56
356.626	320.56
356.853	331.56
357.08	342.56
357.307	328.56
357.534	333.56
357.761	326.56
357.988	309.56
358.215	329.56
358.441	319.56
358.668	328.56
358.895	327.56
359.122	327.56
359.349	323.56
359.576	314.56
359.802	332.56
360.029	316.56
360.256	331.56
360.483	330.56
360.709	317.56
360.936	348.56
361.163	340.56
361.39	345.56
361.616	333.56
361.843	333.56
362.07	345.56
362.296	321.56
362.523	328.56
362.749	324.56
362.976	333.56
363.203	337.56
363.429	335.56
363.656	333.56
363.882	329.56
364.109	335.56
364.335	331.56
364.562	319.56
364.788	324.56
365.015	331.56
365.241	315.56
365.468	330.56
365.694	343.56
365.92	333.56
366.147	327.56
366.373	326.56
366.599	328.56
366.826	341.56
367.052	344.56
367.278	331.56
367.505	341.56
367.731	344.56
367.957	335.56
368.184	339.56
368.41	344.56
368.636	331.56
368.862	354.56
369.089	335.56
369.315	334.56
369.541	345.56
369.767	349.56
369.993	358.56
370.219	353.56
370.445	367.56
370.672	359.56
370.898	349.56
371.124	334.56
371.35	339.56
371.576	355.56
371.802	345.56
372.028	366.56
372.254	378.56
372.48	354.56
372.706	368.56
372.932	371.56
373.158	356.56
373.384	363.56
373.61	342.56
373.835	363.56
374.061	358.56
374.287	382.56
374.513	360.56
374.739	382.56
374.965	386.56
375.191	386.56
375.416	390.56
375.642	370.56
375.868	371.56
376.094	358.56
376.319	345.56
376.545	348.56
376.771	336.56
376.997	346.56
377.222	347.56
377.448	358.56
377.674	348.56
377.899	362.56
378.125	343.56
378.35	356.56
378.576	329.56
378.802	350.56
379.027	340.56
379.253	357.56
379.478	382.56
379.704	363.56
379.929	339.56
380.155	364.56
380.38	337.56
380.606	342.56
380.831	366.56
381.057	362.56
381.282	359.56
381.507	379.56
381.733	366.56
381.958	355.56
382.184	364.56
382.409	363.56
382.634	370.56
382.86	364.56
383.085	392.56
383.31	372.56
383.535	383.56
383.761	401.56
383.986	401.56
384.211	388.56
384.436	388.56
384.662	403.56
384.887	373.56
385.112	406.56
385.337	398.56
385.562	412.56
385.787	413.56
386.013	410.56
386.238	417.56
386.463	410.56
386.688	409.56
386.913	408.56
387.138	400.56
387.363	416.56
387.588	421.56
387.813	427.56
388.038	411.56
388.263	399.56
388.488	401.56
388.713	419.56
388.938	395.56
389.163	419.56
389.387	420.56
389.612	419.56
389.837	429.56
390.062	414.56
390.287	422.56
390.512	399.56
390.736	424.56
390.961	424.56
391.186	449.56
391.411	446.56
391.636	415.56
391.86	448.56
392.085	440.56
392.31	444.56
392.534	440.56
392.759	426.56
392.984	441.56
393.208	463.56
393.433	456.56
393.658	430.56
393.882	420.56
394.107	436.56
394.331	431.56
394.556	423.56
394.78	426.56
395.005	444.56
395.229	438.56
395.454	463.56
395.678	436.56
395.903	430.56
396.127	448.56
396.352	436.56
396.576	436.56
396.801	423.56
397.025	453.56
397.249	480.56
397.474	469.56
397.698	468.56
397.922	450.56
398.147	457.56
398.371	478.56
398.595	465.56
398.82	517.56
399.044	534.56
399.268	567.56
399.492	580.56
399.717	628.56
399.941	585.56
400.165	570.56
400.389	554.56
400.613	552.56
400.837	532.56
401.062	496.56
401.286	510.56
401.51	502.56
401.734	495.56
401.958	490.56
402.182	505.56
402.406	490.56
402.63	496.56
402.854	482.56
403.078	499.56
403.302	499.56
403.526	500.56
403.75	467.56
403.974	529.56
404.198	508.56
404.422	505.56
404.645	505.56
404.869	508.56
405.093	514.56
405.317	494.56
405.541	517.56
405.765	519.56
405.988	514.56
406.212	507.56
406.436	537.56
406.66	509.56
406.883	510.56
407.107	519.56
407.331	557.56
407.555	568.56
407.778	568.56
408.002	573.56
408.226	560.56
408.449	556.56
408.673	554.56
408.896	529.56
409.12	522.56
409.344	529.56
409.567	507.56
409.791	508.56
410.014	512.56
410.238	519.56
410.461	527.56
410.685	511.56
410.908	495.56
411.132	474.56
411.355	476.56
411.578	461.56
411.802	508.56
412.025	526.56
412.249	501.56
412.472	512.56
412.695	490.56
412.919	493.56
413.142	495.56
413.365	488.56
413.589	498.56
413.812	485.56
414.035	477.56
414.258	479.56
414.482	493.56
414.705	495.56
414.928	503.56
415.151	495.56
415.374	500.56
415.597	478.56
415.821	454.56
416.044	461.56
416.267	469.56
416.49	474.56
416.713	468.56
416.936	471.56
417.159	463.56
417.382	463.56
417.605	451.56
417.828	464.56
418.051	486.56
418.274	495.56
418.497	469.56
418.72	486.56
418.943	478.56
419.166	506.56
419.389	494.56
419.611	518.56
419.834	492.56
420.057	474.56
420.28	469.56
420.503	450.56
420.726	455.56
420.948	473.56
421.171	453.56
421.394	447.56
421.617	467.56
421.839	464.56
422.062	481.56
422.285	476.56
422.507	468.56
422.73	485.56
422.953	468.56
423.175	450.56
423.398	467.56
423.621	484.56
423.843	479.56
424.066	471.56
424.288	467.56
424.511	466.56
424.733	451.56
424.956	478.56
425.178	458.56
425.401	458.56
425.623	464.56
425.846	448.56
426.068	459.56
426.291	449.56
426.513	469.56
426.735	459.56
426.958	430.56
427.18	429.56
427.402	457.56
427.625	442.56
427.847	422.56
428.069	423.56
428.292	467.56
428.514	447.56
428.736	434.56
428.958	451.56
429.181	404.56
429.403	422.56
429.625	417.56
429.847	422.56
430.069	439.56
430.292	448.56
430.514	419.56
430.736	418.56
430.958	430.56
431.18	435.56
431.402	430.56
431.624	426.56
431.846	445.56
432.068	446.56
432.29	431.56
432.512	418.56
432.734	439.56
432.956	426.56
433.178	433.56
433.4	448.56
433.622	440.56
433.844	440.56
434.066	444.56
434.287	458.56
434.509	438.56
434.731	484.56
434.953	435.56
435.175	452.56
435.397	451.56
435.618	434.56
435.84	453.56
436.062	447.56
436.284	462.56
436.505	431.56
436.727	428.56
436.949	418.56
437.17	438.56
437.392	428.56
437.614	447.56
437.835	412.56
438.057	427.56
438.278	423.56
438.5	425.56
438.721	412.56
438.943	435.56
439.165	424.56
439.386	421.56
439.608	430.56
439.829	433.56
440.05	428.56
440.272	442.56
440.493	430.56
440.715	440.56
440.936	418.56
441.158	454.56
441.379	456.56
441.6	455.56
441.822	459.56
442.043	458.56
442.264	424.56
442.486	440.56
442.707	448.56
442.928	448.56
443.149	484.56
443.371	459.56
443.592	478.56
443.813	454.56
444.034	458.56
444.255	464.56
444.476	488.56
444.698	494.56
444.919	498.56
445.14	568.56
445.361	508.56
445.582	459.56
445.803	468.56
446.024	455.56
446.245	442.56
446.466	446.56
446.687	438.56
446.908	406.56
447.129	427.56
447.35	416.56
447.571	399.56
447.792	390.56
448.013	426.56
448.234	395.56
448.455	408.56
448.675	402.56
448.896	413.56
449.117	403.56
449.338	410.56
449.559	405.56
449.779	396.56
450	390.56
450.221	389.56
450.442	403.56
450.662	392.56
450.883	395.56
451.104	390.56
451.324	386.56
451.545	393.56
451.766	372.56
451.986	395.56
452.207	386.56
452.428	376.56
452.648	386.56
452.869	382.56
453.089	349.56
453.31	377.56
453.53	378.56
453.751	394.56
453.971	369.56
454.192	378.56
454.412	379.56
454.633	380.56
454.853	386.56
455.073	370.56
455.294	379.56
455.514	386.56
455.734	380.56
455.955	375.56
456.175	359.56
456.395	381.56
456.616	380.56
456.836	381.56
457.056	386.56
457.276	389.56
457.497	388.56
457.717	381.56
457.937	396.56
458.157	411.56
458.377	386.56
458.598	410.56
458.818	415.56
459.038	397.56
459.258	411.56
459.478	442.56
459.698	434.56
459.918	461.56
460.138	464.56
460.358	463.56
460.578	455.56
460.798	481.56
461.018	462.56
461.238	478.56
461.458	473.56
461.678	467.56
461.898	474.56
462.118	475.56
462.338	507.56
462.558	540.56
462.777	516.56
462.997	527.56
463.217	548.56
463.437	538.56
463.657	511.56
463.876	519.56
464.096	520.56
464.316	525.56
464.536	527.56
464.755	534.56
464.975	503.56
465.195	486.56
465.414	478.56
465.634	466.56
465.854	462.56
466.073	466.56
466.293	438.56
466.512	436.56
466.732	415.56
466.951	412.56
467.171	400.56
467.391	408.56
467.61	408.56
467.829	427.56
468.049	409.56
468.268	422.56
468.488	428.56
468.707	397.56
468.927	404.56
469.146	419.56
469.365	434.56
469.585	430.56
469.804	406.56
470.023	431.56
470.243	425.56
470.462	437.56
470.681	407.56
470.901	410.56
471.12	415.56
471.339	419.56
471.558	399.56
471.777	415.56
471.997	418.56
472.216	418.56
472.435	420.56
472.654	404.56
472.873	419.56
473.092	418.56
473.311	420.56
473.53	421.56
473.749	410.56
473.968	409.56
474.187	421.56
474.406	434.56
474.625	408.56
474.844	438.56
475.063	423.56
475.282	426.56
475.501	424.56
475.72	423.56
475.939	432.56
476.158	447.56
476.377	446.56
476.596	429.56
476.814	424.56
477.033	446.56
477.252	458.56
477.471	450.56
477.69	442.56
477.908	467.56
478.127	476.56
478.346	476.56
478.564	494.56
478.783	496.56
479.002	494.56
479.22	472.56
479.439	503.56
479.658	488.56
479.876	477.56
480.095	484.56
480.313	498.56
480.532	514.56
480.751	511.56
480.969	502.56
481.188	484.56
481.406	494.56
481.624	524.56
481.843	482.56
482.061	482.56
482.28	479.56
482.498	486.56
482.717	480.56
482.935	490.56
483.153	484.56
483.372	488.56
483.59	488.56
483.808	487.56
484.027	482.56
484.245	521.56
484.463	492.56
484.681	515.56
484.9	511.56
485.118	510.56
485.336	493.56
485.554	511.56
485.772	510.56
485.99	509.56
486.209	499.56
486.427	512.56
486.645	495.56
486.863	498.56
487.081	505.56
487.299	498.56
487.517	514.56
487.735	499.56
487.953	483.56
488.171	507.56
488.389	486.56
488.607	513.56
488.825	484.56
489.043	502.56
489.261	495.56
489.479	506.56
489.696	526.56
489.914	474.56
490.132	522.56
490.35	519.56
490.568	486.56
490.786	496.56
491.003	502.56
491.221	518.56
491.439	514.56
491.657	499.56
491.874	513.56
492.092	500.56
492.31	524.56
492.527	487.56
492.745	488.56
492.963	508.56
493.18	526.56
493.398	538.56
493.615	534.56
493.833	533.56
494.05	516.56
494.268	525.56
494.485	524.56
494.703	523.56
494.92	527.56
495.138	528.56
495.355	525.56
495.573	525.56
495.79	522.56
496.008	527.56
496.225	551.56
496.442	566.56
496.66	568.56
496.877	564.56
497.094	577.56
497.312	545.56
497.529	586.56
497.746	587.56
497.963	596.56
498.181	620.56
498.398	639.56
498.615	667.56
498.832	716.56
499.049	720.56
499.267	731.56
499.484	792.56
499.701	844.56
499.918	896.56
500.135	941.56
500.352	984.56
500.569	1002.56
500.786	999.56
501.003	973.56
501.22	896.56
501.437	853.56
501.654	806.56
501.871	785.56
