Data from Fe(NO3)3@0.1M.TitratingCurve.Agarose3%dH2O.NegLispCup.LampEnergy10.LIBS07252019_HRD10591_16-41-51-333.txt Node
Date: Thu Jul 25 16:41:51 EDT 2019
User: cochatt
Spectrometer: HR+D1059
Trigger mode: 1
Integration Time (sec): 1.000000E-1
Scans to average: 1
Electric dark correction enabled: true
Nonlinearity correction enabled: false
Boxcar width: 0
XAxis mode: Wavelengths
Number of Pixels in Spectrum: 2048
>>>>>Begin Spectral Data<<<<<
223.165	-10.5
223.4	-10.5
223.635	-10.5
223.869	-20.5
224.104	-13.5
224.338	-10.5
224.573	-16.5
224.808	-16.5
225.042	-11.5
225.277	0.5
225.511	-4.5
225.746	0.5
225.98	4.5
226.215	6.5
226.449	15.5
226.683	14.5
226.918	26.5
227.152	35.5
227.387	26.5
227.621	43.5
227.856	27.5
228.09	30.5
228.324	44.5
228.559	35.5
228.793	43.5
229.027	73.5
229.262	68.5
229.496	69.5
229.73	90.5
229.964	86.5
230.199	77.5
230.433	84.5
230.667	85.5
230.901	97.5
231.136	92.5
231.37	94.5
231.604	103.5
231.838	115.5
232.072	110.5
232.306	96.5
232.541	110.5
232.775	94.5
233.009	95.5
233.243	75.5
233.477	104.5
233.711	98.5
233.945	116.5
234.179	94.5
234.413	87.5
234.647	97.5
234.881	99.5
235.115	100.5
235.349	108.5
235.583	105.5
235.817	112.5
236.051	100.5
236.285	97.5
236.519	91.5
236.753	107.5
236.987	119.5
237.221	110.5
237.455	100.5
237.689	106.5
237.922	110.5
238.156	99.5
238.39	101.5
238.624	83.5
238.858	101.5
239.091	106.5
239.325	116.5
239.559	107.5
239.793	120.5
240.027	106.5
240.26	104.5
240.494	114.5
240.728	104.5
240.961	113.5
241.195	103.5
241.429	113.5
241.662	105.5
241.896	112.5
242.13	116.5
242.363	108.5
242.597	115.5
242.83	117.5
243.064	111.5
243.298	110.5
243.531	103.5
243.765	126.5
243.998	118.5
244.232	125.5
244.465	104.5
244.699	116.5
244.932	121.5
245.166	118.5
245.399	127.5
245.633	139.5
245.866	122.5
246.099	116.5
246.333	125.5
246.566	117.5
246.8	120.5
247.033	117.5
247.266	120.5
247.5	114.5
247.733	124.5
247.966	120.5
248.2	131.5
248.433	134.5
248.666	121.5
248.899	131.5
249.133	134.5
249.366	106.5
249.599	130.5
249.832	138.5
250.066	143.5
250.299	128.5
250.532	141.5
250.765	127.5
250.998	137.5
251.231	163.5
251.465	146.5
251.698	119.5
251.931	122.5
252.164	137.5
252.397	148.5
252.63	141.5
252.863	133.5
253.096	146.5
253.329	142.5
253.562	138.5
253.795	138.5
254.028	141.5
254.261	138.5
254.494	135.5
254.727	144.5
254.96	143.5
255.193	140.5
255.426	129.5
255.659	138.5
255.892	154.5
256.124	148.5
256.357	138.5
256.59	136.5
256.823	136.5
257.056	151.5
257.289	141.5
257.521	129.5
257.754	136.5
257.987	152.5
258.22	139.5
258.452	153.5
258.685	147.5
258.918	139.5
259.151	154.5
259.383	145.5
259.616	151.5
259.849	159.5
260.081	168.5
260.314	162.5
260.547	152.5
260.779	150.5
261.012	163.5
261.244	169.5
261.477	154.5
261.71	156.5
261.942	161.5
262.175	158.5
262.407	146.5
262.64	156.5
262.872	168.5
263.105	153.5
263.337	161.5
263.57	163.5
263.802	161.5
264.035	150.5
264.267	157.5
264.499	166.5
264.732	168.5
264.964	166.5
265.197	162.5
265.429	166.5
265.661	138.5
265.894	164.5
266.126	166.5
266.358	167.5
266.591	152.5
266.823	169.5
267.055	166.5
267.287	168.5
267.52	160.5
267.752	154.5
267.984	181.5
268.216	156.5
268.448	175.5
268.681	162.5
268.913	164.5
269.145	175.5
269.377	188.5
269.609	160.5
269.841	154.5
270.073	171.5
270.306	202.5
270.538	182.5
270.77	182.5
271.002	172.5
271.234	166.5
271.466	164.5
271.698	170.5
271.93	169.5
272.162	170.5
272.394	179.5
272.626	179.5
272.858	171.5
273.09	172.5
273.322	184.5
273.553	188.5
273.785	181.5
274.017	191.5
274.249	197.5
274.481	182.5
274.713	179.5
274.945	189.5
275.176	185.5
275.408	190.5
275.64	194.5
275.872	204.5
276.104	191.5
276.335	196.5
276.567	192.5
276.799	183.5
277.031	185.5
277.262	208.5
277.494	202.5
277.726	182.5
277.957	207.5
278.189	196.5
278.421	190.5
278.652	200.5
278.884	196.5
279.115	187.5
279.347	190.5
279.579	192.5
279.81	197.5
280.042	194.5
280.273	187.5
280.505	193.5
280.736	204.5
280.968	194.5
281.199	200.5
281.431	204.5
281.662	216.5
281.894	216.5
282.125	210.5
282.356	202.5
282.588	225.5
282.819	210.5
283.051	211.5
283.282	209.5
283.513	227.5
283.745	210.5
283.976	204.5
284.207	206.5
284.439	212.5
284.67	206.5
284.901	208.5
285.132	230.5
285.364	219.5
285.595	214.5
285.826	215.5
286.057	224.5
286.288	226.5
286.52	213.5
286.751	215.5
286.982	203.5
287.213	211.5
287.444	215.5
287.675	218.5
287.906	216.5
288.138	202.5
288.369	234.5
288.6	221.5
288.831	219.5
289.062	218.5
289.293	216.5
289.524	212.5
289.755	218.5
289.986	233.5
290.217	236.5
290.448	238.5
290.679	239.5
290.91	225.5
291.141	242.5
291.371	218.5
291.602	219.5
291.833	232.5
292.064	231.5
292.295	225.5
292.526	219.5
292.757	214.5
292.987	225.5
293.218	223.5
293.449	241.5
293.68	239.5
293.91	232.5
294.141	243.5
294.372	243.5
294.603	230.5
294.833	224.5
295.064	223.5
295.295	234.5
295.525	238.5
295.756	224.5
295.987	251.5
296.217	212.5
296.448	257.5
296.679	240.5
296.909	243.5
297.14	247.5
297.37	241.5
297.601	229.5
297.831	239.5
298.062	217.5
298.292	236.5
298.523	231.5
298.753	247.5
298.984	260.5
299.214	262.5
299.445	228.5
299.675	235.5
299.905	242.5
300.136	236.5
300.366	241.5
300.597	257.5
300.827	262.5
301.057	272.5
301.288	246.5
301.518	251.5
301.748	261.5
301.979	253.5
302.209	261.5
302.439	254.5
302.669	259.5
302.9	269.5
303.13	246.5
303.36	247.5
303.59	257.5
303.82	259.5
304.051	263.5
304.281	246.5
304.511	254.5
304.741	238.5
304.971	259.5
305.201	255.5
305.431	252.5
305.661	247.5
305.891	262.5
306.121	262.5
306.352	265.5
306.582	263.5
306.812	245.5
307.042	241.5
307.272	254.5
307.502	257.5
307.731	253.5
307.961	258.5
308.191	242.5
308.421	256.5
308.651	249.5
308.881	264.5
309.111	272.5
309.341	254.5
309.571	259.5
309.8	261.5
310.03	257.5
310.26	257.5
310.49	254.5
310.72	255.5
310.949	264.5
311.179	256.5
311.409	251.5
311.639	268.5
311.868	275.5
312.098	246.5
312.328	266.5
312.557	279.5
312.787	263.5
313.017	243.5
313.246	261.5
313.476	274.5
313.706	257.5
313.935	262.5
314.165	278.5
314.394	268.5
314.624	268.5
314.853	279.5
315.083	284.5
315.312	283.5
315.542	268.5
315.771	265.5
316.001	249.5
316.23	284.5
316.46	267.5
316.689	262.5
316.919	274.5
317.148	258.5
317.377	268.5
317.607	268.5
317.836	265.5
318.065	280.5
318.295	267.5
318.524	256.5
318.753	274.5
318.983	288.5
319.212	273.5
319.441	256.5
319.67	266.5
319.9	274.5
320.129	261.5
320.358	267.5
320.587	282.5
320.816	268.5
321.046	270.5
321.275	280.5
321.504	282.5
321.733	255.5
321.962	300.5
322.191	278.5
322.42	272.5
322.649	267.5
322.878	280.5
323.108	290.5
323.337	273.5
323.566	274.5
323.795	269.5
324.024	272.5
324.253	287.5
324.482	269.5
324.71	281.5
324.939	284.5
325.168	272.5
325.397	276.5
325.626	289.5
325.855	287.5
326.084	296.5
326.313	273.5
326.542	283.5
326.77	292.5
326.999	279.5
327.228	276.5
327.457	297.5
327.686	304.5
327.914	282.5
328.143	292.5
328.372	296.5
328.6	306.5
328.829	291.5
329.058	305.5
329.287	306.5
329.515	289.5
329.744	302.5
329.972	298.5
330.201	310.5
330.43	286.5
330.658	317.5
330.887	316.5
331.115	310.5
331.344	308.5
331.572	306.5
331.801	315.5
332.03	312.5
332.258	333.5
332.486	330.5
332.715	335.5
332.943	368.5
333.172	351.5
333.4	370.5
333.629	374.5
333.857	378.5
334.085	383.5
334.314	361.5
334.542	350.5
334.771	328.5
334.999	354.5
335.227	348.5
335.455	374.5
335.684	347.5
335.912	361.5
336.14	352.5
336.369	336.5
336.597	350.5
336.825	348.5
337.053	338.5
337.281	359.5
337.51	346.5
337.738	331.5
337.966	305.5
338.194	328.5
338.422	313.5
338.65	320.5
338.878	322.5
339.106	316.5
339.334	328.5
339.562	317.5
339.79	311.5
340.018	314.5
340.246	296.5
340.474	303.5
340.702	312.5
340.93	314.5
341.158	339.5
341.386	309.5
341.614	322.5
341.842	288.5
342.07	317.5
342.298	299.5
342.526	300.5
342.754	321.5
342.981	314.5
343.209	302.5
343.437	344.5
343.665	352.5
343.893	360.5
344.12	345.5
344.348	348.5
344.576	342.5
344.804	328.5
345.031	328.5
345.259	319.5
345.487	312.5
345.714	314.5
345.942	310.5
346.17	330.5
346.397	324.5
346.625	311.5
346.853	293.5
347.08	289.5
347.308	300.5
347.535	287.5
347.763	304.5
347.99	315.5
348.218	321.5
348.445	299.5
348.673	304.5
348.9	293.5
349.128	285.5
349.355	295.5
349.583	289.5
349.81	288.5
350.037	279.5
350.265	298.5
350.492	286.5
350.72	312.5
350.947	312.5
351.174	288.5
351.402	294.5
351.629	296.5
351.856	278.5
352.083	299.5
352.311	299.5
352.538	284.5
352.765	291.5
352.992	307.5
353.22	292.5
353.447	274.5
353.674	297.5
353.901	315.5
354.128	292.5
354.355	279.5
354.583	288.5
354.81	289.5
355.037	302.5
355.264	314.5
355.491	305.5
355.718	299.5
355.945	286.5
356.172	291.5
356.399	304.5
356.626	296.5
356.853	275.5
357.08	285.5
357.307	288.5
357.534	282.5
357.761	299.5
357.988	302.5
358.215	288.5
358.441	288.5
358.668	274.5
358.895	292.5
359.122	304.5
359.349	302.5
359.576	281.5
359.802	299.5
360.029	300.5
360.256	292.5
360.483	323.5
360.709	307.5
360.936	286.5
361.163	311.5
361.39	299.5
361.616	283.5
361.843	318.5
362.07	303.5
362.296	292.5
362.523	305.5
362.749	309.5
362.976	306.5
363.203	318.5
363.429	285.5
363.656	292.5
363.882	294.5
364.109	286.5
364.335	294.5
364.562	292.5
364.788	282.5
365.015	294.5
365.241	306.5
365.468	310.5
365.694	278.5
365.92	297.5
366.147	288.5
366.373	288.5
366.599	305.5
366.826	305.5
367.052	296.5
367.278	306.5
367.505	302.5
367.731	291.5
367.957	303.5
368.184	316.5
368.41	296.5
368.636	284.5
368.862	289.5
369.089	306.5
369.315	312.5
369.541	313.5
369.767	304.5
369.993	313.5
370.219	303.5
370.445	306.5
370.672	324.5
370.898	311.5
371.124	316.5
371.35	326.5
371.576	308.5
371.802	314.5
372.028	311.5
372.254	326.5
372.48	325.5
372.706	331.5
372.932	341.5
373.158	306.5
373.384	324.5
373.61	342.5
373.835	331.5
374.061	345.5
374.287	337.5
374.513	344.5
374.739	339.5
374.965	345.5
375.191	348.5
375.416	353.5
375.642	345.5
375.868	330.5
376.094	338.5
376.319	308.5
376.545	330.5
376.771	324.5
376.997	339.5
377.222	322.5
377.448	344.5
377.674	326.5
377.899	323.5
378.125	326.5
378.35	311.5
378.576	327.5
378.802	299.5
379.027	316.5
379.253	305.5
379.478	312.5
379.704	337.5
379.929	326.5
380.155	328.5
380.38	329.5
380.606	326.5
380.831	332.5
381.057	331.5
381.282	321.5
381.507	329.5
381.733	339.5
381.958	335.5
382.184	326.5
382.409	340.5
382.634	344.5
382.86	345.5
383.085	331.5
383.31	336.5
383.535	349.5
383.761	353.5
383.986	359.5
384.211	354.5
384.436	364.5
384.662	393.5
384.887	372.5
385.112	369.5
385.337	355.5
385.562	393.5
385.787	386.5
386.013	384.5
386.238	395.5
386.463	395.5
386.688	375.5
386.913	387.5
387.138	378.5
387.363	367.5
387.588	378.5
387.813	370.5
388.038	382.5
388.263	391.5
388.488	381.5
388.713	376.5
388.938	386.5
389.163	370.5
389.387	376.5
389.612	371.5
389.837	362.5
390.062	380.5
390.287	398.5
390.512	400.5
390.736	396.5
390.961	393.5
391.186	405.5
391.411	402.5
391.636	400.5
391.86	415.5
392.085	440.5
392.31	418.5
392.534	416.5
392.759	410.5
392.984	415.5
393.208	407.5
393.433	408.5
393.658	422.5
393.882	396.5
394.107	395.5
394.331	406.5
394.556	406.5
394.78	409.5
395.005	410.5
395.229	412.5
395.454	443.5
395.678	424.5
395.903	440.5
396.127	440.5
396.352	409.5
396.576	412.5
396.801	420.5
397.025	403.5
397.249	417.5
397.474	434.5
397.698	433.5
397.922	435.5
398.147	419.5
398.371	428.5
398.595	457.5
398.82	482.5
399.044	512.5
399.268	538.5
399.492	607.5
399.717	648.5
399.941	652.5
400.165	585.5
400.389	543.5
400.613	502.5
400.837	507.5
401.062	465.5
401.286	472.5
401.51	474.5
401.734	453.5
401.958	457.5
402.182	511.5
402.406	488.5
402.63	466.5
402.854	512.5
403.078	480.5
403.302	495.5
403.526	515.5
403.75	530.5
403.974	528.5
404.198	506.5
404.422	520.5
404.645	506.5
404.869	484.5
405.093	500.5
405.317	514.5
405.541	502.5
405.765	510.5
405.988	507.5
406.212	497.5
406.436	496.5
406.66	523.5
406.883	545.5
407.107	551.5
407.331	566.5
407.555	550.5
407.778	586.5
408.002	556.5
408.226	536.5
408.449	517.5
408.673	527.5
408.896	529.5
409.12	527.5
409.344	538.5
409.567	538.5
409.791	535.5
410.014	517.5
410.238	512.5
410.461	530.5
410.685	501.5
410.908	519.5
411.132	515.5
411.355	482.5
411.578	483.5
411.802	480.5
412.025	485.5
412.249	467.5
412.472	510.5
412.695	483.5
412.919	466.5
413.142	490.5
413.365	484.5
413.589	474.5
413.812	468.5
414.035	492.5
414.258	484.5
414.482	482.5
414.705	474.5
414.928	486.5
415.151	483.5
415.374	482.5
415.597	477.5
415.821	469.5
416.044	451.5
416.267	457.5
416.49	473.5
416.713	455.5
416.936	476.5
417.159	472.5
417.382	468.5
417.605	478.5
417.828	481.5
418.051	483.5
418.274	469.5
418.497	473.5
418.72	487.5
418.943	493.5
419.166	497.5
419.389	536.5
419.611	501.5
419.834	507.5
420.057	487.5
420.28	464.5
420.503	486.5
420.726	482.5
420.948	467.5
421.171	475.5
421.394	478.5
421.617	458.5
421.839	451.5
422.062	468.5
422.285	453.5
422.507	475.5
422.73	475.5
422.953	472.5
423.175	488.5
423.398	491.5
423.621	472.5
423.843	490.5
424.066	505.5
424.288	481.5
424.511	485.5
424.733	482.5
424.956	493.5
425.178	494.5
425.401	468.5
425.623	496.5
425.846	468.5
426.068	459.5
426.291	465.5
426.513	446.5
426.735	447.5
426.958	445.5
427.18	424.5
427.402	456.5
427.625	422.5
427.847	428.5
428.069	436.5
428.292	419.5
428.514	444.5
428.736	426.5
428.958	434.5
429.181	427.5
429.403	426.5
429.625	424.5
429.847	424.5
430.069	446.5
430.292	417.5
430.514	427.5
430.736	422.5
430.958	420.5
431.18	429.5
431.402	431.5
431.624	434.5
431.846	432.5
432.068	430.5
432.29	426.5
432.512	432.5
432.734	414.5
432.956	449.5
433.178	430.5
433.4	442.5
433.622	445.5
433.844	443.5
434.066	428.5
434.287	439.5
434.509	438.5
434.731	439.5
434.953	489.5
435.175	481.5
435.397	477.5
435.618	446.5
435.84	444.5
436.062	443.5
436.284	430.5
436.505	420.5
436.727	439.5
436.949	426.5
437.17	448.5
437.392	423.5
437.614	442.5
437.835	410.5
438.057	420.5
438.278	403.5
438.5	422.5
438.721	425.5
438.943	445.5
439.165	422.5
439.386	439.5
439.608	443.5
439.829	434.5
440.05	431.5
440.272	430.5
440.493	437.5
440.715	453.5
440.936	458.5
441.158	459.5
441.379	487.5
441.6	479.5
441.822	495.5
442.043	512.5
442.264	480.5
442.486	461.5
442.707	500.5
442.928	494.5
443.149	475.5
443.371	471.5
443.592	475.5
443.813	489.5
444.034	471.5
444.255	483.5
444.476	506.5
444.698	555.5
444.919	575.5
445.14	609.5
445.361	579.5
445.582	519.5
445.803	459.5
446.024	463.5
446.245	455.5
446.466	469.5
446.687	454.5
446.908	444.5
447.129	433.5
447.35	459.5
447.571	430.5
447.792	430.5
448.013	436.5
448.234	431.5
448.455	419.5
448.675	419.5
448.896	415.5
449.117	431.5
449.338	411.5
449.559	416.5
449.779	406.5
450	412.5
450.221	414.5
450.442	414.5
450.662	414.5
450.883	426.5
451.104	425.5
451.324	403.5
451.545	414.5
451.766	412.5
451.986	393.5
452.207	400.5
452.428	402.5
452.648	387.5
452.869	400.5
453.089	382.5
453.31	375.5
453.53	407.5
453.751	379.5
453.971	403.5
454.192	404.5
454.412	374.5
454.633	377.5
454.853	371.5
455.073	382.5
455.294	409.5
455.514	384.5
455.734	370.5
455.955	367.5
456.175	377.5
456.395	372.5
456.616	370.5
456.836	369.5
457.056	386.5
457.276	358.5
457.497	380.5
457.717	382.5
457.937	377.5
458.157	376.5
458.377	371.5
458.598	388.5
458.818	406.5
459.038	421.5
459.258	424.5
459.478	422.5
459.698	458.5
459.918	466.5
460.138	470.5
460.358	481.5
460.578	501.5
460.798	489.5
461.018	503.5
461.238	487.5
461.458	508.5
461.678	520.5
461.898	497.5
462.118	515.5
462.338	542.5
462.558	544.5
462.777	555.5
462.997	583.5
463.217	600.5
463.437	617.5
463.657	591.5
463.876	549.5
464.096	562.5
464.316	554.5
464.536	531.5
464.755	532.5
464.975	535.5
465.195	500.5
465.414	486.5
465.634	458.5
465.854	448.5
466.073	463.5
466.293	433.5
466.512	400.5
466.732	426.5
466.951	420.5
467.171	439.5
467.391	421.5
467.61	432.5
467.829	416.5
468.049	415.5
468.268	402.5
468.488	411.5
468.707	416.5
468.927	404.5
469.146	414.5
469.365	417.5
469.585	411.5
469.804	423.5
470.023	435.5
470.243	434.5
470.462	421.5
470.681	438.5
470.901	434.5
471.12	449.5
471.339	435.5
471.558	417.5
471.777	402.5
471.997	408.5
472.216	395.5
472.435	421.5
472.654	390.5
472.873	408.5
473.092	386.5
473.311	390.5
473.53	418.5
473.749	380.5
473.968	376.5
474.187	371.5
474.406	398.5
474.625	394.5
474.844	394.5
475.063	402.5
475.282	395.5
475.501	401.5
475.72	395.5
475.939	403.5
476.158	403.5
476.377	408.5
476.596	408.5
476.814	426.5
477.033	409.5
477.252	412.5
477.471	423.5
477.69	443.5
477.908	452.5
478.127	441.5
478.346	454.5
478.564	459.5
478.783	473.5
479.002	465.5
479.22	476.5
479.439	474.5
479.658	462.5
479.876	469.5
480.095	481.5
480.313	488.5
480.532	490.5
480.751	463.5
480.969	488.5
481.188	449.5
481.406	460.5
481.624	422.5
481.843	436.5
482.061	449.5
482.28	427.5
482.498	412.5
482.717	427.5
482.935	446.5
483.153	442.5
483.372	464.5
483.59	436.5
483.808	452.5
484.027	422.5
484.245	442.5
484.463	454.5
484.681	471.5
484.9	441.5
485.118	461.5
485.336	465.5
485.554	452.5
485.772	438.5
485.99	431.5
486.209	448.5
486.427	430.5
486.645	452.5
486.863	451.5
487.081	457.5
487.299	450.5
487.517	451.5
487.735	463.5
487.953	460.5
488.171	448.5
488.389	466.5
488.607	464.5
488.825	447.5
489.043	454.5
489.261	458.5
489.479	442.5
489.696	443.5
489.914	454.5
490.132	438.5
490.35	466.5
490.568	456.5
490.786	484.5
491.003	435.5
491.221	474.5
491.439	478.5
491.657	462.5
491.874	462.5
492.092	475.5
492.31	472.5
492.527	465.5
492.745	479.5
492.963	458.5
493.18	479.5
493.398	497.5
493.615	482.5
493.833	467.5
494.05	476.5
494.268	464.5
494.485	460.5
494.703	465.5
494.92	485.5
495.138	470.5
495.355	484.5
495.573	486.5
495.79	490.5
496.008	477.5
496.225	498.5
496.442	504.5
496.66	510.5
496.877	511.5
497.094	499.5
497.312	518.5
497.529	519.5
497.746	538.5
497.963	547.5
498.181	593.5
498.398	610.5
498.615	617.5
498.832	675.5
499.049	708.5
499.267	753.5
499.484	827.5
499.701	892.5
499.918	962.5
500.135	1046.5
500.352	1161.5
500.569	1216.5
500.786	1185.5
501.003	1105.5
501.22	1008.5
501.437	929.5
501.654	827.5
501.871	760.5
502.088	708.5
502.305	679.5
502.522	651.5
502.739	630.5
502.956	578.5
503.172	571.5
503.389	553.5
503.606	544.5
503.823	533.5
504.04	558.5
504.256	534.5
504.473	534.5
504.69	552.5
504.907	530.5
505.123	484.5
505.34	500.5
505.557	475.5
505.773	459.5
505.99	448.5
506.207	440.5
506.423	436.5
506.64	468.5
506.856	441.5
507.073	415.5
507.289	433.5
507.506	419.5
507.722	441.5
507.939	423.5
508.155	400.5
508.372	415.5
508.588	413.5
508.805	432.5
509.021	391.5
509.238	411.5
509.454	384.5
509.67	404.5
509.887	387.5
510.103	390.5
510.319	382.5
510.536	413.5
510.752	384.5
510.968	395.5
511.184	396.5
511.401	391.5
511.617	374.5
511.833	372.5
512.049	389.5
512.265	394.5
512.481	379.5
512.698	410.5
512.914	388.5
513.13	388.5
513.346	380.5
513.562	375.5
513.778	386.5
513.994	410.5
514.21	387.5
514.426	374.5
514.642	382.5
514.858	392.5
515.074	415.5
515.29	409.5
515.506	406.5
515.721	415.5
515.937	421.5
516.153	421.5
516.369	442.5
516.585	428.5
516.801	434.5
517.016	448.5
517.232	467.5
517.448	475.5
517.664	494.5
517.879	513.5
518.095	515.5
518.311	485.5
518.527	478.5
518.742	456.5
518.958	449.5
519.173	466.5
519.389	423.5
519.605	427.5
519.82	414.5
