Data from Fe(NO3)3@0.025M.TitratingCurve.Agarose3%dH2O.NegLispCup.LampEnergy10.LIBS07252019_HRD10591_16-54-25-334.txt Node
Date: Thu Jul 25 16:54:25 EDT 2019
User: cochatt
Spectrometer: HR+D1059
Trigger mode: 1
Integration Time (sec): 1.000000E-1
Scans to average: 1
Electric dark correction enabled: true
Nonlinearity correction enabled: false
Boxcar width: 0
XAxis mode: Wavelengths
Number of Pixels in Spectrum: 2048
>>>>>Begin Spectral Data<<<<<
223.165	-14
223.4	-14
223.635	-14
223.869	-6
224.104	-17
224.338	-8
224.573	-24
224.808	-9
225.042	-1
225.277	-12
225.511	-17
225.746	1
225.98	7
226.215	15
226.449	29
226.683	23
226.918	11
227.152	22
227.387	41
227.621	38
227.856	43
228.09	54
228.324	56
228.559	48
228.793	60
229.027	91
229.262	98
229.496	103
229.73	77
229.964	100
230.199	108
230.433	106
230.667	101
230.901	99
231.136	106
231.37	101
231.604	113
231.838	95
232.072	105
232.306	122
232.541	127
232.775	125
233.009	127
233.243	118
233.477	133
233.711	109
233.945	121
234.179	113
234.413	133
234.647	125
234.881	145
235.115	129
235.349	141
235.583	125
235.817	117
236.051	132
236.285	130
236.519	124
236.753	125
236.987	135
237.221	131
237.455	135
237.689	138
237.922	131
238.156	125
238.39	141
238.624	148
238.858	135
239.091	129
239.325	131
239.559	134
239.793	132
240.027	151
240.26	133
240.494	171
240.728	135
240.961	144
241.195	156
241.429	147
241.662	150
241.896	145
242.13	160
242.363	147
242.597	153
242.83	163
243.064	149
243.298	164
243.531	155
243.765	139
243.998	156
244.232	153
244.465	157
244.699	158
244.932	165
245.166	169
245.399	170
245.633	164
245.866	166
246.099	165
246.333	164
246.566	159
246.8	162
247.033	180
247.266	163
247.5	149
247.733	177
247.966	178
248.2	184
248.433	178
248.666	183
248.899	193
249.133	202
249.366	191
249.599	190
249.832	183
250.066	171
250.299	185
250.532	194
250.765	199
250.998	188
251.231	178
251.465	191
251.698	188
251.931	189
252.164	172
252.397	204
252.63	195
252.863	208
253.096	201
253.329	204
253.562	191
253.795	204
254.028	238
254.261	206
254.494	202
254.727	208
254.96	206
255.193	228
255.426	220
255.659	223
255.892	204
256.124	200
256.357	204
256.59	200
256.823	224
257.056	200
257.289	198
257.521	231
257.754	213
257.987	212
258.22	213
258.452	208
258.685	217
258.918	224
259.151	231
259.383	206
259.616	225
259.849	220
260.081	260
260.314	267
260.547	236
260.779	227
261.012	233
261.244	227
261.477	255
261.71	240
261.942	243
262.175	241
262.407	245
262.64	237
262.872	247
263.105	250
263.337	262
263.57	267
263.802	249
264.035	235
264.267	219
264.499	238
264.732	233
264.964	234
265.197	246
265.429	231
265.661	224
265.894	248
266.126	239
266.358	239
266.591	255
266.823	246
267.055	243
267.287	263
267.52	253
267.752	268
267.984	252
268.216	228
268.448	254
268.681	270
268.913	251
269.145	272
269.377	243
269.609	263
269.841	261
270.073	250
270.306	267
270.538	246
270.77	258
271.002	247
271.234	248
271.466	250
271.698	260
271.93	263
272.162	265
272.394	276
272.626	265
272.858	289
273.09	291
273.322	285
273.553	269
273.785	283
274.017	303
274.249	323
274.481	315
274.713	313
274.945	351
275.176	341
275.408	328
275.64	327
275.872	348
276.104	284
276.335	300
276.567	296
276.799	289
277.031	281
277.262	281
277.494	297
277.726	293
277.957	294
278.189	303
278.421	298
278.652	295
278.884	288
279.115	303
279.347	298
279.579	286
279.81	306
280.042	300
280.273	295
280.505	313
280.736	308
280.968	295
281.199	324
281.431	311
281.662	322
281.894	299
282.125	309
282.356	315
282.588	304
282.819	327
283.051	312
283.282	323
283.513	337
283.745	337
283.976	323
284.207	316
284.439	340
284.67	315
284.901	326
285.132	332
285.364	335
285.595	327
285.826	326
286.057	326
286.288	320
286.52	343
286.751	337
286.982	343
287.213	317
287.444	351
287.675	353
287.906	337
288.138	336
288.369	344
288.6	347
288.831	323
289.062	332
289.293	331
289.524	341
289.755	344
289.986	342
290.217	341
290.448	352
290.679	346
290.91	326
291.141	336
291.371	334
291.602	339
291.833	339
292.064	345
292.295	342
292.526	339
292.757	356
292.987	314
293.218	337
293.449	338
293.68	342
293.91	344
294.141	362
294.372	349
294.603	360
294.833	363
295.064	344
295.295	370
295.525	355
295.756	369
295.987	347
296.217	360
296.448	352
296.679	355
296.909	348
297.14	375
297.37	361
297.601	353
297.831	372
298.062	362
298.292	371
298.523	371
298.753	354
298.984	363
299.214	361
299.445	370
299.675	387
299.905	374
300.136	367
300.366	378
300.597	376
300.827	374
301.057	374
301.288	382
301.518	378
301.748	376
301.979	394
302.209	404
302.439	377
302.669	398
302.9	374
303.13	395
303.36	384
303.59	404
303.82	396
304.051	407
304.281	392
304.511	398
304.741	395
304.971	403
305.201	378
305.431	395
305.661	392
305.891	384
306.121	418
306.352	381
306.582	401
306.812	392
307.042	398
307.272	400
307.502	415
307.731	390
307.961	390
308.191	420
308.421	393
308.651	404
308.881	394
309.111	381
309.341	395
309.571	426
309.8	405
310.03	416
310.26	409
310.49	391
310.72	405
310.949	426
311.179	418
311.409	419
311.639	431
311.868	405
312.098	412
312.328	419
312.557	415
312.787	409
313.017	405
313.246	406
313.476	405
313.706	423
313.935	431
314.165	444
314.394	442
314.624	441
314.853	426
315.083	437
315.312	416
315.542	431
315.771	437
316.001	432
316.23	435
316.46	427
316.689	397
316.919	434
317.148	449
317.377	450
317.607	431
317.836	426
318.065	421
318.295	428
318.524	438
318.753	433
318.983	417
319.212	409
319.441	421
319.67	447
319.9	434
320.129	441
320.358	428
320.587	453
320.816	440
321.046	465
321.275	451
321.504	458
321.733	436
321.962	438
322.191	444
322.42	468
322.649	441
322.878	471
323.108	447
323.337	449
323.566	461
323.795	466
324.024	464
324.253	471
324.482	474
324.71	460
324.939	459
325.168	463
325.397	449
325.626	470
325.855	459
326.084	467
326.313	456
326.542	459
326.77	492
326.999	462
327.228	447
327.457	474
327.686	465
327.914	464
328.143	467
328.372	459
328.6	480
328.829	472
329.058	472
329.287	460
329.515	465
329.744	483
329.972	487
330.201	479
330.43	483
330.658	474
330.887	481
331.115	487
331.344	480
331.572	485
331.801	480
332.03	488
332.258	498
332.486	495
332.715	503
332.943	514
333.172	500
333.4	523
333.629	562
333.857	535
334.085	561
334.314	555
334.542	536
334.771	550
334.999	538
335.227	552
335.455	541
335.684	551
335.912	540
336.14	526
336.369	533
336.597	548
336.825	542
337.053	543
337.281	538
337.51	539
337.738	552
337.966	521
338.194	540
338.422	519
338.65	526
338.878	535
339.106	498
339.334	525
339.562	505
339.79	512
340.018	520
340.246	498
340.474	526
340.702	513
340.93	542
341.158	525
341.386	529
341.614	495
341.842	503
342.07	524
342.298	511
342.526	524
342.754	519
342.981	518
343.209	533
343.437	531
343.665	554
343.893	533
344.12	544
344.348	581
344.576	548
344.804	526
345.031	525
345.259	493
345.487	533
345.714	518
345.942	517
346.17	515
346.397	534
346.625	512
346.853	511
347.08	484
347.308	501
347.535	486
347.763	490
347.99	496
348.218	493
348.445	472
348.673	481
348.9	501
349.128	507
349.355	491
349.583	474
349.81	477
350.037	469
350.265	471
350.492	468
350.72	487
350.947	485
351.174	481
351.402	470
351.629	468
351.856	487
352.083	519
352.311	479
352.538	473
352.765	500
352.992	468
353.22	486
353.447	474
353.674	482
353.901	487
354.128	486
354.355	487
354.583	492
354.81	489
355.037	482
355.264	481
355.491	481
355.718	464
355.945	477
356.172	481
356.399	481
356.626	499
356.853	499
357.08	492
357.307	499
357.534	482
357.761	504
357.988	513
358.215	481
358.441	483
358.668	505
358.895	498
359.122	492
359.349	487
359.576	474
359.802	465
360.029	489
360.256	493
360.483	487
360.709	492
360.936	511
361.163	498
361.39	480
361.616	501
361.843	490
362.07	501
362.296	488
362.523	499
362.749	476
362.976	499
363.203	527
363.429	496
363.656	508
363.882	484
364.109	511
364.335	481
364.562	474
364.788	517
365.015	491
365.241	493
365.468	500
365.694	490
365.92	501
366.147	493
366.373	493
366.599	503
366.826	497
367.052	504
367.278	529
367.505	491
367.731	488
367.957	500
368.184	510
368.41	532
368.636	499
368.862	506
369.089	529
369.315	524
369.541	507
369.767	521
369.993	515
370.219	523
370.445	518
370.672	525
370.898	535
371.124	513
371.35	515
371.576	525
371.802	513
372.028	535
372.254	529
372.48	548
372.706	518
372.932	538
373.158	540
373.384	533
373.61	556
373.835	562
374.061	541
374.287	552
374.513	543
374.739	564
374.965	568
375.191	572
375.416	563
375.642	570
375.868	548
376.094	549
376.319	545
376.545	561
376.771	539
376.997	528
377.222	519
377.448	532
377.674	533
377.899	519
378.125	525
378.35	535
378.576	546
378.802	535
379.027	522
379.253	535
379.478	500
379.704	514
379.929	534
380.155	525
380.38	519
380.606	505
380.831	523
381.057	540
381.282	513
381.507	541
381.733	536
381.958	569
382.184	574
382.409	559
382.634	549
382.86	547
383.085	577
383.31	571
383.535	579
383.761	571
383.986	568
384.211	575
384.436	596
384.662	593
384.887	581
385.112	594
385.337	587
385.562	569
385.787	575
386.013	600
386.238	632
386.463	602
386.688	600
386.913	597
387.138	608
387.363	608
387.588	587
387.813	586
388.038	588
388.263	577
388.488	605
388.713	609
388.938	602
389.163	613
389.387	618
389.612	602
389.837	621
390.062	587
390.287	610
390.512	627
390.736	614
390.961	604
391.186	621
391.411	601
391.636	608
391.86	633
392.085	640
392.31	640
392.534	635
392.759	651
392.984	653
393.208	632
393.433	629
393.658	643
393.882	623
394.107	609
394.331	651
394.556	627
394.78	639
395.005	648
395.229	639
395.454	656
395.678	629
395.903	656
396.127	650
396.352	668
396.576	669
396.801	660
397.025	681
397.249	658
397.474	680
397.698	680
397.922	683
398.147	683
398.371	697
398.595	711
398.82	731
399.044	723
399.268	741
399.492	785
399.717	825
399.941	823
400.165	816
400.389	778
400.613	751
400.837	799
401.062	756
401.286	751
401.51	728
401.734	722
401.958	735
402.182	727
402.406	719
402.63	722
402.854	712
403.078	701
403.302	735
403.526	737
403.75	737
403.974	717
404.198	737
404.422	723
404.645	737
404.869	719
405.093	729
405.317	757
405.541	744
405.765	723
405.988	748
406.212	748
406.436	769
406.66	767
406.883	778
407.107	781
407.331	815
407.555	806
407.778	817
408.002	812
408.226	821
408.449	819
408.673	809
408.896	797
409.12	749
409.344	745
409.567	751
409.791	775
410.014	730
410.238	773
410.461	760
410.685	751
410.908	767
411.132	746
411.355	737
411.578	748
411.802	726
412.025	709
412.249	752
412.472	740
412.695	717
412.919	720
413.142	716
413.365	743
413.589	726
413.812	712
414.035	716
414.258	708
414.482	682
414.705	707
414.928	725
415.151	724
415.374	716
415.597	694
415.821	689
416.044	716
416.267	698
416.49	694
416.713	685
416.936	671
417.159	676
417.382	705
417.605	668
417.828	661
418.051	701
418.274	683
418.497	669
418.72	688
418.943	681
419.166	704
419.389	745
419.611	724
419.834	708
420.057	706
420.28	671
420.503	678
420.726	677
420.948	682
421.171	657
421.394	676
421.617	662
421.839	674
422.062	688
422.285	646
422.507	671
422.73	684
422.953	674
423.175	674
423.398	685
423.621	632
423.843	661
424.066	672
424.288	679
424.511	666
424.733	664
424.956	642
425.178	678
425.401	697
425.623	661
425.846	672
426.068	668
426.291	663
426.513	663
426.735	688
426.958	639
427.18	648
427.402	648
427.625	640
427.847	646
428.069	625
428.292	631
428.514	635
428.736	661
428.958	651
429.181	659
429.403	632
429.625	619
429.847	637
430.069	649
430.292	629
430.514	639
430.736	633
430.958	637
431.18	630
431.402	644
431.624	639
431.846	641
432.068	650
432.29	674
432.512	653
432.734	653
432.956	636
433.178	637
433.4	639
433.622	639
433.844	648
434.066	662
434.287	651
434.509	675
434.731	659
434.953	668
435.175	675
435.397	665
435.618	658
435.84	663
436.062	632
436.284	615
436.505	636
436.727	639
436.949	615
437.17	638
437.392	620
437.614	624
437.835	635
438.057	617
438.278	601
438.5	619
438.721	608
438.943	635
439.165	633
439.386	618
439.608	607
439.829	619
440.05	625
440.272	637
440.493	624
440.715	634
440.936	625
441.158	642
441.379	625
441.6	647
441.822	669
442.043	661
442.264	628
442.486	649
442.707	659
442.928	655
443.149	639
443.371	613
443.592	653
443.813	651
444.034	650
444.255	660
444.476	675
444.698	664
444.919	684
445.14	778
445.361	697
445.582	655
445.803	667
446.024	639
446.245	637
446.466	636
446.687	617
446.908	611
447.129	646
447.35	635
447.571	634
447.792	616
448.013	599
448.234	608
448.455	597
448.675	570
448.896	575
449.117	569
449.338	588
449.559	587
449.779	576
450	575
450.221	571
450.442	593
450.662	575
450.883	572
451.104	585
451.324	580
451.545	567
451.766	569
451.986	577
452.207	556
452.428	567
452.648	579
452.869	557
453.089	567
453.31	579
453.53	557
453.751	553
453.971	562
454.192	577
454.412	545
454.633	571
454.853	579
455.073	552
455.294	569
455.514	539
455.734	576
455.955	565
456.175	574
456.395	533
456.616	557
456.836	552
457.056	536
457.276	573
457.497	592
457.717	570
457.937	579
458.157	582
458.377	571
458.598	571
458.818	619
459.038	613
459.258	610
459.478	629
459.698	635
459.918	648
460.138	639
460.358	663
460.578	650
460.798	686
461.018	663
461.238	671
461.458	691
461.678	692
461.898	690
462.118	695
462.338	721
462.558	710
462.777	729
462.997	737
463.217	765
463.437	788
463.657	728
463.876	718
464.096	742
464.316	731
464.536	721
464.755	740
464.975	702
465.195	656
465.414	659
465.634	655
465.854	669
466.073	651
466.293	608
466.512	616
466.732	615
466.951	604
467.171	615
467.391	635
467.61	608
467.829	577
468.049	617
468.268	610
468.488	584
468.707	611
468.927	607
469.146	619
469.365	605
469.585	597
469.804	608
470.023	595
470.243	619
470.462	615
470.681	612
470.901	618
471.12	607
471.339	614
471.558	607
471.777	616
471.997	618
472.216	613
472.435	607
472.654	616
472.873	619
473.092	625
473.311	606
473.53	597
473.749	609
473.968	614
474.187	597
474.406	592
474.625	615
474.844	611
475.063	615
475.282	616
475.501	611
475.72	623
475.939	627
476.158	631
476.377	645
476.596	665
476.814	669
477.033	635
477.252	660
477.471	670
477.69	659
477.908	655
478.127	659
478.346	681
478.564	699
478.783	689
479.002	680
479.22	699
479.439	703
479.658	709
479.876	729
480.095	726
480.313	737
480.532	741
480.751	721
480.969	727
481.188	764
481.406	729
481.624	741
481.843	707
482.061	715
482.28	715
482.498	735
482.717	708
482.935	703
483.153	730
483.372	715
483.59	716
483.808	714
484.027	704
484.245	710
484.463	691
484.681	736
484.9	723
485.118	720
485.336	714
485.554	721
485.772	728
485.99	712
486.209	740
486.427	735
486.645	727
486.863	737
487.081	717
487.299	716
487.517	694
487.735	731
487.953	727
488.171	719
488.389	729
488.607	732
488.825	729
489.043	735
489.261	724
489.479	719
489.696	707
489.914	739
490.132	737
490.35	721
490.568	738
490.786	731
491.003	724
491.221	738
491.439	736
491.657	735
491.874	741
492.092	745
492.31	746
492.527	724
492.745	736
492.963	775
493.18	756
493.398	766
493.615	754
493.833	763
494.05	797
494.268	754
494.485	770
494.703	747
494.92	754
495.138	746
495.355	779
495.573	776
495.79	776
496.008	800
496.225	826
496.442	805
496.66	807
496.877	815
497.094	849
497.312	848
497.529	859
497.746	890
497.963	891
498.181	895
498.398	928
498.615	981
498.832	1015
499.049	1029
499.267	1087
499.484	1108
499.701	1148
499.918	1213
500.135	1233
500.352	1278
500.569	1299
500.786	1272
501.003	1278
501.22	1265
501.437	1172
501.654	1133
501.871	1092
502.088	1028
502.305	1010
502.522	978
502.739	946
502.956	946
503.172	914
503.389	902
503.606	866
503.823	842
504.04	876
504.256	845
504.473	870
504.69	821
504.907	812
505.123	792
505.34	785
505.557	780
505.773	766
505.99	767
506.207	743
506.423	727
506.64	721
506.856	713
507.073	705
507.289	694
507.506	700
507.722	682
507.939	685
508.155	695
508.372	673
508.588	667
508.805	666
509.021	652
509.238	652
509.454	633
509.67	639
509.887	648
510.103	639
510.319	648
510.536	636
510.752	647
510.968	624
511.184	635
511.401	645
511.617	613
511.833	629
512.049	628
512.265	609
512.481	625
512.698	633
512.914	647
513.13	620
513.346	599
513.562	634
513.778	640
513.994	652
514.21	632
514.426	614
514.642	638
514.858	644
515.074	644
515.29	675
515.506	636
515.721	668
515.937	654
516.153	671
516.369	679
516.585	672
516.801	672
517.016	691
517.232	696
517.448	743
517.664	698
517.879	678
518.095	701
518.311	691
518.527	689
518.742	676
518.958	675
519.173	679
519.389	669
519.605	671
519.82	653
520.036	668
520.251	647
520.467	639
520.682	637
520.898	624
521.113	609
521.329	602
521.544	604
521.76	595
521.975	605
522.19	582
522.406	596
522.621	597
522.836	605
523.052	580
523.267	582
523.482	587
523.698	567
523.913	567
524.128	577
524.343	562
524.559	573
524.774	573
524.989	556
525.204	585
525.419	566
525.634	552
525.849	554
526.064	565
526.28	571
526.495	576
526.71	556
526.925	567
527.14	543
527.355	575
527.57	555
527.785	563
527.999	551
528.214	553
528.429	527
528.644	555
528.859	546
529.074	546
529.289	569
529.503	547
529.718	562
529.933	551
530.148	533
530.363	538
530.577	531
530.792	553
531.007	529
531.221	545
531.436	553
531.651	548
531.865	539
532.08	538
532.295	545
532.509	549
532.724	544
532.938	545
533.153	550
533.367	535
533.582	533
533.796	545
534.011	531
534.225	559
534.44	543
534.654	551
534.868	538
535.083	521
535.297	521
535.511	525
535.726	533
535.94	516
536.154	509
536.369	520
536.583	523
536.797	518
537.011	512
537.225	512
537.44	488
537.654	497
537.868	512
538.082	485
538.296	505
538.51	489
538.724	483
538.938	511
539.153	491
539.367	502
539.581	509
539.795	517
540.009	482
540.222	514
540.436	506
540.65	528
540.864	496
541.078	497
541.292	496
541.506	500
541.72	494
541.934	505
542.147	484
542.361	492
542.575	516
542.789	499
543.002	498
543.216	521
543.43	508
543.644	490
543.857	487
544.071	510
544.285	504
544.498	519
544.712	486
544.925	487
545.139	487
545.352	497
545.566	500
545.779	517
545.993	506
546.206	519
546.42	492
546.633	502
546.847	482
547.06	507
547.274	507
547.487	496
547.7	469
547.914	508
548.127	500
548.34	496
548.554	500
548.767	498
548.98	509
549.193	497
549.407	515
549.62	507
549.833	507
550.046	510
550.259	519
550.473	492
550.686	487
550.899	501
551.112	504
551.325	486
551.538	497
551.751	489
551.964	500
552.177	517
552.39	502
552.603	508
552.816	510
553.029	509
553.242	502
553.455	513
553.667	491
553.88	497
554.093	503
554.306	484
554.519	467
554.732	477
554.944	477
555.157	480
555.37	466
555.583	450
555.795	470
556.008	443
556.221	463
556.433	439
556.646	451
556.859	447
557.071	448
557.284	458
557.496	443
557.709	434
557.921	436
558.134	443
558.346	435
558.559	433
558.771	452
558.984	458
559.196	429
559.409	418
559.621	423
559.833	429
560.046	425
560.258	435
560.47	401
560.683	416
560.895	429
561.107	422
561.32	411
561.532	427
561.744	421
561.956	424
562.168	425
562.381	452
562.593	412
562.805	431
563.017	429
