Data from FlinnAP5935BZINC.07152019.LAMPEdge.EN5.5scans.P1_HRD10591_15-00-02-579.txt Node
Date: Mon Jul 15 15:00:02 EDT 2019
User: cochatt
Spectrometer: HR+D1059
Trigger mode: 1
Integration Time (sec): 1.000000E-1
Scans to average: 1
Electric dark correction enabled: true
Nonlinearity correction enabled: false
Boxcar width: 0
XAxis mode: Wavelengths
Number of Pixels in Spectrum: 2048
>>>>>Begin Spectral Data<<<<<
223.165	-27.56
223.4	-27.56
223.635	-27.56
223.869	-19.56
224.104	-8.56
224.338	-11.56
224.573	-10.56
224.808	-7.56
225.042	4.44
225.277	8.44
225.511	9.44
225.746	-4.56
225.98	-3.56
226.215	8.44
226.449	18.44
226.683	7.44
226.918	23.44
227.152	13.44
227.387	36.44
227.621	37.44
227.856	51.44
228.09	45.44
228.324	47.44
228.559	44.44
228.793	56.44
229.027	91.44
229.262	131.44
229.496	105.44
229.73	113.44
229.964	125.44
230.199	129.44
230.433	134.44
230.667	124.44
230.901	126.44
231.136	134.44
231.37	135.44
231.604	133.44
231.838	139.44
232.072	137.44
232.306	155.44
232.541	151.44
232.775	143.44
233.009	155.44
233.243	147.44
233.477	152.44
233.711	144.44
233.945	140.44
234.179	139.44
234.413	143.44
234.647	134.44
234.881	148.44
235.115	160.44
235.349	162.44
235.583	137.44
235.817	155.44
236.051	161.44
236.285	144.44
236.519	173.44
236.753	165.44
236.987	158.44
237.221	153.44
237.455	159.44
237.689	172.44
237.922	155.44
238.156	177.44
238.39	165.44
238.624	155.44
238.858	165.44
239.091	169.44
239.325	173.44
239.559	165.44
239.793	170.44
240.027	175.44
240.26	173.44
240.494	178.44
240.728	179.44
240.961	188.44
241.195	168.44
241.429	178.44
241.662	177.44
241.896	179.44
242.13	175.44
242.363	179.44
242.597	197.44
242.83	214.44
243.064	190.44
243.298	196.44
243.531	200.44
243.765	214.44
243.998	200.44
244.232	212.44
244.465	196.44
244.699	205.44
244.932	218.44
245.166	227.44
245.399	220.44
245.633	218.44
245.866	213.44
246.099	207.44
246.333	224.44
246.566	232.44
246.8	226.44
247.033	229.44
247.266	228.44
247.5	226.44
247.733	227.44
247.966	244.44
248.2	248.44
248.433	245.44
248.666	248.44
248.899	271.44
249.133	235.44
249.366	290.44
249.599	283.44
249.832	294.44
250.066	311.44
250.299	365.44
250.532	478.44
250.765	562.44
250.998	461.44
251.231	382.44
251.465	363.44
251.698	340.44
251.931	323.44
252.164	312.44
252.397	293.44
252.63	328.44
252.863	291.44
253.096	310.44
253.329	315.44
253.562	301.44
253.795	311.44
254.028	309.44
254.261	335.44
254.494	313.44
254.727	323.44
254.96	349.44
255.193	353.44
255.426	405.44
255.659	444.44
255.892	599.44
256.124	817.44
256.357	919.44
256.59	725.44
256.823	575.44
257.056	509.44
257.289	452.44
257.521	429.44
257.754	411.44
257.987	412.44
258.22	389.44
258.452	371.44
258.685	354.44
258.918	355.44
259.151	359.44
259.383	361.44
259.616	358.44
259.849	363.44
260.081	357.44
260.314	366.44
260.547	367.44
260.779	348.44
261.012	359.44
261.244	362.44
261.477	367.44
261.71	359.44
261.942	365.44
262.175	364.44
262.407	344.44
262.64	348.44
262.872	340.44
263.105	345.44
263.337	368.44
263.57	358.44
263.802	368.44
264.035	351.44
264.267	348.44
264.499	364.44
264.732	359.44
264.964	363.44
265.197	358.44
265.429	340.44
265.661	353.44
265.894	360.44
266.126	375.44
266.358	380.44
266.591	354.44
266.823	396.44
267.055	371.44
267.287	362.44
267.52	380.44
267.752	379.44
267.984	387.44
268.216	359.44
268.448	392.44
268.681	388.44
268.913	396.44
269.145	377.44
269.377	382.44
269.609	401.44
269.841	399.44
270.073	412.44
270.306	395.44
270.538	420.44
270.77	408.44
271.002	398.44
271.234	396.44
271.466	418.44
271.698	411.44
271.93	438.44
272.162	415.44
272.394	434.44
272.626	423.44
272.858	441.44
273.09	412.44
273.322	433.44
273.553	447.44
273.785	444.44
274.017	463.44
274.249	447.44
274.481	447.44
274.713	437.44
274.945	451.44
275.176	476.44
275.408	476.44
275.64	510.44
275.872	509.44
276.104	534.44
276.335	518.44
276.567	523.44
276.799	542.44
277.031	581.44
277.262	619.44
277.494	619.44
277.726	600.44
277.957	573.44
278.189	561.44
278.421	543.44
278.652	564.44
278.884	545.44
279.115	525.44
279.347	552.44
279.579	547.44
279.81	597.44
280.042	647.44
280.273	739.44
280.505	767.44
280.736	682.44
280.968	611.44
281.199	611.44
281.431	579.44
281.662	571.44
281.894	564.44
282.125	536.44
282.356	530.44
282.588	525.44
282.819	541.44
283.051	525.44
283.282	534.44
283.513	513.44
283.745	511.44
283.976	520.44
284.207	532.44
284.439	527.44
284.67	532.44
284.901	526.44
285.132	559.44
285.364	509.44
285.595	535.44
285.826	513.44
286.057	527.44
286.288	545.44
286.52	541.44
286.751	552.44
286.982	558.44
287.213	561.44
287.444	548.44
287.675	543.44
287.906	552.44
288.138	528.44
288.369	549.44
288.6	553.44
288.831	546.44
289.062	544.44
289.293	550.44
289.524	552.44
289.755	571.44
289.986	555.44
290.217	571.44
290.448	544.44
290.679	551.44
290.91	573.44
291.141	544.44
291.371	545.44
291.602	535.44
291.833	560.44
292.064	561.44
292.295	540.44
292.526	550.44
292.757	551.44
292.987	545.44
293.218	531.44
293.449	551.44
293.68	536.44
293.91	536.44
294.141	546.44
294.372	512.44
294.603	540.44
294.833	552.44
295.064	534.44
295.295	540.44
295.525	525.44
295.756	527.44
295.987	561.44
296.217	582.44
296.448	549.44
296.679	553.44
296.909	565.44
297.14	558.44
297.37	599.44
297.601	573.44
297.831	562.44
298.062	564.44
298.292	572.44
298.523	595.44
298.753	593.44
298.984	568.44
299.214	560.44
299.445	571.44
299.675	573.44
299.905	588.44
300.136	589.44
300.366	608.44
300.597	607.44
300.827	605.44
301.057	612.44
301.288	639.44
301.518	626.44
301.748	629.44
301.979	643.44
302.209	643.44
302.439	633.44
302.669	624.44
302.9	628.44
303.13	646.44
303.36	625.44
303.59	644.44
303.82	689.44
304.051	663.44
304.281	669.44
304.511	625.44
304.741	626.44
304.971	613.44
305.201	629.44
305.431	603.44
305.661	637.44
305.891	630.44
306.121	604.44
306.352	608.44
306.582	610.44
306.812	636.44
307.042	661.44
307.272	711.44
307.502	741.44
307.731	744.44
307.961	701.44
308.191	661.44
308.421	615.44
308.651	626.44
308.881	615.44
309.111	640.44
309.341	608.44
309.571	644.44
309.8	632.44
310.03	649.44
310.26	644.44
310.49	646.44
310.72	631.44
310.949	624.44
311.179	640.44
311.409	620.44
311.639	661.44
311.868	624.44
312.098	641.44
312.328	630.44
312.557	659.44
312.787	659.44
313.017	638.44
313.246	671.44
313.476	677.44
313.706	661.44
313.935	662.44
314.165	649.44
314.394	658.44
314.624	673.44
314.853	666.44
315.083	668.44
315.312	664.44
315.542	663.44
315.771	673.44
316.001	666.44
316.23	652.44
316.46	676.44
316.689	664.44
316.919	677.44
317.148	701.44
317.377	685.44
317.607	668.44
317.836	680.44
318.065	663.44
318.295	654.44
318.524	687.44
318.753	690.44
318.983	675.44
319.212	679.44
319.441	701.44
319.67	658.44
319.9	695.44
320.129	712.44
320.358	702.44
320.587	684.44
320.816	701.44
321.046	677.44
321.275	700.44
321.504	688.44
321.733	673.44
321.962	706.44
322.191	715.44
322.42	724.44
322.649	728.44
322.878	728.44
323.108	740.44
323.337	760.44
323.566	768.44
323.795	803.44
324.024	803.44
324.253	806.44
324.482	783.44
324.71	819.44
324.939	810.44
325.168	818.44
325.397	825.44
325.626	837.44
325.855	866.44
326.084	853.44
326.313	902.44
326.542	907.44
326.77	945.44
326.999	983.44
327.228	999.44
327.457	1096.44
327.686	1206.44
327.914	1428.44
328.143	1837.44
328.372	2225.44
328.6	2038.44
328.829	1514.44
329.058	1372.44
329.287	1362.44
329.515	1489.44
329.744	1789.44
329.972	2415.44
330.201	3283.44
330.43	4085.44
330.658	3291.44
330.887	2064.44
331.115	1541.44
331.344	1368.44
331.572	1257.44
331.801	1248.44
332.03	1218.44
332.258	1181.44
332.486	1217.44
332.715	1277.44
332.943	1359.44
333.172	1430.44
333.4	1559.44
333.629	1751.44
333.857	2061.44
334.085	2671.44
334.314	3683.44
334.542	5057.44
334.771	5387.44
334.999	3477.44
335.227	2209.44
335.455	1707.44
335.684	1455.44
335.912	1344.44
336.14	1217.44
336.369	1148.44
336.597	1087.44
336.825	1057.44
337.053	1061.44
337.281	1001.44
337.51	972.44
337.738	960.44
337.966	945.44
338.194	935.44
338.422	879.44
338.65	893.44
338.878	867.44
339.106	848.44
339.334	866.44
339.562	817.44
339.79	833.44
340.018	800.44
340.246	783.44
340.474	801.44
340.702	799.44
340.93	802.44
341.158	777.44
341.386	779.44
341.614	809.44
341.842	775.44
342.07	768.44
342.298	782.44
342.526	779.44
342.754	746.44
342.981	779.44
343.209	786.44
343.437	801.44
343.665	856.44
343.893	888.44
344.12	871.44
344.348	879.44
344.576	812.44
344.804	786.44
345.031	787.44
345.259	762.44
345.487	756.44
345.714	742.44
345.942	733.44
346.17	708.44
346.397	701.44
346.625	719.44
346.853	719.44
347.08	715.44
347.308	735.44
347.535	740.44
347.763	715.44
347.99	715.44
348.218	738.44
348.445	728.44
348.673	708.44
348.9	710.44
349.128	700.44
349.355	710.44
349.583	699.44
349.81	718.44
350.037	700.44
350.265	667.44
350.492	721.44
350.72	671.44
350.947	708.44
351.174	715.44
351.402	703.44
351.629	710.44
351.856	696.44
352.083	663.44
352.311	699.44
352.538	678.44
352.765	683.44
352.992	681.44
353.22	677.44
353.447	689.44
353.674	692.44
353.901	719.44
354.128	663.44
354.355	681.44
354.583	689.44
354.81	691.44
355.037	671.44
355.264	679.44
355.491	693.44
355.718	695.44
355.945	686.44
356.172	687.44
356.399	700.44
356.626	703.44
356.853	681.44
357.08	674.44
357.307	702.44
357.534	684.44
357.761	693.44
357.988	685.44
358.215	690.44
358.441	697.44
358.668	690.44
358.895	683.44
359.122	684.44
359.349	682.44
359.576	664.44
359.802	688.44
360.029	703.44
360.256	683.44
360.483	694.44
360.709	690.44
360.936	674.44
361.163	651.44
361.39	677.44
361.616	666.44
361.843	693.44
362.07	653.44
362.296	675.44
362.523	675.44
362.749	631.44
362.976	652.44
363.203	674.44
363.429	676.44
363.656	673.44
363.882	666.44
364.109	682.44
364.335	678.44
364.562	672.44
364.788	667.44
365.015	667.44
365.241	664.44
365.468	674.44
365.694	670.44
365.92	679.44
366.147	671.44
366.373	660.44
366.599	670.44
366.826	682.44
367.052	661.44
367.278	665.44
367.505	674.44
367.731	690.44
367.957	670.44
368.184	677.44
368.41	694.44
368.636	680.44
368.862	665.44
369.089	664.44
369.315	660.44
369.541	670.44
369.767	658.44
369.993	690.44
370.219	674.44
370.445	701.44
370.672	685.44
370.898	712.44
371.124	695.44
371.35	738.44
371.576	741.44
371.802	708.44
372.028	718.44
372.254	725.44
372.48	703.44
372.706	723.44
372.932	735.44
373.158	712.44
373.384	743.44
373.61	709.44
373.835	707.44
374.061	676.44
374.287	717.44
374.513	755.44
374.739	763.44
374.965	753.44
375.191	774.44
375.416	753.44
375.642	724.44
375.868	710.44
376.094	711.44
376.319	710.44
376.545	736.44
376.771	717.44
376.997	716.44
377.222	682.44
377.448	707.44
377.674	716.44
377.899	699.44
378.125	691.44
378.35	697.44
378.576	703.44
378.802	692.44
379.027	680.44
379.253	718.44
379.478	687.44
379.704	673.44
379.929	677.44
380.155	711.44
380.38	688.44
380.606	670.44
380.831	684.44
381.057	690.44
381.282	705.44
381.507	718.44
381.733	715.44
381.958	744.44
382.184	723.44
382.409	731.44
382.634	725.44
382.86	721.44
383.085	728.44
383.31	760.44
383.535	769.44
383.761	756.44
383.986	780.44
384.211	775.44
384.436	791.44
384.662	814.44
384.887	821.44
385.112	800.44
385.337	813.44
385.562	833.44
385.787	824.44
386.013	840.44
386.238	832.44
386.463	816.44
386.688	809.44
386.913	796.44
387.138	812.44
387.363	831.44
387.588	831.44
387.813	832.44
388.038	820.44
388.263	821.44
388.488	834.44
388.713	809.44
388.938	782.44
389.163	785.44
389.387	801.44
389.612	788.44
389.837	799.44
390.062	774.44
390.287	767.44
390.512	781.44
390.736	779.44
390.961	832.44
391.186	840.44
391.411	847.44
391.636	830.44
391.86	867.44
392.085	855.44
392.31	870.44
392.534	875.44
392.759	848.44
392.984	851.44
393.208	835.44
393.433	851.44
393.658	852.44
393.882	856.44
394.107	847.44
394.331	860.44
394.556	826.44
394.78	849.44
395.005	850.44
395.229	853.44
395.454	892.44
395.678	894.44
395.903	875.44
396.127	885.44
396.352	853.44
396.576	841.44
396.801	867.44
397.025	851.44
397.249	880.44
397.474	918.44
397.698	880.44
397.922	897.44
398.147	911.44
398.371	909.44
398.595	965.44
398.82	989.44
399.044	1056.44
399.268	1142.44
399.492	1260.44
399.717	1389.44
399.941	1389.44
400.165	1253.44
400.389	1155.44
400.613	1061.44
400.837	1054.44
401.062	1015.44
401.286	995.44
401.51	1013.44
401.734	988.44
401.958	1016.44
402.182	1017.44
402.406	1012.44
402.63	1023.44
402.854	1094.44
403.078	1066.44
403.302	1075.44
403.526	1112.44
403.75	1130.44
403.974	1150.44
404.198	1143.44
404.422	1159.44
404.645	1205.44
404.869	1248.44
405.093	1325.44
405.317	1389.44
405.541	1382.44
405.765	1305.44
405.988	1217.44
406.212	1189.44
406.436	1157.44
406.66	1165.44
406.883	1124.44
407.107	1174.44
407.331	1218.44
407.555	1233.44
407.778	1265.44
408.002	1184.44
408.226	1180.44
408.449	1172.44
408.673	1153.44
408.896	1121.44
409.12	1085.44
409.344	1120.44
409.567	1105.44
409.791	1103.44
410.014	1060.44
410.238	1041.44
410.461	1053.44
410.685	1065.44
410.908	1106.44
411.132	1068.44
411.355	1059.44
411.578	1077.44
411.802	1073.44
412.025	1123.44
412.249	1207.44
412.472	1294.44
412.695	1375.44
412.919	1356.44
413.142	1266.44
413.365	1202.44
413.589	1165.44
413.812	1091.44
414.035	1102.44
414.258	1073.44
414.482	1092.44
414.705	1087.44
414.928	1030.44
415.151	1025.44
415.374	1015.44
415.597	1040.44
415.821	1027.44
416.044	1043.44
416.267	1003.44
416.49	1015.44
416.713	971.44
416.936	972.44
417.159	987.44
417.382	1029.44
417.605	1077.44
417.828	1128.44
418.051	1062.44
418.274	1009.44
418.497	1031.44
418.72	1021.44
418.943	1056.44
419.166	1071.44
419.389	1139.44
419.611	1181.44
419.834	1148.44
420.057	1215.44
420.28	1257.44
420.503	1270.44
420.726	1203.44
420.948	1167.44
421.171	1157.44
421.394	1117.44
421.617	1052.44
421.839	1051.44
422.062	1043.44
422.285	992.44
422.507	1057.44
422.73	1037.44
422.953	1014.44
423.175	1023.44
423.398	1057.44
423.621	1037.44
423.843	1056.44
424.066	1029.44
424.288	1054.44
424.511	1035.44
424.733	1020.44
424.956	1006.44
425.178	1021.44
425.401	1012.44
425.623	979.44
425.846	963.44
426.068	957.44
426.291	957.44
426.513	975.44
426.735	960.44
426.958	980.44
427.18	977.44
427.402	1027.44
427.625	1102.44
427.847	1205.44
428.069	1336.44
428.292	1230.44
428.514	1093.44
428.736	1017.44
428.958	968.44
429.181	952.44
429.403	923.44
429.625	905.44
429.847	896.44
430.069	892.44
430.292	896.44
430.514	888.44
430.736	888.44
430.958	885.44
431.18	878.44
431.402	869.44
431.624	896.44
431.846	880.44
432.068	900.44
432.29	883.44
432.512	872.44
432.734	885.44
432.956	893.44
433.178	870.44
433.4	870.44
433.622	886.44
433.844	887.44
434.066	885.44
434.287	902.44
434.509	916.44
434.731	929.44
434.953	963.44
435.175	985.44
435.397	913.44
435.618	936.44
435.84	937.44
436.062	904.44
436.284	864.44
436.505	868.44
436.727	881.44
436.949	868.44
437.17	855.44
437.392	861.44
437.614	845.44
437.835	841.44
438.057	814.44
438.278	813.44
438.5	827.44
438.721	853.44
438.943	829.44
439.165	831.44
439.386	840.44
439.608	874.44
439.829	832.44
440.05	856.44
440.272	872.44
440.493	866.44
440.715	863.44
440.936	868.44
441.158	905.44
441.379	886.44
441.6	936.44
441.822	945.44
442.043	937.44
442.264	934.44
442.486	929.44
442.707	951.44
442.928	946.44
443.149	945.44
443.371	928.44
443.592	931.44
443.813	936.44
444.034	966.44
444.255	979.44
444.476	1026.44
444.698	1052.44
444.919	1107.44
445.14	1179.44
445.361	1069.44
445.582	1015.44
445.803	918.44
446.024	895.44
446.245	898.44
446.466	880.44
446.687	863.44
446.908	863.44
447.129	838.44
447.35	812.44
447.571	816.44
447.792	825.44
448.013	804.44
448.234	794.44
448.455	796.44
448.675	793.44
448.896	801.44
449.117	779.44
449.338	782.44
449.559	779.44
449.779	771.44
450	760.44
450.221	784.44
450.442	809.44
450.662	801.44
450.883	790.44
451.104	813.44
451.324	792.44
451.545	771.44
451.766	783.44
451.986	808.44
452.207	795.44
452.428	780.44
452.648	769.44
452.869	776.44
453.089	730.44
453.31	781.44
453.53	753.44
453.751	736.44
453.971	725.44
454.192	743.44
454.412	743.44
454.633	724.44
454.853	739.44
455.073	752.44
455.294	747.44
455.514	771.44
455.734	746.44
455.955	724.44
456.175	722.44
456.395	708.44
456.616	721.44
456.836	745.44
457.056	730.44
457.276	731.44
457.497	760.44
457.717	758.44
457.937	759.44
458.157	764.44
458.377	764.44
458.598	781.44
458.818	782.44
459.038	808.44
459.258	820.44
459.478	873.44
459.698	882.44
459.918	885.44
460.138	944.44
460.358	941.44
460.578	953.44
460.798	988.44
461.018	976.44
461.238	953.44
461.458	965.44
461.678	959.44
461.898	1000.44
462.118	983.44
462.338	1020.44
462.558	1041.44
462.777	1106.44
462.997	1150.44
463.217	1254.44
463.437	1248.44
463.657	1164.44
463.876	1121.44
464.096	1107.44
464.316	1105.44
464.536	1096.44
464.755	1091.44
464.975	1055.44
465.195	1033.44
465.414	957.44
465.634	928.44
465.854	915.44
466.073	886.44
466.293	872.44
466.512	847.44
466.732	884.44
466.951	851.44
467.171	855.44
467.391	914.44
467.61	937.44
467.829	1015.44
468.049	1375.44
468.268	2043.44
468.488	1601.44
468.707	1199.44
468.927	1046.44
469.146	967.44
469.365	963.44
469.585	911.44
469.804	941.44
470.023	934.44
470.243	936.44
470.462	950.44
470.681	969.44
470.901	959.44
471.12	947.44
471.339	954.44
471.558	997.44
471.777	1055.44
471.997	1253.44
472.216	1991.44
472.435	3920.44
472.654	3109.44
472.873	1940.44
473.092	1505.44
473.311	1264.44
473.53	1171.44
473.749	1075.44
473.968	1054.44
474.187	983.44
474.406	955.44
474.625	952.44
474.844	975.44
475.063	939.44
475.282	931.44
475.501	919.44
475.72	907.44
475.939	920.44
476.158	920.44
476.377	912.44
476.596	921.44
476.814	920.44
477.033	908.44
477.252	914.44
477.471	937.44
477.69	981.44
477.908	958.44
478.127	1011.44
478.346	1040.44
478.564	1061.44
478.783	1039.44
479.002	1096.44
479.22	1103.44
479.439	1099.44
479.658	1127.44
479.876	1151.44
480.095	1216.44
480.313	1279.44
480.532	1429.44
480.751	1647.44
480.969	2305.44
481.188	5057.44
481.406	6420.44
481.624	3567.44
481.843	2459.44
482.061	1962.44
482.28	1685.44
482.498	1527.44
482.717	1400.44
482.935	1361.44
483.153	1250.44
483.372	1211.44
483.59	1213.44
483.808	1182.44
484.027	1142.44
484.245	1129.44
484.463	1135.44
484.681	1125.44
484.9	1132.44
485.118	1113.44
485.336	1100.44
485.554	1109.44
485.772	1108.44
485.99	1111.44
486.209	1104.44
486.427	1090.44
486.645	1095.44
486.863	1089.44
487.081	1118.44
487.299	1120.44
487.517	1095.44
487.735	1091.44
487.953	1094.44
488.171	1110.44
488.389	1144.44
488.607	1133.44
488.825	1090.44
489.043	1127.44
489.261	1157.44
489.479	1097.44
489.696	1157.44
489.914	1172.44
490.132	1184.44
490.35	1216.44
490.568	1266.44
490.786	1284.44
491.003	1320.44
491.221	1323.44
491.439	1443.44
491.657	1471.44
491.874	1495.44
492.092	1486.44
492.31	1519.44
492.527	1571.44
492.745	1603.44
492.963	1608.44
493.18	1580.44
493.398	1554.44
493.615	1506.44
493.833	1507.44
494.05	1475.44
494.268	1406.44
494.485	1403.44
494.703	1398.44
494.92	1365.44
495.138	1344.44
495.355	1353.44
495.573	1345.44
495.79	1325.44
496.008	1267.44
496.225	1301.44
496.442	1279.44
496.66	1270.44
496.877	1273.44
497.094	1276.44
497.312	1311.44
497.529	1272.44
497.746	1351.44
497.963	1322.44
