Data from FlinnAP5935BZINC.07152019.LAMPEdge.EN7.5scans.P1_HRD10591_15-01-04-579.txt Node
Date: Mon Jul 15 15:01:04 EDT 2019
User: cochatt
Spectrometer: HR+D1059
Trigger mode: 1
Integration Time (sec): 1.000000E-1
Scans to average: 1
Electric dark correction enabled: true
Nonlinearity correction enabled: false
Boxcar width: 0
XAxis mode: Wavelengths
Number of Pixels in Spectrum: 2048
>>>>>Begin Spectral Data<<<<<
223.165	-19.94
223.4	-19.94
223.635	-19.94
223.869	-13.94
224.104	-29.94
224.338	-23.94
224.573	-7.94
224.808	-15.94
225.042	-8.94
225.277	-1.94
225.511	7.06
225.746	3.06
225.98	0.06
226.215	20.06
226.449	22.06
226.683	21.06
226.918	22.06
227.152	27.06
227.387	35.06
227.621	32.06
227.856	53.06
228.09	32.06
228.324	42.06
228.559	44.06
228.793	68.06
229.027	111.06
229.262	126.06
229.496	126.06
229.73	135.06
229.964	145.06
230.199	145.06
230.433	148.06
230.667	148.06
230.901	146.06
231.136	148.06
231.37	157.06
231.604	159.06
231.838	156.06
232.072	158.06
232.306	169.06
232.541	150.06
232.775	172.06
233.009	167.06
233.243	168.06
233.477	166.06
233.711	157.06
233.945	161.06
234.179	161.06
234.413	166.06
234.647	180.06
234.881	181.06
235.115	161.06
235.349	168.06
235.583	180.06
235.817	168.06
236.051	189.06
236.285	166.06
236.519	187.06
236.753	182.06
236.987	194.06
237.221	192.06
237.455	192.06
237.689	199.06
237.922	179.06
238.156	190.06
238.39	200.06
238.624	192.06
238.858	199.06
239.091	188.06
239.325	194.06
239.559	203.06
239.793	214.06
240.027	204.06
240.26	212.06
240.494	213.06
240.728	205.06
240.961	220.06
241.195	213.06
241.429	208.06
241.662	215.06
241.896	232.06
242.13	230.06
242.363	232.06
242.597	237.06
242.83	250.06
243.064	245.06
243.298	241.06
243.531	245.06
243.765	248.06
243.998	249.06
244.232	260.06
244.465	270.06
244.699	270.06
244.932	268.06
245.166	281.06
245.399	262.06
245.633	288.06
245.866	269.06
246.099	273.06
246.333	267.06
246.566	261.06
246.8	274.06
247.033	295.06
247.266	290.06
247.5	296.06
247.733	312.06
247.966	306.06
248.2	314.06
248.433	314.06
248.666	342.06
248.899	326.06
249.133	314.06
249.366	338.06
249.599	356.06
249.832	380.06
250.066	411.06
250.299	486.06
250.532	661.06
250.765	740.06
250.998	635.06
251.231	545.06
251.465	468.06
251.698	442.06
251.931	434.06
252.164	410.06
252.397	408.06
252.63	402.06
252.863	394.06
253.096	391.06
253.329	397.06
253.562	404.06
253.795	408.06
254.028	432.06
254.261	421.06
254.494	428.06
254.727	434.06
254.96	453.06
255.193	467.06
255.426	544.06
255.659	612.06
255.892	806.06
256.124	1115.06
256.357	1274.06
256.59	1017.06
256.823	796.06
257.056	654.06
257.289	628.06
257.521	540.06
257.754	546.06
257.987	519.06
258.22	507.06
258.452	482.06
258.685	496.06
258.918	497.06
259.151	474.06
259.383	492.06
259.616	462.06
259.849	480.06
260.081	476.06
260.314	475.06
260.547	462.06
260.779	469.06
261.012	486.06
261.244	491.06
261.477	464.06
261.71	488.06
261.942	462.06
262.175	445.06
262.407	466.06
262.64	464.06
262.872	462.06
263.105	470.06
263.337	467.06
263.57	468.06
263.802	468.06
264.035	469.06
264.267	461.06
264.499	475.06
264.732	463.06
264.964	492.06
265.197	503.06
265.429	474.06
265.661	484.06
265.894	488.06
266.126	506.06
266.358	496.06
266.591	505.06
266.823	488.06
267.055	482.06
267.287	509.06
267.52	492.06
267.752	502.06
267.984	487.06
268.216	513.06
268.448	520.06
268.681	511.06
268.913	522.06
269.145	521.06
269.377	517.06
269.609	541.06
269.841	505.06
270.073	506.06
270.306	535.06
270.538	512.06
270.77	524.06
271.002	560.06
271.234	576.06
271.466	553.06
271.698	556.06
271.93	566.06
272.162	560.06
272.394	556.06
272.626	586.06
272.858	572.06
273.09	572.06
273.322	597.06
273.553	598.06
273.785	594.06
274.017	611.06
274.249	604.06
274.481	608.06
274.713	611.06
274.945	620.06
275.176	653.06
275.408	654.06
275.64	678.06
275.872	686.06
276.104	720.06
276.335	674.06
276.567	690.06
276.799	727.06
277.031	807.06
277.262	849.06
277.494	827.06
277.726	774.06
277.957	768.06
278.189	747.06
278.421	738.06
278.652	726.06
278.884	712.06
279.115	716.06
279.347	765.06
279.579	777.06
279.81	814.06
280.042	852.06
280.273	956.06
280.505	1001.06
280.736	876.06
280.968	826.06
281.199	801.06
281.431	753.06
281.662	749.06
281.894	737.06
282.125	736.06
282.356	746.06
282.588	747.06
282.819	714.06
283.051	728.06
283.282	723.06
283.513	699.06
283.745	678.06
283.976	702.06
284.207	702.06
284.439	717.06
284.67	735.06
284.901	702.06
285.132	719.06
285.364	712.06
285.595	734.06
285.826	714.06
286.057	700.06
286.288	744.06
286.52	735.06
286.751	733.06
286.982	720.06
287.213	730.06
287.444	756.06
287.675	711.06
287.906	750.06
288.138	739.06
288.369	738.06
288.6	754.06
288.831	766.06
289.062	751.06
289.293	788.06
289.524	755.06
289.755	732.06
289.986	760.06
290.217	720.06
290.448	764.06
290.679	756.06
290.91	746.06
291.141	728.06
291.371	762.06
291.602	774.06
291.833	735.06
292.064	742.06
292.295	750.06
292.526	731.06
292.757	752.06
292.987	738.06
293.218	715.06
293.449	730.06
293.68	740.06
293.91	727.06
294.141	743.06
294.372	720.06
294.603	753.06
294.833	747.06
295.064	732.06
295.295	757.06
295.525	729.06
295.756	752.06
295.987	734.06
296.217	750.06
296.448	749.06
296.679	759.06
296.909	738.06
297.14	742.06
297.37	771.06
297.601	774.06
297.831	784.06
298.062	761.06
298.292	776.06
298.523	806.06
298.753	802.06
298.984	803.06
299.214	788.06
299.445	796.06
299.675	759.06
299.905	811.06
300.136	797.06
300.366	824.06
300.597	802.06
300.827	800.06
301.057	859.06
301.288	840.06
301.518	832.06
301.748	836.06
301.979	842.06
302.209	878.06
302.439	866.06
302.669	887.06
302.9	851.06
303.13	854.06
303.36	885.06
303.59	880.06
303.82	931.06
304.051	948.06
304.281	886.06
304.511	842.06
304.741	887.06
304.971	858.06
305.201	861.06
305.431	849.06
305.661	845.06
305.891	847.06
306.121	856.06
306.352	854.06
306.582	845.06
306.812	868.06
307.042	893.06
307.272	946.06
307.502	991.06
307.731	1017.06
307.961	986.06
308.191	910.06
308.421	873.06
308.651	872.06
308.881	844.06
309.111	856.06
309.341	840.06
309.571	880.06
309.8	871.06
310.03	850.06
310.26	864.06
310.49	845.06
310.72	887.06
310.949	858.06
311.179	858.06
311.409	858.06
311.639	862.06
311.868	878.06
312.098	890.06
312.328	896.06
312.557	882.06
312.787	870.06
313.017	899.06
313.246	904.06
313.476	895.06
313.706	895.06
313.935	933.06
314.165	922.06
314.394	937.06
314.624	912.06
314.853	910.06
315.083	913.06
315.312	920.06
315.542	894.06
315.771	920.06
316.001	905.06
316.23	882.06
316.46	933.06
316.689	922.06
316.919	923.06
317.148	910.06
317.377	911.06
317.607	915.06
317.836	929.06
318.065	912.06
318.295	939.06
318.524	919.06
318.753	934.06
318.983	927.06
319.212	916.06
319.441	916.06
319.67	932.06
319.9	936.06
320.129	927.06
320.358	954.06
320.587	961.06
320.816	940.06
321.046	953.06
321.275	966.06
321.504	955.06
321.733	963.06
321.962	969.06
322.191	982.06
322.42	995.06
322.649	991.06
322.878	1014.06
323.108	1020.06
323.337	1072.06
323.566	1052.06
323.795	1060.06
324.024	1086.06
324.253	1127.06
324.482	1137.06
324.71	1098.06
324.939	1115.06
325.168	1156.06
325.397	1139.06
325.626	1169.06
325.855	1191.06
326.084	1214.06
326.313	1238.06
326.542	1293.06
326.77	1320.06
326.999	1324.06
327.228	1386.06
327.457	1497.06
327.686	1668.06
327.914	1989.06
328.143	2532.06
328.372	3043.06
328.6	2759.06
328.829	2057.06
329.058	1851.06
329.287	1866.06
329.515	2051.06
329.744	2457.06
329.972	3284.06
330.201	4511.06
330.43	5505.06
330.658	4474.06
330.887	2726.06
331.115	2110.06
331.344	1861.06
331.572	1756.06
331.801	1721.06
332.03	1679.06
332.258	1686.06
332.486	1729.06
332.715	1767.06
332.943	1850.06
333.172	1958.06
333.4	2154.06
333.629	2434.06
333.857	2880.06
334.085	3725.06
334.314	5100.06
334.542	6864.06
334.771	7309.06
334.999	4728.06
335.227	3002.06
335.455	2388.06
335.684	2020.06
335.912	1865.06
336.14	1724.06
336.369	1603.06
336.597	1540.06
336.825	1486.06
337.053	1427.06
337.281	1365.06
337.51	1383.06
337.738	1336.06
337.966	1275.06
338.194	1256.06
338.422	1230.06
338.65	1179.06
338.878	1178.06
339.106	1165.06
339.334	1174.06
339.562	1151.06
339.79	1149.06
340.018	1131.06
340.246	1076.06
340.474	1098.06
340.702	1075.06
340.93	1103.06
341.158	1104.06
341.386	1064.06
341.614	1076.06
341.842	1068.06
342.07	1066.06
342.298	1050.06
342.526	1041.06
342.754	1059.06
342.981	1058.06
343.209	1054.06
343.437	1081.06
343.665	1152.06
343.893	1180.06
344.12	1227.06
344.348	1150.06
344.576	1149.06
344.804	1104.06
345.031	1103.06
345.259	1071.06
345.487	1020.06
345.714	1013.06
345.942	999.06
346.17	995.06
346.397	984.06
346.625	998.06
346.853	973.06
347.08	970.06
347.308	976.06
347.535	973.06
347.763	983.06
347.99	993.06
348.218	976.06
348.445	966.06
348.673	982.06
348.9	1020.06
349.128	958.06
349.355	985.06
349.583	983.06
349.81	973.06
350.037	949.06
350.265	940.06
350.492	952.06
350.72	984.06
350.947	937.06
351.174	954.06
351.402	948.06
351.629	942.06
351.856	957.06
352.083	962.06
352.311	945.06
352.538	939.06
352.765	958.06
352.992	934.06
353.22	937.06
353.447	930.06
353.674	949.06
353.901	936.06
354.128	940.06
354.355	939.06
354.583	935.06
354.81	926.06
355.037	965.06
355.264	931.06
355.491	964.06
355.718	920.06
355.945	923.06
356.172	942.06
356.399	941.06
356.626	916.06
356.853	942.06
357.08	941.06
357.307	959.06
357.534	957.06
357.761	931.06
357.988	922.06
358.215	954.06
358.441	912.06
358.668	921.06
358.895	929.06
359.122	921.06
359.349	929.06
359.576	942.06
359.802	926.06
360.029	963.06
360.256	950.06
360.483	921.06
360.709	916.06
360.936	948.06
361.163	944.06
361.39	911.06
361.616	942.06
361.843	905.06
362.07	884.06
362.296	915.06
362.523	956.06
362.749	902.06
362.976	911.06
363.203	941.06
363.429	940.06
363.656	920.06
363.882	916.06
364.109	908.06
364.335	920.06
364.562	907.06
364.788	914.06
365.015	914.06
365.241	923.06
365.468	936.06
365.694	920.06
365.92	923.06
366.147	912.06
366.373	908.06
366.599	916.06
366.826	918.06
367.052	907.06
367.278	930.06
367.505	914.06
367.731	920.06
367.957	914.06
368.184	901.06
368.41	930.06
368.636	930.06
368.862	935.06
369.089	933.06
369.315	927.06
369.541	951.06
369.767	945.06
369.993	923.06
370.219	932.06
370.445	932.06
370.672	951.06
370.898	940.06
371.124	969.06
371.35	977.06
371.576	953.06
371.802	984.06
372.028	978.06
372.254	973.06
372.48	982.06
372.706	956.06
372.932	974.06
373.158	988.06
373.384	979.06
373.61	956.06
373.835	939.06
374.061	923.06
374.287	965.06
374.513	999.06
374.739	1010.06
374.965	1047.06
375.191	1057.06
375.416	1052.06
375.642	1001.06
375.868	1000.06
376.094	974.06
376.319	992.06
376.545	962.06
376.771	961.06
376.997	950.06
377.222	924.06
377.448	957.06
377.674	960.06
377.899	959.06
378.125	966.06
378.35	942.06
378.576	940.06
378.802	938.06
379.027	927.06
379.253	954.06
379.478	944.06
379.704	920.06
379.929	945.06
380.155	948.06
380.38	942.06
380.606	942.06
380.831	940.06
381.057	949.06
381.282	950.06
381.507	951.06
381.733	978.06
381.958	964.06
382.184	954.06
382.409	975.06
382.634	1023.06
382.86	1000.06
383.085	1023.06
383.31	1035.06
383.535	1028.06
383.761	1048.06
383.986	1078.06
384.211	1069.06
384.436	1088.06
384.662	1089.06
384.887	1125.06
385.112	1113.06
385.337	1126.06
385.562	1119.06
385.787	1126.06
386.013	1122.06
386.238	1122.06
386.463	1118.06
386.688	1105.06
386.913	1098.06
387.138	1103.06
387.363	1118.06
387.588	1096.06
387.813	1086.06
388.038	1102.06
388.263	1101.06
388.488	1107.06
388.713	1088.06
388.938	1109.06
389.163	1081.06
389.387	1110.06
389.612	1069.06
389.837	1074.06
390.062	1062.06
390.287	1116.06
390.512	1070.06
390.736	1125.06
390.961	1102.06
391.186	1103.06
391.411	1153.06
391.636	1198.06
391.86	1199.06
392.085	1207.06
392.31	1199.06
392.534	1150.06
392.759	1164.06
392.984	1161.06
393.208	1143.06
393.433	1149.06
393.658	1138.06
393.882	1114.06
394.107	1145.06
394.331	1182.06
394.556	1166.06
394.78	1170.06
395.005	1179.06
395.229	1178.06
395.454	1219.06
395.678	1253.06
395.903	1228.06
396.127	1202.06
396.352	1204.06
396.576	1200.06
396.801	1204.06
397.025	1162.06
397.249	1162.06
397.474	1233.06
397.698	1223.06
397.922	1258.06
398.147	1228.06
398.371	1257.06
398.595	1296.06
398.82	1361.06
399.044	1442.06
399.268	1544.06
399.492	1742.06
399.717	1908.06
399.941	1926.06
400.165	1738.06
400.389	1601.06
400.613	1518.06
400.837	1409.06
401.062	1356.06
401.286	1373.06
401.51	1374.06
401.734	1367.06
401.958	1390.06
402.182	1386.06
402.406	1407.06
402.63	1443.06
402.854	1454.06
403.078	1484.06
403.302	1480.06
403.526	1526.06
403.75	1567.06
403.974	1594.06
404.198	1566.06
404.422	1613.06
404.645	1660.06
404.869	1705.06
405.093	1798.06
405.317	1903.06
405.541	1985.06
405.765	1790.06
405.988	1678.06
406.212	1621.06
406.436	1575.06
406.66	1604.06
406.883	1610.06
407.107	1617.06
407.331	1647.06
407.555	1683.06
407.778	1695.06
408.002	1681.06
408.226	1604.06
408.449	1598.06
408.673	1545.06
408.896	1494.06
409.12	1508.06
409.344	1485.06
409.567	1504.06
409.791	1496.06
410.014	1487.06
410.238	1505.06
410.461	1475.06
410.685	1456.06
410.908	1477.06
411.132	1435.06
411.355	1432.06
411.578	1464.06
411.802	1493.06
412.025	1540.06
412.249	1642.06
412.472	1750.06
412.695	1925.06
412.919	1884.06
413.142	1779.06
413.365	1698.06
413.589	1568.06
413.812	1521.06
414.035	1516.06
414.258	1465.06
414.482	1495.06
414.705	1452.06
414.928	1428.06
415.151	1395.06
415.374	1373.06
415.597	1379.06
415.821	1389.06
416.044	1386.06
416.267	1418.06
416.49	1353.06
416.713	1341.06
416.936	1356.06
417.159	1365.06
417.382	1412.06
417.605	1481.06
417.828	1503.06
418.051	1452.06
418.274	1425.06
418.497	1369.06
418.72	1417.06
418.943	1412.06
419.166	1484.06
419.389	1585.06
419.611	1617.06
419.834	1591.06
420.057	1606.06
420.28	1736.06
420.503	1724.06
420.726	1661.06
420.948	1594.06
421.171	1579.06
421.394	1519.06
421.617	1455.06
421.839	1462.06
422.062	1421.06
422.285	1380.06
422.507	1407.06
422.73	1402.06
422.953	1409.06
423.175	1436.06
423.398	1414.06
423.621	1387.06
423.843	1436.06
424.066	1423.06
424.288	1426.06
424.511	1420.06
424.733	1397.06
424.956	1389.06
425.178	1365.06
425.401	1350.06
425.623	1389.06
425.846	1317.06
426.068	1317.06
426.291	1311.06
426.513	1292.06
426.735	1328.06
426.958	1336.06
427.18	1333.06
427.402	1388.06
427.625	1476.06
427.847	1644.06
428.069	1865.06
428.292	1720.06
428.514	1476.06
428.736	1343.06
428.958	1334.06
429.181	1288.06
429.403	1276.06
429.625	1232.06
429.847	1238.06
430.069	1173.06
430.292	1234.06
430.514	1236.06
430.736	1197.06
430.958	1187.06
431.18	1192.06
431.402	1174.06
431.624	1189.06
431.846	1189.06
432.068	1202.06
432.29	1224.06
432.512	1189.06
432.734	1176.06
432.956	1178.06
433.178	1179.06
433.4	1192.06
433.622	1215.06
433.844	1202.06
434.066	1185.06
434.287	1208.06
434.509	1234.06
434.731	1263.06
434.953	1287.06
435.175	1302.06
435.397	1272.06
435.618	1229.06
435.84	1238.06
436.062	1206.06
436.284	1196.06
436.505	1172.06
436.727	1180.06
436.949	1162.06
437.17	1164.06
437.392	1134.06
437.614	1143.06
437.835	1120.06
438.057	1134.06
438.278	1100.06
438.5	1103.06
438.721	1126.06
438.943	1144.06
439.165	1125.06
439.386	1140.06
439.608	1184.06
439.829	1174.06
440.05	1172.06
440.272	1169.06
440.493	1172.06
440.715	1157.06
440.936	1198.06
441.158	1218.06
441.379	1217.06
441.6	1265.06
441.822	1260.06
442.043	1275.06
442.264	1259.06
442.486	1255.06
442.707	1274.06
442.928	1270.06
443.149	1262.06
443.371	1247.06
443.592	1258.06
443.813	1276.06
444.034	1297.06
444.255	1332.06
444.476	1405.06
444.698	1448.06
444.919	1478.06
445.14	1619.06
445.361	1431.06
445.582	1331.06
445.803	1230.06
446.024	1258.06
446.245	1202.06
446.466	1207.06
446.687	1168.06
446.908	1180.06
447.129	1145.06
447.35	1135.06
447.571	1125.06
447.792	1079.06
448.013	1102.06
448.234	1092.06
448.455	1100.06
448.675	1077.06
448.896	1083.06
449.117	1030.06
449.338	1037.06
449.559	1057.06
449.779	1026.06
450	1042.06
450.221	1054.06
450.442	1084.06
450.662	1058.06
450.883	1026.06
451.104	1049.06
451.324	1045.06
451.545	1065.06
451.766	1047.06
451.986	1039.06
452.207	1062.06
452.428	1032.06
452.648	1057.06
452.869	1016.06
453.089	1025.06
453.31	1013.06
453.53	1013.06
453.751	1019.06
453.971	1029.06
454.192	1036.06
454.412	980.06
454.633	1025.06
454.853	1025.06
455.073	992.06
455.294	1028.06
455.514	988.06
455.734	990.06
455.955	996.06
456.175	1013.06
456.395	1010.06
456.616	991.06
456.836	1006.06
457.056	1012.06
457.276	969.06
457.497	1052.06
457.717	990.06
457.937	1023.06
458.157	1044.06
458.377	1036.06
458.598	1062.06
458.818	1071.06
459.038	1094.06
459.258	1079.06
459.478	1124.06
459.698	1184.06
459.918	1210.06
460.138	1230.06
460.358	1311.06
460.578	1320.06
460.798	1339.06
461.018	1353.06
461.238	1320.06
461.458	1310.06
461.678	1301.06
461.898	1340.06
462.118	1333.06
462.338	1423.06
462.558	1440.06
462.777	1489.06
462.997	1589.06
463.217	1698.06
463.437	1717.06
463.657	1576.06
463.876	1519.06
464.096	1525.06
464.316	1521.06
464.536	1514.06
464.755	1477.06
464.975	1453.06
465.195	1360.06
465.414	1315.06
465.634	1254.06
465.854	1260.06
466.073	1206.06
466.293	1209.06
466.512	1145.06
466.732	1178.06
466.951	1172.06
467.171	1169.06
467.391	1231.06
467.61	1259.06
467.829	1385.06
468.049	1868.06
468.268	2726.06
468.488	2106.06
468.707	1604.06
468.927	1439.06
469.146	1328.06
469.365	1302.06
469.585	1256.06
469.804	1254.06
470.023	1308.06
470.243	1300.06
470.462	1278.06
470.681	1271.06
470.901	1280.06
471.12	1305.06
471.339	1310.06
471.558	1345.06
471.777	1457.06
471.997	1704.06
472.216	2649.06
472.435	5165.06
472.654	4155.06
472.873	2584.06
473.092	2036.06
473.311	1753.06
473.53	1628.06
473.749	1478.06
473.968	1416.06
474.187	1364.06
474.406	1318.06
474.625	1307.06
474.844	1275.06
475.063	1262.06
475.282	1246.06
475.501	1246.06
475.72	1247.06
475.939	1244.06
476.158	1221.06
476.377	1263.06
476.596	1260.06
476.814	1265.06
477.033	1269.06
477.252	1304.06
477.471	1289.06
477.69	1335.06
477.908	1347.06
478.127	1366.06
478.346	1387.06
478.564	1435.06
478.783	1440.06
479.002	1456.06
479.22	1513.06
479.439	1506.06
479.658	1500.06
479.876	1597.06
480.095	1604.06
480.313	1739.06
480.532	1927.06
480.751	2243.06
480.969	3175.06
481.188	6816.06
481.406	8678.06
481.624	4771.06
481.843	3384.06
482.061	2726.06
482.28	2308.06
482.498	2085.06
482.717	1943.06
482.935	1860.06
483.153	1752.06
483.372	1711.06
483.59	1678.06
483.808	1612.06
484.027	1549.06
484.245	1581.06
484.463	1542.06
484.681	1546.06
484.9	1559.06
485.118	1538.06
485.336	1525.06
485.554	1526.06
485.772	1542.06
485.99	1560.06
486.209	1511.06
486.427	1550.06
486.645	1494.06
486.863	1540.06
487.081	1520.06
487.299	1525.06
487.517	1529.06
487.735	1504.06
487.953	1550.06
488.171	1525.06
488.389	1550.06
488.607	1536.06
488.825	1564.06
489.043	1564.06
489.261	1558.06
489.479	1594.06
489.696	1631.06
489.914	1625.06
490.132	1692.06
490.35	1723.06
490.568	1699.06
490.786	1787.06
491.003	1809.06
491.221	1927.06
491.439	1964.06
491.657	2056.06
491.874	2066.06
492.092	2139.06
492.31	2155.06
492.527	2188.06
492.745	2270.06
492.963	2269.06
493.18	2233.06
493.398	2191.06
493.615	2189.06
