Data from FlinnAP9092KCOPPER.07152019.QSWITCHSynchronous.EN10.P1_HRD10591_14-48-31-573.txt Node
Date: Mon Jul 15 14:48:31 EDT 2019
User: cochatt
Spectrometer: HR+D1059
Trigger mode: 5
Integration Time (sec): 1.000000E-1
Scans to average: 1
Electric dark correction enabled: true
Nonlinearity correction enabled: false
Boxcar width: 0
XAxis mode: Wavelengths
Number of Pixels in Spectrum: 2048
>>>>>Begin Spectral Data<<<<<
223.165	-40.62
223.4	-40.62
223.635	-40.62
223.869	-33.62
224.104	-29.62
224.338	14.38
224.573	-19.62
224.808	-19.62
225.042	13.38
225.277	-4.62
225.511	-8.62
225.746	16.38
225.98	17.38
226.215	7.38
226.449	17.38
226.683	8.38
226.918	23.38
227.152	38.38
227.387	38.38
227.621	45.38
227.856	47.38
228.09	39.38
228.324	52.38
228.559	94.38
228.793	100.38
229.027	186.38
229.262	225.38
229.496	210.38
229.73	280.38
229.964	339.38
230.199	290.38
230.433	216.38
230.667	229.38
230.901	217.38
231.136	179.38
231.37	211.38
231.604	197.38
231.838	213.38
232.072	188.38
232.306	205.38
232.541	200.38
232.775	190.38
233.009	207.38
233.243	198.38
233.477	204.38
233.711	216.38
233.945	217.38
234.179	228.38
234.413	227.38
234.647	237.38
234.881	210.38
235.115	234.38
235.349	225.38
235.583	248.38
235.817	211.38
236.051	240.38
236.285	245.38
236.519	230.38
236.753	271.38
236.987	284.38
237.221	383.38
237.455	542.38
237.689	417.38
237.922	304.38
238.156	265.38
238.39	252.38
238.624	240.38
238.858	253.38
239.091	241.38
239.325	265.38
239.559	246.38
239.793	268.38
240.027	301.38
240.26	309.38
240.494	377.38
240.728	324.38
240.961	327.38
241.195	329.38
241.429	287.38
241.662	261.38
241.896	283.38
242.13	272.38
242.363	283.38
242.597	255.38
242.83	285.38
243.064	302.38
243.298	282.38
243.531	291.38
243.765	288.38
243.998	290.38
244.232	293.38
244.465	310.38
244.699	292.38
244.932	303.38
245.166	299.38
245.399	329.38
245.633	317.38
245.866	304.38
246.099	290.38
246.333	303.38
246.566	293.38
246.8	317.38
247.033	330.38
247.266	314.38
247.5	342.38
247.733	359.38
247.966	381.38
248.2	380.38
248.433	346.38
248.666	355.38
248.899	411.38
249.133	442.38
249.366	494.38
249.599	460.38
249.832	391.38
250.066	391.38
250.299	392.38
250.532	396.38
250.765	409.38
250.998	495.38
251.231	506.38
251.465	471.38
251.698	412.38
251.931	410.38
252.164	395.38
252.397	423.38
252.63	425.38
252.863	408.38
253.096	485.38
253.329	520.38
253.562	495.38
253.795	466.38
254.028	469.38
254.261	478.38
254.494	487.38
254.727	615.38
254.96	676.38
255.193	617.38
255.426	517.38
255.659	494.38
255.892	481.38
256.124	427.38
256.357	442.38
256.59	444.38
256.823	404.38
257.056	439.38
257.289	431.38
257.521	438.38
257.754	449.38
257.987	450.38
258.22	467.38
258.452	449.38
258.685	456.38
258.918	473.38
259.151	459.38
259.383	509.38
259.616	487.38
259.849	515.38
260.081	527.38
260.314	585.38
260.547	591.38
260.779	565.38
261.012	505.38
261.244	491.38
261.477	519.38
261.71	476.38
261.942	501.38
262.175	558.38
262.407	520.38
262.64	478.38
262.872	486.38
263.105	476.38
263.337	510.38
263.57	474.38
263.802	449.38
264.035	451.38
264.267	443.38
264.499	444.38
264.732	494.38
264.964	460.38
265.197	477.38
265.429	494.38
265.661	487.38
265.894	477.38
266.126	518.38
266.358	484.38
266.591	505.38
266.823	519.38
267.055	495.38
267.287	493.38
267.52	517.38
267.752	527.38
267.984	533.38
268.216	502.38
268.448	543.38
268.681	559.38
268.913	552.38
269.145	599.38
269.377	672.38
269.609	655.38
269.841	616.38
270.073	647.38
270.306	677.38
270.538	813.38
270.77	778.38
271.002	707.38
271.234	662.38
271.466	702.38
271.698	727.38
271.93	772.38
272.162	748.38
272.394	777.38
272.626	707.38
272.858	634.38
273.09	635.38
273.322	623.38
273.553	609.38
273.785	605.38
274.017	597.38
274.249	597.38
274.481	602.38
274.713	596.38
274.945	634.38
275.176	608.38
275.408	621.38
275.64	623.38
275.872	613.38
276.104	641.38
276.335	584.38
276.567	641.38
276.799	652.38
277.031	769.38
277.262	799.38
277.494	774.38
277.726	707.38
277.957	683.38
278.189	657.38
278.421	629.38
278.652	623.38
278.884	603.38
279.115	624.38
279.347	613.38
279.579	600.38
279.81	617.38
280.042	614.38
280.273	621.38
280.505	620.38
280.736	603.38
280.968	643.38
281.199	624.38
281.431	643.38
281.662	629.38
281.894	637.38
282.125	653.38
282.356	684.38
282.588	738.38
282.819	735.38
283.051	669.38
283.282	643.38
283.513	650.38
283.745	660.38
283.976	653.38
284.207	681.38
284.439	684.38
284.67	685.38
284.901	678.38
285.132	647.38
285.364	658.38
285.595	672.38
285.826	661.38
286.057	697.38
286.288	655.38
286.52	693.38
286.751	691.38
286.982	681.38
287.213	673.38
287.444	692.38
287.675	716.38
287.906	739.38
288.138	743.38
288.369	750.38
288.6	728.38
288.831	719.38
289.062	723.38
289.293	701.38
289.524	707.38
289.755	707.38
289.986	694.38
290.217	704.38
290.448	688.38
290.679	702.38
290.91	723.38
291.141	686.38
291.371	707.38
291.602	695.38
291.833	681.38
292.064	697.38
292.295	700.38
292.526	671.38
292.757	703.38
292.987	673.38
293.218	673.38
293.449	716.38
293.68	697.38
293.91	696.38
294.141	685.38
294.372	681.38
294.603	681.38
294.833	713.38
295.064	684.38
295.295	709.38
295.525	733.38
295.756	735.38
295.987	725.38
296.217	805.38
296.448	815.38
296.679	772.38
296.909	725.38
297.14	704.38
297.37	743.38
297.601	731.38
297.831	724.38
298.062	762.38
298.292	747.38
298.523	786.38
298.753	767.38
298.984	779.38
299.214	745.38
299.445	762.38
299.675	715.38
299.905	750.38
300.136	739.38
300.366	729.38
300.597	725.38
300.827	781.38
301.057	815.38
301.288	850.38
301.518	812.38
301.748	814.38
301.979	804.38
302.209	809.38
302.439	799.38
302.669	807.38
302.9	786.38
303.13	773.38
303.36	807.38
303.59	809.38
303.82	816.38
304.051	795.38
304.281	801.38
304.511	815.38
304.741	783.38
304.971	766.38
305.201	782.38
305.431	775.38
305.661	779.38
305.891	784.38
306.121	787.38
306.352	800.38
306.582	801.38
306.812	782.38
307.042	781.38
307.272	763.38
307.502	764.38
307.731	784.38
307.961	793.38
308.191	763.38
308.421	730.38
308.651	793.38
308.881	769.38
309.111	797.38
309.341	801.38
309.571	795.38
309.8	833.38
310.03	862.38
310.26	868.38
310.49	874.38
310.72	877.38
310.949	924.38
311.179	961.38
311.409	861.38
311.639	888.38
311.868	889.38
312.098	896.38
312.328	906.38
312.557	932.38
312.787	997.38
313.017	1005.38
313.246	956.38
313.476	878.38
313.706	868.38
313.935	900.38
314.165	927.38
314.394	985.38
314.624	978.38
314.853	940.38
315.083	889.38
315.312	857.38
315.542	870.38
315.771	849.38
316.001	859.38
316.23	849.38
316.46	846.38
316.689	876.38
316.919	876.38
317.148	889.38
317.377	923.38
317.607	911.38
317.836	884.38
318.065	836.38
318.295	829.38
318.524	827.38
318.753	853.38
318.983	851.38
319.212	858.38
319.441	850.38
319.67	860.38
319.9	858.38
320.129	875.38
320.358	870.38
320.587	878.38
320.816	829.38
321.046	891.38
321.275	909.38
321.504	880.38
321.733	883.38
321.962	897.38
322.191	960.38
322.42	963.38
322.649	1002.38
322.878	1027.38
323.108	1051.38
323.337	1082.38
323.566	1077.38
323.795	1159.38
324.024	1243.38
324.253	1505.38
324.482	2278.38
324.71	3769.38
324.939	5829.38
325.168	5056.38
325.397	2092.38
325.626	1327.38
325.855	1119.38
326.084	1083.38
326.313	1049.38
326.542	1080.38
326.77	1225.38
326.999	1437.38
327.228	2001.38
327.457	3315.38
327.686	4483.38
327.914	2625.38
328.143	1539.38
328.372	1356.38
328.6	1309.38
328.829	1247.38
329.058	1316.38
329.287	1401.38
329.515	1293.38
329.744	1127.38
329.972	1079.38
330.201	1089.38
330.43	1143.38
330.658	1283.38
330.887	1466.38
331.115	1489.38
331.344	1266.38
331.572	1144.38
331.801	1112.38
332.03	1142.38
332.258	1126.38
332.486	1077.38
332.715	1085.38
332.943	1094.38
333.172	1139.38
333.4	1164.38
333.629	1200.38
333.857	1221.38
334.085	1165.38
334.314	1143.38
334.542	1143.38
334.771	1120.38
334.999	1115.38
335.227	1136.38
335.455	1099.38
335.684	1096.38
335.912	1077.38
336.14	1049.38
336.369	1091.38
336.597	1052.38
336.825	1104.38
337.053	1058.38
337.281	1041.38
337.51	1017.38
337.738	1027.38
337.966	997.38
338.194	1014.38
338.422	1029.38
338.65	1007.38
338.878	1012.38
339.106	986.38
339.334	1016.38
339.562	996.38
339.79	977.38
340.018	956.38
340.246	970.38
340.474	988.38
340.702	996.38
340.93	971.38
341.158	947.38
341.386	971.38
341.614	1003.38
341.842	995.38
342.07	964.38
342.298	942.38
342.526	951.38
342.754	935.38
342.981	924.38
343.209	931.38
343.437	999.38
343.665	1002.38
343.893	1053.38
344.12	1123.38
344.348	1066.38
344.576	1060.38
344.804	1013.38
345.031	1033.38
345.259	1058.38
345.487	1015.38
345.714	985.38
345.942	969.38
346.17	929.38
346.397	933.38
346.625	925.38
346.853	930.38
347.08	940.38
347.308	929.38
347.535	965.38
347.763	995.38
347.99	972.38
348.218	982.38
348.445	994.38
348.673	977.38
348.9	945.38
349.128	934.38
349.355	880.38
349.583	874.38
349.81	879.38
350.037	901.38
350.265	887.38
350.492	887.38
350.72	883.38
350.947	896.38
351.174	928.38
351.402	945.38
351.629	958.38
351.856	925.38
352.083	959.38
352.311	1014.38
352.538	948.38
352.765	1001.38
352.992	971.38
353.22	949.38
353.447	917.38
353.674	921.38
353.901	893.38
354.128	865.38
354.355	850.38
354.583	891.38
354.81	896.38
355.037	864.38
355.264	881.38
355.491	863.38
355.718	804.38
355.945	848.38
356.172	828.38
356.399	858.38
356.626	812.38
356.853	871.38
357.08	864.38
357.307	835.38
357.534	827.38
357.761	840.38
357.988	862.38
358.215	857.38
358.441	863.38
358.668	857.38
358.895	854.38
359.122	875.38
359.349	886.38
359.576	913.38
359.802	975.38
360.029	1059.38
360.256	1123.38
360.483	1068.38
360.709	972.38
360.936	982.38
361.163	923.38
361.39	930.38
361.616	958.38
361.843	919.38
362.07	897.38
362.296	926.38
362.523	908.38
362.749	925.38
362.976	899.38
363.203	905.38
363.429	857.38
363.656	879.38
363.882	848.38
364.109	876.38
364.335	862.38
364.562	870.38
364.788	868.38
365.015	892.38
365.241	873.38
365.468	917.38
365.694	899.38
365.92	925.38
366.147	899.38
366.373	869.38
366.599	842.38
366.826	863.38
367.052	859.38
367.278	857.38
367.505	885.38
367.731	927.38
367.957	893.38
368.184	867.38
368.41	878.38
368.636	921.38
368.862	950.38
369.089	907.38
369.315	894.38
369.541	907.38
369.767	916.38
369.993	875.38
370.219	899.38
370.445	892.38
370.672	895.38
370.898	887.38
371.124	887.38
371.35	849.38
371.576	871.38
371.802	912.38
372.028	891.38
372.254	880.38
372.48	927.38
372.706	949.38
372.932	913.38
373.158	928.38
373.384	943.38
373.61	933.38
373.835	927.38
374.061	912.38
374.287	910.38
374.513	931.38
374.739	956.38
374.965	951.38
375.191	986.38
375.416	984.38
375.642	939.38
375.868	949.38
376.094	945.38
376.319	908.38
376.545	887.38
376.771	904.38
376.997	893.38
377.222	892.38
377.448	919.38
377.674	905.38
377.899	914.38
378.125	912.38
378.35	918.38
378.576	858.38
378.802	901.38
379.027	888.38
379.253	910.38
379.478	907.38
379.704	902.38
379.929	879.38
380.155	936.38
380.38	947.38
380.606	924.38
380.831	963.38
381.057	975.38
381.282	930.38
381.507	947.38
381.733	960.38
381.958	939.38
382.184	940.38
382.409	949.38
382.634	990.38
382.86	954.38
383.085	984.38
383.31	975.38
383.535	1028.38
383.761	1014.38
383.986	1047.38
384.211	1013.38
384.436	1025.38
384.662	1056.38
384.887	1048.38
385.112	1044.38
385.337	1082.38
385.562	1056.38
385.787	1073.38
386.013	1164.38
386.238	1097.38
386.463	1100.38
386.688	1094.38
386.913	1075.38
387.138	1094.38
387.363	1074.38
387.588	1071.38
387.813	1091.38
388.038	1076.38
388.263	1085.38
388.488	1084.38
388.713	1099.38
388.938	1088.38
389.163	1079.38
389.387	1063.38
389.612	1069.38
389.837	1101.38
390.062	1103.38
390.287	1073.38
390.512	1055.38
390.736	1061.38
390.961	1087.38
391.186	1129.38
391.411	1099.38
391.636	1139.38
391.86	1194.38
392.085	1187.38
392.31	1205.38
392.534	1184.38
392.759	1177.38
392.984	1158.38
393.208	1111.38
393.433	1115.38
393.658	1161.38
393.882	1127.38
394.107	1167.38
394.331	1125.38
394.556	1136.38
394.78	1145.38
395.005	1173.38
395.229	1133.38
395.454	1173.38
395.678	1199.38
395.903	1202.38
396.127	1255.38
396.352	1260.38
396.576	1132.38
396.801	1130.38
397.025	1169.38
397.249	1184.38
397.474	1235.38
397.698	1239.38
397.922	1240.38
398.147	1273.38
398.371	1291.38
398.595	1263.38
398.82	1324.38
399.044	1376.38
399.268	1480.38
399.492	1660.38
399.717	1811.38
399.941	1854.38
400.165	1801.38
400.389	1740.38
400.613	1529.38
400.837	1413.38
401.062	1400.38
401.286	1389.38
401.51	1403.38
401.734	1355.38
401.958	1399.38
402.182	1386.38
402.406	1469.38
402.63	1467.38
402.854	1467.38
403.078	1434.38
403.302	1497.38
403.526	1516.38
403.75	1542.38
403.974	1491.38
404.198	1499.38
404.422	1528.38
404.645	1531.38
404.869	1537.38
405.093	1565.38
405.317	1608.38
405.541	1645.38
405.765	1542.38
405.988	1525.38
406.212	1593.38
406.436	1664.38
406.66	1727.38
406.883	1636.38
407.107	1685.38
407.331	1785.38
407.555	2015.38
407.778	1998.38
408.002	1818.38
408.226	1675.38
408.449	1631.38
408.673	1592.38
408.896	1652.38
409.12	1759.38
409.344	1663.38
409.567	1530.38
409.791	1523.38
410.014	1510.38
410.238	1459.38
410.461	1483.38
410.685	1480.38
410.908	1509.38
411.132	1602.38
411.355	1709.38
411.578	1584.38
411.802	1425.38
412.025	1413.38
412.249	1455.38
412.472	1459.38
412.695	1411.38
412.919	1405.38
413.142	1384.38
413.365	1391.38
413.589	1406.38
413.812	1377.38
414.035	1390.38
414.258	1375.38
414.482	1354.38
414.705	1389.38
414.928	1465.38
415.151	1398.38
415.374	1431.38
415.597	1409.38
415.821	1399.38
416.044	1417.38
416.267	1443.38
416.49	1402.38
416.713	1403.38
416.936	1407.38
417.159	1415.38
417.382	1431.38
417.605	1456.38
417.828	1483.38
418.051	1554.38
418.274	1490.38
418.497	1469.38
418.72	1484.38
418.943	1428.38
419.166	1530.38
419.389	1583.38
419.611	1578.38
419.834	1550.38
420.057	1579.38
420.28	1468.38
420.503	1452.38
420.726	1443.38
420.948	1491.38
421.171	1600.38
421.394	1695.38
421.617	1595.38
421.839	1535.38
422.062	1531.38
422.285	1500.38
422.507	1705.38
422.73	1859.38
422.953	1761.38
423.175	1587.38
423.398	1602.38
423.621	1612.38
423.843	1712.38
424.066	1680.38
424.288	1655.38
424.511	1693.38
424.733	1825.38
424.956	2057.38
425.178	1943.38
425.401	1910.38
425.623	1966.38
425.846	1682.38
426.068	1594.38
426.291	1502.38
426.513	1526.38
426.735	1592.38
426.958	1666.38
427.18	1865.38
427.402	2230.38
427.625	2424.38
427.847	2037.38
428.069	1686.38
428.292	1516.38
428.514	1449.38
428.736	1450.38
428.958	1444.38
429.181	1401.38
429.403	1415.38
429.625	1433.38
429.847	1516.38
430.069	1720.38
430.292	1700.38
430.514	1459.38
430.736	1419.38
430.958	1411.38
431.18	1358.38
431.402	1366.38
431.624	1315.38
431.846	1248.38
432.068	1198.38
432.29	1237.38
432.512	1289.38
432.734	1345.38
432.956	1404.38
433.178	1477.38
433.4	1468.38
433.622	1432.38
433.844	1380.38
434.066	1324.38
434.287	1241.38
434.509	1245.38
434.731	1349.38
434.953	1419.38
435.175	1478.38
435.397	1602.38
435.618	1536.38
435.84	1627.38
436.062	1975.38
436.284	2085.38
436.505	1705.38
436.727	1612.38
436.949	1505.38
437.17	1454.38
437.392	1415.38
437.614	1410.38
437.835	1430.38
438.057	1680.38
438.278	1972.38
438.5	1929.38
438.721	2229.38
438.943	2174.38
439.165	1712.38
439.386	1620.38
439.608	1715.38
439.829	1647.38
440.05	1789.38
440.272	1956.38
440.493	1801.38
440.715	1655.38
440.936	1613.38
441.158	1564.38
441.379	1601.38
441.6	1649.38
441.822	1732.38
442.043	1779.38
442.264	2036.38
442.486	2097.38
442.707	1775.38
442.928	1749.38
443.149	1749.38
443.371	1884.38
443.592	1936.38
443.813	2140.38
444.034	2325.38
444.255	1933.38
444.476	1766.38
444.698	1773.38
444.919	1804.38
445.14	3461.38
445.361	2569.38
445.582	1952.38
445.803	2101.38
446.024	2411.38
446.245	2387.38
446.466	2132.38
446.687	1792.38
446.908	1701.38
447.129	1600.38
447.35	1559.38
447.571	1549.38
447.792	1518.38
448.013	1515.38
448.234	1551.38
448.455	1679.38
448.675	1937.38
448.896	2224.38
449.117	1833.38
449.338	1753.38
449.559	2108.38
449.779	2338.38
450	1856.38
450.221	1573.38
450.442	1469.38
450.662	1432.38
450.883	1457.38
451.104	1542.38
451.324	1474.38
451.545	1372.38
451.766	1316.38
451.986	1309.38
452.207	1237.38
452.428	1255.38
452.648	1303.38
452.869	1245.38
453.089	1285.38
453.31	1277.38
453.53	1182.38
453.751	1215.38
453.971	1198.38
454.192	1232.38
454.412	1209.38
454.633	1200.38
454.853	1196.38
455.073	1226.38
455.294	1294.38
455.514	1516.38
455.734	1441.38
455.955	1221.38
456.175	1149.38
456.395	1107.38
456.616	1102.38
456.836	1076.38
457.056	1077.38
457.276	1022.38
457.497	1059.38
457.717	1091.38
457.937	1089.38
458.157	1129.38
458.377	1121.38
458.598	1144.38
458.818	1338.38
459.038	1613.38
459.258	1617.38
459.478	1296.38
459.698	1232.38
459.918	1228.38
460.138	1284.38
460.358	1352.38
460.578	1380.38
460.798	1376.38
461.018	1426.38
461.238	1403.38
461.458	1375.38
461.678	1340.38
461.898	1392.38
462.118	1389.38
462.338	1451.38
462.558	1456.38
462.777	1495.38
462.997	1572.38
463.217	1646.38
463.437	1680.38
463.657	1530.38
463.876	1499.38
464.096	1514.38
464.316	1478.38
464.536	1536.38
464.755	1539.38
464.975	1507.38
465.195	1693.38
465.414	1871.38
465.634	1544.38
465.854	1387.38
466.073	1335.38
466.293	1309.38
466.512	1311.38
466.732	1317.38
466.951	1327.38
467.171	1351.38
467.391	1385.38
467.61	1444.38
467.829	1427.38
468.049	1387.38
468.268	1345.38
468.488	1301.38
468.707	1304.38
468.927	1307.38
469.146	1297.38
469.365	1344.38
469.585	1376.38
469.804	1402.38
470.023	1451.38
470.243	1463.38
470.462	1512.38
470.681	1559.38
470.901	1506.38
471.12	1424.38
471.339	1477.38
471.558	1436.38
471.777	1418.38
471.997	1320.38
472.216	1284.38
472.435	1174.38
472.654	1133.38
472.873	1141.38
473.092	1179.38
473.311	1222.38
473.53	1228.38
473.749	1283.38
473.968	1429.38
474.187	1641.38
474.406	1678.38
474.625	1396.38
474.844	1333.38
475.063	1310.38
475.282	1261.38
475.501	1208.38
475.72	1300.38
475.939	1315.38
476.158	1314.38
476.377	1315.38
476.596	1236.38
476.814	1248.38
477.033	1246.38
477.252	1262.38
477.471	1326.38
477.69	1432.38
477.908	1499.38
478.127	1516.38
478.346	1501.38
478.564	1504.38
478.783	1516.38
479.002	1549.38
479.22	1606.38
479.439	1568.38
479.658	1543.38
479.876	1481.38
480.095	1483.38
480.313	1658.38
480.532	1582.38
480.751	1498.38
480.969	1415.38
481.188	1403.38
481.406	1324.38
481.624	1311.38
481.843	1287.38
482.061	1290.38
482.28	1341.38
482.498	1295.38
482.717	1298.38
482.935	1415.38
483.153	1505.38
483.372	1582.38
483.59	1575.38
483.808	1497.38
484.027	1418.38
484.245	1448.38
484.463	1489.38
484.681	1603.38
484.9	1504.38
485.118	1561.38
485.336	1467.38
485.554	1440.38
485.772	1407.38
485.99	1375.38
486.209	1418.38
486.427	1465.38
486.645	1520.38
486.863	1684.38
487.081	1703.38
487.299	1623.38
487.517	1644.38
487.735	1771.38
487.953	1901.38
488.171	1890.38
488.389	1792.38
488.607	1681.38
488.825	1594.38
489.043	1539.38
489.261	1603.38
489.479	1590.38
489.696	1692.38
489.914	1685.38
490.132	1703.38
490.35	1805.38
490.568	1848.38
490.786	1959.38
491.003	2039.38
491.221	2126.38
491.439	2140.38
491.657	2211.38
491.874	2310.38
492.092	2455.38
492.31	2542.38
492.527	2437.38
492.745	2323.38
492.963	2258.38
493.18	2244.38
493.398	2246.38
493.615	2213.38
493.833	2216.38
