Data from FlinnAP5935BZINC.07152019.LAMPEdge.EN7.5scans.P1_HRD10591_15-01-02-579.txt Node
Date: Mon Jul 15 15:01:02 EDT 2019
User: cochatt
Spectrometer: HR+D1059
Trigger mode: 1
Integration Time (sec): 1.000000E-1
Scans to average: 1
Electric dark correction enabled: true
Nonlinearity correction enabled: false
Boxcar width: 0
XAxis mode: Wavelengths
Number of Pixels in Spectrum: 2048
>>>>>Begin Spectral Data<<<<<
223.165	-21.88
223.4	-21.88
223.635	-21.88
223.869	-16.88
224.104	-30.88
224.338	-19.88
224.573	-18.88
224.808	-12.88
225.042	-3.88
225.277	-8.88
225.511	0.12
225.746	9.12
225.98	4.12
226.215	16.12
226.449	13.12
226.683	28.12
226.918	27.12
227.152	36.12
227.387	40.12
227.621	37.12
227.856	39.12
228.09	50.12
228.324	51.12
228.559	57.12
228.793	77.12
229.027	121.12
229.262	123.12
229.496	124.12
229.73	146.12
229.964	135.12
230.199	135.12
230.433	149.12
230.667	150.12
230.901	162.12
231.136	150.12
231.37	173.12
231.604	160.12
231.838	166.12
232.072	180.12
232.306	165.12
232.541	169.12
232.775	168.12
233.009	174.12
233.243	187.12
233.477	181.12
233.711	171.12
233.945	174.12
234.179	175.12
234.413	187.12
234.647	179.12
234.881	178.12
235.115	195.12
235.349	177.12
235.583	183.12
235.817	199.12
236.051	192.12
236.285	179.12
236.519	178.12
236.753	180.12
236.987	186.12
237.221	190.12
237.455	188.12
237.689	207.12
237.922	206.12
238.156	215.12
238.39	202.12
238.624	211.12
238.858	200.12
239.091	217.12
239.325	217.12
239.559	226.12
239.793	213.12
240.027	205.12
240.26	223.12
240.494	230.12
240.728	242.12
240.961	227.12
241.195	239.12
241.429	223.12
241.662	228.12
241.896	228.12
242.13	238.12
242.363	255.12
242.597	248.12
242.83	256.12
243.064	233.12
243.298	280.12
243.531	268.12
243.765	270.12
243.998	274.12
244.232	272.12
244.465	264.12
244.699	262.12
244.932	273.12
245.166	281.12
245.399	309.12
245.633	286.12
245.866	277.12
246.099	289.12
246.333	299.12
246.566	303.12
246.8	302.12
247.033	289.12
247.266	307.12
247.5	327.12
247.733	317.12
247.966	317.12
248.2	307.12
248.433	309.12
248.666	327.12
248.899	331.12
249.133	357.12
249.366	362.12
249.599	385.12
249.832	390.12
250.066	433.12
250.299	507.12
250.532	665.12
250.765	753.12
250.998	641.12
251.231	560.12
251.465	493.12
251.698	480.12
251.931	449.12
252.164	404.12
252.397	421.12
252.63	412.12
252.863	405.12
253.096	409.12
253.329	417.12
253.562	408.12
253.795	405.12
254.028	421.12
254.261	432.12
254.494	449.12
254.727	460.12
254.96	478.12
255.193	496.12
255.426	543.12
255.659	629.12
255.892	853.12
256.124	1177.12
256.357	1303.12
256.59	994.12
256.823	799.12
257.056	703.12
257.289	621.12
257.521	599.12
257.754	568.12
257.987	520.12
258.22	516.12
258.452	516.12
258.685	501.12
258.918	512.12
259.151	493.12
259.383	497.12
259.616	486.12
259.849	488.12
260.081	493.12
260.314	477.12
260.547	475.12
260.779	520.12
261.012	521.12
261.244	487.12
261.477	524.12
261.71	488.12
261.942	465.12
262.175	468.12
262.407	471.12
262.64	482.12
262.872	487.12
263.105	480.12
263.337	489.12
263.57	483.12
263.802	487.12
264.035	497.12
264.267	515.12
264.499	487.12
264.732	481.12
264.964	501.12
265.197	484.12
265.429	487.12
265.661	478.12
265.894	509.12
266.126	495.12
266.358	515.12
266.591	494.12
266.823	509.12
267.055	503.12
267.287	499.12
267.52	528.12
267.752	488.12
267.984	515.12
268.216	537.12
268.448	535.12
268.681	506.12
268.913	525.12
269.145	549.12
269.377	551.12
269.609	550.12
269.841	545.12
270.073	509.12
270.306	560.12
270.538	551.12
270.77	541.12
271.002	545.12
271.234	567.12
271.466	574.12
271.698	575.12
271.93	572.12
272.162	559.12
272.394	577.12
272.626	583.12
272.858	574.12
273.09	580.12
273.322	599.12
273.553	593.12
273.785	625.12
274.017	604.12
274.249	640.12
274.481	670.12
274.713	621.12
274.945	673.12
275.176	667.12
275.408	690.12
275.64	706.12
275.872	704.12
276.104	758.12
276.335	706.12
276.567	725.12
276.799	764.12
277.031	798.12
277.262	861.12
277.494	884.12
277.726	841.12
277.957	803.12
278.189	779.12
278.421	735.12
278.652	732.12
278.884	742.12
279.115	735.12
279.347	759.12
279.579	782.12
279.81	834.12
280.042	916.12
280.273	1001.12
280.505	1008.12
280.736	886.12
280.968	835.12
281.199	805.12
281.431	793.12
281.662	760.12
281.894	771.12
282.125	758.12
282.356	745.12
282.588	740.12
282.819	733.12
283.051	759.12
283.282	721.12
283.513	755.12
283.745	723.12
283.976	721.12
284.207	713.12
284.439	725.12
284.67	745.12
284.901	753.12
285.132	719.12
285.364	725.12
285.595	733.12
285.826	747.12
286.057	743.12
286.288	750.12
286.52	742.12
286.751	752.12
286.982	759.12
287.213	744.12
287.444	738.12
287.675	771.12
287.906	763.12
288.138	767.12
288.369	745.12
288.6	754.12
288.831	766.12
289.062	760.12
289.293	762.12
289.524	770.12
289.755	781.12
289.986	761.12
290.217	761.12
290.448	758.12
290.679	776.12
290.91	768.12
291.141	759.12
291.371	749.12
291.602	771.12
291.833	754.12
292.064	755.12
292.295	751.12
292.526	768.12
292.757	749.12
292.987	741.12
293.218	748.12
293.449	762.12
293.68	755.12
293.91	748.12
294.141	747.12
294.372	743.12
294.603	759.12
294.833	752.12
295.064	756.12
295.295	763.12
295.525	755.12
295.756	779.12
295.987	743.12
296.217	772.12
296.448	767.12
296.679	782.12
296.909	782.12
297.14	776.12
297.37	779.12
297.601	787.12
297.831	802.12
298.062	806.12
298.292	800.12
298.523	812.12
298.753	819.12
298.984	811.12
299.214	825.12
299.445	819.12
299.675	797.12
299.905	851.12
300.136	820.12
300.366	821.12
300.597	844.12
300.827	864.12
301.057	864.12
301.288	877.12
301.518	853.12
301.748	865.12
301.979	889.12
302.209	895.12
302.439	883.12
302.669	845.12
302.9	855.12
303.13	845.12
303.36	875.12
303.59	883.12
303.82	935.12
304.051	935.12
304.281	921.12
304.511	877.12
304.741	869.12
304.971	877.12
305.201	879.12
305.431	843.12
305.661	851.12
305.891	848.12
306.121	865.12
306.352	869.12
306.582	864.12
306.812	870.12
307.042	919.12
307.272	979.12
307.502	1053.12
307.731	1082.12
307.961	978.12
308.191	908.12
308.421	888.12
308.651	886.12
308.881	863.12
309.111	904.12
309.341	869.12
309.571	882.12
309.8	871.12
310.03	868.12
310.26	870.12
310.49	862.12
310.72	860.12
310.949	885.12
311.179	887.12
311.409	900.12
311.639	878.12
311.868	887.12
312.098	887.12
312.328	911.12
312.557	917.12
312.787	907.12
313.017	921.12
313.246	939.12
313.476	908.12
313.706	921.12
313.935	959.12
314.165	955.12
314.394	953.12
314.624	954.12
314.853	928.12
315.083	932.12
315.312	953.12
315.542	933.12
315.771	919.12
316.001	918.12
316.23	923.12
316.46	934.12
316.689	929.12
316.919	960.12
317.148	918.12
317.377	946.12
317.607	929.12
317.836	929.12
318.065	944.12
318.295	942.12
318.524	964.12
318.753	947.12
318.983	973.12
319.212	941.12
319.441	966.12
319.67	975.12
319.9	967.12
320.129	962.12
320.358	982.12
320.587	965.12
320.816	955.12
321.046	980.12
321.275	981.12
321.504	994.12
321.733	1000.12
321.962	992.12
322.191	1013.12
322.42	1005.12
322.649	1051.12
322.878	1041.12
323.108	1052.12
323.337	1090.12
323.566	1078.12
323.795	1110.12
324.024	1118.12
324.253	1115.12
324.482	1127.12
324.71	1116.12
324.939	1151.12
325.168	1123.12
325.397	1149.12
325.626	1171.12
325.855	1238.12
326.084	1257.12
326.313	1283.12
326.542	1284.12
326.77	1336.12
326.999	1352.12
327.228	1422.12
327.457	1539.12
327.686	1723.12
327.914	2060.12
328.143	2605.12
328.372	3191.12
328.6	2884.12
328.829	2139.12
329.058	1919.12
329.287	1928.12
329.515	2135.12
329.744	2555.12
329.972	3368.12
330.201	4649.12
330.43	5753.12
330.658	4637.12
330.887	2824.12
331.115	2175.12
331.344	1872.12
331.572	1796.12
331.801	1777.12
332.03	1743.12
332.258	1734.12
332.486	1797.12
332.715	1771.12
332.943	1915.12
333.172	2024.12
333.4	2227.12
333.629	2516.12
333.857	2966.12
334.085	3814.12
334.314	5331.12
334.542	7071.12
334.771	7417.12
334.999	4867.12
335.227	3096.12
335.455	2467.12
335.684	2108.12
335.912	1903.12
336.14	1784.12
336.369	1651.12
336.597	1602.12
336.825	1497.12
337.053	1467.12
337.281	1420.12
337.51	1379.12
337.738	1343.12
337.966	1327.12
338.194	1294.12
338.422	1267.12
338.65	1229.12
338.878	1204.12
339.106	1201.12
339.334	1207.12
339.562	1167.12
339.79	1178.12
340.018	1165.12
340.246	1128.12
340.474	1134.12
340.702	1102.12
340.93	1136.12
341.158	1096.12
341.386	1098.12
341.614	1097.12
341.842	1092.12
342.07	1068.12
342.298	1037.12
342.526	1074.12
342.754	1083.12
342.981	1067.12
343.209	1103.12
343.437	1099.12
343.665	1157.12
343.893	1224.12
344.12	1247.12
344.348	1193.12
344.576	1170.12
344.804	1123.12
345.031	1092.12
345.259	1063.12
345.487	1108.12
345.714	1036.12
345.942	1035.12
346.17	1010.12
346.397	990.12
346.625	1006.12
346.853	962.12
347.08	996.12
347.308	1006.12
347.535	1023.12
347.763	1009.12
347.99	995.12
348.218	985.12
348.445	1009.12
348.673	1012.12
348.9	1003.12
349.128	987.12
349.355	965.12
349.583	975.12
349.81	965.12
350.037	982.12
350.265	977.12
350.492	981.12
350.72	954.12
350.947	960.12
351.174	1004.12
351.402	963.12
351.629	957.12
351.856	962.12
352.083	952.12
352.311	932.12
352.538	961.12
352.765	971.12
352.992	941.12
353.22	966.12
353.447	953.12
353.674	910.12
353.901	963.12
354.128	960.12
354.355	958.12
354.583	941.12
354.81	951.12
355.037	941.12
355.264	965.12
355.491	976.12
355.718	963.12
355.945	997.12
356.172	953.12
356.399	946.12
356.626	955.12
356.853	967.12
357.08	950.12
357.307	941.12
357.534	943.12
357.761	948.12
357.988	967.12
358.215	915.12
358.441	936.12
358.668	940.12
358.895	925.12
359.122	975.12
359.349	947.12
359.576	935.12
359.802	937.12
360.029	941.12
360.256	958.12
360.483	974.12
360.709	932.12
360.936	951.12
361.163	922.12
361.39	925.12
361.616	903.12
361.843	933.12
362.07	922.12
362.296	927.12
362.523	921.12
362.749	941.12
362.976	956.12
363.203	943.12
363.429	935.12
363.656	955.12
363.882	936.12
364.109	925.12
364.335	931.12
364.562	950.12
364.788	928.12
365.015	912.12
365.241	917.12
365.468	920.12
365.694	930.12
365.92	931.12
366.147	927.12
366.373	961.12
366.599	924.12
366.826	942.12
367.052	951.12
367.278	923.12
367.505	935.12
367.731	931.12
367.957	933.12
368.184	912.12
368.41	937.12
368.636	956.12
368.862	950.12
369.089	929.12
369.315	951.12
369.541	958.12
369.767	943.12
369.993	931.12
370.219	952.12
370.445	955.12
370.672	958.12
370.898	967.12
371.124	990.12
371.35	979.12
371.576	979.12
371.802	992.12
372.028	988.12
372.254	964.12
372.48	985.12
372.706	982.12
372.932	1019.12
373.158	1012.12
373.384	986.12
373.61	977.12
373.835	1005.12
374.061	995.12
374.287	955.12
374.513	1021.12
374.739	1037.12
374.965	1041.12
375.191	1091.12
375.416	1056.12
375.642	1040.12
375.868	1041.12
376.094	1004.12
376.319	967.12
376.545	1004.12
376.771	975.12
376.997	982.12
377.222	995.12
377.448	969.12
377.674	967.12
377.899	985.12
378.125	961.12
378.35	960.12
378.576	973.12
378.802	993.12
379.027	947.12
379.253	985.12
379.478	948.12
379.704	957.12
379.929	981.12
380.155	960.12
380.38	985.12
380.606	979.12
380.831	970.12
381.057	972.12
381.282	976.12
381.507	950.12
381.733	996.12
381.958	969.12
382.184	998.12
382.409	1009.12
382.634	974.12
382.86	1006.12
383.085	1031.12
383.31	1044.12
383.535	1033.12
383.761	1064.12
383.986	1100.12
384.211	1087.12
384.436	1124.12
384.662	1116.12
384.887	1142.12
385.112	1132.12
385.337	1145.12
385.562	1141.12
385.787	1160.12
386.013	1145.12
386.238	1152.12
386.463	1171.12
386.688	1143.12
386.913	1135.12
387.138	1111.12
387.363	1098.12
387.588	1107.12
387.813	1120.12
388.038	1107.12
388.263	1133.12
388.488	1127.12
388.713	1144.12
388.938	1145.12
389.163	1143.12
389.387	1131.12
389.612	1087.12
389.837	1112.12
390.062	1099.12
390.287	1112.12
390.512	1139.12
390.736	1107.12
390.961	1124.12
391.186	1155.12
391.411	1166.12
391.636	1197.12
391.86	1235.12
392.085	1267.12
392.31	1264.12
392.534	1207.12
392.759	1209.12
392.984	1186.12
393.208	1173.12
393.433	1206.12
393.658	1169.12
393.882	1162.12
394.107	1175.12
394.331	1169.12
394.556	1181.12
394.78	1183.12
395.005	1191.12
395.229	1189.12
395.454	1175.12
395.678	1223.12
395.903	1253.12
396.127	1240.12
396.352	1189.12
396.576	1233.12
396.801	1184.12
397.025	1220.12
397.249	1223.12
397.474	1236.12
397.698	1260.12
397.922	1233.12
398.147	1263.12
398.371	1275.12
398.595	1325.12
398.82	1391.12
399.044	1413.12
399.268	1611.12
399.492	1815.12
399.717	1933.12
399.941	1955.12
400.165	1799.12
400.389	1627.12
400.613	1541.12
400.837	1426.12
401.062	1405.12
401.286	1409.12
401.51	1373.12
401.734	1378.12
401.958	1398.12
402.182	1393.12
402.406	1416.12
402.63	1437.12
402.854	1477.12
403.078	1487.12
403.302	1506.12
403.526	1539.12
403.75	1552.12
403.974	1626.12
404.198	1591.12
404.422	1641.12
404.645	1695.12
404.869	1737.12
405.093	1819.12
405.317	1983.12
405.541	1989.12
405.765	1856.12
405.988	1719.12
406.212	1643.12
406.436	1574.12
406.66	1563.12
406.883	1591.12
407.107	1689.12
407.331	1736.12
407.555	1724.12
407.778	1705.12
408.002	1694.12
408.226	1632.12
408.449	1631.12
408.673	1583.12
408.896	1540.12
409.12	1542.12
409.344	1544.12
409.567	1479.12
409.791	1507.12
410.014	1483.12
410.238	1499.12
410.461	1542.12
410.685	1491.12
410.908	1510.12
411.132	1489.12
411.355	1452.12
411.578	1500.12
411.802	1484.12
412.025	1563.12
412.249	1663.12
412.472	1833.12
412.695	2016.12
412.919	1935.12
413.142	1801.12
413.365	1716.12
413.589	1622.12
413.812	1535.12
414.035	1517.12
414.258	1524.12
414.482	1510.12
414.705	1519.12
414.928	1461.12
415.151	1424.12
415.374	1425.12
415.597	1420.12
415.821	1386.12
416.044	1427.12
416.267	1399.12
416.49	1373.12
416.713	1362.12
416.936	1409.12
417.159	1434.12
417.382	1415.12
417.605	1488.12
417.828	1569.12
418.051	1490.12
418.274	1426.12
418.497	1340.12
418.72	1423.12
418.943	1427.12
419.166	1498.12
419.389	1601.12
419.611	1650.12
419.834	1615.12
420.057	1648.12
420.28	1705.12
420.503	1801.12
420.726	1693.12
420.948	1584.12
421.171	1582.12
421.394	1556.12
421.617	1488.12
421.839	1447.12
422.062	1431.12
422.285	1409.12
422.507	1457.12
422.73	1405.12
422.953	1433.12
423.175	1419.12
423.398	1441.12
423.621	1445.12
423.843	1472.12
424.066	1427.12
424.288	1416.12
424.511	1429.12
424.733	1423.12
424.956	1389.12
425.178	1363.12
425.401	1373.12
425.623	1390.12
425.846	1339.12
426.068	1348.12
426.291	1345.12
426.513	1350.12
426.735	1324.12
426.958	1365.12
427.18	1367.12
427.402	1433.12
427.625	1499.12
427.847	1684.12
428.069	1871.12
428.292	1709.12
428.514	1483.12
428.736	1401.12
428.958	1357.12
429.181	1304.12
429.403	1287.12
429.625	1266.12
429.847	1251.12
430.069	1205.12
430.292	1240.12
430.514	1214.12
430.736	1208.12
430.958	1212.12
431.18	1191.12
431.402	1225.12
431.624	1197.12
431.846	1225.12
432.068	1245.12
432.29	1265.12
432.512	1181.12
432.734	1172.12
432.956	1223.12
433.178	1233.12
433.4	1210.12
433.622	1213.12
433.844	1208.12
434.066	1213.12
434.287	1230.12
434.509	1235.12
434.731	1310.12
434.953	1309.12
435.175	1337.12
435.397	1312.12
435.618	1266.12
435.84	1241.12
436.062	1201.12
436.284	1213.12
436.505	1181.12
436.727	1214.12
436.949	1204.12
437.17	1223.12
437.392	1183.12
437.614	1149.12
437.835	1137.12
438.057	1157.12
438.278	1136.12
438.5	1105.12
438.721	1176.12
438.943	1169.12
439.165	1163.12
439.386	1141.12
439.608	1198.12
439.829	1191.12
440.05	1171.12
440.272	1193.12
440.493	1215.12
440.715	1222.12
440.936	1242.12
441.158	1269.12
441.379	1278.12
441.6	1283.12
441.822	1305.12
442.043	1331.12
442.264	1318.12
442.486	1263.12
442.707	1318.12
442.928	1272.12
443.149	1307.12
443.371	1299.12
443.592	1283.12
443.813	1293.12
444.034	1330.12
444.255	1369.12
444.476	1408.12
444.698	1508.12
444.919	1527.12
445.14	1625.12
445.361	1449.12
445.582	1339.12
445.803	1279.12
446.024	1253.12
446.245	1207.12
446.466	1211.12
446.687	1150.12
446.908	1187.12
447.129	1163.12
447.35	1142.12
447.571	1151.12
447.792	1116.12
448.013	1091.12
448.234	1117.12
448.455	1113.12
448.675	1109.12
448.896	1090.12
449.117	1049.12
449.338	1095.12
449.559	1103.12
449.779	1075.12
450	1084.12
450.221	1065.12
450.442	1072.12
450.662	1073.12
450.883	1096.12
451.104	1105.12
451.324	1095.12
451.545	1080.12
451.766	1090.12
451.986	1054.12
452.207	1069.12
452.428	1051.12
452.648	1098.12
452.869	1055.12
453.089	1020.12
453.31	1045.12
453.53	1066.12
453.751	1024.12
453.971	1035.12
454.192	1033.12
454.412	1018.12
454.633	1023.12
454.853	1027.12
455.073	1035.12
455.294	1049.12
455.514	1025.12
455.734	1012.12
455.955	985.12
456.175	1019.12
456.395	1025.12
456.616	1017.12
456.836	1009.12
457.056	1007.12
457.276	1010.12
457.497	1031.12
457.717	1028.12
457.937	1059.12
458.157	1055.12
458.377	1019.12
458.598	1086.12
458.818	1084.12
459.038	1118.12
459.258	1128.12
459.478	1174.12
459.698	1173.12
459.918	1252.12
460.138	1289.12
460.358	1333.12
460.578	1371.12
460.798	1371.12
461.018	1381.12
461.238	1342.12
461.458	1348.12
461.678	1344.12
461.898	1359.12
462.118	1387.12
462.338	1437.12
462.558	1455.12
462.777	1508.12
462.997	1629.12
463.217	1717.12
463.437	1750.12
463.657	1634.12
463.876	1561.12
464.096	1553.12
464.316	1521.12
464.536	1568.12
464.755	1538.12
464.975	1485.12
465.195	1394.12
465.414	1361.12
465.634	1275.12
465.854	1279.12
466.073	1236.12
466.293	1241.12
466.512	1233.12
466.732	1214.12
466.951	1193.12
467.171	1194.12
467.391	1259.12
467.61	1267.12
467.829	1425.12
468.049	1943.12
468.268	2892.12
468.488	2183.12
468.707	1663.12
468.927	1476.12
469.146	1343.12
469.365	1322.12
469.585	1296.12
469.804	1307.12
470.023	1263.12
470.243	1292.12
470.462	1314.12
470.681	1289.12
470.901	1339.12
471.12	1328.12
471.339	1317.12
471.558	1385.12
471.777	1453.12
471.997	1755.12
472.216	2731.12
472.435	5381.12
472.654	4201.12
472.873	2674.12
473.092	2107.12
473.311	1803.12
473.53	1623.12
473.749	1541.12
473.968	1470.12
474.187	1409.12
474.406	1353.12
474.625	1322.12
474.844	1295.12
475.063	1329.12
475.282	1281.12
475.501	1264.12
475.72	1270.12
475.939	1264.12
476.158	1299.12
476.377	1265.12
476.596	1272.12
476.814	1286.12
477.033	1299.12
477.252	1301.12
477.471	1326.12
477.69	1350.12
477.908	1391.12
478.127	1393.12
478.346	1443.12
478.564	1457.12
478.783	1506.12
479.002	1481.12
479.22	1534.12
479.439	1537.12
479.658	1589.12
479.876	1627.12
480.095	1687.12
480.313	1764.12
480.532	1948.12
480.751	2286.12
480.969	3207.12
481.188	6951.12
481.406	8819.12
481.624	4968.12
481.843	3483.12
482.061	2831.12
482.28	2437.12
482.498	2173.12
482.717	1999.12
482.935	1947.12
483.153	1762.12
483.372	1744.12
483.59	1679.12
483.808	1675.12
484.027	1608.12
484.245	1592.12
484.463	1577.12
484.681	1617.12
484.9	1628.12
485.118	1560.12
485.336	1534.12
485.554	1559.12
485.772	1560.12
485.99	1538.12
486.209	1529.12
486.427	1566.12
486.645	1546.12
486.863	1539.12
487.081	1545.12
487.299	1540.12
487.517	1511.12
487.735	1563.12
487.953	1569.12
488.171	1576.12
488.389	1569.12
488.607	1576.12
488.825	1532.12
489.043	1573.12
489.261	1631.12
489.479	1646.12
489.696	1657.12
489.914	1684.12
490.132	1718.12
490.35	1750.12
490.568	1757.12
490.786	1832.12
491.003	1876.12
491.221	1926.12
491.439	2001.12
491.657	2087.12
491.874	2140.12
492.092	2100.12
492.31	2129.12
492.527	2240.12
492.745	2310.12
492.963	2263.12
493.18	2267.12
493.398	2233.12
