Data from FlinnAP9092KCOPPER.07152019.LAMP.EN10.P1_HRD10591_14-45-28-668.txt Node
Date: Mon Jul 15 14:45:28 EDT 2019
User: cochatt
Spectrometer: HR+D1059
Trigger mode: 3
Integration Time (sec): 1.000000E-1
Scans to average: 1
Electric dark correction enabled: true
Nonlinearity correction enabled: false
Boxcar width: 0
XAxis mode: Wavelengths
Number of Pixels in Spectrum: 2048
>>>>>Begin Spectral Data<<<<<
223.165	-20.94
223.4	-20.94
223.635	-20.94
223.869	-12.94
224.104	-17.94
224.338	-13.94
224.573	-25.94
224.808	-16.94
225.042	-5.94
225.277	14.06
225.511	-4.94
225.746	-1.94
225.98	-0.94
226.215	11.06
226.449	21.06
226.683	23.06
226.918	29.06
227.152	24.06
227.387	38.06
227.621	45.06
227.856	38.06
228.09	41.06
228.324	37.06
228.559	62.06
228.793	62.06
229.027	168.06
229.262	197.06
229.496	205.06
229.73	236.06
229.964	300.06
230.199	253.06
230.433	210.06
230.667	171.06
230.901	160.06
231.136	171.06
231.37	167.06
231.604	180.06
231.838	178.06
232.072	182.06
232.306	178.06
232.541	180.06
232.775	173.06
233.009	184.06
233.243	183.06
233.477	171.06
233.711	181.06
233.945	204.06
234.179	196.06
234.413	185.06
234.647	216.06
234.881	190.06
235.115	205.06
235.349	189.06
235.583	202.06
235.817	203.06
236.051	239.06
236.285	223.06
236.519	221.06
236.753	212.06
236.987	249.06
237.221	363.06
237.455	481.06
237.689	378.06
237.922	267.06
238.156	245.06
238.39	244.06
238.624	228.06
238.858	222.06
239.091	216.06
239.325	223.06
239.559	230.06
239.793	238.06
240.027	248.06
240.26	283.06
240.494	323.06
240.728	324.06
240.961	305.06
241.195	265.06
241.429	250.06
241.662	229.06
241.896	212.06
242.13	252.06
242.363	241.06
242.597	251.06
242.83	261.06
243.064	273.06
243.298	249.06
243.531	262.06
243.765	249.06
243.998	259.06
244.232	252.06
244.465	267.06
244.699	269.06
244.932	289.06
245.166	279.06
245.399	281.06
245.633	304.06
245.866	292.06
246.099	277.06
246.333	283.06
246.566	285.06
246.8	295.06
247.033	292.06
247.266	311.06
247.5	322.06
247.733	331.06
247.966	349.06
248.2	330.06
248.433	346.06
248.666	362.06
248.899	397.06
249.133	421.06
249.366	431.06
249.599	421.06
249.832	365.06
250.066	365.06
250.299	346.06
250.532	384.06
250.765	405.06
250.998	473.06
251.231	466.06
251.465	447.06
251.698	417.06
251.931	373.06
252.164	393.06
252.397	385.06
252.63	402.06
252.863	409.06
253.096	446.06
253.329	505.06
253.562	473.06
253.795	429.06
254.028	423.06
254.261	439.06
254.494	479.06
254.727	570.06
254.96	638.06
255.193	588.06
255.426	490.06
255.659	473.06
255.892	439.06
256.124	429.06
256.357	427.06
256.59	417.06
256.823	406.06
257.056	403.06
257.289	417.06
257.521	422.06
257.754	423.06
257.987	429.06
258.22	429.06
258.452	450.06
258.685	429.06
258.918	428.06
259.151	431.06
259.383	465.06
259.616	460.06
259.849	466.06
260.081	514.06
260.314	582.06
260.547	558.06
260.779	514.06
261.012	496.06
261.244	484.06
261.477	490.06
261.71	452.06
261.942	471.06
262.175	521.06
262.407	503.06
262.64	451.06
262.872	453.06
263.105	457.06
263.337	459.06
263.57	446.06
263.802	463.06
264.035	441.06
264.267	451.06
264.499	463.06
264.732	469.06
264.964	444.06
265.197	488.06
265.429	445.06
265.661	452.06
265.894	474.06
266.126	463.06
266.358	461.06
266.591	485.06
266.823	497.06
267.055	486.06
267.287	503.06
267.52	487.06
267.752	504.06
267.984	508.06
268.216	508.06
268.448	493.06
268.681	536.06
268.913	538.06
269.145	599.06
269.377	628.06
269.609	629.06
269.841	593.06
270.073	604.06
270.306	653.06
270.538	727.06
270.77	738.06
271.002	670.06
271.234	647.06
271.466	675.06
271.698	707.06
271.93	715.06
272.162	750.06
272.394	739.06
272.626	663.06
272.858	615.06
273.09	605.06
273.322	607.06
273.553	588.06
273.785	582.06
274.017	585.06
274.249	588.06
274.481	552.06
274.713	585.06
274.945	605.06
275.176	587.06
275.408	590.06
275.64	626.06
275.872	590.06
276.104	607.06
276.335	585.06
276.567	646.06
276.799	660.06
277.031	736.06
277.262	755.06
277.494	761.06
277.726	709.06
277.957	652.06
278.189	624.06
278.421	602.06
278.652	598.06
278.884	609.06
279.115	614.06
279.347	600.06
279.579	610.06
279.81	587.06
280.042	603.06
280.273	582.06
280.505	606.06
280.736	601.06
280.968	615.06
281.199	600.06
281.431	578.06
281.662	609.06
281.894	606.06
282.125	643.06
282.356	671.06
282.588	733.06
282.819	739.06
283.051	658.06
283.282	615.06
283.513	621.06
283.745	638.06
283.976	650.06
284.207	654.06
284.439	661.06
284.67	652.06
284.901	657.06
285.132	626.06
285.364	640.06
285.595	662.06
285.826	655.06
286.057	658.06
286.288	649.06
286.52	661.06
286.751	659.06
286.982	641.06
287.213	650.06
287.444	675.06
287.675	683.06
287.906	696.06
288.138	721.06
288.369	699.06
288.6	723.06
288.831	679.06
289.062	683.06
289.293	681.06
289.524	657.06
289.755	685.06
289.986	655.06
290.217	673.06
290.448	670.06
290.679	661.06
290.91	692.06
291.141	669.06
291.371	690.06
291.602	675.06
291.833	657.06
292.064	667.06
292.295	638.06
292.526	670.06
292.757	684.06
292.987	657.06
293.218	690.06
293.449	693.06
293.68	659.06
293.91	672.06
294.141	665.06
294.372	669.06
294.603	682.06
294.833	661.06
295.064	689.06
295.295	693.06
295.525	683.06
295.756	699.06
295.987	748.06
296.217	785.06
296.448	797.06
296.679	740.06
296.909	674.06
297.14	690.06
297.37	686.06
297.601	701.06
297.831	715.06
298.062	710.06
298.292	746.06
298.523	740.06
298.753	731.06
298.984	708.06
299.214	721.06
299.445	693.06
299.675	713.06
299.905	740.06
300.136	732.06
300.366	753.06
300.597	731.06
300.827	761.06
301.057	780.06
301.288	784.06
301.518	783.06
301.748	777.06
301.979	786.06
302.209	777.06
302.439	793.06
302.669	775.06
302.9	765.06
303.13	773.06
303.36	774.06
303.59	748.06
303.82	751.06
304.051	787.06
304.281	772.06
304.511	747.06
304.741	744.06
304.971	739.06
305.201	745.06
305.431	743.06
305.661	747.06
305.891	756.06
306.121	745.06
306.352	756.06
306.582	775.06
306.812	756.06
307.042	747.06
307.272	759.06
307.502	726.06
307.731	764.06
307.961	765.06
308.191	733.06
308.421	758.06
308.651	742.06
308.881	788.06
309.111	783.06
309.341	781.06
309.571	782.06
309.8	807.06
310.03	796.06
310.26	844.06
310.49	833.06
310.72	871.06
310.949	893.06
311.179	896.06
311.409	882.06
311.639	859.06
311.868	841.06
312.098	862.06
312.328	845.06
312.557	919.06
312.787	948.06
313.017	947.06
313.246	898.06
313.476	853.06
313.706	849.06
313.935	884.06
314.165	911.06
314.394	925.06
314.624	935.06
314.853	885.06
315.083	859.06
315.312	848.06
315.542	860.06
315.771	811.06
316.001	851.06
316.23	831.06
316.46	819.06
316.689	824.06
316.919	863.06
317.148	895.06
317.377	887.06
317.607	832.06
317.836	853.06
318.065	820.06
318.295	825.06
318.524	821.06
318.753	815.06
318.983	826.06
319.212	828.06
319.441	869.06
319.67	832.06
319.9	817.06
320.129	831.06
320.358	822.06
320.587	819.06
320.816	825.06
321.046	879.06
321.275	876.06
321.504	869.06
321.733	855.06
321.962	898.06
322.191	876.06
322.42	937.06
322.649	972.06
322.878	967.06
323.108	983.06
323.337	1025.06
323.566	1074.06
323.795	1137.06
324.024	1235.06
324.253	1461.06
324.482	2258.06
324.71	3708.06
324.939	5821.06
325.168	5012.06
325.397	2047.06
325.626	1291.06
325.855	1090.06
326.084	1045.06
326.313	1023.06
326.542	1086.06
326.77	1196.06
326.999	1425.06
327.228	2071.06
327.457	3394.06
327.686	4491.06
327.914	2611.06
328.143	1474.06
328.372	1288.06
328.6	1285.06
328.829	1215.06
329.058	1260.06
329.287	1373.06
329.515	1243.06
329.744	1094.06
329.972	1058.06
330.201	1076.06
330.43	1097.06
330.658	1276.06
330.887	1430.06
331.115	1476.06
331.344	1167.06
331.572	1077.06
331.801	1117.06
332.03	1160.06
332.258	1143.06
332.486	1077.06
332.715	1052.06
332.943	1082.06
333.172	1118.06
333.4	1135.06
333.629	1175.06
333.857	1187.06
334.085	1175.06
334.314	1128.06
334.542	1105.06
334.771	1107.06
334.999	1102.06
335.227	1121.06
335.455	1090.06
335.684	1085.06
335.912	1031.06
336.14	1029.06
336.369	1065.06
336.597	1058.06
336.825	1074.06
337.053	1039.06
337.281	1021.06
337.51	1003.06
337.738	999.06
337.966	993.06
338.194	1031.06
338.422	992.06
338.65	1006.06
338.878	966.06
339.106	1000.06
339.334	962.06
339.562	961.06
339.79	939.06
340.018	951.06
340.246	971.06
340.474	983.06
340.702	960.06
340.93	978.06
341.158	943.06
341.386	969.06
341.614	960.06
341.842	948.06
342.07	919.06
342.298	926.06
342.526	910.06
342.754	910.06
342.981	895.06
343.209	923.06
343.437	959.06
343.665	998.06
343.893	993.06
344.12	1079.06
344.348	1042.06
344.576	1015.06
344.804	998.06
345.031	1021.06
345.259	1029.06
345.487	1001.06
345.714	964.06
345.942	931.06
346.17	916.06
346.397	911.06
346.625	924.06
346.853	893.06
347.08	897.06
347.308	905.06
347.535	923.06
347.763	975.06
347.99	958.06
348.218	931.06
348.445	939.06
348.673	963.06
348.9	900.06
349.128	880.06
349.355	876.06
349.583	878.06
349.81	913.06
350.037	873.06
350.265	866.06
350.492	876.06
350.72	859.06
350.947	874.06
351.174	915.06
351.402	952.06
351.629	896.06
351.856	895.06
352.083	909.06
352.311	936.06
352.538	948.06
352.765	969.06
352.992	919.06
353.22	923.06
353.447	890.06
353.674	884.06
353.901	859.06
354.128	849.06
354.355	841.06
354.583	862.06
354.81	832.06
355.037	852.06
355.264	813.06
355.491	813.06
355.718	848.06
355.945	817.06
356.172	827.06
356.399	805.06
356.626	832.06
356.853	799.06
357.08	819.06
357.307	807.06
357.534	827.06
357.761	829.06
357.988	833.06
358.215	822.06
358.441	848.06
358.668	833.06
358.895	854.06
359.122	867.06
359.349	859.06
359.576	899.06
359.802	927.06
360.029	1020.06
360.256	1126.06
360.483	1041.06
360.709	943.06
360.936	890.06
361.163	889.06
361.39	915.06
361.616	895.06
361.843	875.06
362.07	865.06
362.296	925.06
362.523	883.06
362.749	902.06
362.976	903.06
363.203	897.06
363.429	847.06
363.656	852.06
363.882	860.06
364.109	835.06
364.335	868.06
364.562	861.06
364.788	848.06
365.015	847.06
365.241	853.06
365.468	841.06
365.694	902.06
365.92	871.06
366.147	838.06
366.373	831.06
366.599	861.06
366.826	845.06
367.052	845.06
367.278	838.06
367.505	854.06
367.731	870.06
367.957	821.06
368.184	881.06
368.41	864.06
368.636	886.06
368.862	910.06
369.089	887.06
369.315	881.06
369.541	876.06
369.767	865.06
369.993	881.06
370.219	874.06
370.445	853.06
370.672	879.06
370.898	869.06
371.124	883.06
371.35	888.06
371.576	896.06
371.802	890.06
372.028	877.06
372.254	878.06
372.48	874.06
372.706	886.06
372.932	903.06
373.158	908.06
373.384	888.06
373.61	889.06
373.835	893.06
374.061	877.06
374.287	886.06
374.513	885.06
374.739	929.06
374.965	967.06
375.191	938.06
375.416	989.06
375.642	943.06
375.868	925.06
376.094	903.06
376.319	912.06
376.545	888.06
376.771	898.06
376.997	897.06
377.222	908.06
377.448	903.06
377.674	890.06
377.899	869.06
378.125	866.06
378.35	893.06
378.576	889.06
378.802	868.06
379.027	844.06
379.253	874.06
379.478	882.06
379.704	893.06
379.929	894.06
380.155	877.06
380.38	864.06
380.606	899.06
380.831	898.06
381.057	898.06
381.282	922.06
381.507	937.06
381.733	934.06
381.958	933.06
382.184	915.06
382.409	939.06
382.634	935.06
382.86	945.06
383.085	950.06
383.31	966.06
383.535	963.06
383.761	960.06
383.986	989.06
384.211	1027.06
384.436	1039.06
384.662	1027.06
384.887	1008.06
385.112	1014.06
385.337	1055.06
385.562	1051.06
385.787	1052.06
386.013	1084.06
386.238	1086.06
386.463	1105.06
386.688	1085.06
386.913	1039.06
387.138	1050.06
387.363	1045.06
387.588	1045.06
387.813	1059.06
388.038	1065.06
388.263	1049.06
388.488	1058.06
388.713	1081.06
388.938	1037.06
389.163	1078.06
389.387	1066.06
389.612	1045.06
389.837	1050.06
390.062	1035.06
390.287	1046.06
390.512	1050.06
390.736	1053.06
390.961	1074.06
391.186	1061.06
391.411	1116.06
391.636	1124.06
391.86	1154.06
392.085	1174.06
392.31	1165.06
392.534	1150.06
392.759	1158.06
392.984	1116.06
393.208	1104.06
393.433	1125.06
393.658	1103.06
393.882	1115.06
394.107	1074.06
394.331	1121.06
394.556	1105.06
394.78	1120.06
395.005	1134.06
395.229	1105.06
395.454	1159.06
395.678	1163.06
395.903	1199.06
396.127	1236.06
396.352	1235.06
396.576	1175.06
396.801	1116.06
397.025	1147.06
397.249	1167.06
397.474	1163.06
397.698	1178.06
397.922	1206.06
398.147	1277.06
398.371	1265.06
398.595	1236.06
398.82	1295.06
399.044	1404.06
399.268	1437.06
399.492	1626.06
399.717	1788.06
399.941	1851.06
400.165	1777.06
400.389	1727.06
400.613	1548.06
400.837	1445.06
401.062	1364.06
401.286	1357.06
401.51	1353.06
401.734	1323.06
401.958	1350.06
402.182	1370.06
402.406	1435.06
402.63	1411.06
402.854	1433.06
403.078	1445.06
403.302	1456.06
403.526	1514.06
403.75	1495.06
403.974	1497.06
404.198	1468.06
404.422	1532.06
404.645	1524.06
404.869	1505.06
405.093	1522.06
405.317	1539.06
405.541	1618.06
405.765	1567.06
405.988	1526.06
406.212	1518.06
406.436	1626.06
406.66	1685.06
406.883	1627.06
407.107	1669.06
407.331	1823.06
407.555	1974.06
407.778	1947.06
408.002	1743.06
408.226	1667.06
408.449	1635.06
408.673	1551.06
408.896	1645.06
409.12	1746.06
409.344	1635.06
409.567	1512.06
409.791	1477.06
410.014	1512.06
410.238	1475.06
410.461	1454.06
410.685	1452.06
410.908	1501.06
411.132	1578.06
411.355	1675.06
411.578	1565.06
411.802	1442.06
412.025	1421.06
412.249	1411.06
412.472	1378.06
412.695	1447.06
412.919	1381.06
413.142	1370.06
413.365	1391.06
413.589	1372.06
413.812	1377.06
414.035	1365.06
414.258	1357.06
414.482	1364.06
414.705	1338.06
414.928	1361.06
415.151	1386.06
415.374	1385.06
415.597	1379.06
415.821	1377.06
416.044	1395.06
416.267	1401.06
416.49	1397.06
416.713	1366.06
416.936	1389.06
417.159	1373.06
417.382	1390.06
417.605	1404.06
417.828	1480.06
418.051	1553.06
418.274	1503.06
418.497	1459.06
418.72	1471.06
418.943	1437.06
419.166	1504.06
419.389	1611.06
419.611	1557.06
419.834	1512.06
420.057	1490.06
420.28	1494.06
420.503	1487.06
420.726	1418.06
420.948	1507.06
421.171	1574.06
421.394	1657.06
421.617	1588.06
421.839	1546.06
422.062	1472.06
422.285	1530.06
422.507	1658.06
422.73	1830.06
422.953	1757.06
423.175	1567.06
423.398	1545.06
423.621	1556.06
423.843	1674.06
424.066	1658.06
424.288	1636.06
424.511	1660.06
424.733	1811.06
424.956	1959.06
425.178	1883.06
425.401	1874.06
425.623	1938.06
425.846	1616.06
426.068	1567.06
426.291	1518.06
426.513	1526.06
426.735	1513.06
426.958	1651.06
427.18	1852.06
427.402	2143.06
427.625	2404.06
427.847	2097.06
428.069	1666.06
428.292	1557.06
428.514	1468.06
428.736	1417.06
428.958	1428.06
429.181	1376.06
429.403	1388.06
429.625	1389.06
429.847	1491.06
430.069	1662.06
430.292	1659.06
430.514	1448.06
430.736	1386.06
430.958	1409.06
431.18	1358.06
431.402	1354.06
431.624	1258.06
431.846	1261.06
432.068	1202.06
432.29	1208.06
432.512	1297.06
432.734	1363.06
432.956	1396.06
433.178	1410.06
433.4	1461.06
433.622	1377.06
433.844	1394.06
434.066	1298.06
434.287	1233.06
434.509	1244.06
434.731	1267.06
434.953	1389.06
435.175	1474.06
435.397	1551.06
435.618	1493.06
435.84	1532.06
436.062	1843.06
436.284	2025.06
436.505	1647.06
436.727	1567.06
436.949	1458.06
437.17	1413.06
437.392	1437.06
437.614	1393.06
437.835	1401.06
438.057	1678.06
438.278	1959.06
438.5	1951.06
438.721	2157.06
438.943	2071.06
439.165	1685.06
439.386	1610.06
439.608	1636.06
439.829	1663.06
440.05	1749.06
440.272	1967.06
440.493	1761.06
440.715	1643.06
440.936	1564.06
441.158	1540.06
441.379	1582.06
441.6	1632.06
441.822	1725.06
442.043	1797.06
442.264	2044.06
442.486	2040.06
442.707	1753.06
442.928	1727.06
443.149	1789.06
443.371	1870.06
443.592	1905.06
443.813	2170.06
444.034	2274.06
444.255	1884.06
444.476	1755.06
444.698	1772.06
444.919	1830.06
445.14	1912.06
445.361	1866.06
445.582	1924.06
445.803	2085.06
446.024	2379.06
446.245	2331.06
446.466	2141.06
446.687	1790.06
446.908	1688.06
447.129	1565.06
447.35	1577.06
447.571	1541.06
447.792	1525.06
448.013	1497.06
448.234	1542.06
448.455	1660.06
448.675	1929.06
448.896	2251.06
449.117	1829.06
449.338	1727.06
449.559	2070.06
449.779	2321.06
450	1819.06
450.221	1542.06
450.442	1443.06
450.662	1445.06
450.883	1477.06
451.104	1511.06
451.324	1447.06
451.545	1387.06
451.766	1312.06
451.986	1311.06
452.207	1263.06
452.428	1250.06
452.648	1259.06
452.869	1254.06
453.089	1276.06
453.31	1275.06
453.53	1190.06
453.751	1157.06
453.971	1149.06
454.192	1210.06
454.412	1207.06
454.633	1191.06
454.853	1189.06
455.073	1182.06
455.294	1290.06
455.514	1487.06
455.734	1402.06
455.955	1152.06
456.175	1158.06
456.395	1084.06
456.616	1066.06
456.836	1068.06
457.056	1054.06
457.276	1026.06
457.497	1091.06
457.717	1093.06
457.937	1079.06
458.157	1088.06
458.377	1129.06
458.598	1154.06
458.818	1280.06
459.038	1558.06
459.258	1542.06
459.478	1292.06
459.698	1175.06
459.918	1229.06
460.138	1244.06
460.358	1340.06
460.578	1358.06
460.798	1363.06
461.018	1412.06
461.238	1384.06
461.458	1368.06
461.678	1321.06
461.898	1340.06
462.118	1355.06
462.338	1419.06
462.558	1439.06
462.777	1423.06
462.997	1555.06
463.217	1624.06
463.437	1624.06
463.657	1532.06
463.876	1479.06
464.096	1490.06
464.316	1483.06
464.536	1541.06
464.755	1526.06
464.975	1519.06
465.195	1627.06
465.414	1804.06
465.634	1507.06
465.854	1383.06
466.073	1348.06
466.293	1311.06
466.512	1325.06
466.732	1337.06
466.951	1325.06
467.171	1309.06
467.391	1348.06
467.61	1380.06
467.829	1430.06
468.049	1381.06
468.268	1339.06
468.488	1325.06
468.707	1317.06
468.927	1300.06
469.146	1315.06
469.365	1347.06
469.585	1342.06
469.804	1414.06
470.023	1447.06
470.243	1475.06
470.462	1496.06
470.681	1524.06
470.901	1490.06
471.12	1457.06
471.339	1414.06
471.558	1419.06
471.777	1389.06
471.997	1313.06
472.216	1250.06
472.435	1186.06
472.654	1119.06
472.873	1094.06
473.092	1137.06
473.311	1199.06
473.53	1263.06
473.749	1266.06
473.968	1346.06
474.187	1644.06
474.406	1711.06
474.625	1357.06
474.844	1319.06
475.063	1296.06
475.282	1224.06
475.501	1211.06
475.72	1238.06
475.939	1269.06
476.158	1287.06
476.377	1319.06
476.596	1265.06
476.814	1227.06
477.033	1252.06
477.252	1250.06
477.471	1311.06
477.69	1415.06
477.908	1482.06
478.127	1510.06
478.346	1499.06
478.564	1465.06
478.783	1509.06
479.002	1566.06
479.22	1574.06
479.439	1563.06
479.658	1539.06
479.876	1468.06
480.095	1487.06
480.313	1605.06
480.532	1532.06
480.751	1493.06
480.969	1421.06
481.188	1355.06
481.406	1311.06
481.624	1286.06
481.843	1259.06
482.061	1285.06
482.28	1344.06
482.498	1344.06
482.717	1305.06
482.935	1379.06
483.153	1458.06
483.372	1537.06
483.59	1550.06
483.808	1493.06
484.027	1404.06
484.245	1427.06
484.463	1485.06
484.681	1514.06
484.9	1487.06
485.118	1492.06
485.336	1431.06
485.554	1377.06
485.772	1340.06
485.99	1396.06
486.209	1397.06
486.427	1410.06
486.645	1504.06
486.863	1639.06
487.081	1661.06
487.299	1570.06
487.517	1587.06
487.735	1773.06
487.953	1909.06
488.171	1853.06
488.389	1757.06
488.607	1706.06
488.825	1579.06
489.043	1523.06
489.261	1578.06
489.479	1597.06
489.696	1615.06
489.914	1653.06
490.132	1677.06
490.35	1774.06
490.568	1892.06
490.786	2007.06
491.003	2042.06
491.221	2143.06
491.439	2174.06
491.657	2266.06
491.874	2321.06
492.092	2433.06
492.31	2541.06
492.527	2457.06
492.745	2346.06
492.963	2276.06
493.18	2241.06
493.398	2227.06
493.615	2285.06
493.833	2201.06
494.05	2171.06
494.268	2166.06
