Data from FlinnAP9092KCOPPER.07152019.LAMP.EN7.P1_HRD10591_14-44-43-668.txt Node
Date: Mon Jul 15 14:44:43 EDT 2019
User: cochatt
Spectrometer: HR+D1059
Trigger mode: 3
Integration Time (sec): 1.000000E-1
Scans to average: 1
Electric dark correction enabled: true
Nonlinearity correction enabled: false
Boxcar width: 0
XAxis mode: Wavelengths
Number of Pixels in Spectrum: 2048
>>>>>Begin Spectral Data<<<<<
223.165	-14.38
223.4	-14.38
223.635	-14.38
223.869	-24.38
224.104	-2.38
224.338	-13.38
224.573	-25.38
224.808	-4.38
225.042	-15.38
225.277	-4.38
225.511	-2.38
225.746	5.62
225.98	0.62
226.215	6.62
226.449	15.62
226.683	28.62
226.918	24.62
227.152	24.62
227.387	33.62
227.621	40.62
227.856	32.62
228.09	52.62
228.324	54.62
228.559	49.62
228.793	83.62
229.027	119.62
229.262	123.62
229.496	134.62
229.73	147.62
229.964	179.62
230.199	158.62
230.433	149.62
230.667	148.62
230.901	142.62
231.136	145.62
231.37	135.62
231.604	135.62
231.838	142.62
232.072	137.62
232.306	136.62
232.541	139.62
232.775	141.62
233.009	149.62
233.243	129.62
233.477	144.62
233.711	133.62
233.945	150.62
234.179	146.62
234.413	138.62
234.647	139.62
234.881	138.62
235.115	158.62
235.349	176.62
235.583	155.62
235.817	167.62
236.051	148.62
236.285	141.62
236.519	150.62
236.753	145.62
236.987	165.62
237.221	207.62
237.455	268.62
237.689	221.62
237.922	169.62
238.156	159.62
238.39	184.62
238.624	154.62
238.858	155.62
239.091	150.62
239.325	167.62
239.559	163.62
239.793	157.62
240.027	161.62
240.26	165.62
240.494	191.62
240.728	190.62
240.961	204.62
241.195	182.62
241.429	162.62
241.662	172.62
241.896	175.62
242.13	167.62
242.363	175.62
242.597	186.62
242.83	178.62
243.064	158.62
243.298	175.62
243.531	195.62
243.765	176.62
243.998	180.62
244.232	189.62
244.465	194.62
244.699	193.62
244.932	178.62
245.166	177.62
245.399	195.62
245.633	195.62
245.866	198.62
246.099	190.62
246.333	194.62
246.566	192.62
246.8	213.62
247.033	209.62
247.266	196.62
247.5	212.62
247.733	211.62
247.966	238.62
248.2	205.62
248.433	217.62
248.666	221.62
248.899	241.62
249.133	249.62
249.366	276.62
249.599	259.62
249.832	220.62
250.066	240.62
250.299	226.62
250.532	244.62
250.765	271.62
250.998	292.62
251.231	291.62
251.465	271.62
251.698	251.62
251.931	269.62
252.164	267.62
252.397	273.62
252.63	267.62
252.863	239.62
253.096	283.62
253.329	289.62
253.562	285.62
253.795	283.62
254.028	293.62
254.261	280.62
254.494	294.62
254.727	313.62
254.96	345.62
255.193	350.62
255.426	302.62
255.659	273.62
255.892	291.62
256.124	266.62
256.357	271.62
256.59	250.62
256.823	273.62
257.056	291.62
257.289	281.62
257.521	274.62
257.754	260.62
257.987	270.62
258.22	285.62
258.452	287.62
258.685	283.62
258.918	274.62
259.151	285.62
259.383	299.62
259.616	285.62
259.849	293.62
260.081	304.62
260.314	333.62
260.547	329.62
260.779	335.62
261.012	302.62
261.244	323.62
261.477	294.62
261.71	281.62
261.942	302.62
262.175	293.62
262.407	305.62
262.64	294.62
262.872	305.62
263.105	289.62
263.337	301.62
263.57	310.62
263.802	306.62
264.035	301.62
264.267	285.62
264.499	289.62
264.732	271.62
264.964	286.62
265.197	294.62
265.429	278.62
265.661	305.62
265.894	289.62
266.126	293.62
266.358	288.62
266.591	293.62
266.823	318.62
267.055	313.62
267.287	318.62
267.52	334.62
267.752	316.62
267.984	325.62
268.216	303.62
268.448	311.62
268.681	324.62
268.913	354.62
269.145	349.62
269.377	395.62
269.609	368.62
269.841	358.62
270.073	359.62
270.306	388.62
270.538	401.62
270.77	427.62
271.002	391.62
271.234	380.62
271.466	409.62
271.698	413.62
271.93	418.62
272.162	413.62
272.394	421.62
272.626	394.62
272.858	370.62
273.09	380.62
273.322	357.62
273.553	366.62
273.785	365.62
274.017	364.62
274.249	395.62
274.481	365.62
274.713	366.62
274.945	366.62
275.176	382.62
275.408	352.62
275.64	354.62
275.872	365.62
276.104	378.62
276.335	345.62
276.567	372.62
276.799	399.62
277.031	411.62
277.262	425.62
277.494	433.62
277.726	399.62
277.957	389.62
278.189	396.62
278.421	397.62
278.652	376.62
278.884	385.62
279.115	390.62
279.347	373.62
279.579	372.62
279.81	372.62
280.042	373.62
280.273	379.62
280.505	355.62
280.736	387.62
280.968	389.62
281.199	369.62
281.431	401.62
281.662	397.62
281.894	369.62
282.125	379.62
282.356	404.62
282.588	405.62
282.819	423.62
283.051	404.62
283.282	403.62
283.513	398.62
283.745	411.62
283.976	427.62
284.207	425.62
284.439	408.62
284.67	425.62
284.901	422.62
285.132	412.62
285.364	412.62
285.595	400.62
285.826	416.62
286.057	421.62
286.288	414.62
286.52	424.62
286.751	394.62
286.982	430.62
287.213	404.62
287.444	427.62
287.675	409.62
287.906	444.62
288.138	441.62
288.369	432.62
288.6	442.62
288.831	423.62
289.062	410.62
289.293	426.62
289.524	434.62
289.755	424.62
289.986	427.62
290.217	429.62
290.448	422.62
290.679	423.62
290.91	423.62
291.141	426.62
291.371	411.62
291.602	437.62
291.833	442.62
292.064	436.62
292.295	451.62
292.526	443.62
292.757	443.62
292.987	433.62
293.218	407.62
293.449	445.62
293.68	431.62
293.91	431.62
294.141	439.62
294.372	437.62
294.603	444.62
294.833	427.62
295.064	422.62
295.295	427.62
295.525	429.62
295.756	432.62
295.987	436.62
296.217	471.62
296.448	474.62
296.679	461.62
296.909	434.62
297.14	437.62
297.37	456.62
297.601	437.62
297.831	451.62
298.062	444.62
298.292	455.62
298.523	463.62
298.753	455.62
298.984	473.62
299.214	429.62
299.445	440.62
299.675	465.62
299.905	450.62
300.136	432.62
300.366	444.62
300.597	454.62
300.827	491.62
301.057	481.62
301.288	489.62
301.518	491.62
301.748	462.62
301.979	461.62
302.209	502.62
302.439	495.62
302.669	491.62
302.9	494.62
303.13	453.62
303.36	468.62
303.59	471.62
303.82	476.62
304.051	499.62
304.281	491.62
304.511	474.62
304.741	489.62
304.971	475.62
305.201	486.62
305.431	463.62
305.661	475.62
305.891	471.62
306.121	470.62
306.352	467.62
306.582	482.62
306.812	467.62
307.042	475.62
307.272	465.62
307.502	483.62
307.731	451.62
307.961	455.62
308.191	458.62
308.421	488.62
308.651	475.62
308.881	457.62
309.111	488.62
309.341	483.62
309.571	491.62
309.8	502.62
310.03	501.62
310.26	488.62
310.49	499.62
310.72	510.62
310.949	519.62
311.179	522.62
311.409	519.62
311.639	532.62
311.868	536.62
312.098	520.62
312.328	541.62
312.557	533.62
312.787	552.62
313.017	548.62
313.246	533.62
313.476	523.62
313.706	534.62
313.935	539.62
314.165	551.62
314.394	549.62
314.624	532.62
314.853	531.62
315.083	535.62
315.312	543.62
315.542	516.62
315.771	491.62
316.001	503.62
316.23	493.62
316.46	518.62
316.689	514.62
316.919	493.62
317.148	535.62
317.377	516.62
317.607	513.62
317.836	513.62
318.065	492.62
318.295	501.62
318.524	518.62
318.753	503.62
318.983	499.62
319.212	497.62
319.441	507.62
319.67	511.62
319.9	534.62
320.129	511.62
320.358	515.62
320.587	535.62
320.816	516.62
321.046	517.62
321.275	537.62
321.504	516.62
321.733	523.62
321.962	523.62
322.191	531.62
322.42	548.62
322.649	563.62
322.878	565.62
323.108	563.62
323.337	598.62
323.566	585.62
323.795	641.62
324.024	668.62
324.253	753.62
324.482	997.62
324.71	1531.62
324.939	2305.62
325.168	2042.62
325.397	1046.62
325.626	729.62
325.855	605.62
326.084	608.62
326.313	605.62
326.542	617.62
326.77	658.62
326.999	727.62
327.228	984.62
327.457	1428.62
327.686	1803.62
327.914	1185.62
328.143	765.62
328.372	694.62
328.6	685.62
328.829	669.62
329.058	667.62
329.287	685.62
329.515	661.62
329.744	607.62
329.972	591.62
330.201	638.62
330.43	651.62
330.658	669.62
330.887	715.62
331.115	735.62
331.344	660.62
331.572	615.62
331.801	622.62
332.03	646.62
332.258	637.62
332.486	621.62
332.715	635.62
332.943	649.62
333.172	641.62
333.4	692.62
333.629	699.62
333.857	689.62
334.085	690.62
334.314	671.62
334.542	675.62
334.771	686.62
334.999	667.62
335.227	657.62
335.455	665.62
335.684	650.62
335.912	641.62
336.14	629.62
336.369	639.62
336.597	626.62
336.825	656.62
337.053	621.62
337.281	619.62
337.51	625.62
337.738	615.62
337.966	582.62
338.194	582.62
338.422	592.62
338.65	611.62
338.878	603.62
339.106	593.62
339.334	597.62
339.562	593.62
339.79	583.62
340.018	594.62
340.246	592.62
340.474	578.62
340.702	589.62
340.93	581.62
341.158	594.62
341.386	585.62
341.614	581.62
341.842	563.62
342.07	551.62
342.298	574.62
342.526	559.62
342.754	571.62
342.981	552.62
343.209	572.62
343.437	591.62
343.665	596.62
343.893	637.62
344.12	658.62
344.348	663.62
344.576	621.62
344.804	614.62
345.031	618.62
345.259	626.62
345.487	585.62
345.714	604.62
345.942	569.62
346.17	566.62
346.397	578.62
346.625	551.62
346.853	519.62
347.08	527.62
347.308	549.62
347.535	558.62
347.763	586.62
347.99	572.62
348.218	571.62
348.445	567.62
348.673	552.62
348.9	528.62
349.128	534.62
349.355	537.62
349.583	543.62
349.81	532.62
350.037	537.62
350.265	520.62
350.492	542.62
350.72	541.62
350.947	539.62
351.174	577.62
351.402	572.62
351.629	515.62
351.856	562.62
352.083	554.62
352.311	554.62
352.538	540.62
352.765	547.62
352.992	561.62
353.22	547.62
353.447	517.62
353.674	526.62
353.901	518.62
354.128	529.62
354.355	516.62
354.583	521.62
354.81	519.62
355.037	513.62
355.264	505.62
355.491	529.62
355.718	504.62
355.945	516.62
356.172	539.62
356.399	549.62
356.626	511.62
356.853	531.62
357.08	508.62
357.307	529.62
357.534	525.62
357.761	502.62
357.988	522.62
358.215	521.62
358.441	508.62
358.668	531.62
358.895	553.62
359.122	531.62
359.349	533.62
359.576	523.62
359.802	555.62
360.029	582.62
360.256	604.62
360.483	581.62
360.709	529.62
360.936	547.62
361.163	548.62
361.39	541.62
361.616	558.62
361.843	550.62
362.07	528.62
362.296	521.62
362.523	535.62
362.749	528.62
362.976	523.62
363.203	511.62
363.429	523.62
363.656	523.62
363.882	511.62
364.109	523.62
364.335	532.62
364.562	526.62
364.788	524.62
365.015	515.62
365.241	503.62
365.468	540.62
365.694	523.62
365.92	528.62
366.147	521.62
366.373	526.62
366.599	539.62
366.826	497.62
367.052	518.62
367.278	541.62
367.505	529.62
367.731	527.62
367.957	531.62
368.184	550.62
368.41	533.62
368.636	540.62
368.862	549.62
369.089	578.62
369.315	541.62
369.541	555.62
369.767	517.62
369.993	543.62
370.219	557.62
370.445	531.62
370.672	556.62
370.898	533.62
371.124	535.62
371.35	549.62
371.576	547.62
371.802	570.62
372.028	550.62
372.254	555.62
372.48	569.62
372.706	554.62
372.932	598.62
373.158	566.62
373.384	566.62
373.61	561.62
373.835	564.62
374.061	549.62
374.287	585.62
374.513	581.62
374.739	602.62
374.965	603.62
375.191	614.62
375.416	605.62
375.642	606.62
375.868	577.62
376.094	546.62
376.319	582.62
376.545	566.62
376.771	564.62
376.997	563.62
377.222	562.62
377.448	559.62
377.674	548.62
377.899	561.62
378.125	535.62
378.35	568.62
378.576	563.62
378.802	548.62
379.027	532.62
379.253	552.62
379.478	565.62
379.704	554.62
379.929	573.62
380.155	573.62
380.38	551.62
380.606	552.62
380.831	568.62
381.057	574.62
381.282	591.62
381.507	561.62
381.733	571.62
381.958	578.62
382.184	598.62
382.409	611.62
382.634	593.62
382.86	607.62
383.085	615.62
383.31	623.62
383.535	617.62
383.761	618.62
383.986	638.62
384.211	636.62
384.436	653.62
384.662	635.62
384.887	653.62
385.112	636.62
385.337	680.62
385.562	675.62
385.787	665.62
386.013	677.62
386.238	690.62
386.463	683.62
386.688	665.62
386.913	690.62
387.138	671.62
387.363	665.62
387.588	675.62
387.813	672.62
388.038	673.62
388.263	687.62
388.488	667.62
388.713	688.62
388.938	717.62
389.163	675.62
389.387	680.62
389.612	659.62
389.837	679.62
390.062	664.62
390.287	690.62
390.512	689.62
390.736	663.62
390.961	687.62
391.186	677.62
391.411	692.62
391.636	700.62
391.86	723.62
392.085	750.62
392.31	761.62
392.534	739.62
392.759	714.62
392.984	707.62
393.208	681.62
393.433	706.62
393.658	699.62
393.882	720.62
394.107	731.62
394.331	739.62
394.556	714.62
394.78	722.62
395.005	722.62
395.229	716.62
395.454	725.62
395.678	757.62
395.903	783.62
396.127	771.62
396.352	791.62
396.576	743.62
396.801	738.62
397.025	740.62
397.249	722.62
397.474	750.62
397.698	758.62
397.922	790.62
398.147	803.62
398.371	813.62
398.595	826.62
398.82	839.62
399.044	871.62
399.268	937.62
399.492	1045.62
399.717	1122.62
399.941	1161.62
400.165	1105.62
400.389	1049.62
400.613	939.62
400.837	925.62
401.062	896.62
401.286	881.62
401.51	866.62
401.734	862.62
401.958	867.62
402.182	862.62
402.406	877.62
402.63	883.62
402.854	906.62
403.078	909.62
403.302	911.62
403.526	958.62
403.75	957.62
403.974	989.62
404.198	948.62
404.422	975.62
404.645	953.62
404.869	950.62
405.093	964.62
405.317	989.62
405.541	998.62
405.765	958.62
405.988	955.62
406.212	964.62
406.436	1015.62
406.66	990.62
406.883	1006.62
407.107	1041.62
407.331	1079.62
407.555	1207.62
407.778	1206.62
408.002	1115.62
408.226	1052.62
408.449	1017.62
408.673	990.62
408.896	1002.62
409.12	1089.62
409.344	1038.62
409.567	985.62
409.791	947.62
410.014	944.62
410.238	949.62
410.461	940.62
410.685	961.62
410.908	971.62
411.132	1013.62
411.355	1029.62
411.578	995.62
411.802	941.62
412.025	926.62
412.249	909.62
412.472	910.62
412.695	906.62
412.919	873.62
413.142	888.62
413.365	903.62
413.589	906.62
413.812	901.62
414.035	866.62
414.258	883.62
414.482	893.62
414.705	922.62
414.928	919.62
415.151	878.62
415.374	885.62
415.597	890.62
415.821	877.62
416.044	910.62
416.267	900.62
416.49	909.62
416.713	889.62
416.936	917.62
417.159	911.62
417.382	901.62
417.605	909.62
417.828	939.62
418.051	979.62
418.274	986.62
418.497	950.62
418.72	965.62
418.943	915.62
419.166	994.62
419.389	1057.62
419.611	1001.62
419.834	993.62
420.057	993.62
420.28	982.62
420.503	954.62
420.726	963.62
420.948	966.62
421.171	1034.62
421.394	1096.62
421.617	1039.62
421.839	985.62
422.062	995.62
422.285	982.62
422.507	1070.62
422.73	1125.62
422.953	1092.62
423.175	1025.62
423.398	1006.62
423.621	998.62
423.843	1067.62
424.066	1063.62
424.288	1040.62
424.511	1091.62
424.733	1130.62
424.956	1229.62
425.178	1161.62
425.401	1152.62
425.623	1173.62
425.846	1067.62
426.068	998.62
426.291	966.62
426.513	944.62
426.735	993.62
426.958	1047.62
427.18	1105.62
427.402	1303.62
427.625	1376.62
427.847	1191.62
428.069	1059.62
428.292	999.62
428.514	953.62
428.736	934.62
428.958	939.62
429.181	901.62
429.403	879.62
429.625	907.62
429.847	942.62
430.069	1026.62
430.292	1020.62
430.514	919.62
430.736	924.62
430.958	915.62
431.18	907.62
431.402	871.62
431.624	868.62
431.846	787.62
432.068	745.62
432.29	749.62
432.512	802.62
432.734	899.62
432.956	927.62
433.178	925.62
433.4	973.62
433.622	930.62
433.844	907.62
434.066	853.62
434.287	793.62
434.509	792.62
434.731	805.62
434.953	892.62
435.175	939.62
435.397	982.62
435.618	934.62
435.84	937.62
436.062	1033.62
436.284	1176.62
436.505	1051.62
436.727	1015.62
436.949	970.62
437.17	969.62
437.392	923.62
437.614	866.62
437.835	867.62
438.057	979.62
438.278	1094.62
438.5	1123.62
438.721	1297.62
438.943	1272.62
439.165	1099.62
439.386	1033.62
439.608	1047.62
439.829	1061.62
440.05	1115.62
440.272	1186.62
440.493	1099.62
440.715	1063.62
440.936	1030.62
441.158	1051.62
441.379	1056.62
441.6	1086.62
441.822	1126.62
442.043	1160.62
442.264	1242.62
442.486	1262.62
442.707	1146.62
442.928	1119.62
443.149	1131.62
443.371	1133.62
443.592	1202.62
443.813	1284.62
444.034	1397.62
444.255	1207.62
444.476	1154.62
444.698	1163.62
444.919	1187.62
445.14	1295.62
445.361	1241.62
445.582	1197.62
445.803	1242.62
446.024	1359.62
446.245	1406.62
446.466	1290.62
446.687	1165.62
446.908	1134.62
447.129	1090.62
447.35	1049.62
447.571	1017.62
447.792	1004.62
448.013	1021.62
448.234	1012.62
448.455	1105.62
448.675	1187.62
448.896	1335.62
449.117	1154.62
449.338	1099.62
449.559	1245.62
449.779	1337.62
450	1140.62
450.221	1005.62
450.442	977.62
450.662	936.62
450.883	934.62
451.104	953.62
451.324	905.62
451.545	914.62
451.766	895.62
451.986	860.62
452.207	836.62
452.428	841.62
452.648	813.62
452.869	796.62
453.089	782.62
453.31	792.62
453.53	754.62
453.751	721.62
453.971	726.62
454.192	760.62
454.412	746.62
454.633	764.62
454.853	755.62
455.073	805.62
455.294	815.62
455.514	907.62
455.734	892.62
455.955	805.62
456.175	749.62
456.395	724.62
456.616	707.62
456.836	710.62
457.056	706.62
457.276	670.62
457.497	700.62
457.717	700.62
457.937	723.62
458.157	733.62
458.377	701.62
458.598	719.62
458.818	779.62
459.038	829.62
459.258	841.62
459.478	754.62
459.698	743.62
459.918	745.62
460.138	813.62
460.358	871.62
460.578	879.62
460.798	893.62
461.018	902.62
461.238	891.62
461.458	907.62
461.678	866.62
461.898	885.62
462.118	893.62
462.338	937.62
462.558	925.62
462.777	971.62
462.997	979.62
463.217	1022.62
463.437	1028.62
463.657	965.62
463.876	951.62
464.096	919.62
464.316	958.62
464.536	981.62
464.755	979.62
464.975	994.62
465.195	985.62
465.414	1007.62
465.634	926.62
465.854	871.62
466.073	895.62
466.293	905.62
466.512	865.62
466.732	860.62
466.951	929.62
467.171	883.62
467.391	923.62
467.61	934.62
467.829	941.62
468.049	932.62
468.268	885.62
468.488	881.62
468.707	916.62
468.927	928.62
469.146	907.62
469.365	923.62
469.585	927.62
469.804	932.62
470.023	982.62
470.243	987.62
470.462	996.62
470.681	1019.62
470.901	983.62
471.12	965.62
471.339	963.62
471.558	988.62
471.777	957.62
471.997	943.62
472.216	839.62
472.435	775.62
472.654	728.62
472.873	732.62
473.092	779.62
473.311	828.62
473.53	831.62
473.749	861.62
473.968	895.62
474.187	955.62
474.406	973.62
474.625	887.62
474.844	893.62
475.063	873.62
475.282	814.62
475.501	795.62
475.72	821.62
475.939	822.62
476.158	871.62
476.377	872.62
476.596	835.62
476.814	778.62
477.033	755.62
477.252	797.62
477.471	881.62
477.69	941.62
477.908	1006.62
478.127	1003.62
478.346	978.62
478.564	1007.62
478.783	1019.62
479.002	1054.62
479.22	1029.62
479.439	1024.62
479.658	970.62
479.876	926.62
480.095	892.62
480.313	995.62
480.532	966.62
480.751	922.62
480.969	868.62
481.188	823.62
481.406	791.62
481.624	777.62
481.843	742.62
482.061	793.62
482.28	856.62
482.498	861.62
482.717	820.62
482.935	909.62
483.153	1013.62
483.372	1096.62
483.59	1088.62
483.808	994.62
484.027	927.62
484.245	922.62
484.463	969.62
484.681	1034.62
484.9	997.62
485.118	972.62
485.336	957.62
485.554	871.62
485.772	852.62
485.99	842.62
486.209	899.62
486.427	872.62
486.645	943.62
486.863	1061.62
487.081	1082.62
487.299	1040.62
487.517	1038.62
487.735	1216.62
487.953	1337.62
488.171	1277.62
488.389	1222.62
488.607	1169.62
488.825	1043.62
489.043	1020.62
489.261	996.62
489.479	1050.62
489.696	1058.62
489.914	1087.62
490.132	1131.62
490.35	1161.62
490.568	1217.62
490.786	1327.62
491.003	1413.62
491.221	1477.62
491.439	1476.62
491.657	1526.62
491.874	1638.62
492.092	1743.62
492.31	1854.62
492.527	1745.62
492.745	1657.62
492.963	1592.62
493.18	1575.62
493.398	1510.62
493.615	1520.62
493.833	1473.62
494.05	1476.62
494.268	1455.62
494.485	1451.62
494.703	1483.62
494.92	1486.62
495.138	1454.62
495.355	1503.62
495.573	1473.62
495.79	1429.62
496.008	1457.62
496.225	1402.62
496.442	1401.62
496.66	1404.62
496.877	1419.62
497.094	1381.62
497.312	1392.62
497.529	1389.62
497.746	1341.62
497.963	1307.62
498.181	1251.62
498.398	1254.62
498.615	1282.62
498.832	1268.62
499.049	1341.62
499.267	1419.62
499.484	1501.62
499.701	1619.62
