Data from FlinnAP5935BZINC.07152019.QSWITCHedge.EN10.5scans.P1_HRD10591_15-05-40-551.txt Node
Date: Mon Jul 15 15:05:40 EDT 2019
User: cochatt
Spectrometer: HR+D1059
Trigger mode: 1
Integration Time (sec): 1.000000E-1
Scans to average: 1
Electric dark correction enabled: true
Nonlinearity correction enabled: false
Boxcar width: 0
XAxis mode: Wavelengths
Number of Pixels in Spectrum: 2048
>>>>>Begin Spectral Data<<<<<
223.165	-16.12
223.4	-16.12
223.635	-16.12
223.869	-5.12
224.104	-18.12
224.338	-11.12
224.573	-17.12
224.808	-8.12
225.042	1.88
225.277	5.88
225.511	-9.12
225.746	-6.12
225.98	5.88
226.215	3.88
226.449	16.88
226.683	15.88
226.918	14.88
227.152	25.88
227.387	39.88
227.621	42.88
227.856	58.88
228.09	41.88
228.324	45.88
228.559	61.88
228.793	67.88
229.027	55.88
229.262	79.88
229.496	67.88
229.73	62.88
229.964	84.88
230.199	67.88
230.433	83.88
230.667	89.88
230.901	83.88
231.136	82.88
231.37	78.88
231.604	76.88
231.838	89.88
232.072	82.88
232.306	93.88
232.541	84.88
232.775	93.88
233.009	80.88
233.243	85.88
233.477	105.88
233.711	88.88
233.945	96.88
234.179	82.88
234.413	79.88
234.647	97.88
234.881	90.88
235.115	80.88
235.349	79.88
235.583	63.88
235.817	96.88
236.051	85.88
236.285	93.88
236.519	91.88
236.753	88.88
236.987	77.88
237.221	70.88
237.455	79.88
237.689	81.88
237.922	85.88
238.156	74.88
238.39	64.88
238.624	65.88
238.858	81.88
239.091	80.88
239.325	79.88
239.559	91.88
239.793	89.88
240.027	82.88
240.26	79.88
240.494	81.88
240.728	85.88
240.961	76.88
241.195	73.88
241.429	85.88
241.662	85.88
241.896	91.88
242.13	90.88
242.363	77.88
242.597	82.88
242.83	77.88
243.064	75.88
243.298	74.88
243.531	85.88
243.765	84.88
243.998	69.88
244.232	73.88
244.465	86.88
244.699	79.88
244.932	85.88
245.166	82.88
245.399	82.88
245.633	86.88
245.866	68.88
246.099	89.88
246.333	93.88
246.566	81.88
246.8	86.88
247.033	82.88
247.266	78.88
247.5	90.88
247.733	69.88
247.966	79.88
248.2	77.88
248.433	87.88
248.666	88.88
248.899	88.88
249.133	90.88
249.366	82.88
249.599	83.88
249.832	84.88
250.066	86.88
250.299	93.88
250.532	95.88
250.765	75.88
250.998	77.88
251.231	91.88
251.465	91.88
251.698	83.88
251.931	89.88
252.164	82.88
252.397	81.88
252.63	84.88
252.863	78.88
253.096	59.88
253.329	97.88
253.562	87.88
253.795	95.88
254.028	76.88
254.261	89.88
254.494	85.88
254.727	92.88
254.96	77.88
255.193	82.88
255.426	88.88
255.659	90.88
255.892	90.88
256.124	87.88
256.357	86.88
256.59	94.88
256.823	90.88
257.056	79.88
257.289	89.88
257.521	88.88
257.754	89.88
257.987	91.88
258.22	90.88
258.452	91.88
258.685	88.88
258.918	74.88
259.151	93.88
259.383	96.88
259.616	81.88
259.849	86.88
260.081	91.88
260.314	83.88
260.547	91.88
260.779	86.88
261.012	89.88
261.244	101.88
261.477	91.88
261.71	100.88
261.942	77.88
262.175	103.88
262.407	99.88
262.64	86.88
262.872	87.88
263.105	87.88
263.337	81.88
263.57	71.88
263.802	85.88
264.035	91.88
264.267	92.88
264.499	80.88
264.732	75.88
264.964	78.88
265.197	75.88
265.429	79.88
265.661	95.88
265.894	95.88
266.126	91.88
266.358	70.88
266.591	89.88
266.823	85.88
267.055	79.88
267.287	98.88
267.52	89.88
267.752	99.88
267.984	84.88
268.216	93.88
268.448	95.88
268.681	70.88
268.913	91.88
269.145	82.88
269.377	71.88
269.609	77.88
269.841	81.88
270.073	92.88
270.306	78.88
270.538	90.88
270.77	82.88
271.002	87.88
271.234	93.88
271.466	92.88
271.698	87.88
271.93	93.88
272.162	83.88
272.394	96.88
272.626	80.88
272.858	86.88
273.09	97.88
273.322	83.88
273.553	86.88
273.785	73.88
274.017	74.88
274.249	112.88
274.481	85.88
274.713	75.88
274.945	86.88
275.176	91.88
275.408	91.88
275.64	91.88
275.872	99.88
276.104	96.88
276.335	94.88
276.567	91.88
276.799	99.88
277.031	104.88
277.262	115.88
277.494	109.88
277.726	100.88
277.957	86.88
278.189	97.88
278.421	101.88
278.652	88.88
278.884	85.88
279.115	81.88
279.347	79.88
279.579	99.88
279.81	105.88
280.042	125.88
280.273	141.88
280.505	113.88
280.736	109.88
280.968	80.88
281.199	88.88
281.431	84.88
281.662	80.88
281.894	88.88
282.125	68.88
282.356	95.88
282.588	82.88
282.819	85.88
283.051	95.88
283.282	92.88
283.513	101.88
283.745	92.88
283.976	84.88
284.207	86.88
284.439	88.88
284.67	93.88
284.901	87.88
285.132	100.88
285.364	69.88
285.595	100.88
285.826	97.88
286.057	91.88
286.288	83.88
286.52	94.88
286.751	91.88
286.982	85.88
287.213	93.88
287.444	77.88
287.675	91.88
287.906	82.88
288.138	94.88
288.369	94.88
288.6	96.88
288.831	82.88
289.062	100.88
289.293	103.88
289.524	95.88
289.755	105.88
289.986	101.88
290.217	82.88
290.448	89.88
290.679	99.88
290.91	86.88
291.141	77.88
291.371	83.88
291.602	82.88
291.833	97.88
292.064	85.88
292.295	91.88
292.526	88.88
292.757	82.88
292.987	62.88
293.218	93.88
293.449	74.88
293.68	91.88
293.91	81.88
294.141	78.88
294.372	79.88
294.603	95.88
294.833	86.88
295.064	73.88
295.295	93.88
295.525	76.88
295.756	86.88
295.987	110.88
296.217	96.88
296.448	89.88
296.679	92.88
296.909	95.88
297.14	87.88
297.37	93.88
297.601	99.88
297.831	90.88
298.062	97.88
298.292	95.88
298.523	74.88
298.753	98.88
298.984	89.88
299.214	84.88
299.445	89.88
299.675	93.88
299.905	97.88
300.136	85.88
300.366	89.88
300.597	108.88
300.827	77.88
301.057	77.88
301.288	89.88
301.518	92.88
301.748	82.88
301.979	91.88
302.209	94.88
302.439	78.88
302.669	97.88
302.9	86.88
303.13	93.88
303.36	101.88
303.59	94.88
303.82	101.88
304.051	95.88
304.281	92.88
304.511	98.88
304.741	92.88
304.971	96.88
305.201	100.88
305.431	106.88
305.661	95.88
305.891	92.88
306.121	82.88
306.352	90.88
306.582	90.88
306.812	95.88
307.042	89.88
307.272	117.88
307.502	120.88
307.731	121.88
307.961	103.88
308.191	94.88
308.421	77.88
308.651	101.88
308.881	90.88
309.111	92.88
309.341	84.88
309.571	98.88
309.8	87.88
310.03	91.88
310.26	91.88
310.49	82.88
310.72	96.88
310.949	82.88
311.179	93.88
311.409	94.88
311.639	79.88
311.868	75.88
312.098	90.88
312.328	103.88
312.557	90.88
312.787	89.88
313.017	95.88
313.246	85.88
313.476	90.88
313.706	90.88
313.935	89.88
314.165	79.88
314.394	81.88
314.624	75.88
314.853	99.88
315.083	81.88
315.312	99.88
315.542	84.88
315.771	82.88
316.001	85.88
316.23	91.88
316.46	85.88
316.689	89.88
316.919	85.88
317.148	84.88
317.377	113.88
317.607	86.88
317.836	86.88
318.065	89.88
318.295	92.88
318.524	78.88
318.753	86.88
318.983	75.88
319.212	85.88
319.441	83.88
319.67	109.88
319.9	75.88
320.129	89.88
320.358	99.88
320.587	93.88
320.816	93.88
321.046	91.88
321.275	86.88
321.504	81.88
321.733	79.88
321.962	87.88
322.191	92.88
322.42	87.88
322.649	80.88
322.878	103.88
323.108	90.88
323.337	82.88
323.566	84.88
323.795	81.88
324.024	81.88
324.253	85.88
324.482	84.88
324.71	106.88
324.939	104.88
325.168	95.88
325.397	89.88
325.626	100.88
325.855	93.88
326.084	80.88
326.313	93.88
326.542	89.88
326.77	81.88
326.999	94.88
327.228	97.88
327.457	92.88
327.686	97.88
327.914	134.88
328.143	175.88
328.372	218.88
328.6	208.88
328.829	118.88
329.058	99.88
329.287	97.88
329.515	98.88
329.744	127.88
329.972	167.88
330.201	294.88
330.43	444.88
330.658	327.88
330.887	130.88
331.115	114.88
331.344	84.88
331.572	102.88
331.801	98.88
332.03	114.88
332.258	82.88
332.486	95.88
332.715	94.88
332.943	96.88
333.172	101.88
333.4	89.88
333.629	110.88
333.857	119.88
334.085	154.88
334.314	265.88
334.542	453.88
334.771	548.88
334.999	292.88
335.227	129.88
335.455	104.88
335.684	96.88
335.912	87.88
336.14	84.88
336.369	73.88
336.597	109.88
336.825	90.88
337.053	95.88
337.281	89.88
337.51	93.88
337.738	103.88
337.966	96.88
338.194	75.88
338.422	97.88
338.65	106.88
338.878	73.88
339.106	85.88
339.334	99.88
339.562	84.88
339.79	93.88
340.018	68.88
340.246	89.88
340.474	84.88
340.702	93.88
340.93	98.88
341.158	75.88
341.386	82.88
341.614	74.88
341.842	91.88
342.07	86.88
342.298	97.88
342.526	82.88
342.754	87.88
342.981	84.88
343.209	82.88
343.437	86.88
343.665	103.88
343.893	78.88
344.12	88.88
344.348	92.88
344.576	86.88
344.804	85.88
345.031	107.88
345.259	92.88
345.487	89.88
345.714	94.88
345.942	92.88
346.17	80.88
346.397	83.88
346.625	76.88
346.853	95.88
347.08	91.88
347.308	89.88
347.535	102.88
347.763	75.88
347.99	97.88
348.218	90.88
348.445	84.88
348.673	82.88
348.9	89.88
349.128	96.88
349.355	79.88
349.583	89.88
349.81	84.88
350.037	86.88
350.265	85.88
350.492	95.88
350.72	69.88
350.947	102.88
351.174	86.88
351.402	84.88
351.629	84.88
351.856	87.88
352.083	91.88
352.311	86.88
352.538	83.88
352.765	91.88
352.992	84.88
353.22	98.88
353.447	89.88
353.674	99.88
353.901	82.88
354.128	89.88
354.355	91.88
354.583	95.88
354.81	84.88
355.037	106.88
355.264	95.88
355.491	89.88
355.718	82.88
355.945	79.88
356.172	89.88
356.399	82.88
356.626	89.88
356.853	112.88
357.08	96.88
357.307	98.88
357.534	83.88
357.761	91.88
357.988	97.88
358.215	76.88
358.441	90.88
358.668	91.88
358.895	81.88
359.122	92.88
359.349	82.88
359.576	73.88
359.802	86.88
360.029	84.88
360.256	88.88
360.483	78.88
360.709	97.88
360.936	97.88
361.163	89.88
361.39	81.88
361.616	87.88
361.843	84.88
362.07	81.88
362.296	102.88
362.523	86.88
362.749	82.88
362.976	91.88
363.203	79.88
363.429	92.88
363.656	85.88
363.882	84.88
364.109	95.88
364.335	95.88
364.562	101.88
364.788	80.88
365.015	92.88
365.241	80.88
365.468	81.88
365.694	69.88
365.92	85.88
366.147	87.88
366.373	81.88
366.599	83.88
366.826	74.88
367.052	79.88
367.278	81.88
367.505	85.88
367.731	99.88
367.957	82.88
368.184	83.88
368.41	85.88
368.636	94.88
368.862	77.88
369.089	75.88
369.315	93.88
369.541	81.88
369.767	77.88
369.993	89.88
370.219	94.88
370.445	85.88
370.672	74.88
370.898	86.88
371.124	82.88
371.35	91.88
371.576	88.88
371.802	86.88
372.028	81.88
372.254	89.88
372.48	99.88
372.706	90.88
372.932	78.88
373.158	89.88
373.384	89.88
373.61	71.88
373.835	93.88
374.061	91.88
374.287	79.88
374.513	79.88
374.739	86.88
374.965	75.88
375.191	93.88
375.416	79.88
375.642	98.88
375.868	90.88
376.094	91.88
376.319	102.88
376.545	85.88
376.771	87.88
376.997	94.88
377.222	73.88
377.448	78.88
377.674	89.88
377.899	82.88
378.125	86.88
378.35	109.88
378.576	86.88
378.802	95.88
379.027	89.88
379.253	99.88
379.478	95.88
379.704	87.88
379.929	100.88
380.155	83.88
380.38	77.88
380.606	85.88
380.831	96.88
381.057	95.88
381.282	88.88
381.507	79.88
381.733	89.88
381.958	84.88
382.184	83.88
382.409	82.88
382.634	86.88
382.86	79.88
383.085	85.88
383.31	84.88
383.535	91.88
383.761	86.88
383.986	99.88
384.211	80.88
384.436	83.88
384.662	87.88
384.887	80.88
385.112	93.88
385.337	92.88
385.562	88.88
385.787	89.88
386.013	97.88
386.238	102.88
386.463	80.88
386.688	96.88
386.913	84.88
387.138	101.88
387.363	82.88
387.588	93.88
387.813	73.88
388.038	87.88
388.263	88.88
388.488	97.88
388.713	89.88
388.938	87.88
389.163	82.88
389.387	89.88
389.612	90.88
389.837	93.88
390.062	87.88
390.287	78.88
390.512	82.88
390.736	64.88
390.961	85.88
391.186	86.88
391.411	82.88
391.636	85.88
391.86	101.88
392.085	86.88
392.31	86.88
392.534	80.88
392.759	103.88
392.984	100.88
393.208	85.88
393.433	94.88
393.658	98.88
393.882	92.88
394.107	85.88
394.331	83.88
394.556	68.88
394.78	79.88
395.005	85.88
395.229	66.88
395.454	77.88
395.678	81.88
395.903	92.88
396.127	96.88
396.352	76.88
396.576	78.88
396.801	83.88
397.025	96.88
397.249	92.88
397.474	100.88
397.698	90.88
397.922	98.88
398.147	96.88
398.371	81.88
398.595	75.88
398.82	75.88
399.044	86.88
399.268	85.88
399.492	79.88
399.717	84.88
399.941	91.88
400.165	79.88
400.389	93.88
400.613	96.88
400.837	81.88
401.062	83.88
401.286	84.88
401.51	69.88
401.734	91.88
401.958	77.88
402.182	87.88
402.406	88.88
402.63	84.88
402.854	81.88
403.078	76.88
403.302	87.88
403.526	91.88
403.75	88.88
403.974	81.88
404.198	95.88
404.422	78.88
404.645	82.88
404.869	72.88
405.093	89.88
405.317	87.88
405.541	96.88
405.765	81.88
405.988	92.88
406.212	88.88
406.436	89.88
406.66	96.88
406.883	84.88
407.107	83.88
407.331	100.88
407.555	75.88
407.778	89.88
408.002	100.88
408.226	82.88
408.449	93.88
408.673	81.88
408.896	88.88
409.12	87.88
409.344	85.88
409.567	91.88
409.791	85.88
410.014	77.88
410.238	93.88
410.461	73.88
410.685	91.88
410.908	82.88
411.132	97.88
411.355	86.88
411.578	82.88
411.802	98.88
412.025	95.88
412.249	70.88
412.472	99.88
412.695	95.88
412.919	79.88
413.142	89.88
413.365	80.88
413.589	91.88
413.812	75.88
414.035	86.88
414.258	96.88
414.482	90.88
414.705	83.88
414.928	102.88
415.151	100.88
415.374	86.88
415.597	82.88
415.821	74.88
416.044	97.88
416.267	98.88
416.49	97.88
416.713	104.88
416.936	98.88
417.159	91.88
417.382	96.88
417.605	90.88
417.828	89.88
418.051	91.88
418.274	88.88
418.497	83.88
418.72	95.88
418.943	85.88
419.166	94.88
419.389	90.88
419.611	83.88
419.834	93.88
420.057	85.88
420.28	86.88
420.503	80.88
420.726	85.88
420.948	91.88
421.171	90.88
421.394	87.88
421.617	87.88
421.839	85.88
422.062	90.88
422.285	90.88
422.507	78.88
422.73	94.88
422.953	93.88
423.175	87.88
423.398	81.88
423.621	90.88
423.843	85.88
424.066	81.88
424.288	84.88
424.511	84.88
424.733	92.88
424.956	87.88
425.178	81.88
425.401	107.88
425.623	95.88
425.846	65.88
426.068	67.88
426.291	82.88
426.513	91.88
426.735	75.88
426.958	92.88
427.18	80.88
427.402	100.88
427.625	89.88
427.847	82.88
428.069	88.88
428.292	93.88
428.514	99.88
428.736	80.88
428.958	79.88
429.181	94.88
429.403	79.88
429.625	101.88
429.847	84.88
430.069	85.88
430.292	80.88
430.514	94.88
430.736	94.88
430.958	86.88
431.18	80.88
431.402	91.88
431.624	89.88
431.846	86.88
432.068	91.88
432.29	93.88
432.512	91.88
432.734	89.88
432.956	91.88
433.178	88.88
433.4	70.88
433.622	98.88
433.844	103.88
434.066	98.88
434.287	93.88
434.509	88.88
434.731	72.88
434.953	92.88
435.175	82.88
435.397	87.88
435.618	96.88
435.84	100.88
436.062	105.88
436.284	99.88
436.505	100.88
436.727	87.88
436.949	83.88
437.17	78.88
437.392	76.88
437.614	70.88
437.835	92.88
438.057	85.88
438.278	90.88
438.5	73.88
438.721	85.88
438.943	78.88
439.165	83.88
439.386	95.88
439.608	94.88
439.829	82.88
440.05	76.88
440.272	83.88
440.493	103.88
440.715	78.88
440.936	96.88
441.158	87.88
441.379	82.88
441.6	92.88
441.822	93.88
442.043	84.88
442.264	86.88
442.486	93.88
442.707	84.88
442.928	79.88
443.149	91.88
443.371	90.88
443.592	77.88
443.813	93.88
444.034	94.88
444.255	101.88
444.476	79.88
444.698	83.88
444.919	85.88
445.14	235.88
445.361	149.88
445.582	92.88
445.803	98.88
446.024	84.88
446.245	92.88
446.466	90.88
446.687	90.88
446.908	96.88
447.129	87.88
447.35	75.88
447.571	91.88
447.792	92.88
448.013	102.88
448.234	91.88
448.455	85.88
448.675	83.88
448.896	96.88
449.117	86.88
449.338	84.88
449.559	90.88
449.779	87.88
450	96.88
450.221	91.88
450.442	70.88
450.662	79.88
450.883	93.88
451.104	84.88
451.324	86.88
451.545	108.88
451.766	87.88
451.986	85.88
452.207	90.88
452.428	87.88
452.648	91.88
452.869	91.88
453.089	73.88
453.31	67.88
453.53	83.88
453.751	101.88
453.971	96.88
454.192	102.88
454.412	78.88
454.633	90.88
454.853	87.88
455.073	83.88
455.294	86.88
455.514	99.88
455.734	87.88
455.955	97.88
456.175	90.88
456.395	87.88
456.616	101.88
456.836	82.88
457.056	98.88
457.276	88.88
457.497	93.88
457.717	100.88
457.937	78.88
458.157	85.88
458.377	82.88
458.598	83.88
458.818	74.88
459.038	70.88
459.258	79.88
459.478	92.88
459.698	69.88
459.918	79.88
460.138	86.88
460.358	77.88
460.578	95.88
460.798	85.88
461.018	78.88
461.238	89.88
461.458	86.88
461.678	101.88
461.898	99.88
462.118	94.88
462.338	78.88
462.558	90.88
462.777	97.88
462.997	84.88
463.217	89.88
463.437	79.88
463.657	96.88
463.876	89.88
464.096	98.88
464.316	88.88
464.536	85.88
464.755	78.88
464.975	85.88
465.195	81.88
465.414	90.88
465.634	91.88
465.854	70.88
466.073	91.88
466.293	95.88
466.512	86.88
466.732	92.88
466.951	77.88
467.171	87.88
467.391	79.88
467.61	100.88
467.829	120.88
468.049	227.88
468.268	416.88
468.488	163.88
468.707	101.88
468.927	97.88
469.146	75.88
469.365	95.88
469.585	75.88
469.804	82.88
470.023	87.88
470.243	81.88
470.462	82.88
470.681	76.88
470.901	78.88
471.12	90.88
471.339	91.88
471.558	90.88
471.777	110.88
471.997	167.88
472.216	348.88
472.435	833.88
472.654	327.88
472.873	101.88
473.092	98.88
473.311	92.88
473.53	91.88
473.749	93.88
473.968	91.88
474.187	79.88
474.406	95.88
474.625	92.88
474.844	95.88
475.063	89.88
475.282	89.88
475.501	78.88
475.72	85.88
475.939	98.88
476.158	82.88
476.377	84.88
476.596	92.88
476.814	105.88
477.033	81.88
477.252	102.88
477.471	92.88
477.69	87.88
477.908	95.88
478.127	90.88
478.346	86.88
478.564	90.88
478.783	92.88
479.002	83.88
479.22	78.88
479.439	78.88
479.658	90.88
479.876	77.88
480.095	87.88
480.313	99.88
480.532	120.88
480.751	160.88
480.969	293.88
481.188	1088.88
481.406	980.88
481.624	188.88
481.843	95.88
482.061	92.88
482.28	83.88
482.498	89.88
482.717	82.88
482.935	93.88
483.153	96.88
483.372	97.88
483.59	92.88
483.808	100.88
484.027	98.88
484.245	98.88
484.463	85.88
484.681	93.88
484.9	87.88
485.118	98.88
485.336	83.88
485.554	87.88
485.772	81.88
485.99	97.88
486.209	89.88
486.427	82.88
486.645	85.88
486.863	99.88
487.081	90.88
487.299	86.88
487.517	85.88
487.735	82.88
487.953	74.88
488.171	74.88
488.389	95.88
488.607	98.88
488.825	85.88
489.043	89.88
489.261	81.88
489.479	93.88
489.696	107.88
489.914	92.88
490.132	85.88
490.35	91.88
490.568	95.88
490.786	93.88
491.003	88.88
491.221	100.88
491.439	82.88
491.657	86.88
491.874	89.88
492.092	79.88
492.31	91.88
492.527	85.88
492.745	89.88
492.963	89.88
493.18	93.88
493.398	97.88
493.615	79.88
493.833	93.88
494.05	82.88
494.268	76.88
494.485	85.88
494.703	94.88
494.92	88.88
495.138	91.88
495.355	95.88
495.573	92.88
495.79	89.88
496.008	80.88
496.225	89.88
496.442	83.88
496.66	99.88
496.877	102.88
497.094	98.88
497.312	92.88
497.529	80.88
497.746	81.88
497.963	83.88
498.181	98.88
498.398	79.88
498.615	93.88
498.832	97.88
499.049	77.88
499.267	89.88
499.484	80.88
499.701	96.88
499.918	73.88
500.135	81.88
500.352	92.88
500.569	79.88
500.786	102.88
501.003	90.88
501.22	90.88
501.437	78.88
501.654	93.88
501.871	85.88
502.088	94.88
502.305	89.88
502.522	77.88
502.739	91.88
502.956	85.88
503.172	83.88
503.389	94.88
503.606	87.88
503.823	85.88
504.04	81.88
504.256	82.88
504.473	73.88
504.69	82.88
504.907	91.88
505.123	83.88
505.34	91.88
505.557	85.88
505.773	93.88
505.99	80.88
506.207	85.88
506.423	94.88
506.64	81.88
506.856	86.88
507.073	75.88
507.289	89.88
507.506	87.88
507.722	86.88
507.939	94.88
508.155	84.88
508.372	91.88
508.588	95.88
508.805	92.88
509.021	99.88
509.238	85.88
509.454	86.88
509.67	82.88
509.887	89.88
510.103	92.88
510.319	93.88
510.536	79.88
510.752	77.88
510.968	85.88
511.184	89.88
511.401	92.88
511.617	92.88
511.833	95.88
512.049	90.88
512.265	83.88
512.481	84.88
512.698	89.88
512.914	86.88
513.13	89.88
513.346	99.88
513.562	101.88
513.778	91.88
513.994	86.88
514.21	89.88
514.426	79.88
514.642	85.88
514.858	95.88
515.074	94.88
515.29	94.88
515.506	93.88
515.721	83.88
515.937	86.88
516.153	87.88
516.369	98.88
516.585	88.88
516.801	87.88
517.016	87.88
517.232	86.88
517.448	94.88
517.664	79.88
