Data from FlinnAP9092KCOPPER.07152019.QSWITCHSynchronous.EN10.P1_HRD10591_14-48-30-573.txt Node
Date: Mon Jul 15 14:48:30 EDT 2019
User: cochatt
Spectrometer: HR+D1059
Trigger mode: 5
Integration Time (sec): 1.000000E-1
Scans to average: 1
Electric dark correction enabled: true
Nonlinearity correction enabled: false
Boxcar width: 0
XAxis mode: Wavelengths
Number of Pixels in Spectrum: 2048
>>>>>Begin Spectral Data<<<<<
223.165	-30.69
223.4	-30.69
223.635	-30.69
223.869	-33.69
224.104	-38.69
224.338	3.31
224.573	-15.69
224.808	-19.69
225.042	24.31
225.277	-14.69
225.511	-10.69
225.746	8.31
225.98	16.31
226.215	21.31
226.449	6.31
226.683	10.31
226.918	37.31
227.152	36.31
227.387	42.31
227.621	32.31
227.856	73.31
228.09	52.31
228.324	65.31
228.559	93.31
228.793	108.31
229.027	210.31
229.262	231.31
229.496	232.31
229.73	283.31
229.964	348.31
230.199	283.31
230.433	236.31
230.667	211.31
230.901	204.31
231.136	200.31
231.37	210.31
231.604	199.31
231.838	189.31
232.072	182.31
232.306	216.31
232.541	197.31
232.775	207.31
233.009	215.31
233.243	210.31
233.477	210.31
233.711	206.31
233.945	220.31
234.179	240.31
234.413	222.31
234.647	232.31
234.881	223.31
235.115	228.31
235.349	221.31
235.583	237.31
235.817	238.31
236.051	255.31
236.285	264.31
236.519	247.31
236.753	278.31
236.987	290.31
237.221	367.31
237.455	530.31
237.689	425.31
237.922	294.31
238.156	268.31
238.39	253.31
238.624	249.31
238.858	260.31
239.091	243.31
239.325	248.31
239.559	255.31
239.793	271.31
240.027	321.31
240.26	292.31
240.494	375.31
240.728	335.31
240.961	342.31
241.195	292.31
241.429	284.31
241.662	296.31
241.896	253.31
242.13	282.31
242.363	266.31
242.597	279.31
242.83	304.31
243.064	290.31
243.298	284.31
243.531	266.31
243.765	310.31
243.998	307.31
244.232	300.31
244.465	304.31
244.699	323.31
244.932	316.31
245.166	309.31
245.399	324.31
245.633	307.31
245.866	299.31
246.099	310.31
246.333	322.31
246.566	303.31
246.8	328.31
247.033	317.31
247.266	313.31
247.5	326.31
247.733	361.31
247.966	363.31
248.2	350.31
248.433	363.31
248.666	379.31
248.899	393.31
249.133	456.31
249.366	515.31
249.599	454.31
249.832	385.31
250.066	390.31
250.299	374.31
250.532	411.31
250.765	423.31
250.998	508.31
251.231	512.31
251.465	460.31
251.698	408.31
251.931	410.31
252.164	403.31
252.397	416.31
252.63	417.31
252.863	438.31
253.096	466.31
253.329	526.31
253.562	492.31
253.795	486.31
254.028	444.31
254.261	459.31
254.494	494.31
254.727	602.31
254.96	677.31
255.193	621.31
255.426	528.31
255.659	496.31
255.892	490.31
256.124	446.31
256.357	441.31
256.59	443.31
256.823	454.31
257.056	454.31
257.289	450.31
257.521	451.31
257.754	452.31
257.987	448.31
258.22	504.31
258.452	436.31
258.685	454.31
258.918	452.31
259.151	462.31
259.383	510.31
259.616	476.31
259.849	498.31
260.081	517.31
260.314	598.31
260.547	611.31
260.779	551.31
261.012	520.31
261.244	496.31
261.477	518.31
261.71	479.31
261.942	498.31
262.175	559.31
262.407	554.31
262.64	495.31
262.872	475.31
263.105	472.31
263.337	505.31
263.57	464.31
263.802	484.31
264.035	482.31
264.267	460.31
264.499	483.31
264.732	505.31
264.964	488.31
265.197	491.31
265.429	484.31
265.661	510.31
265.894	488.31
266.126	519.31
266.358	505.31
266.591	495.31
266.823	528.31
267.055	528.31
267.287	524.31
267.52	512.31
267.752	514.31
267.984	527.31
268.216	544.31
268.448	546.31
268.681	543.31
268.913	574.31
269.145	651.31
269.377	695.31
269.609	651.31
269.841	635.31
270.073	635.31
270.306	687.31
270.538	790.31
270.77	755.31
271.002	702.31
271.234	683.31
271.466	734.31
271.698	755.31
271.93	771.31
272.162	762.31
272.394	770.31
272.626	687.31
272.858	655.31
273.09	643.31
273.322	601.31
273.553	594.31
273.785	634.31
274.017	602.31
274.249	625.31
274.481	608.31
274.713	577.31
274.945	653.31
275.176	622.31
275.408	623.31
275.64	600.31
275.872	619.31
276.104	628.31
276.335	623.31
276.567	646.31
276.799	673.31
277.031	770.31
277.262	816.31
277.494	813.31
277.726	718.31
277.957	671.31
278.189	635.31
278.421	613.31
278.652	630.31
278.884	627.31
279.115	622.31
279.347	621.31
279.579	623.31
279.81	604.31
280.042	620.31
280.273	625.31
280.505	615.31
280.736	623.31
280.968	620.31
281.199	642.31
281.431	641.31
281.662	651.31
281.894	649.31
282.125	657.31
282.356	691.31
282.588	735.31
282.819	754.31
283.051	667.31
283.282	657.31
283.513	698.31
283.745	672.31
283.976	685.31
284.207	685.31
284.439	682.31
284.67	682.31
284.901	681.31
285.132	665.31
285.364	654.31
285.595	705.31
285.826	664.31
286.057	708.31
286.288	680.31
286.52	673.31
286.751	673.31
286.982	682.31
287.213	668.31
287.444	696.31
287.675	718.31
287.906	741.31
288.138	764.31
288.369	754.31
288.6	760.31
288.831	726.31
289.062	746.31
289.293	709.31
289.524	706.31
289.755	714.31
289.986	683.31
290.217	710.31
290.448	698.31
290.679	716.31
290.91	724.31
291.141	706.31
291.371	722.31
291.602	713.31
291.833	700.31
292.064	683.31
292.295	693.31
292.526	718.31
292.757	722.31
292.987	719.31
293.218	675.31
293.449	697.31
293.68	708.31
293.91	720.31
294.141	701.31
294.372	709.31
294.603	716.31
294.833	697.31
295.064	699.31
295.295	725.31
295.525	702.31
295.756	731.31
295.987	703.31
296.217	798.31
296.448	840.31
296.679	770.31
296.909	729.31
297.14	739.31
297.37	751.31
297.601	751.31
297.831	742.31
298.062	731.31
298.292	754.31
298.523	772.31
298.753	771.31
298.984	750.31
299.214	743.31
299.445	764.31
299.675	756.31
299.905	788.31
300.136	767.31
300.366	776.31
300.597	773.31
300.827	772.31
301.057	795.31
301.288	807.31
301.518	843.31
301.748	814.31
301.979	807.31
302.209	817.31
302.439	814.31
302.669	805.31
302.9	837.31
303.13	807.31
303.36	820.31
303.59	812.31
303.82	815.31
304.051	809.31
304.281	782.31
304.511	804.31
304.741	792.31
304.971	776.31
305.201	804.31
305.431	769.31
305.661	806.31
305.891	768.31
306.121	770.31
306.352	791.31
306.582	786.31
306.812	783.31
307.042	793.31
307.272	794.31
307.502	780.31
307.731	803.31
307.961	799.31
308.191	776.31
308.421	777.31
308.651	766.31
308.881	791.31
309.111	779.31
309.341	795.31
309.571	823.31
309.8	840.31
310.03	851.31
310.26	898.31
310.49	898.31
310.72	875.31
310.949	926.31
311.179	986.31
311.409	870.31
311.639	893.31
311.868	892.31
312.098	887.31
312.328	914.31
312.557	972.31
312.787	1026.31
313.017	1039.31
313.246	952.31
313.476	890.31
313.706	893.31
313.935	880.31
314.165	950.31
314.394	972.31
314.624	963.31
314.853	951.31
315.083	938.31
315.312	878.31
315.542	860.31
315.771	845.31
316.001	849.31
316.23	880.31
316.46	850.31
316.689	856.31
316.919	913.31
317.148	939.31
317.377	937.31
317.607	902.31
317.836	890.31
318.065	873.31
318.295	877.31
318.524	859.31
318.753	854.31
318.983	866.31
319.212	884.31
319.441	866.31
319.67	897.31
319.9	872.31
320.129	849.31
320.358	844.31
320.587	887.31
320.816	878.31
321.046	902.31
321.275	928.31
321.504	876.31
321.733	899.31
321.962	912.31
322.191	937.31
322.42	974.31
322.649	1032.31
322.878	1050.31
323.108	1031.31
323.337	1076.31
323.566	1133.31
323.795	1193.31
324.024	1278.31
324.253	1500.31
324.482	2278.31
324.71	3812.31
324.939	5935.31
325.168	5132.31
325.397	2100.31
325.626	1344.31
325.855	1164.31
326.084	1091.31
326.313	1080.31
326.542	1080.31
326.77	1248.31
326.999	1452.31
327.228	2097.31
327.457	3416.31
327.686	4520.31
327.914	2675.31
328.143	1608.31
328.372	1364.31
328.6	1322.31
328.829	1256.31
329.058	1318.31
329.287	1432.31
329.515	1286.31
329.744	1160.31
329.972	1043.31
330.201	1110.31
330.43	1162.31
330.658	1294.31
330.887	1477.31
331.115	1557.31
331.344	1248.31
331.572	1160.31
331.801	1162.31
332.03	1180.31
332.258	1115.31
332.486	1087.31
332.715	1067.31
332.943	1123.31
333.172	1154.31
333.4	1178.31
333.629	1212.31
333.857	1233.31
334.085	1167.31
334.314	1176.31
334.542	1147.31
334.771	1143.31
334.999	1124.31
335.227	1172.31
335.455	1128.31
335.684	1155.31
335.912	1102.31
336.14	1039.31
336.369	1050.31
336.597	1110.31
336.825	1116.31
337.053	1063.31
337.281	1048.31
337.51	1028.31
337.738	1061.31
337.966	1043.31
338.194	1049.31
338.422	1054.31
338.65	1043.31
338.878	1052.31
339.106	1014.31
339.334	1036.31
339.562	988.31
339.79	987.31
340.018	967.31
340.246	1000.31
340.474	999.31
340.702	1023.31
340.93	981.31
341.158	967.31
341.386	972.31
341.614	975.31
341.842	979.31
342.07	961.31
342.298	970.31
342.526	956.31
342.754	945.31
342.981	970.31
343.209	993.31
343.437	1030.31
343.665	1028.31
343.893	1078.31
344.12	1159.31
344.348	1071.31
344.576	1054.31
344.804	1085.31
345.031	1066.31
345.259	1100.31
345.487	1051.31
345.714	994.31
345.942	970.31
346.17	968.31
346.397	912.31
346.625	943.31
346.853	926.31
347.08	910.31
347.308	955.31
347.535	957.31
347.763	1000.31
347.99	993.31
348.218	1018.31
348.445	1003.31
348.673	998.31
348.9	960.31
349.128	948.31
349.355	897.31
349.583	891.31
349.81	901.31
350.037	897.31
350.265	930.31
350.492	891.31
350.72	901.31
350.947	894.31
351.174	963.31
351.402	941.31
351.629	950.31
351.856	939.31
352.083	946.31
352.311	1006.31
352.538	1020.31
352.765	1001.31
352.992	975.31
353.22	961.31
353.447	935.31
353.674	942.31
353.901	920.31
354.128	873.31
354.355	855.31
354.583	871.31
354.81	887.31
355.037	859.31
355.264	869.31
355.491	851.31
355.718	856.31
355.945	880.31
356.172	891.31
356.399	840.31
356.626	836.31
356.853	847.31
357.08	899.31
357.307	859.31
357.534	832.31
357.761	850.31
357.988	883.31
358.215	879.31
358.441	868.31
358.668	861.31
358.895	866.31
359.122	892.31
359.349	918.31
359.576	928.31
359.802	955.31
360.029	1088.31
360.256	1172.31
360.483	1095.31
360.709	968.31
360.936	966.31
361.163	927.31
361.39	945.31
361.616	953.31
361.843	927.31
362.07	940.31
362.296	955.31
362.523	965.31
362.749	938.31
362.976	908.31
363.203	936.31
363.429	873.31
363.656	902.31
363.882	891.31
364.109	902.31
364.335	907.31
364.562	854.31
364.788	862.31
365.015	897.31
365.241	873.31
365.468	931.31
365.694	909.31
365.92	918.31
366.147	921.31
366.373	873.31
366.599	880.31
366.826	869.31
367.052	872.31
367.278	849.31
367.505	875.31
367.731	908.31
367.957	878.31
368.184	878.31
368.41	919.31
368.636	933.31
368.862	984.31
369.089	935.31
369.315	896.31
369.541	900.31
369.767	894.31
369.993	901.31
370.219	905.31
370.445	888.31
370.672	906.31
370.898	871.31
371.124	897.31
371.35	908.31
371.576	920.31
371.802	906.31
372.028	899.31
372.254	921.31
372.48	910.31
372.706	948.31
372.932	956.31
373.158	887.31
373.384	968.31
373.61	948.31
373.835	968.31
374.061	916.31
374.287	944.31
374.513	962.31
374.739	954.31
374.965	947.31
375.191	987.31
375.416	960.31
375.642	971.31
375.868	982.31
376.094	943.31
376.319	923.31
376.545	927.31
376.771	930.31
376.997	920.31
377.222	907.31
377.448	935.31
377.674	930.31
377.899	939.31
378.125	908.31
378.35	951.31
378.576	900.31
378.802	898.31
379.027	909.31
379.253	950.31
379.478	934.31
379.704	932.31
379.929	934.31
380.155	908.31
380.38	916.31
380.606	927.31
380.831	918.31
381.057	964.31
381.282	912.31
381.507	915.31
381.733	950.31
381.958	957.31
382.184	963.31
382.409	976.31
382.634	964.31
382.86	973.31
383.085	1016.31
383.31	991.31
383.535	1051.31
383.761	1030.31
383.986	1044.31
384.211	1019.31
384.436	1016.31
384.662	1046.31
384.887	1054.31
385.112	1074.31
385.337	1076.31
385.562	1080.31
385.787	1079.31
386.013	1159.31
386.238	1124.31
386.463	1129.31
386.688	1093.31
386.913	1078.31
387.138	1060.31
387.363	1088.31
387.588	1126.31
387.813	1112.31
388.038	1081.31
388.263	1097.31
388.488	1099.31
388.713	1069.31
388.938	1106.31
389.163	1095.31
389.387	1096.31
389.612	1111.31
389.837	1094.31
390.062	1068.31
390.287	1075.31
390.512	1079.31
390.736	1076.31
390.961	1116.31
391.186	1126.31
391.411	1142.31
391.636	1171.31
391.86	1170.31
392.085	1227.31
392.31	1198.31
392.534	1193.31
392.759	1193.31
392.984	1165.31
393.208	1116.31
393.433	1148.31
393.658	1148.31
393.882	1105.31
394.107	1162.31
394.331	1156.31
394.556	1147.31
394.78	1131.31
395.005	1164.31
395.229	1168.31
395.454	1219.31
395.678	1252.31
395.903	1290.31
396.127	1278.31
396.352	1273.31
396.576	1169.31
396.801	1169.31
397.025	1173.31
397.249	1208.31
397.474	1270.31
397.698	1248.31
397.922	1293.31
398.147	1304.31
398.371	1314.31
398.595	1341.31
398.82	1368.31
399.044	1414.31
399.268	1550.31
399.492	1676.31
399.717	1843.31
399.941	1906.31
400.165	1854.31
400.389	1785.31
400.613	1616.31
400.837	1474.31
401.062	1425.31
401.286	1348.31
401.51	1382.31
401.734	1391.31
401.958	1443.31
402.182	1426.31
402.406	1448.31
402.63	1472.31
402.854	1512.31
403.078	1498.31
403.302	1487.31
403.526	1562.31
403.75	1535.31
403.974	1530.31
404.198	1534.31
404.422	1569.31
404.645	1577.31
404.869	1489.31
405.093	1572.31
405.317	1598.31
405.541	1672.31
405.765	1594.31
405.988	1540.31
406.212	1592.31
406.436	1640.31
406.66	1747.31
406.883	1656.31
407.107	1731.31
407.331	1840.31
407.555	2067.31
407.778	2005.31
408.002	1812.31
408.226	1696.31
408.449	1623.31
408.673	1619.31
408.896	1700.31
409.12	1784.31
409.344	1676.31
409.567	1546.31
409.791	1562.31
410.014	1564.31
410.238	1510.31
410.461	1490.31
410.685	1544.31
410.908	1560.31
411.132	1623.31
411.355	1665.31
411.578	1600.31
411.802	1494.31
412.025	1452.31
412.249	1488.31
412.472	1428.31
412.695	1409.31
412.919	1450.31
413.142	1435.31
413.365	1445.31
413.589	1419.31
413.812	1378.31
414.035	1401.31
414.258	1398.31
414.482	1379.31
414.705	1405.31
414.928	1436.31
415.151	1422.31
415.374	1449.31
415.597	1415.31
415.821	1411.31
416.044	1435.31
416.267	1463.31
416.49	1395.31
416.713	1437.31
416.936	1436.31
417.159	1439.31
417.382	1462.31
417.605	1443.31
417.828	1496.31
418.051	1526.31
418.274	1489.31
418.497	1447.31
418.72	1483.31
418.943	1495.31
419.166	1588.31
419.389	1596.31
419.611	1568.31
419.834	1600.31
420.057	1602.31
420.28	1548.31
420.503	1486.31
420.726	1478.31
420.948	1500.31
421.171	1652.31
421.394	1710.31
421.617	1571.31
421.839	1564.31
422.062	1553.31
422.285	1532.31
422.507	1718.31
422.73	1912.31
422.953	1805.31
423.175	1658.31
423.398	1600.31
423.621	1619.31
423.843	1719.31
424.066	1706.31
424.288	1662.31
424.511	1728.31
424.733	1839.31
424.956	2040.31
425.178	1909.31
425.401	1945.31
425.623	2005.31
425.846	1709.31
426.068	1588.31
426.291	1551.31
426.513	1546.31
426.735	1618.31
426.958	1674.31
427.18	1916.31
427.402	2273.31
427.625	2474.31
427.847	2069.31
428.069	1710.31
428.292	1580.31
428.514	1479.31
428.736	1448.31
428.958	1427.31
429.181	1383.31
429.403	1400.31
429.625	1424.31
429.847	1561.31
430.069	1718.31
430.292	1716.31
430.514	1498.31
430.736	1426.31
430.958	1440.31
431.18	1372.31
431.402	1345.31
431.624	1318.31
431.846	1237.31
432.068	1242.31
432.29	1257.31
432.512	1301.31
432.734	1384.31
432.956	1409.31
433.178	1484.31
433.4	1485.31
433.622	1450.31
433.844	1416.31
434.066	1347.31
434.287	1281.31
434.509	1248.31
434.731	1311.31
434.953	1418.31
435.175	1532.31
435.397	1618.31
435.618	1574.31
435.84	1676.31
436.062	1986.31
436.284	2095.31
436.505	1709.31
436.727	1596.31
436.949	1480.31
437.17	1479.31
437.392	1435.31
437.614	1434.31
437.835	1476.31
438.057	1687.31
438.278	1973.31
438.5	1920.31
438.721	2275.31
438.943	2168.31
439.165	1714.31
439.386	1659.31
439.608	1704.31
439.829	1675.31
440.05	1842.31
440.272	2023.31
440.493	1848.31
440.715	1655.31
440.936	1627.31
441.158	1584.31
441.379	1597.31
441.6	1649.31
441.822	1738.31
442.043	1806.31
442.264	2057.31
442.486	2098.31
442.707	1809.31
442.928	1755.31
443.149	1806.31
443.371	1928.31
443.592	1919.31
443.813	2225.31
444.034	2366.31
444.255	1953.31
444.476	1802.31
444.698	1848.31
444.919	1867.31
445.14	3521.31
445.361	2581.31
445.582	1970.31
445.803	2136.31
446.024	2500.31
446.245	2432.31
446.466	2199.31
446.687	1850.31
446.908	1747.31
447.129	1652.31
447.35	1600.31
447.571	1593.31
447.792	1518.31
448.013	1552.31
448.234	1561.31
448.455	1685.31
448.675	2004.31
448.896	2271.31
449.117	1856.31
449.338	1789.31
449.559	2138.31
449.779	2382.31
450	1868.31
450.221	1594.31
450.442	1498.31
450.662	1427.31
450.883	1504.31
451.104	1545.31
451.324	1446.31
451.545	1389.31
451.766	1350.31
451.986	1306.31
452.207	1316.31
452.428	1265.31
452.648	1288.31
452.869	1300.31
453.089	1277.31
453.31	1243.31
453.53	1236.31
453.751	1178.31
453.971	1173.31
454.192	1240.31
454.412	1211.31
454.633	1212.31
454.853	1210.31
455.073	1214.31
455.294	1311.31
455.514	1586.31
455.734	1433.31
455.955	1194.31
456.175	1168.31
456.395	1120.31
456.616	1122.31
456.836	1122.31
457.056	1115.31
457.276	1087.31
457.497	1083.31
457.717	1098.31
457.937	1145.31
458.157	1143.31
458.377	1125.31
458.598	1192.31
458.818	1326.31
459.038	1623.31
459.258	1690.31
459.478	1327.31
459.698	1241.31
459.918	1251.31
460.138	1312.31
460.358	1371.31
460.578	1394.31
460.798	1409.31
461.018	1398.31
461.238	1382.31
461.458	1398.31
461.678	1366.31
461.898	1399.31
462.118	1377.31
462.338	1480.31
462.558	1502.31
462.777	1502.31
462.997	1607.31
463.217	1631.31
463.437	1660.31
463.657	1540.31
463.876	1545.31
464.096	1520.31
464.316	1509.31
464.536	1551.31
464.755	1540.31
464.975	1525.31
465.195	1674.31
465.414	1860.31
465.634	1572.31
465.854	1439.31
466.073	1388.31
466.293	1345.31
466.512	1366.31
466.732	1314.31
466.951	1353.31
467.171	1376.31
467.391	1377.31
467.61	1442.31
467.829	1418.31
468.049	1376.31
468.268	1297.31
468.488	1319.31
468.707	1308.31
468.927	1328.31
469.146	1328.31
469.365	1364.31
469.585	1370.31
469.804	1436.31
470.023	1468.31
470.243	1453.31
470.462	1430.31
470.681	1581.31
470.901	1479.31
471.12	1472.31
471.339	1443.31
471.558	1456.31
471.777	1424.31
471.997	1348.31
472.216	1294.31
472.435	1213.31
472.654	1148.31
472.873	1181.31
473.092	1181.31
473.311	1197.31
473.53	1290.31
473.749	1315.31
473.968	1428.31
474.187	1704.31
474.406	1672.31
474.625	1410.31
474.844	1329.31
475.063	1329.31
475.282	1266.31
475.501	1245.31
475.72	1313.31
475.939	1265.31
476.158	1336.31
476.377	1321.31
476.596	1270.31
476.814	1297.31
477.033	1258.31
477.252	1255.31
477.471	1324.31
477.69	1361.31
477.908	1458.31
478.127	1542.31
478.346	1503.31
478.564	1520.31
478.783	1553.31
479.002	1608.31
479.22	1611.31
479.439	1615.31
479.658	1586.31
479.876	1510.31
480.095	1471.31
480.313	1626.31
480.532	1660.31
480.751	1530.31
480.969	1459.31
481.188	1426.31
481.406	1355.31
481.624	1359.31
481.843	1277.31
482.061	1312.31
482.28	1342.31
482.498	1360.31
482.717	1338.31
482.935	1388.31
483.153	1535.31
483.372	1583.31
483.59	1587.31
483.808	1508.31
484.027	1465.31
484.245	1416.31
484.463	1505.31
484.681	1595.31
484.9	1501.31
485.118	1583.31
485.336	1506.31
485.554	1446.31
485.772	1395.31
485.99	1402.31
486.209	1450.31
486.427	1454.31
486.645	1531.31
486.863	1681.31
487.081	1685.31
487.299	1617.31
487.517	1629.31
487.735	1778.31
487.953	1927.31
488.171	1901.31
488.389	1823.31
488.607	1707.31
488.825	1590.31
489.043	1554.31
489.261	1597.31
489.479	1645.31
489.696	1702.31
489.914	1680.31
490.132	1756.31
490.35	1818.31
490.568	1882.31
490.786	1974.31
491.003	2058.31
491.221	2129.31
491.439	2187.31
491.657	2226.31
491.874	2342.31
492.092	2433.31
492.31	2580.31
492.527	2516.31
492.745	2373.31
492.963	2299.31
493.18	2264.31
493.398	2264.31
493.615	2257.31
493.833	2234.31
