Data from FlinnAP9092KCOPPER.07152019.LAMP.EN7.P1_HRD10591_14-44-42-667.txt Node
Date: Mon Jul 15 14:44:42 EDT 2019
User: cochatt
Spectrometer: HR+D1059
Trigger mode: 3
Integration Time (sec): 1.000000E-1
Scans to average: 1
Electric dark correction enabled: true
Nonlinearity correction enabled: false
Boxcar width: 0
XAxis mode: Wavelengths
Number of Pixels in Spectrum: 2048
>>>>>Begin Spectral Data<<<<<
223.165	-7.88
223.4	-7.88
223.635	-7.88
223.869	-13.88
224.104	-34.88
224.338	-6.88
224.573	-11.88
224.808	-7.88
225.042	-12.88
225.277	-0.88
225.511	-6.88
225.746	2.12
225.98	0.12
226.215	11.12
226.449	12.12
226.683	22.12
226.918	22.12
227.152	34.12
227.387	39.12
227.621	31.12
227.856	45.12
228.09	39.12
228.324	51.12
228.559	47.12
228.793	79.12
229.027	116.12
229.262	118.12
229.496	121.12
229.73	143.12
229.964	184.12
230.199	147.12
230.433	137.12
230.667	125.12
230.901	123.12
231.136	116.12
231.37	135.12
231.604	131.12
231.838	143.12
232.072	140.12
232.306	128.12
232.541	141.12
232.775	132.12
233.009	144.12
233.243	148.12
233.477	144.12
233.711	152.12
233.945	147.12
234.179	148.12
234.413	141.12
234.647	142.12
234.881	136.12
235.115	147.12
235.349	144.12
235.583	141.12
235.817	154.12
236.051	162.12
236.285	144.12
236.519	155.12
236.753	147.12
236.987	178.12
237.221	213.12
237.455	267.12
237.689	228.12
237.922	171.12
238.156	156.12
238.39	163.12
238.624	159.12
238.858	152.12
239.091	156.12
239.325	162.12
239.559	158.12
239.793	165.12
240.027	167.12
240.26	174.12
240.494	208.12
240.728	194.12
240.961	195.12
241.195	174.12
241.429	179.12
241.662	166.12
241.896	174.12
242.13	164.12
242.363	174.12
242.597	187.12
242.83	174.12
243.064	186.12
243.298	177.12
243.531	175.12
243.765	174.12
243.998	172.12
244.232	180.12
244.465	171.12
244.699	185.12
244.932	179.12
245.166	206.12
245.399	185.12
245.633	182.12
245.866	187.12
246.099	181.12
246.333	189.12
246.566	195.12
246.8	200.12
247.033	207.12
247.266	204.12
247.5	196.12
247.733	217.12
247.966	239.12
248.2	225.12
248.433	228.12
248.666	222.12
248.899	227.12
249.133	246.12
249.366	277.12
249.599	247.12
249.832	224.12
250.066	216.12
250.299	238.12
250.532	240.12
250.765	246.12
250.998	259.12
251.231	276.12
251.465	283.12
251.698	254.12
251.931	249.12
252.164	246.12
252.397	251.12
252.63	242.12
252.863	267.12
253.096	260.12
253.329	286.12
253.562	278.12
253.795	291.12
254.028	282.12
254.261	268.12
254.494	284.12
254.727	320.12
254.96	384.12
255.193	354.12
255.426	293.12
255.659	289.12
255.892	283.12
256.124	265.12
256.357	262.12
256.59	265.12
256.823	254.12
257.056	262.12
257.289	272.12
257.521	244.12
257.754	278.12
257.987	270.12
258.22	265.12
258.452	276.12
258.685	269.12
258.918	256.12
259.151	281.12
259.383	293.12
259.616	286.12
259.849	302.12
260.081	299.12
260.314	314.12
260.547	354.12
260.779	332.12
261.012	295.12
261.244	270.12
261.477	296.12
261.71	299.12
261.942	296.12
262.175	306.12
262.407	298.12
262.64	282.12
262.872	299.12
263.105	291.12
263.337	280.12
263.57	287.12
263.802	281.12
264.035	279.12
264.267	299.12
264.499	280.12
264.732	307.12
264.964	298.12
265.197	296.12
265.429	279.12
265.661	279.12
265.894	271.12
266.126	308.12
266.358	303.12
266.591	316.12
266.823	330.12
267.055	313.12
267.287	298.12
267.52	305.12
267.752	314.12
267.984	328.12
268.216	317.12
268.448	316.12
268.681	326.12
268.913	332.12
269.145	354.12
269.377	361.12
269.609	352.12
269.841	346.12
270.073	351.12
270.306	368.12
270.538	427.12
270.77	424.12
271.002	383.12
271.234	375.12
271.466	376.12
271.698	410.12
271.93	413.12
272.162	435.12
272.394	437.12
272.626	407.12
272.858	401.12
273.09	364.12
273.322	379.12
273.553	363.12
273.785	354.12
274.017	334.12
274.249	357.12
274.481	360.12
274.713	353.12
274.945	383.12
275.176	360.12
275.408	367.12
275.64	359.12
275.872	367.12
276.104	379.12
276.335	372.12
276.567	388.12
276.799	416.12
277.031	416.12
277.262	440.12
277.494	435.12
277.726	413.12
277.957	402.12
278.189	391.12
278.421	363.12
278.652	358.12
278.884	351.12
279.115	367.12
279.347	360.12
279.579	353.12
279.81	402.12
280.042	367.12
280.273	372.12
280.505	384.12
280.736	375.12
280.968	379.12
281.199	363.12
281.431	367.12
281.662	387.12
281.894	400.12
282.125	376.12
282.356	404.12
282.588	408.12
282.819	404.12
283.051	401.12
283.282	392.12
283.513	401.12
283.745	400.12
283.976	406.12
284.207	387.12
284.439	403.12
284.67	407.12
284.901	417.12
285.132	424.12
285.364	398.12
285.595	400.12
285.826	403.12
286.057	423.12
286.288	424.12
286.52	407.12
286.751	425.12
286.982	393.12
287.213	402.12
287.444	413.12
287.675	421.12
287.906	428.12
288.138	431.12
288.369	443.12
288.6	431.12
288.831	435.12
289.062	420.12
289.293	434.12
289.524	415.12
289.755	426.12
289.986	433.12
290.217	404.12
290.448	427.12
290.679	406.12
290.91	418.12
291.141	409.12
291.371	430.12
291.602	441.12
291.833	426.12
292.064	441.12
292.295	436.12
292.526	427.12
292.757	423.12
292.987	424.12
293.218	415.12
293.449	403.12
293.68	417.12
293.91	405.12
294.141	410.12
294.372	421.12
294.603	413.12
294.833	410.12
295.064	410.12
295.295	416.12
295.525	438.12
295.756	446.12
295.987	457.12
296.217	466.12
296.448	487.12
296.679	467.12
296.909	442.12
297.14	445.12
297.37	433.12
297.601	455.12
297.831	452.12
298.062	440.12
298.292	437.12
298.523	449.12
298.753	451.12
298.984	446.12
299.214	440.12
299.445	468.12
299.675	466.12
299.905	451.12
300.136	464.12
300.366	462.12
300.597	453.12
300.827	474.12
301.057	470.12
301.288	469.12
301.518	482.12
301.748	458.12
301.979	475.12
302.209	486.12
302.439	481.12
302.669	474.12
302.9	463.12
303.13	478.12
303.36	492.12
303.59	486.12
303.82	478.12
304.051	475.12
304.281	472.12
304.511	471.12
304.741	499.12
304.971	479.12
305.201	450.12
305.431	480.12
305.661	474.12
305.891	470.12
306.121	461.12
306.352	488.12
306.582	444.12
306.812	462.12
307.042	467.12
307.272	478.12
307.502	438.12
307.731	455.12
307.961	456.12
308.191	473.12
308.421	473.12
308.651	464.12
308.881	459.12
309.111	470.12
309.341	458.12
309.571	485.12
309.8	490.12
310.03	491.12
310.26	493.12
310.49	478.12
310.72	507.12
310.949	511.12
311.179	511.12
311.409	516.12
311.639	520.12
311.868	502.12
312.098	500.12
312.328	508.12
312.557	534.12
312.787	528.12
313.017	534.12
313.246	497.12
313.476	523.12
313.706	532.12
313.935	535.12
314.165	535.12
314.394	541.12
314.624	538.12
314.853	542.12
315.083	522.12
315.312	526.12
315.542	540.12
315.771	500.12
316.001	497.12
316.23	503.12
316.46	504.12
316.689	521.12
316.919	531.12
317.148	521.12
317.377	516.12
317.607	536.12
317.836	506.12
318.065	522.12
318.295	518.12
318.524	499.12
318.753	478.12
318.983	485.12
319.212	503.12
319.441	515.12
319.67	518.12
319.9	518.12
320.129	503.12
320.358	532.12
320.587	515.12
320.816	512.12
321.046	513.12
321.275	519.12
321.504	505.12
321.733	511.12
321.962	507.12
322.191	504.12
322.42	521.12
322.649	542.12
322.878	562.12
323.108	588.12
323.337	568.12
323.566	596.12
323.795	620.12
324.024	647.12
324.253	738.12
324.482	989.12
324.71	1494.12
324.939	2275.12
325.168	1997.12
325.397	995.12
325.626	719.12
325.855	626.12
326.084	604.12
326.313	607.12
326.542	613.12
326.77	625.12
326.999	707.12
327.228	992.12
327.457	1376.12
327.686	1804.12
327.914	1174.12
328.143	775.12
328.372	674.12
328.6	647.12
328.829	658.12
329.058	659.12
329.287	671.12
329.515	659.12
329.744	626.12
329.972	598.12
330.201	615.12
330.43	631.12
330.658	650.12
330.887	701.12
331.115	718.12
331.344	634.12
331.572	652.12
331.801	640.12
332.03	632.12
332.258	638.12
332.486	615.12
332.715	647.12
332.943	643.12
333.172	646.12
333.4	685.12
333.629	677.12
333.857	682.12
334.085	684.12
334.314	706.12
334.542	689.12
334.771	654.12
334.999	658.12
335.227	641.12
335.455	646.12
335.684	634.12
335.912	641.12
336.14	608.12
336.369	643.12
336.597	639.12
336.825	632.12
337.053	624.12
337.281	633.12
337.51	612.12
337.738	611.12
337.966	604.12
338.194	617.12
338.422	589.12
338.65	596.12
338.878	585.12
339.106	590.12
339.334	593.12
339.562	584.12
339.79	576.12
340.018	566.12
340.246	605.12
340.474	590.12
340.702	582.12
340.93	571.12
341.158	584.12
341.386	573.12
341.614	576.12
341.842	577.12
342.07	546.12
342.298	554.12
342.526	559.12
342.754	579.12
342.981	555.12
343.209	553.12
343.437	585.12
343.665	617.12
343.893	614.12
344.12	644.12
344.348	649.12
344.576	630.12
344.804	616.12
345.031	605.12
345.259	578.12
345.487	567.12
345.714	589.12
345.942	540.12
346.17	562.12
346.397	536.12
346.625	553.12
346.853	538.12
347.08	564.12
347.308	545.12
347.535	534.12
347.763	560.12
347.99	546.12
348.218	560.12
348.445	545.12
348.673	566.12
348.9	560.12
349.128	546.12
349.355	529.12
349.583	503.12
349.81	519.12
350.037	504.12
350.265	521.12
350.492	544.12
350.72	520.12
350.947	552.12
351.174	530.12
351.402	548.12
351.629	546.12
351.856	552.12
352.083	554.12
352.311	540.12
352.538	567.12
352.765	567.12
352.992	544.12
353.22	532.12
353.447	542.12
353.674	547.12
353.901	508.12
354.128	520.12
354.355	490.12
354.583	524.12
354.81	503.12
355.037	523.12
355.264	499.12
355.491	511.12
355.718	503.12
355.945	504.12
356.172	489.12
356.399	511.12
356.626	502.12
356.853	511.12
357.08	516.12
357.307	530.12
357.534	507.12
357.761	494.12
357.988	511.12
358.215	516.12
358.441	504.12
358.668	507.12
358.895	515.12
359.122	503.12
359.349	545.12
359.576	530.12
359.802	554.12
360.029	582.12
360.256	596.12
360.483	596.12
360.709	518.12
360.936	546.12
361.163	533.12
361.39	537.12
361.616	539.12
361.843	557.12
362.07	512.12
362.296	540.12
362.523	544.12
362.749	515.12
362.976	494.12
363.203	534.12
363.429	549.12
363.656	522.12
363.882	516.12
364.109	506.12
364.335	500.12
364.562	509.12
364.788	526.12
365.015	541.12
365.241	514.12
365.468	512.12
365.694	534.12
365.92	515.12
366.147	536.12
366.373	524.12
366.599	511.12
366.826	508.12
367.052	518.12
367.278	510.12
367.505	531.12
367.731	525.12
367.957	535.12
368.184	540.12
368.41	540.12
368.636	534.12
368.862	546.12
369.089	527.12
369.315	535.12
369.541	541.12
369.767	542.12
369.993	537.12
370.219	537.12
370.445	537.12
370.672	542.12
370.898	533.12
371.124	572.12
371.35	549.12
371.576	559.12
371.802	574.12
372.028	559.12
372.254	572.12
372.48	584.12
372.706	575.12
372.932	596.12
373.158	568.12
373.384	558.12
373.61	571.12
373.835	553.12
374.061	550.12
374.287	581.12
374.513	578.12
374.739	596.12
374.965	599.12
375.191	616.12
375.416	601.12
375.642	588.12
375.868	595.12
376.094	574.12
376.319	553.12
376.545	559.12
376.771	564.12
376.997	548.12
377.222	563.12
377.448	560.12
377.674	574.12
377.899	551.12
378.125	552.12
378.35	555.12
378.576	561.12
378.802	566.12
379.027	563.12
379.253	553.12
379.478	547.12
379.704	555.12
379.929	570.12
380.155	573.12
380.38	566.12
380.606	560.12
380.831	568.12
381.057	576.12
381.282	584.12
381.507	576.12
381.733	590.12
381.958	588.12
382.184	574.12
382.409	585.12
382.634	604.12
382.86	602.12
383.085	594.12
383.31	618.12
383.535	616.12
383.761	610.12
383.986	633.12
384.211	644.12
384.436	651.12
384.662	664.12
384.887	656.12
385.112	652.12
385.337	670.12
385.562	684.12
385.787	671.12
386.013	690.12
386.238	674.12
386.463	670.12
386.688	665.12
386.913	674.12
387.138	668.12
387.363	673.12
387.588	680.12
387.813	682.12
388.038	676.12
388.263	676.12
388.488	669.12
388.713	683.12
388.938	684.12
389.163	675.12
389.387	681.12
389.612	669.12
389.837	686.12
390.062	657.12
390.287	648.12
390.512	663.12
390.736	670.12
390.961	686.12
391.186	706.12
391.411	711.12
391.636	732.12
391.86	723.12
392.085	748.12
392.31	744.12
392.534	727.12
392.759	739.12
392.984	690.12
393.208	734.12
393.433	708.12
393.658	707.12
393.882	725.12
394.107	712.12
394.331	708.12
394.556	735.12
394.78	758.12
395.005	718.12
395.229	747.12
395.454	747.12
395.678	760.12
395.903	752.12
396.127	797.12
396.352	776.12
396.576	717.12
396.801	728.12
397.025	743.12
397.249	745.12
397.474	760.12
397.698	777.12
397.922	805.12
398.147	813.12
398.371	819.12
398.595	812.12
398.82	838.12
399.044	851.12
399.268	926.12
399.492	1006.12
399.717	1110.12
399.941	1155.12
400.165	1114.12
400.389	1087.12
400.613	962.12
400.837	874.12
401.062	879.12
401.286	872.12
401.51	866.12
401.734	859.12
401.958	860.12
402.182	834.12
402.406	910.12
402.63	883.12
402.854	880.12
403.078	914.12
403.302	926.12
403.526	938.12
403.75	936.12
403.974	930.12
404.198	968.12
404.422	958.12
404.645	953.12
404.869	912.12
405.093	961.12
405.317	971.12
405.541	957.12
405.765	966.12
405.988	929.12
406.212	974.12
406.436	972.12
406.66	1023.12
406.883	982.12
407.107	1055.12
407.331	1121.12
407.555	1180.12
407.778	1191.12
408.002	1081.12
408.226	1057.12
408.449	1002.12
408.673	1003.12
408.896	1033.12
409.12	1072.12
409.344	1056.12
409.567	943.12
409.791	914.12
410.014	969.12
410.238	931.12
410.461	921.12
410.685	958.12
410.908	969.12
411.132	998.12
411.355	1015.12
411.578	990.12
411.802	932.12
412.025	911.12
412.249	908.12
412.472	919.12
412.695	887.12
412.919	904.12
413.142	918.12
413.365	892.12
413.589	940.12
413.812	884.12
414.035	871.12
414.258	890.12
414.482	887.12
414.705	879.12
414.928	898.12
415.151	899.12
415.374	902.12
415.597	910.12
415.821	891.12
416.044	896.12
416.267	897.12
416.49	936.12
416.713	898.12
416.936	906.12
417.159	927.12
417.382	927.12
417.605	909.12
417.828	960.12
418.051	967.12
418.274	961.12
418.497	944.12
418.72	961.12
418.943	946.12
419.166	1009.12
419.389	1040.12
419.611	1032.12
419.834	990.12
420.057	973.12
420.28	987.12
420.503	970.12
420.726	945.12
420.948	958.12
421.171	996.12
421.394	1064.12
421.617	1004.12
421.839	994.12
422.062	1003.12
422.285	972.12
422.507	1053.12
422.73	1145.12
422.953	1106.12
423.175	999.12
423.398	984.12
423.621	1016.12
423.843	1063.12
424.066	1079.12
424.288	1083.12
424.511	1081.12
424.733	1124.12
424.956	1230.12
425.178	1156.12
425.401	1183.12
425.623	1217.12
425.846	1050.12
426.068	982.12
426.291	954.12
426.513	968.12
426.735	986.12
426.958	1021.12
427.18	1138.12
427.402	1326.12
427.625	1393.12
427.847	1192.12
428.069	1068.12
428.292	989.12
428.514	944.12
428.736	926.12
428.958	930.12
429.181	885.12
429.403	932.12
429.625	910.12
429.847	954.12
430.069	1047.12
430.292	1026.12
430.514	944.12
430.736	940.12
430.958	921.12
431.18	867.12
431.402	888.12
431.624	830.12
431.846	793.12
432.068	742.12
432.29	774.12
432.512	806.12
432.734	897.12
432.956	900.12
433.178	925.12
433.4	956.12
433.622	925.12
433.844	897.12
434.066	866.12
434.287	810.12
434.509	776.12
434.731	811.12
434.953	866.12
435.175	946.12
435.397	973.12
435.618	964.12
435.84	956.12
436.062	1087.12
436.284	1197.12
436.505	1048.12
436.727	990.12
436.949	924.12
437.17	935.12
437.392	926.12
437.614	868.12
437.835	881.12
438.057	983.12
438.278	1133.12
438.5	1155.12
438.721	1329.12
438.943	1308.12
439.165	1073.12
439.386	1066.12
439.608	1052.12
439.829	1060.12
440.05	1101.12
440.272	1149.12
440.493	1104.12
440.715	1047.12
440.936	1033.12
441.158	1021.12
441.379	1052.12
441.6	1116.12
441.822	1112.12
442.043	1152.12
442.264	1232.12
442.486	1266.12
442.707	1106.12
442.928	1086.12
443.149	1111.12
443.371	1136.12
443.592	1204.12
443.813	1319.12
444.034	1384.12
444.255	1214.12
444.476	1168.12
444.698	1158.12
444.919	1150.12
445.14	1319.12
445.361	1216.12
445.582	1200.12
445.803	1241.12
446.024	1409.12
446.245	1391.12
446.466	1326.12
446.687	1164.12
446.908	1138.12
447.129	1071.12
447.35	1070.12
447.571	1049.12
447.792	1018.12
448.013	990.12
448.234	1033.12
448.455	1048.12
448.675	1215.12
448.896	1362.12
449.117	1153.12
449.338	1094.12
449.559	1244.12
449.779	1369.12
450	1145.12
450.221	1019.12
450.442	977.12
450.662	959.12
450.883	954.12
451.104	970.12
451.324	914.12
451.545	904.12
451.766	849.12
451.986	832.12
452.207	849.12
452.428	857.12
452.648	830.12
452.869	809.12
453.089	776.12
453.31	763.12
453.53	759.12
453.751	710.12
453.971	716.12
454.192	733.12
454.412	740.12
454.633	762.12
454.853	771.12
455.073	789.12
455.294	824.12
455.514	904.12
455.734	898.12
455.955	778.12
456.175	751.12
456.395	719.12
456.616	676.12
456.836	708.12
457.056	687.12
457.276	666.12
457.497	691.12
457.717	696.12
457.937	685.12
458.157	691.12
458.377	704.12
458.598	733.12
458.818	744.12
459.038	816.12
459.258	841.12
459.478	761.12
459.698	751.12
459.918	747.12
460.138	787.12
460.358	838.12
460.578	876.12
460.798	840.12
461.018	892.12
461.238	886.12
461.458	882.12
461.678	831.12
461.898	886.12
462.118	879.12
462.338	926.12
462.558	938.12
462.777	942.12
462.997	972.12
463.217	1026.12
463.437	1034.12
463.657	977.12
463.876	917.12
464.096	963.12
464.316	937.12
464.536	985.12
464.755	958.12
464.975	954.12
465.195	982.12
465.414	1010.12
465.634	922.12
465.854	867.12
466.073	891.12
466.293	856.12
466.512	832.12
466.732	860.12
466.951	884.12
467.171	943.12
467.391	915.12
467.61	923.12
467.829	927.12
468.049	910.12
468.268	909.12
468.488	895.12
468.707	908.12
468.927	890.12
469.146	896.12
469.365	923.12
469.585	926.12
469.804	925.12
470.023	991.12
470.243	969.12
470.462	1000.12
470.681	986.12
470.901	1003.12
471.12	976.12
471.339	959.12
471.558	970.12
471.777	951.12
471.997	889.12
472.216	874.12
472.435	813.12
472.654	738.12
472.873	721.12
473.092	793.12
473.311	808.12
473.53	839.12
473.749	835.12
473.968	897.12
474.187	992.12
474.406	981.12
474.625	897.12
474.844	859.12
475.063	889.12
475.282	834.12
475.501	817.12
475.72	800.12
475.939	826.12
476.158	882.12
476.377	866.12
476.596	832.12
476.814	816.12
477.033	769.12
477.252	798.12
477.471	885.12
477.69	946.12
477.908	964.12
478.127	1012.12
478.346	993.12
478.564	989.12
478.783	987.12
479.002	1057.12
479.22	1051.12
479.439	1007.12
479.658	942.12
479.876	928.12
480.095	904.12
480.313	985.12
480.532	1003.12
480.751	931.12
480.969	856.12
481.188	819.12
481.406	802.12
481.624	783.12
481.843	780.12
482.061	788.12
482.28	846.12
482.498	843.12
482.717	830.12
482.935	912.12
483.153	978.12
483.372	1066.12
483.59	1038.12
483.808	989.12
484.027	914.12
484.245	929.12
484.463	968.12
484.681	1037.12
484.9	1020.12
485.118	990.12
485.336	958.12
485.554	865.12
485.772	855.12
485.99	840.12
486.209	871.12
486.427	906.12
486.645	968.12
486.863	1047.12
487.081	1065.12
487.299	1040.12
487.517	1049.12
487.735	1182.12
487.953	1278.12
488.171	1291.12
488.389	1231.12
488.607	1139.12
488.825	1046.12
489.043	1011.12
489.261	1022.12
489.479	1050.12
489.696	1064.12
489.914	1059.12
490.132	1103.12
490.35	1176.12
490.568	1256.12
490.786	1350.12
491.003	1434.12
491.221	1430.12
491.439	1478.12
491.657	1565.12
491.874	1642.12
492.092	1753.12
492.31	1853.12
492.527	1813.12
492.745	1686.12
492.963	1570.12
493.18	1523.12
493.398	1502.12
493.615	1522.12
493.833	1499.12
494.05	1499.12
494.268	1483.12
494.485	1471.12
494.703	1484.12
494.92	1477.12
495.138	1481.12
495.355	1460.12
495.573	1466.12
495.79	1435.12
496.008	1447.12
496.225	1411.12
496.442	1419.12
496.66	1428.12
496.877	1426.12
497.094	1386.12
497.312	1370.12
497.529	1374.12
497.746	1350.12
497.963	1264.12
498.181	1254.12
498.398	1253.12
498.615	1260.12
498.832	1293.12
499.049	1360.12
499.267	1437.12
499.484	1568.12
499.701	1667.12
