Data from FlinnAP5935BZINC.07152019.LAMPEdge.EN10.5scans.P1_HRD10591_15-01-45-579.txt Node
Date: Mon Jul 15 15:01:45 EDT 2019
User: cochatt
Spectrometer: HR+D1059
Trigger mode: 1
Integration Time (sec): 1.000000E-1
Scans to average: 1
Electric dark correction enabled: true
Nonlinearity correction enabled: false
Boxcar width: 0
XAxis mode: Wavelengths
Number of Pixels in Spectrum: 2048
>>>>>Begin Spectral Data<<<<<
223.165	-10.75
223.4	-10.75
223.635	-10.75
223.869	-6.75
224.104	-30.75
224.338	-2.75
224.573	-12.75
224.808	-5.75
225.042	1.25
225.277	-7.75
225.511	-0.75
225.746	-10.75
225.98	-9.75
226.215	10.25
226.449	19.25
226.683	24.25
226.918	14.25
227.152	29.25
227.387	32.25
227.621	18.25
227.856	35.25
228.09	48.25
228.324	52.25
228.559	51.25
228.793	80.25
229.027	154.25
229.262	149.25
229.496	158.25
229.73	145.25
229.964	173.25
230.199	163.25
230.433	167.25
230.667	176.25
230.901	186.25
231.136	184.25
231.37	196.25
231.604	194.25
231.838	176.25
232.072	188.25
232.306	182.25
232.541	186.25
232.775	196.25
233.009	212.25
233.243	194.25
233.477	192.25
233.711	204.25
233.945	211.25
234.179	202.25
234.413	186.25
234.647	210.25
234.881	209.25
235.115	191.25
235.349	212.25
235.583	199.25
235.817	211.25
236.051	211.25
236.285	210.25
236.519	221.25
236.753	217.25
236.987	204.25
237.221	205.25
237.455	219.25
237.689	212.25
237.922	219.25
238.156	220.25
238.39	230.25
238.624	250.25
238.858	214.25
239.091	251.25
239.325	241.25
239.559	267.25
239.793	259.25
240.027	246.25
240.26	251.25
240.494	267.25
240.728	263.25
240.961	268.25
241.195	271.25
241.429	273.25
241.662	277.25
241.896	273.25
242.13	274.25
242.363	290.25
242.597	283.25
242.83	299.25
243.064	306.25
243.298	299.25
243.531	310.25
243.765	318.25
243.998	306.25
244.232	324.25
244.465	327.25
244.699	341.25
244.932	329.25
245.166	342.25
245.399	341.25
245.633	334.25
245.866	338.25
246.099	344.25
246.333	356.25
246.566	345.25
246.8	333.25
247.033	353.25
247.266	370.25
247.5	358.25
247.733	374.25
247.966	378.25
248.2	372.25
248.433	398.25
248.666	396.25
248.899	393.25
249.133	405.25
249.366	412.25
249.599	429.25
249.832	445.25
250.066	487.25
250.299	579.25
250.532	742.25
250.765	817.25
250.998	703.25
251.231	607.25
251.465	571.25
251.698	557.25
251.931	523.25
252.164	485.25
252.397	484.25
252.63	498.25
252.863	508.25
253.096	499.25
253.329	479.25
253.562	486.25
253.795	484.25
254.028	507.25
254.261	507.25
254.494	516.25
254.727	533.25
254.96	542.25
255.193	569.25
255.426	616.25
255.659	697.25
255.892	897.25
256.124	1187.25
256.357	1325.25
256.59	1067.25
256.823	888.25
257.056	764.25
257.289	743.25
257.521	695.25
257.754	674.25
257.987	657.25
258.22	634.25
258.452	638.25
258.685	579.25
258.918	600.25
259.151	605.25
259.383	583.25
259.616	566.25
259.849	583.25
260.081	586.25
260.314	576.25
260.547	587.25
260.779	577.25
261.012	622.25
261.244	609.25
261.477	589.25
261.71	569.25
261.942	573.25
262.175	571.25
262.407	609.25
262.64	579.25
262.872	569.25
263.105	580.25
263.337	580.25
263.57	603.25
263.802	599.25
264.035	614.25
264.267	623.25
264.499	605.25
264.732	589.25
264.964	586.25
265.197	625.25
265.429	608.25
265.661	600.25
265.894	637.25
266.126	636.25
266.358	614.25
266.591	628.25
266.823	629.25
267.055	623.25
267.287	629.25
267.52	624.25
267.752	651.25
267.984	651.25
268.216	658.25
268.448	673.25
268.681	660.25
268.913	670.25
269.145	651.25
269.377	683.25
269.609	646.25
269.841	661.25
270.073	633.25
270.306	673.25
270.538	666.25
270.77	678.25
271.002	665.25
271.234	683.25
271.466	702.25
271.698	707.25
271.93	715.25
272.162	698.25
272.394	725.25
272.626	700.25
272.858	721.25
273.09	744.25
273.322	757.25
273.553	757.25
273.785	759.25
274.017	750.25
274.249	762.25
274.481	774.25
274.713	780.25
274.945	797.25
275.176	822.25
275.408	853.25
275.64	843.25
275.872	858.25
276.104	872.25
276.335	859.25
276.567	883.25
276.799	921.25
277.031	947.25
277.262	1041.25
277.494	1040.25
277.726	973.25
277.957	943.25
278.189	936.25
278.421	916.25
278.652	916.25
278.884	901.25
279.115	911.25
279.347	928.25
279.579	932.25
279.81	1005.25
280.042	1062.25
280.273	1189.25
280.505	1191.25
280.736	1060.25
280.968	991.25
281.199	930.25
281.431	955.25
281.662	909.25
281.894	912.25
282.125	913.25
282.356	914.25
282.588	915.25
282.819	901.25
283.051	925.25
283.282	923.25
283.513	917.25
283.745	911.25
283.976	925.25
284.207	902.25
284.439	930.25
284.67	914.25
284.901	921.25
285.132	927.25
285.364	922.25
285.595	917.25
285.826	946.25
286.057	954.25
286.288	944.25
286.52	973.25
286.751	941.25
286.982	951.25
287.213	935.25
287.444	987.25
287.675	955.25
287.906	956.25
288.138	952.25
288.369	961.25
288.6	963.25
288.831	954.25
289.062	992.25
289.293	995.25
289.524	994.25
289.755	959.25
289.986	1000.25
290.217	972.25
290.448	959.25
290.679	996.25
290.91	963.25
291.141	974.25
291.371	959.25
291.602	959.25
291.833	947.25
292.064	966.25
292.295	959.25
292.526	978.25
292.757	968.25
292.987	942.25
293.218	927.25
293.449	966.25
293.68	955.25
293.91	978.25
294.141	957.25
294.372	955.25
294.603	956.25
294.833	963.25
295.064	953.25
295.295	984.25
295.525	983.25
295.756	1004.25
295.987	973.25
296.217	1013.25
296.448	971.25
296.679	977.25
296.909	985.25
297.14	999.25
297.37	1008.25
297.601	1028.25
297.831	1014.25
298.062	1018.25
298.292	1045.25
298.523	1037.25
298.753	1066.25
298.984	1049.25
299.214	1079.25
299.445	1049.25
299.675	1065.25
299.905	1020.25
300.136	1046.25
300.366	1081.25
300.597	1047.25
300.827	1089.25
301.057	1097.25
301.288	1078.25
301.518	1114.25
301.748	1113.25
301.979	1148.25
302.209	1161.25
302.439	1140.25
302.669	1114.25
302.9	1121.25
303.13	1138.25
303.36	1157.25
303.59	1153.25
303.82	1185.25
304.051	1211.25
304.281	1134.25
304.511	1131.25
304.741	1124.25
304.971	1152.25
305.201	1112.25
305.431	1109.25
305.661	1099.25
305.891	1079.25
306.121	1125.25
306.352	1117.25
306.582	1088.25
306.812	1131.25
307.042	1166.25
307.272	1205.25
307.502	1292.25
307.731	1295.25
307.961	1259.25
308.191	1164.25
308.421	1149.25
308.651	1117.25
308.881	1137.25
309.111	1125.25
309.341	1076.25
309.571	1118.25
309.8	1154.25
310.03	1138.25
310.26	1130.25
310.49	1121.25
310.72	1171.25
310.949	1139.25
311.179	1152.25
311.409	1154.25
311.639	1138.25
311.868	1117.25
312.098	1144.25
312.328	1187.25
312.557	1199.25
312.787	1173.25
313.017	1207.25
313.246	1214.25
313.476	1188.25
313.706	1210.25
313.935	1177.25
314.165	1211.25
314.394	1248.25
314.624	1238.25
314.853	1197.25
315.083	1213.25
315.312	1220.25
315.542	1240.25
315.771	1192.25
316.001	1214.25
316.23	1227.25
316.46	1179.25
316.689	1233.25
316.919	1237.25
317.148	1232.25
317.377	1239.25
317.607	1220.25
317.836	1249.25
318.065	1207.25
318.295	1254.25
318.524	1255.25
318.753	1249.25
318.983	1228.25
319.212	1215.25
319.441	1266.25
319.67	1262.25
319.9	1251.25
320.129	1195.25
320.358	1243.25
320.587	1220.25
320.816	1284.25
321.046	1276.25
321.275	1275.25
321.504	1279.25
321.733	1319.25
321.962	1313.25
322.191	1301.25
322.42	1321.25
322.649	1286.25
322.878	1339.25
323.108	1333.25
323.337	1361.25
323.566	1390.25
323.795	1414.25
324.024	1404.25
324.253	1424.25
324.482	1469.25
324.71	1427.25
324.939	1474.25
325.168	1463.25
325.397	1479.25
325.626	1488.25
325.855	1541.25
326.084	1593.25
326.313	1602.25
326.542	1615.25
326.77	1663.25
326.999	1696.25
327.228	1731.25
327.457	1837.25
327.686	2006.25
327.914	2294.25
328.143	2791.25
328.372	3278.25
328.6	3104.25
328.829	2379.25
329.058	2203.25
329.287	2211.25
329.515	2409.25
329.744	2683.25
329.972	3431.25
330.201	4605.25
330.43	5670.25
330.658	4678.25
330.887	2965.25
331.115	2401.25
331.344	2214.25
331.572	2049.25
331.801	2065.25
332.03	2051.25
332.258	2081.25
332.486	2115.25
332.715	2158.25
332.943	2243.25
333.172	2422.25
333.4	2544.25
333.629	2821.25
333.857	3226.25
334.085	3857.25
334.314	5173.25
334.542	6845.25
334.771	7325.25
334.999	4946.25
335.227	3246.25
335.455	2709.25
335.684	2402.25
335.912	2267.25
336.14	2063.25
336.369	1998.25
336.597	1957.25
336.825	1858.25
337.053	1821.25
337.281	1819.25
337.51	1745.25
337.738	1726.25
337.966	1644.25
338.194	1632.25
338.422	1609.25
338.65	1592.25
338.878	1575.25
339.106	1524.25
339.334	1570.25
339.562	1523.25
339.79	1467.25
340.018	1475.25
340.246	1462.25
340.474	1447.25
340.702	1445.25
340.93	1446.25
341.158	1429.25
341.386	1457.25
341.614	1446.25
341.842	1403.25
342.07	1403.25
342.298	1397.25
342.526	1401.25
342.754	1375.25
342.981	1413.25
343.209	1397.25
343.437	1455.25
343.665	1542.25
343.893	1591.25
344.12	1621.25
344.348	1595.25
344.576	1517.25
344.804	1479.25
345.031	1421.25
345.259	1409.25
345.487	1361.25
345.714	1353.25
345.942	1340.25
346.17	1361.25
346.397	1333.25
346.625	1311.25
346.853	1290.25
347.08	1309.25
347.308	1329.25
347.535	1325.25
347.763	1321.25
347.99	1297.25
348.218	1283.25
348.445	1304.25
348.673	1317.25
348.9	1307.25
349.128	1299.25
349.355	1294.25
349.583	1286.25
349.81	1291.25
350.037	1261.25
350.265	1252.25
350.492	1243.25
350.72	1285.25
350.947	1266.25
351.174	1271.25
351.402	1245.25
351.629	1281.25
351.856	1252.25
352.083	1244.25
352.311	1233.25
352.538	1263.25
352.765	1241.25
352.992	1251.25
353.22	1248.25
353.447	1244.25
353.674	1261.25
353.901	1238.25
354.128	1238.25
354.355	1252.25
354.583	1251.25
354.81	1258.25
355.037	1264.25
355.264	1270.25
355.491	1254.25
355.718	1239.25
355.945	1262.25
356.172	1213.25
356.399	1224.25
356.626	1277.25
356.853	1275.25
357.08	1226.25
357.307	1264.25
357.534	1230.25
357.761	1218.25
357.988	1252.25
358.215	1231.25
358.441	1227.25
358.668	1249.25
358.895	1241.25
359.122	1208.25
359.349	1215.25
359.576	1245.25
359.802	1219.25
360.029	1219.25
360.256	1206.25
360.483	1229.25
360.709	1218.25
360.936	1225.25
361.163	1252.25
361.39	1242.25
361.616	1239.25
361.843	1218.25
362.07	1203.25
362.296	1191.25
362.523	1235.25
362.749	1213.25
362.976	1220.25
363.203	1231.25
363.429	1169.25
363.656	1229.25
363.882	1189.25
364.109	1201.25
364.335	1216.25
364.562	1192.25
364.788	1241.25
365.015	1232.25
365.241	1231.25
365.468	1235.25
365.694	1213.25
365.92	1225.25
366.147	1205.25
366.373	1216.25
366.599	1191.25
366.826	1170.25
367.052	1187.25
367.278	1195.25
367.505	1193.25
367.731	1192.25
367.957	1218.25
368.184	1242.25
368.41	1231.25
368.636	1221.25
368.862	1235.25
369.089	1220.25
369.315	1233.25
369.541	1268.25
369.767	1234.25
369.993	1229.25
370.219	1215.25
370.445	1278.25
370.672	1252.25
370.898	1241.25
371.124	1259.25
371.35	1311.25
371.576	1301.25
371.802	1270.25
372.028	1268.25
372.254	1273.25
372.48	1289.25
372.706	1318.25
372.932	1307.25
373.158	1305.25
373.384	1298.25
373.61	1326.25
373.835	1293.25
374.061	1293.25
374.287	1294.25
374.513	1343.25
374.739	1342.25
374.965	1389.25
375.191	1404.25
375.416	1374.25
375.642	1365.25
375.868	1369.25
376.094	1323.25
376.319	1288.25
376.545	1305.25
376.771	1265.25
376.997	1269.25
377.222	1271.25
377.448	1285.25
377.674	1280.25
377.899	1273.25
378.125	1247.25
378.35	1277.25
378.576	1220.25
378.802	1251.25
379.027	1253.25
379.253	1241.25
379.478	1226.25
379.704	1265.25
379.929	1251.25
380.155	1238.25
380.38	1220.25
380.606	1250.25
380.831	1265.25
381.057	1250.25
381.282	1262.25
381.507	1265.25
381.733	1283.25
381.958	1250.25
382.184	1257.25
382.409	1280.25
382.634	1280.25
382.86	1292.25
383.085	1327.25
383.31	1360.25
383.535	1359.25
383.761	1378.25
383.986	1401.25
384.211	1415.25
384.436	1440.25
384.662	1472.25
384.887	1510.25
385.112	1503.25
385.337	1500.25
385.562	1517.25
385.787	1499.25
386.013	1489.25
386.238	1485.25
386.463	1517.25
386.688	1503.25
386.913	1511.25
387.138	1487.25
387.363	1478.25
387.588	1449.25
387.813	1498.25
388.038	1474.25
388.263	1438.25
388.488	1466.25
388.713	1475.25
388.938	1430.25
389.163	1447.25
389.387	1447.25
389.612	1414.25
389.837	1456.25
390.062	1421.25
390.287	1439.25
390.512	1440.25
390.736	1459.25
390.961	1476.25
391.186	1471.25
391.411	1535.25
391.636	1596.25
391.86	1603.25
392.085	1628.25
392.31	1660.25
392.534	1609.25
392.759	1562.25
392.984	1548.25
393.208	1521.25
393.433	1495.25
393.658	1548.25
393.882	1534.25
394.107	1547.25
394.331	1535.25
394.556	1562.25
394.78	1533.25
395.005	1569.25
395.229	1576.25
395.454	1634.25
395.678	1649.25
395.903	1640.25
396.127	1579.25
396.352	1574.25
396.576	1564.25
396.801	1534.25
397.025	1522.25
397.249	1558.25
397.474	1616.25
397.698	1631.25
397.922	1666.25
398.147	1652.25
398.371	1698.25
398.595	1723.25
398.82	1820.25
399.044	1951.25
399.268	2067.25
399.492	2352.25
399.717	2583.25
399.941	2542.25
400.165	2305.25
400.389	2152.25
400.613	2007.25
400.837	1930.25
401.062	1866.25
401.286	1822.25
401.51	1804.25
401.734	1798.25
401.958	1824.25
402.182	1840.25
402.406	1844.25
402.63	1901.25
402.854	1947.25
403.078	1934.25
403.302	1962.25
403.526	2027.25
403.75	2057.25
403.974	2102.25
404.198	2082.25
404.422	2106.25
404.645	2129.25
404.869	2175.25
405.093	2272.25
405.317	2352.25
405.541	2398.25
405.765	2249.25
405.988	2093.25
406.212	2054.25
406.436	2031.25
406.66	2067.25
406.883	2068.25
407.107	2157.25
407.331	2229.25
407.555	2217.25
407.778	2218.25
408.002	2173.25
408.226	2125.25
408.449	2071.25
408.673	2081.25
408.896	2008.25
409.12	1971.25
409.344	1967.25
409.567	1975.25
409.791	2006.25
410.014	1954.25
410.238	1961.25
410.461	1935.25
410.685	1931.25
410.908	1926.25
411.132	1918.25
411.355	1888.25
411.578	1945.25
411.802	1937.25
412.025	1973.25
412.249	2062.25
412.472	2206.25
412.695	2284.25
412.919	2209.25
413.142	2107.25
413.365	2037.25
413.589	2020.25
413.812	1911.25
414.035	1922.25
414.258	1911.25
414.482	1953.25
414.705	1885.25
414.928	1934.25
415.151	1875.25
415.374	1881.25
415.597	1850.25
415.821	1796.25
416.044	1828.25
416.267	1794.25
416.49	1759.25
416.713	1789.25
416.936	1839.25
417.159	1798.25
417.382	1837.25
417.605	1917.25
417.828	1949.25
418.051	1904.25
418.274	1814.25
418.497	1792.25
418.72	1885.25
418.943	1835.25
419.166	1940.25
419.389	2044.25
419.611	2031.25
419.834	2033.25
420.057	2037.25
420.28	2101.25
420.503	2081.25
420.726	2046.25
420.948	1985.25
421.171	1915.25
421.394	1904.25
421.617	1869.25
421.839	1859.25
422.062	1837.25
422.285	1802.25
422.507	1869.25
422.73	1852.25
422.953	1860.25
423.175	1853.25
423.398	1871.25
423.621	1886.25
423.843	1878.25
424.066	1891.25
424.288	1894.25
424.511	1830.25
424.733	1842.25
424.956	1815.25
425.178	1780.25
425.401	1841.25
425.623	1754.25
425.846	1755.25
426.068	1750.25
426.291	1757.25
426.513	1702.25
426.735	1709.25
426.958	1722.25
427.18	1712.25
427.402	1750.25
427.625	1823.25
427.847	1905.25
428.069	2052.25
428.292	2001.25
428.514	1806.25
428.736	1725.25
428.958	1688.25
429.181	1641.25
429.403	1618.25
429.625	1595.25
429.847	1583.25
430.069	1609.25
430.292	1590.25
430.514	1572.25
430.736	1554.25
430.958	1599.25
431.18	1562.25
431.402	1551.25
431.624	1550.25
431.846	1599.25
432.068	1593.25
432.29	1564.25
432.512	1542.25
432.734	1555.25
432.956	1557.25
433.178	1540.25
433.4	1547.25
433.622	1569.25
433.844	1555.25
434.066	1582.25
434.287	1587.25
434.509	1597.25
434.731	1668.25
434.953	1748.25
435.175	1732.25
435.397	1693.25
435.618	1651.25
435.84	1657.25
436.062	1587.25
436.284	1571.25
436.505	1573.25
436.727	1581.25
436.949	1546.25
437.17	1523.25
437.392	1508.25
437.614	1529.25
437.835	1495.25
438.057	1465.25
438.278	1448.25
438.5	1483.25
438.721	1465.25
438.943	1523.25
439.165	1532.25
439.386	1481.25
439.608	1539.25
439.829	1534.25
440.05	1534.25
440.272	1550.25
440.493	1536.25
440.715	1576.25
440.936	1565.25
441.158	1599.25
441.379	1629.25
441.6	1713.25
441.822	1668.25
442.043	1714.25
442.264	1677.25
442.486	1647.25
442.707	1710.25
442.928	1659.25
443.149	1675.25
443.371	1685.25
443.592	1706.25
443.813	1735.25
444.034	1682.25
444.255	1753.25
444.476	1843.25
444.698	1923.25
444.919	1990.25
445.14	2041.25
445.361	1883.25
445.582	1755.25
445.803	1660.25
446.024	1596.25
446.245	1616.25
446.466	1593.25
446.687	1551.25
446.908	1558.25
447.129	1515.25
447.35	1513.25
447.571	1464.25
447.792	1441.25
448.013	1471.25
448.234	1451.25
448.455	1417.25
448.675	1452.25
448.896	1413.25
449.117	1400.25
449.338	1395.25
449.559	1373.25
449.779	1389.25
450	1404.25
450.221	1387.25
450.442	1398.25
450.662	1369.25
450.883	1405.25
451.104	1400.25
451.324	1421.25
451.545	1409.25
451.766	1401.25
451.986	1391.25
452.207	1365.25
452.428	1355.25
452.648	1377.25
452.869	1354.25
453.089	1332.25
453.31	1330.25
453.53	1372.25
453.751	1335.25
453.971	1343.25
454.192	1358.25
454.412	1338.25
454.633	1341.25
454.853	1325.25
455.073	1353.25
455.294	1336.25
455.514	1328.25
455.734	1330.25
455.955	1290.25
456.175	1328.25
456.395	1297.25
456.616	1316.25
456.836	1316.25
457.056	1320.25
457.276	1313.25
457.497	1339.25
457.717	1332.25
457.937	1364.25
458.157	1344.25
458.377	1388.25
458.598	1389.25
458.818	1449.25
459.038	1497.25
459.258	1514.25
459.478	1544.25
459.698	1564.25
459.918	1609.25
460.138	1700.25
460.358	1753.25
460.578	1732.25
460.798	1727.25
461.018	1738.25
461.238	1766.25
461.458	1757.25
461.678	1745.25
461.898	1741.25
462.118	1807.25
462.338	1890.25
462.558	1939.25
462.777	1989.25
462.997	2140.25
463.217	2245.25
463.437	2259.25
463.657	2072.25
463.876	2031.25
464.096	2041.25
464.316	1972.25
464.536	1998.25
464.755	1968.25
464.975	1910.25
465.195	1845.25
465.414	1775.25
465.634	1663.25
465.854	1603.25
466.073	1602.25
466.293	1569.25
466.512	1543.25
466.732	1534.25
466.951	1528.25
467.171	1575.25
467.391	1580.25
467.61	1618.25
467.829	1726.25
468.049	2335.25
468.268	3204.25
468.488	2413.25
468.707	1896.25
468.927	1722.25
469.146	1675.25
469.365	1631.25
469.585	1602.25
469.804	1657.25
470.023	1644.25
470.243	1630.25
470.462	1666.25
470.681	1647.25
470.901	1670.25
471.12	1679.25
471.339	1717.25
471.558	1703.25
471.777	1795.25
471.997	2038.25
472.216	3050.25
472.435	5679.25
472.654	4311.25
472.873	2773.25
473.092	2302.25
473.311	2061.25
473.53	1882.25
473.749	1825.25
473.968	1748.25
474.187	1697.25
474.406	1690.25
474.625	1676.25
474.844	1633.25
475.063	1636.25
475.282	1632.25
475.501	1646.25
475.72	1600.25
475.939	1596.25
476.158	1614.25
476.377	1680.25
476.596	1646.25
476.814	1654.25
477.033	1660.25
477.252	1684.25
477.471	1691.25
477.69	1719.25
477.908	1796.25
478.127	1803.25
478.346	1835.25
478.564	1891.25
478.783	1897.25
479.002	1929.25
479.22	1964.25
479.439	1978.25
479.658	1957.25
479.876	2021.25
480.095	2062.25
480.313	2237.25
480.532	2382.25
480.751	2713.25
480.969	3637.25
481.188	7353.25
481.406	8826.25
481.624	4806.25
481.843	3535.25
482.061	2962.25
482.28	2627.25
482.498	2413.25
482.717	2332.25
482.935	2244.25
483.153	2196.25
483.372	2192.25
483.59	2093.25
483.808	2029.25
484.027	2056.25
484.245	2022.25
484.463	2016.25
484.681	2018.25
484.9	2003.25
485.118	1996.25
485.336	2006.25
485.554	1986.25
485.772	2013.25
485.99	2033.25
486.209	1963.25
486.427	1964.25
486.645	1964.25
486.863	1964.25
487.081	1952.25
487.299	1999.25
487.517	1980.25
487.735	2003.25
487.953	2021.25
488.171	2006.25
488.389	1993.25
488.607	1965.25
488.825	1980.25
489.043	1958.25
489.261	2016.25
489.479	2041.25
489.696	2047.25
489.914	2086.25
490.132	2125.25
