Data from FlinnAP9092KCOPPER.07152019.QSWITCHSynchronous.EN10.20scans.P1_HRD10591_14-49-27-574.txt Node
Date: Mon Jul 15 14:49:27 EDT 2019
User: cochatt
Spectrometer: HR+D1059
Trigger mode: 5
Integration Time (sec): 1.000000E-1
Scans to average: 1
Electric dark correction enabled: true
Nonlinearity correction enabled: false
Boxcar width: 0
XAxis mode: Wavelengths
Number of Pixels in Spectrum: 2048
>>>>>Begin Spectral Data<<<<<
223.165	-39.88
223.4	-39.88
223.635	-39.88
223.869	-42.88
224.104	-38.88
224.338	1.12
224.573	-14.88
224.808	-16.88
225.042	3.12
225.277	0.12
225.511	-5.88
225.746	23.12
225.98	12.12
226.215	6.12
226.449	22.12
226.683	22.12
226.918	29.12
227.152	40.12
227.387	50.12
227.621	28.12
227.856	53.12
228.09	33.12
228.324	44.12
228.559	74.12
228.793	106.12
229.027	179.12
229.262	217.12
229.496	217.12
229.73	253.12
229.964	340.12
230.199	266.12
230.433	217.12
230.667	217.12
230.901	202.12
231.136	201.12
231.37	197.12
231.604	199.12
231.838	212.12
232.072	200.12
232.306	204.12
232.541	210.12
232.775	193.12
233.009	198.12
233.243	198.12
233.477	219.12
233.711	218.12
233.945	205.12
234.179	213.12
234.413	227.12
234.647	217.12
234.881	218.12
235.115	224.12
235.349	217.12
235.583	221.12
235.817	200.12
236.051	244.12
236.285	243.12
236.519	242.12
236.753	254.12
236.987	291.12
237.221	369.12
237.455	507.12
237.689	412.12
237.922	288.12
238.156	271.12
238.39	252.12
238.624	250.12
238.858	260.12
239.091	254.12
239.325	254.12
239.559	235.12
239.793	259.12
240.027	290.12
240.26	293.12
240.494	354.12
240.728	343.12
240.961	319.12
241.195	317.12
241.429	297.12
241.662	264.12
241.896	239.12
242.13	265.12
242.363	273.12
242.597	274.12
242.83	299.12
243.064	289.12
243.298	277.12
243.531	291.12
243.765	286.12
243.998	297.12
244.232	301.12
244.465	294.12
244.699	299.12
244.932	297.12
245.166	312.12
245.399	319.12
245.633	316.12
245.866	291.12
246.099	287.12
246.333	309.12
246.566	313.12
246.8	314.12
247.033	315.12
247.266	316.12
247.5	331.12
247.733	356.12
247.966	379.12
248.2	363.12
248.433	364.12
248.666	364.12
248.899	398.12
249.133	435.12
249.366	494.12
249.599	426.12
249.832	383.12
250.066	387.12
250.299	378.12
250.532	397.12
250.765	419.12
250.998	489.12
251.231	497.12
251.465	456.12
251.698	434.12
251.931	429.12
252.164	438.12
252.397	420.12
252.63	429.12
252.863	447.12
253.096	483.12
253.329	498.12
253.562	489.12
253.795	489.12
254.028	483.12
254.261	445.12
254.494	502.12
254.727	594.12
254.96	675.12
255.193	604.12
255.426	509.12
255.659	449.12
255.892	476.12
256.124	454.12
256.357	436.12
256.59	445.12
256.823	421.12
257.056	449.12
257.289	425.12
257.521	431.12
257.754	439.12
257.987	436.12
258.22	461.12
258.452	449.12
258.685	449.12
258.918	458.12
259.151	446.12
259.383	496.12
259.616	486.12
259.849	474.12
260.081	539.12
260.314	595.12
260.547	583.12
260.779	536.12
261.012	515.12
261.244	488.12
261.477	529.12
261.71	470.12
261.942	468.12
262.175	518.12
262.407	541.12
262.64	467.12
262.872	465.12
263.105	478.12
263.337	488.12
263.57	467.12
263.802	478.12
264.035	481.12
264.267	456.12
264.499	476.12
264.732	493.12
264.964	487.12
265.197	456.12
265.429	492.12
265.661	495.12
265.894	501.12
266.126	506.12
266.358	493.12
266.591	501.12
266.823	497.12
267.055	513.12
267.287	561.12
267.52	489.12
267.752	528.12
267.984	508.12
268.216	528.12
268.448	540.12
268.681	536.12
268.913	548.12
269.145	652.12
269.377	663.12
269.609	616.12
269.841	624.12
270.073	631.12
270.306	675.12
270.538	759.12
270.77	751.12
271.002	684.12
271.234	673.12
271.466	676.12
271.698	725.12
271.93	772.12
272.162	739.12
272.394	777.12
272.626	694.12
272.858	665.12
273.09	623.12
273.322	611.12
273.553	572.12
273.785	635.12
274.017	611.12
274.249	599.12
274.481	607.12
274.713	623.12
274.945	630.12
275.176	607.12
275.408	624.12
275.64	611.12
275.872	595.12
276.104	614.12
276.335	607.12
276.567	612.12
276.799	667.12
277.031	718.12
277.262	796.12
277.494	801.12
277.726	697.12
277.957	685.12
278.189	626.12
278.421	617.12
278.652	623.12
278.884	628.12
279.115	611.12
279.347	614.12
279.579	617.12
279.81	610.12
280.042	628.12
280.273	600.12
280.505	616.12
280.736	635.12
280.968	635.12
281.199	625.12
281.431	629.12
281.662	655.12
281.894	623.12
282.125	647.12
282.356	691.12
282.588	728.12
282.819	736.12
283.051	672.12
283.282	639.12
283.513	659.12
283.745	680.12
283.976	672.12
284.207	676.12
284.439	688.12
284.67	654.12
284.901	659.12
285.132	652.12
285.364	655.12
285.595	654.12
285.826	661.12
286.057	708.12
286.288	679.12
286.52	675.12
286.751	664.12
286.982	673.12
287.213	637.12
287.444	696.12
287.675	691.12
287.906	728.12
288.138	729.12
288.369	744.12
288.6	748.12
288.831	693.12
289.062	727.12
289.293	721.12
289.524	708.12
289.755	707.12
289.986	712.12
290.217	711.12
290.448	696.12
290.679	710.12
290.91	701.12
291.141	682.12
291.371	699.12
291.602	712.12
291.833	681.12
292.064	692.12
292.295	693.12
292.526	691.12
292.757	686.12
292.987	710.12
293.218	697.12
293.449	712.12
293.68	710.12
293.91	705.12
294.141	701.12
294.372	707.12
294.603	712.12
294.833	697.12
295.064	689.12
295.295	699.12
295.525	678.12
295.756	728.12
295.987	759.12
296.217	771.12
296.448	819.12
296.679	731.12
296.909	729.12
297.14	740.12
297.37	729.12
297.601	737.12
297.831	730.12
298.062	743.12
298.292	735.12
298.523	772.12
298.753	751.12
298.984	736.12
299.214	741.12
299.445	732.12
299.675	755.12
299.905	784.12
300.136	751.12
300.366	731.12
300.597	739.12
300.827	760.12
301.057	781.12
301.288	812.12
301.518	815.12
301.748	811.12
301.979	794.12
302.209	801.12
302.439	802.12
302.669	805.12
302.9	774.12
303.13	795.12
303.36	792.12
303.59	806.12
303.82	805.12
304.051	795.12
304.281	790.12
304.511	807.12
304.741	769.12
304.971	770.12
305.201	763.12
305.431	783.12
305.661	767.12
305.891	776.12
306.121	773.12
306.352	773.12
306.582	809.12
306.812	795.12
307.042	773.12
307.272	768.12
307.502	747.12
307.731	785.12
307.961	760.12
308.191	756.12
308.421	768.12
308.651	786.12
308.881	776.12
309.111	791.12
309.341	774.12
309.571	779.12
309.8	817.12
310.03	820.12
310.26	840.12
310.49	859.12
310.72	885.12
310.949	943.12
311.179	957.12
311.409	880.12
311.639	868.12
311.868	919.12
312.098	895.12
312.328	912.12
312.557	961.12
312.787	982.12
313.017	984.12
313.246	960.12
313.476	848.12
313.706	850.12
313.935	887.12
314.165	927.12
314.394	979.12
314.624	951.12
314.853	939.12
315.083	889.12
315.312	858.12
315.542	841.12
315.771	864.12
316.001	833.12
316.23	839.12
316.46	872.12
316.689	873.12
316.919	867.12
317.148	908.12
317.377	934.12
317.607	874.12
317.836	884.12
318.065	887.12
318.295	841.12
318.524	856.12
318.753	827.12
318.983	821.12
319.212	867.12
319.441	861.12
319.67	856.12
319.9	875.12
320.129	843.12
320.358	844.12
320.587	881.12
320.816	874.12
321.046	880.12
321.275	913.12
321.504	857.12
321.733	913.12
321.962	895.12
322.191	961.12
322.42	963.12
322.649	999.12
322.878	1023.12
323.108	1007.12
323.337	1071.12
323.566	1111.12
323.795	1167.12
324.024	1276.12
324.253	1483.12
324.482	2201.12
324.71	3573.12
324.939	5642.12
325.168	5004.12
325.397	2067.12
325.626	1342.12
325.855	1129.12
326.084	1103.12
326.313	1078.12
326.542	1068.12
326.77	1221.12
326.999	1425.12
327.228	2049.12
327.457	3347.12
327.686	4388.12
327.914	2629.12
328.143	1563.12
328.372	1354.12
328.6	1261.12
328.829	1197.12
329.058	1345.12
329.287	1392.12
329.515	1265.12
329.744	1129.12
329.972	1088.12
330.201	1061.12
330.43	1156.12
330.658	1233.12
330.887	1441.12
331.115	1519.12
331.344	1224.12
331.572	1141.12
331.801	1123.12
332.03	1171.12
332.258	1103.12
332.486	1078.12
332.715	1071.12
332.943	1098.12
333.172	1141.12
333.4	1149.12
333.629	1192.12
333.857	1175.12
334.085	1186.12
334.314	1160.12
334.542	1109.12
334.771	1145.12
334.999	1128.12
335.227	1111.12
335.455	1093.12
335.684	1126.12
335.912	1119.12
336.14	1082.12
336.369	1055.12
336.597	1089.12
336.825	1111.12
337.053	1097.12
337.281	1038.12
337.51	1059.12
337.738	1087.12
337.966	1027.12
338.194	1037.12
338.422	1037.12
338.65	1024.12
338.878	1005.12
339.106	984.12
339.334	997.12
339.562	983.12
339.79	1008.12
340.018	971.12
340.246	979.12
340.474	995.12
340.702	984.12
340.93	996.12
341.158	988.12
341.386	960.12
341.614	971.12
341.842	979.12
342.07	935.12
342.298	990.12
342.526	948.12
342.754	931.12
342.981	951.12
343.209	953.12
343.437	1033.12
343.665	1017.12
343.893	1057.12
344.12	1133.12
344.348	1063.12
344.576	1053.12
344.804	1022.12
345.031	1021.12
345.259	1079.12
345.487	1047.12
345.714	979.12
345.942	954.12
346.17	941.12
346.397	946.12
346.625	933.12
346.853	945.12
347.08	937.12
347.308	949.12
347.535	946.12
347.763	978.12
347.99	980.12
348.218	984.12
348.445	955.12
348.673	997.12
348.9	956.12
349.128	946.12
349.355	885.12
349.583	887.12
349.81	892.12
350.037	886.12
350.265	911.12
350.492	881.12
350.72	872.12
350.947	931.12
351.174	953.12
351.402	947.12
351.629	940.12
351.856	932.12
352.083	968.12
352.311	991.12
352.538	964.12
352.765	992.12
352.992	972.12
353.22	925.12
353.447	914.12
353.674	897.12
353.901	901.12
354.128	859.12
354.355	871.12
354.583	868.12
354.81	881.12
355.037	866.12
355.264	881.12
355.491	840.12
355.718	823.12
355.945	845.12
356.172	823.12
356.399	873.12
356.626	817.12
356.853	847.12
357.08	849.12
357.307	861.12
357.534	845.12
357.761	845.12
357.988	883.12
358.215	883.12
358.441	872.12
358.668	853.12
358.895	856.12
359.122	886.12
359.349	891.12
359.576	912.12
359.802	960.12
360.029	1067.12
360.256	1125.12
360.483	1067.12
360.709	959.12
360.936	954.12
361.163	901.12
361.39	916.12
361.616	948.12
361.843	905.12
362.07	911.12
362.296	949.12
362.523	887.12
362.749	928.12
362.976	875.12
363.203	925.12
363.429	885.12
363.656	867.12
363.882	867.12
364.109	877.12
364.335	865.12
364.562	875.12
364.788	862.12
365.015	884.12
365.241	879.12
365.468	896.12
365.694	909.12
365.92	898.12
366.147	857.12
366.373	893.12
366.599	859.12
366.826	869.12
367.052	861.12
367.278	876.12
367.505	865.12
367.731	921.12
367.957	860.12
368.184	877.12
368.41	889.12
368.636	925.12
368.862	932.12
369.089	915.12
369.315	884.12
369.541	920.12
369.767	901.12
369.993	899.12
370.219	879.12
370.445	898.12
370.672	885.12
370.898	869.12
371.124	897.12
371.35	893.12
371.576	890.12
371.802	904.12
372.028	879.12
372.254	901.12
372.48	893.12
372.706	906.12
372.932	906.12
373.158	929.12
373.384	937.12
373.61	923.12
373.835	928.12
374.061	920.12
374.287	922.12
374.513	963.12
374.739	994.12
374.965	957.12
375.191	998.12
375.416	980.12
375.642	980.12
375.868	953.12
376.094	935.12
376.319	885.12
376.545	927.12
376.771	891.12
376.997	924.12
377.222	927.12
377.448	921.12
377.674	877.12
377.899	916.12
378.125	897.12
378.35	916.12
378.576	892.12
378.802	901.12
379.027	883.12
379.253	933.12
379.478	899.12
379.704	905.12
379.929	930.12
380.155	911.12
380.38	922.12
380.606	917.12
380.831	931.12
381.057	983.12
381.282	967.12
381.507	921.12
381.733	941.12
381.958	929.12
382.184	944.12
382.409	976.12
382.634	986.12
382.86	955.12
383.085	972.12
383.31	991.12
383.535	1016.12
383.761	1011.12
383.986	1027.12
384.211	991.12
384.436	1057.12
384.662	1055.12
384.887	1110.12
385.112	1083.12
385.337	1091.12
385.562	1074.12
385.787	1107.12
386.013	1187.12
386.238	1145.12
386.463	1136.12
386.688	1093.12
386.913	1071.12
387.138	1086.12
387.363	1083.12
387.588	1093.12
387.813	1123.12
388.038	1052.12
388.263	1065.12
388.488	1090.12
388.713	1112.12
388.938	1079.12
389.163	1136.12
389.387	1082.12
389.612	1081.12
389.837	1077.12
390.062	1067.12
390.287	1063.12
390.512	1100.12
390.736	1052.12
390.961	1093.12
391.186	1122.12
391.411	1117.12
391.636	1195.12
391.86	1179.12
392.085	1195.12
392.31	1223.12
392.534	1161.12
392.759	1174.12
392.984	1185.12
393.208	1131.12
393.433	1106.12
393.658	1116.12
393.882	1115.12
394.107	1152.12
394.331	1153.12
394.556	1141.12
394.78	1162.12
395.005	1165.12
395.229	1169.12
395.454	1211.12
395.678	1211.12
395.903	1226.12
396.127	1297.12
396.352	1245.12
396.576	1183.12
396.801	1161.12
397.025	1193.12
397.249	1187.12
397.474	1236.12
397.698	1249.12
397.922	1263.12
398.147	1265.12
398.371	1337.12
398.595	1337.12
398.82	1339.12
399.044	1340.12
399.268	1491.12
399.492	1702.12
399.717	1831.12
399.941	1885.12
400.165	1835.12
400.389	1765.12
400.613	1576.12
400.837	1449.12
401.062	1445.12
401.286	1385.12
401.51	1359.12
401.734	1356.12
401.958	1434.12
402.182	1441.12
402.406	1432.12
402.63	1445.12
402.854	1449.12
403.078	1464.12
403.302	1553.12
403.526	1510.12
403.75	1515.12
403.974	1499.12
404.198	1528.12
404.422	1531.12
404.645	1517.12
404.869	1536.12
405.093	1578.12
405.317	1594.12
405.541	1651.12
405.765	1560.12
405.988	1537.12
406.212	1573.12
406.436	1629.12
406.66	1695.12
406.883	1624.12
407.107	1691.12
407.331	1815.12
407.555	2003.12
407.778	1983.12
408.002	1794.12
408.226	1692.12
408.449	1661.12
408.673	1618.12
408.896	1699.12
409.12	1766.12
409.344	1650.12
409.567	1503.12
409.791	1517.12
410.014	1495.12
410.238	1493.12
410.461	1506.12
410.685	1536.12
410.908	1508.12
411.132	1600.12
411.355	1651.12
411.578	1603.12
411.802	1463.12
412.025	1459.12
412.249	1487.12
412.472	1461.12
412.695	1435.12
412.919	1415.12
413.142	1437.12
413.365	1392.12
413.589	1421.12
413.812	1386.12
414.035	1449.12
414.258	1439.12
414.482	1388.12
414.705	1449.12
414.928	1446.12
415.151	1413.12
415.374	1438.12
415.597	1445.12
415.821	1418.12
416.044	1420.12
416.267	1434.12
416.49	1379.12
416.713	1400.12
416.936	1385.12
417.159	1415.12
417.382	1422.12
417.605	1420.12
417.828	1503.12
418.051	1510.12
418.274	1512.12
418.497	1474.12
418.72	1483.12
418.943	1473.12
419.166	1521.12
419.389	1646.12
419.611	1585.12
419.834	1542.12
420.057	1560.12
420.28	1532.12
420.503	1458.12
420.726	1452.12
420.948	1484.12
421.171	1634.12
421.394	1710.12
421.617	1607.12
421.839	1514.12
422.062	1523.12
422.285	1555.12
422.507	1724.12
422.73	1845.12
422.953	1759.12
423.175	1613.12
423.398	1591.12
423.621	1609.12
423.843	1701.12
424.066	1675.12
424.288	1677.12
424.511	1719.12
424.733	1859.12
424.956	2067.12
425.178	1927.12
425.401	1943.12
425.623	1929.12
425.846	1711.12
426.068	1575.12
426.291	1535.12
426.513	1555.12
426.735	1592.12
426.958	1679.12
427.18	1888.12
427.402	2215.12
427.625	2435.12
427.847	2039.12
428.069	1705.12
428.292	1603.12
428.514	1502.12
428.736	1433.12
428.958	1414.12
429.181	1395.12
429.403	1397.12
429.625	1439.12
429.847	1467.12
430.069	1719.12
430.292	1718.12
430.514	1481.12
430.736	1412.12
430.958	1436.12
431.18	1372.12
431.402	1367.12
431.624	1324.12
431.846	1240.12
432.068	1233.12
432.29	1252.12
432.512	1327.12
432.734	1400.12
432.956	1415.12
433.178	1477.12
433.4	1491.12
433.622	1448.12
433.844	1348.12
434.066	1332.12
434.287	1291.12
434.509	1271.12
434.731	1314.12
434.953	1428.12
435.175	1545.12
435.397	1619.12
435.618	1555.12
435.84	1639.12
436.062	1967.12
436.284	2099.12
436.505	1697.12
436.727	1593.12
436.949	1491.12
437.17	1471.12
437.392	1420.12
437.614	1433.12
437.835	1413.12
438.057	1688.12
438.278	1963.12
438.5	1975.12
438.721	2228.12
438.943	2111.12
439.165	1705.12
439.386	1635.12
439.608	1666.12
439.829	1655.12
440.05	1787.12
440.272	1954.12
440.493	1817.12
440.715	1656.12
440.936	1598.12
441.158	1576.12
441.379	1588.12
441.6	1673.12
441.822	1736.12
442.043	1837.12
442.264	2041.12
442.486	2116.12
442.707	1833.12
442.928	1771.12
443.149	1800.12
443.371	1882.12
443.592	1900.12
443.813	2178.12
444.034	2362.12
444.255	1939.12
444.476	1755.12
444.698	1809.12
444.919	1793.12
445.14	3340.12
445.361	2513.12
445.582	1967.12
445.803	2124.12
446.024	2412.12
446.245	2349.12
446.466	2164.12
446.687	1789.12
446.908	1652.12
447.129	1620.12
447.35	1577.12
447.571	1583.12
447.792	1533.12
448.013	1495.12
448.234	1557.12
448.455	1651.12
448.675	1948.12
448.896	2250.12
449.117	1876.12
449.338	1713.12
449.559	2126.12
449.779	2368.12
450	1860.12
450.221	1587.12
450.442	1471.12
450.662	1453.12
450.883	1456.12
451.104	1521.12
451.324	1471.12
451.545	1410.12
451.766	1355.12
451.986	1300.12
452.207	1305.12
452.428	1267.12
452.648	1310.12
452.869	1305.12
453.089	1300.12
453.31	1273.12
453.53	1209.12
453.751	1168.12
453.971	1195.12
454.192	1229.12
454.412	1207.12
454.633	1173.12
454.853	1200.12
455.073	1208.12
455.294	1291.12
455.514	1544.12
455.734	1463.12
455.955	1231.12
456.175	1188.12
456.395	1134.12
456.616	1106.12
456.836	1113.12
457.056	1107.12
457.276	1056.12
457.497	1085.12
457.717	1101.12
457.937	1105.12
458.157	1159.12
458.377	1113.12
458.598	1183.12
458.818	1285.12
459.038	1551.12
459.258	1575.12
459.478	1339.12
459.698	1228.12
459.918	1253.12
460.138	1255.12
460.358	1358.12
460.578	1397.12
460.798	1433.12
461.018	1447.12
461.238	1416.12
461.458	1394.12
461.678	1345.12
461.898	1371.12
462.118	1374.12
462.338	1448.12
462.558	1484.12
462.777	1505.12
462.997	1589.12
463.217	1651.12
463.437	1669.12
463.657	1543.12
463.876	1477.12
464.096	1499.12
464.316	1523.12
464.536	1559.12
464.755	1524.12
464.975	1536.12
465.195	1644.12
465.414	1802.12
465.634	1561.12
465.854	1417.12
466.073	1359.12
466.293	1297.12
466.512	1313.12
466.732	1297.12
466.951	1329.12
467.171	1347.12
467.391	1359.12
467.61	1361.12
467.829	1400.12
468.049	1347.12
468.268	1329.12
468.488	1304.12
468.707	1288.12
468.927	1290.12
469.146	1280.12
469.365	1343.12
469.585	1335.12
469.804	1420.12
470.023	1432.12
470.243	1456.12
470.462	1505.12
470.681	1520.12
470.901	1523.12
471.12	1450.12
471.339	1425.12
471.558	1424.12
471.777	1450.12
471.997	1341.12
472.216	1276.12
472.435	1189.12
472.654	1175.12
472.873	1174.12
473.092	1209.12
473.311	1248.12
473.53	1221.12
473.749	1283.12
473.968	1397.12
474.187	1682.12
474.406	1659.12
474.625	1381.12
474.844	1337.12
475.063	1281.12
475.282	1247.12
475.501	1223.12
475.72	1309.12
475.939	1269.12
476.158	1304.12
476.377	1307.12
476.596	1271.12
476.814	1263.12
477.033	1224.12
477.252	1267.12
477.471	1335.12
477.69	1422.12
477.908	1431.12
478.127	1525.12
478.346	1480.12
478.564	1506.12
478.783	1555.12
479.002	1547.12
479.22	1591.12
479.439	1599.12
479.658	1532.12
479.876	1501.12
480.095	1439.12
480.313	1653.12
480.532	1610.12
480.751	1531.12
480.969	1443.12
481.188	1426.12
481.406	1345.12
481.624	1287.12
481.843	1227.12
482.061	1289.12
482.28	1345.12
482.498	1373.12
482.717	1322.12
482.935	1397.12
483.153	1514.12
483.372	1567.12
483.59	1562.12
483.808	1487.12
484.027	1462.12
484.245	1455.12
484.463	1472.12
484.681	1610.12
484.9	1515.12
485.118	1517.12
485.336	1492.12
485.554	1444.12
485.772	1388.12
485.99	1427.12
486.209	1425.12
486.427	1413.12
486.645	1530.12
486.863	1650.12
487.081	1703.12
487.299	1639.12
487.517	1654.12
487.735	1795.12
487.953	1937.12
488.171	1916.12
488.389	1797.12
488.607	1713.12
488.825	1567.12
489.043	1567.12
489.261	1587.12
489.479	1609.12
489.696	1644.12
489.914	1669.12
490.132	1701.12
490.35	1813.12
490.568	1893.12
490.786	2027.12
491.003	2091.12
491.221	2099.12
491.439	2152.12
491.657	2240.12
491.874	2343.12
492.092	2451.12
492.31	2550.12
492.527	2421.12
492.745	2315.12
492.963	2305.12
493.18	2251.12
493.398	2219.12
493.615	2243.12
493.833	2245.12
