Data from FlinnAP5935BZINC.07152019.QSWITCHedge.EN10.5scans.P1_HRD10591_15-05-42-551.txt Node
Date: Mon Jul 15 15:05:42 EDT 2019
User: cochatt
Spectrometer: HR+D1059
Trigger mode: 1
Integration Time (sec): 1.000000E-1
Scans to average: 1
Electric dark correction enabled: true
Nonlinearity correction enabled: false
Boxcar width: 0
XAxis mode: Wavelengths
Number of Pixels in Spectrum: 2048
>>>>>Begin Spectral Data<<<<<
223.165	-27.56
223.4	-27.56
223.635	-27.56
223.869	-23.56
224.104	-15.56
224.338	3.44
224.573	-14.56
224.808	-3.56
225.042	-13.56
225.277	-10.56
225.511	9.44
225.746	6.44
225.98	0.44
226.215	5.44
226.449	14.44
226.683	6.44
226.918	27.44
227.152	35.44
227.387	36.44
227.621	37.44
227.856	38.44
228.09	47.44
228.324	59.44
228.559	51.44
228.793	55.44
229.027	66.44
229.262	69.44
229.496	85.44
229.73	64.44
229.964	70.44
230.199	76.44
230.433	79.44
230.667	69.44
230.901	72.44
231.136	81.44
231.37	87.44
231.604	86.44
231.838	94.44
232.072	87.44
232.306	99.44
232.541	90.44
232.775	95.44
233.009	84.44
233.243	87.44
233.477	86.44
233.711	93.44
233.945	84.44
234.179	95.44
234.413	81.44
234.647	89.44
234.881	98.44
235.115	76.44
235.349	100.44
235.583	95.44
235.817	99.44
236.051	89.44
236.285	81.44
236.519	77.44
236.753	68.44
236.987	83.44
237.221	91.44
237.455	77.44
237.689	80.44
237.922	68.44
238.156	89.44
238.39	78.44
238.624	85.44
238.858	91.44
239.091	80.44
239.325	81.44
239.559	75.44
239.793	89.44
240.027	84.44
240.26	87.44
240.494	90.44
240.728	88.44
240.961	99.44
241.195	84.44
241.429	97.44
241.662	75.44
241.896	79.44
242.13	72.44
242.363	83.44
242.597	89.44
242.83	90.44
243.064	75.44
243.298	85.44
243.531	83.44
243.765	89.44
243.998	92.44
244.232	67.44
244.465	85.44
244.699	82.44
244.932	88.44
245.166	94.44
245.399	85.44
245.633	71.44
245.866	102.44
246.099	77.44
246.333	78.44
246.566	85.44
246.8	73.44
247.033	79.44
247.266	91.44
247.5	99.44
247.733	90.44
247.966	74.44
248.2	87.44
248.433	91.44
248.666	79.44
248.899	89.44
249.133	91.44
249.366	83.44
249.599	87.44
249.832	76.44
250.066	86.44
250.299	79.44
250.532	86.44
250.765	67.44
250.998	77.44
251.231	92.44
251.465	86.44
251.698	100.44
251.931	88.44
252.164	88.44
252.397	87.44
252.63	85.44
252.863	81.44
253.096	92.44
253.329	85.44
253.562	83.44
253.795	91.44
254.028	86.44
254.261	83.44
254.494	84.44
254.727	96.44
254.96	84.44
255.193	81.44
255.426	72.44
255.659	95.44
255.892	107.44
256.124	94.44
256.357	78.44
256.59	84.44
256.823	83.44
257.056	70.44
257.289	92.44
257.521	78.44
257.754	83.44
257.987	79.44
258.22	101.44
258.452	73.44
258.685	99.44
258.918	97.44
259.151	93.44
259.383	88.44
259.616	93.44
259.849	70.44
260.081	81.44
260.314	91.44
260.547	99.44
260.779	92.44
261.012	99.44
261.244	90.44
261.477	95.44
261.71	85.44
261.942	90.44
262.175	91.44
262.407	83.44
262.64	88.44
262.872	99.44
263.105	101.44
263.337	83.44
263.57	80.44
263.802	85.44
264.035	95.44
264.267	74.44
264.499	87.44
264.732	87.44
264.964	86.44
265.197	77.44
265.429	84.44
265.661	90.44
265.894	84.44
266.126	96.44
266.358	80.44
266.591	80.44
266.823	83.44
267.055	86.44
267.287	88.44
267.52	84.44
267.752	77.44
267.984	90.44
268.216	87.44
268.448	100.44
268.681	95.44
268.913	108.44
269.145	108.44
269.377	98.44
269.609	87.44
269.841	78.44
270.073	67.44
270.306	88.44
270.538	101.44
270.77	85.44
271.002	90.44
271.234	87.44
271.466	91.44
271.698	92.44
271.93	87.44
272.162	96.44
272.394	78.44
272.626	87.44
272.858	92.44
273.09	96.44
273.322	88.44
273.553	91.44
273.785	75.44
274.017	108.44
274.249	93.44
274.481	88.44
274.713	81.44
274.945	84.44
275.176	98.44
275.408	107.44
275.64	89.44
275.872	91.44
276.104	96.44
276.335	102.44
276.567	92.44
276.799	90.44
277.031	85.44
277.262	111.44
277.494	122.44
277.726	92.44
277.957	92.44
278.189	94.44
278.421	86.44
278.652	87.44
278.884	88.44
279.115	92.44
279.347	91.44
279.579	73.44
279.81	100.44
280.042	119.44
280.273	144.44
280.505	145.44
280.736	105.44
280.968	98.44
281.199	88.44
281.431	80.44
281.662	84.44
281.894	110.44
282.125	96.44
282.356	81.44
282.588	84.44
282.819	89.44
283.051	103.44
283.282	79.44
283.513	98.44
283.745	86.44
283.976	94.44
284.207	90.44
284.439	97.44
284.67	95.44
284.901	87.44
285.132	81.44
285.364	91.44
285.595	88.44
285.826	97.44
286.057	94.44
286.288	81.44
286.52	90.44
286.751	108.44
286.982	102.44
287.213	103.44
287.444	86.44
287.675	81.44
287.906	81.44
288.138	92.44
288.369	97.44
288.6	86.44
288.831	93.44
289.062	104.44
289.293	92.44
289.524	89.44
289.755	92.44
289.986	84.44
290.217	79.44
290.448	78.44
290.679	92.44
290.91	89.44
291.141	72.44
291.371	113.44
291.602	73.44
291.833	91.44
292.064	78.44
292.295	99.44
292.526	95.44
292.757	93.44
292.987	95.44
293.218	99.44
293.449	105.44
293.68	93.44
293.91	95.44
294.141	85.44
294.372	89.44
294.603	93.44
294.833	92.44
295.064	94.44
295.295	88.44
295.525	90.44
295.756	86.44
295.987	90.44
296.217	97.44
296.448	85.44
296.679	82.44
296.909	87.44
297.14	93.44
297.37	89.44
297.601	81.44
297.831	107.44
298.062	93.44
298.292	94.44
298.523	97.44
298.753	78.44
298.984	87.44
299.214	92.44
299.445	99.44
299.675	103.44
299.905	82.44
300.136	93.44
300.366	85.44
300.597	117.44
300.827	91.44
301.057	81.44
301.288	84.44
301.518	88.44
301.748	96.44
301.979	103.44
302.209	83.44
302.439	76.44
302.669	73.44
302.9	76.44
303.13	93.44
303.36	94.44
303.59	93.44
303.82	110.44
304.051	98.44
304.281	95.44
304.511	102.44
304.741	87.44
304.971	94.44
305.201	94.44
305.431	71.44
305.661	80.44
305.891	85.44
306.121	86.44
306.352	87.44
306.582	81.44
306.812	87.44
307.042	101.44
307.272	120.44
307.502	126.44
307.731	128.44
307.961	125.44
308.191	96.44
308.421	98.44
308.651	83.44
308.881	108.44
309.111	84.44
309.341	91.44
309.571	84.44
309.8	102.44
310.03	85.44
310.26	78.44
310.49	90.44
310.72	93.44
310.949	103.44
311.179	88.44
311.409	99.44
311.639	83.44
311.868	84.44
312.098	87.44
312.328	97.44
312.557	92.44
312.787	103.44
313.017	103.44
313.246	103.44
313.476	84.44
313.706	88.44
313.935	82.44
314.165	89.44
314.394	101.44
314.624	91.44
314.853	88.44
315.083	93.44
315.312	95.44
315.542	90.44
315.771	87.44
316.001	99.44
316.23	108.44
316.46	108.44
316.689	106.44
316.919	109.44
317.148	84.44
317.377	93.44
317.607	92.44
317.836	93.44
318.065	93.44
318.295	79.44
318.524	103.44
318.753	95.44
318.983	89.44
319.212	81.44
319.441	87.44
319.67	86.44
319.9	85.44
320.129	103.44
320.358	89.44
320.587	102.44
320.816	91.44
321.046	86.44
321.275	103.44
321.504	97.44
321.733	99.44
321.962	89.44
322.191	81.44
322.42	77.44
322.649	97.44
322.878	85.44
323.108	83.44
323.337	84.44
323.566	93.44
323.795	95.44
324.024	95.44
324.253	80.44
324.482	90.44
324.71	98.44
324.939	100.44
325.168	102.44
325.397	108.44
325.626	99.44
325.855	97.44
326.084	97.44
326.313	88.44
326.542	95.44
326.77	98.44
326.999	109.44
327.228	96.44
327.457	101.44
327.686	112.44
327.914	128.44
328.143	185.44
328.372	235.44
328.6	228.44
328.829	135.44
329.058	91.44
329.287	104.44
329.515	99.44
329.744	128.44
329.972	199.44
330.201	319.44
330.43	480.44
330.658	393.44
330.887	150.44
331.115	105.44
331.344	84.44
331.572	84.44
331.801	96.44
332.03	97.44
332.258	99.44
332.486	89.44
332.715	92.44
332.943	98.44
333.172	103.44
333.4	85.44
333.629	97.44
333.857	109.44
334.085	151.44
334.314	292.44
334.542	498.44
334.771	662.44
334.999	330.44
335.227	140.44
335.455	99.44
335.684	96.44
335.912	96.44
336.14	88.44
336.369	98.44
336.597	103.44
336.825	94.44
337.053	95.44
337.281	93.44
337.51	99.44
337.738	94.44
337.966	86.44
338.194	98.44
338.422	90.44
338.65	81.44
338.878	94.44
339.106	83.44
339.334	100.44
339.562	89.44
339.79	85.44
340.018	75.44
340.246	99.44
340.474	99.44
340.702	89.44
340.93	96.44
341.158	99.44
341.386	95.44
341.614	86.44
341.842	89.44
342.07	92.44
342.298	92.44
342.526	91.44
342.754	93.44
342.981	85.44
343.209	86.44
343.437	79.44
343.665	91.44
343.893	104.44
344.12	100.44
344.348	77.44
344.576	86.44
344.804	84.44
345.031	92.44
345.259	84.44
345.487	88.44
345.714	97.44
345.942	100.44
346.17	83.44
346.397	86.44
346.625	99.44
346.853	100.44
347.08	83.44
347.308	84.44
347.535	101.44
347.763	75.44
347.99	92.44
348.218	84.44
348.445	88.44
348.673	97.44
348.9	85.44
349.128	97.44
349.355	87.44
349.583	108.44
349.81	91.44
350.037	97.44
350.265	100.44
350.492	80.44
350.72	88.44
350.947	98.44
351.174	81.44
351.402	81.44
351.629	92.44
351.856	98.44
352.083	99.44
352.311	101.44
352.538	87.44
352.765	100.44
352.992	74.44
353.22	96.44
353.447	109.44
353.674	94.44
353.901	100.44
354.128	96.44
354.355	94.44
354.583	92.44
354.81	92.44
355.037	77.44
355.264	92.44
355.491	85.44
355.718	79.44
355.945	88.44
356.172	78.44
356.399	100.44
356.626	87.44
356.853	99.44
357.08	82.44
357.307	104.44
357.534	85.44
357.761	99.44
357.988	97.44
358.215	87.44
358.441	91.44
358.668	96.44
358.895	94.44
359.122	88.44
359.349	86.44
359.576	88.44
359.802	77.44
360.029	85.44
360.256	99.44
360.483	94.44
360.709	91.44
360.936	108.44
361.163	89.44
361.39	85.44
361.616	95.44
361.843	101.44
362.07	106.44
362.296	85.44
362.523	87.44
362.749	95.44
362.976	85.44
363.203	84.44
363.429	83.44
363.656	92.44
363.882	98.44
364.109	101.44
364.335	95.44
364.562	89.44
364.788	91.44
365.015	99.44
365.241	91.44
365.468	94.44
365.694	82.44
365.92	83.44
366.147	98.44
366.373	103.44
366.599	92.44
366.826	85.44
367.052	91.44
367.278	97.44
367.505	85.44
367.731	97.44
367.957	85.44
368.184	93.44
368.41	97.44
368.636	86.44
368.862	96.44
369.089	90.44
369.315	85.44
369.541	99.44
369.767	83.44
369.993	91.44
370.219	90.44
370.445	92.44
370.672	99.44
370.898	93.44
371.124	88.44
371.35	86.44
371.576	81.44
371.802	82.44
372.028	81.44
372.254	85.44
372.48	75.44
372.706	86.44
372.932	91.44
373.158	88.44
373.384	92.44
373.61	93.44
373.835	92.44
374.061	88.44
374.287	99.44
374.513	95.44
374.739	103.44
374.965	92.44
375.191	79.44
375.416	92.44
375.642	83.44
375.868	88.44
376.094	72.44
376.319	89.44
376.545	95.44
376.771	84.44
376.997	84.44
377.222	88.44
377.448	93.44
377.674	88.44
377.899	95.44
378.125	92.44
378.35	90.44
378.576	85.44
378.802	91.44
379.027	85.44
379.253	100.44
379.478	89.44
379.704	86.44
379.929	102.44
380.155	89.44
380.38	77.44
380.606	70.44
380.831	91.44
381.057	104.44
381.282	98.44
381.507	103.44
381.733	87.44
381.958	88.44
382.184	89.44
382.409	86.44
382.634	89.44
382.86	73.44
383.085	106.44
383.31	105.44
383.535	85.44
383.761	85.44
383.986	110.44
384.211	101.44
384.436	92.44
384.662	86.44
384.887	100.44
385.112	86.44
385.337	100.44
385.562	102.44
385.787	81.44
386.013	106.44
386.238	93.44
386.463	89.44
386.688	86.44
386.913	101.44
387.138	96.44
387.363	95.44
387.588	88.44
387.813	94.44
388.038	94.44
388.263	101.44
388.488	84.44
388.713	95.44
388.938	78.44
389.163	96.44
389.387	88.44
389.612	87.44
389.837	87.44
390.062	79.44
390.287	87.44
390.512	87.44
390.736	100.44
390.961	70.44
391.186	84.44
391.411	78.44
391.636	92.44
391.86	92.44
392.085	71.44
392.31	100.44
392.534	96.44
392.759	89.44
392.984	87.44
393.208	89.44
393.433	95.44
393.658	101.44
393.882	94.44
394.107	71.44
394.331	84.44
394.556	91.44
394.78	78.44
395.005	93.44
395.229	75.44
395.454	84.44
395.678	100.44
395.903	99.44
396.127	94.44
396.352	96.44
396.576	85.44
396.801	90.44
397.025	92.44
397.249	91.44
397.474	84.44
397.698	92.44
397.922	84.44
398.147	100.44
398.371	90.44
398.595	80.44
398.82	97.44
399.044	94.44
399.268	92.44
399.492	91.44
399.717	89.44
399.941	75.44
400.165	87.44
400.389	85.44
400.613	75.44
400.837	91.44
401.062	92.44
401.286	88.44
401.51	98.44
401.734	91.44
401.958	103.44
402.182	94.44
402.406	94.44
402.63	105.44
402.854	93.44
403.078	91.44
403.302	87.44
403.526	93.44
403.75	97.44
403.974	80.44
404.198	91.44
404.422	94.44
404.645	81.44
404.869	87.44
405.093	93.44
405.317	86.44
405.541	97.44
405.765	91.44
405.988	81.44
406.212	100.44
406.436	94.44
406.66	97.44
406.883	96.44
407.107	93.44
407.331	92.44
407.555	82.44
407.778	77.44
408.002	91.44
408.226	89.44
408.449	78.44
408.673	94.44
408.896	95.44
409.12	97.44
409.344	92.44
409.567	84.44
409.791	95.44
410.014	93.44
410.238	94.44
410.461	81.44
410.685	91.44
410.908	85.44
411.132	103.44
411.355	80.44
411.578	94.44
411.802	87.44
412.025	88.44
412.249	79.44
412.472	76.44
412.695	96.44
412.919	113.44
413.142	94.44
413.365	97.44
413.589	93.44
413.812	77.44
414.035	93.44
414.258	81.44
414.482	93.44
414.705	95.44
414.928	91.44
415.151	76.44
415.374	86.44
415.597	87.44
415.821	81.44
416.044	88.44
416.267	97.44
416.49	81.44
416.713	102.44
416.936	91.44
417.159	97.44
417.382	79.44
417.605	88.44
417.828	112.44
418.051	100.44
418.274	81.44
418.497	101.44
418.72	96.44
418.943	91.44
419.166	79.44
419.389	85.44
419.611	86.44
419.834	93.44
420.057	88.44
420.28	82.44
420.503	97.44
420.726	78.44
420.948	102.44
421.171	87.44
421.394	88.44
421.617	87.44
421.839	102.44
422.062	87.44
422.285	79.44
422.507	98.44
422.73	104.44
422.953	81.44
423.175	95.44
423.398	86.44
423.621	99.44
423.843	83.44
424.066	86.44
424.288	82.44
424.511	95.44
424.733	98.44
424.956	97.44
425.178	94.44
425.401	69.44
425.623	81.44
425.846	89.44
426.068	92.44
426.291	96.44
426.513	93.44
426.735	73.44
426.958	86.44
427.18	83.44
427.402	87.44
427.625	87.44
427.847	96.44
428.069	109.44
428.292	101.44
428.514	100.44
428.736	81.44
428.958	94.44
429.181	83.44
429.403	87.44
429.625	97.44
429.847	86.44
430.069	88.44
430.292	98.44
430.514	90.44
430.736	94.44
430.958	98.44
431.18	88.44
431.402	73.44
431.624	82.44
431.846	91.44
432.068	82.44
432.29	86.44
432.512	85.44
432.734	79.44
432.956	81.44
433.178	89.44
433.4	88.44
433.622	79.44
433.844	89.44
434.066	86.44
434.287	87.44
434.509	92.44
434.731	81.44
434.953	91.44
435.175	83.44
435.397	89.44
435.618	83.44
435.84	104.44
436.062	103.44
436.284	90.44
436.505	93.44
436.727	88.44
436.949	104.44
437.17	97.44
437.392	93.44
437.614	83.44
437.835	77.44
438.057	96.44
438.278	77.44
438.5	95.44
438.721	90.44
438.943	85.44
439.165	83.44
439.386	85.44
439.608	101.44
439.829	92.44
440.05	91.44
440.272	96.44
440.493	86.44
440.715	77.44
440.936	86.44
441.158	88.44
441.379	92.44
441.6	87.44
441.822	85.44
442.043	84.44
442.264	82.44
442.486	76.44
442.707	84.44
442.928	109.44
443.149	95.44
443.371	91.44
443.592	85.44
443.813	93.44
444.034	86.44
444.255	92.44
444.476	101.44
444.698	99.44
444.919	99.44
445.14	242.44
445.361	163.44
445.582	95.44
445.803	92.44
446.024	100.44
446.245	89.44
446.466	98.44
446.687	81.44
446.908	91.44
447.129	114.44
447.35	92.44
447.571	91.44
447.792	82.44
448.013	78.44
448.234	84.44
448.455	72.44
448.675	85.44
448.896	89.44
449.117	87.44
449.338	87.44
449.559	83.44
449.779	82.44
450	95.44
450.221	88.44
450.442	85.44
450.662	92.44
450.883	87.44
451.104	95.44
451.324	86.44
451.545	89.44
451.766	98.44
451.986	95.44
452.207	98.44
452.428	86.44
452.648	88.44
452.869	100.44
453.089	97.44
453.31	87.44
453.53	76.44
453.751	81.44
453.971	85.44
454.192	82.44
454.412	76.44
454.633	76.44
454.853	96.44
455.073	89.44
455.294	87.44
455.514	95.44
455.734	78.44
455.955	95.44
456.175	100.44
456.395	85.44
456.616	89.44
456.836	108.44
457.056	79.44
457.276	99.44
457.497	81.44
457.717	89.44
457.937	84.44
458.157	95.44
458.377	86.44
458.598	71.44
458.818	96.44
459.038	91.44
459.258	89.44
459.478	87.44
459.698	84.44
459.918	98.44
460.138	90.44
460.358	90.44
460.578	106.44
460.798	77.44
461.018	79.44
461.238	108.44
461.458	87.44
461.678	97.44
461.898	87.44
462.118	94.44
462.338	93.44
462.558	93.44
462.777	88.44
462.997	91.44
463.217	95.44
463.437	96.44
463.657	84.44
463.876	79.44
464.096	101.44
464.316	84.44
464.536	98.44
464.755	93.44
464.975	79.44
465.195	83.44
465.414	97.44
465.634	88.44
465.854	83.44
466.073	88.44
466.293	84.44
466.512	100.44
466.732	84.44
466.951	84.44
467.171	92.44
467.391	86.44
467.61	97.44
467.829	139.44
468.049	271.44
468.268	471.44
468.488	189.44
468.707	98.44
468.927	93.44
469.146	84.44
469.365	102.44
469.585	85.44
469.804	84.44
470.023	93.44
470.243	82.44
470.462	92.44
470.681	101.44
470.901	94.44
471.12	87.44
471.339	96.44
471.558	100.44
471.777	107.44
471.997	172.44
472.216	408.44
472.435	1007.44
472.654	399.44
472.873	131.44
473.092	81.44
473.311	98.44
473.53	87.44
473.749	97.44
473.968	83.44
474.187	99.44
474.406	91.44
474.625	93.44
474.844	84.44
475.063	101.44
475.282	100.44
475.501	95.44
475.72	94.44
475.939	87.44
476.158	88.44
476.377	91.44
476.596	87.44
476.814	79.44
477.033	80.44
477.252	86.44
477.471	93.44
477.69	95.44
477.908	92.44
478.127	89.44
478.346	88.44
478.564	100.44
478.783	89.44
479.002	83.44
479.22	81.44
479.439	107.44
479.658	91.44
479.876	91.44
480.095	96.44
480.313	95.44
480.532	116.44
480.751	164.44
480.969	326.44
481.188	1275.44
481.406	1192.44
481.624	215.44
481.843	104.44
482.061	91.44
482.28	84.44
482.498	95.44
482.717	93.44
482.935	110.44
483.153	95.44
483.372	89.44
483.59	85.44
483.808	94.44
484.027	96.44
484.245	90.44
484.463	84.44
484.681	99.44
484.9	86.44
485.118	81.44
485.336	89.44
485.554	75.44
485.772	89.44
485.99	95.44
486.209	106.44
486.427	98.44
486.645	102.44
486.863	107.44
487.081	97.44
487.299	98.44
487.517	93.44
487.735	93.44
487.953	86.44
488.171	100.44
488.389	91.44
488.607	112.44
488.825	92.44
489.043	100.44
489.261	95.44
489.479	86.44
489.696	82.44
489.914	89.44
490.132	90.44
490.35	98.44
490.568	95.44
490.786	81.44
491.003	93.44
491.221	95.44
491.439	90.44
491.657	96.44
491.874	89.44
492.092	107.44
492.31	101.44
492.527	96.44
492.745	99.44
492.963	100.44
493.18	95.44
493.398	107.44
493.615	102.44
493.833	87.44
494.05	85.44
494.268	83.44
494.485	95.44
494.703	104.44
494.92	95.44
495.138	98.44
495.355	98.44
495.573	109.44
495.79	101.44
496.008	98.44
496.225	87.44
496.442	96.44
496.66	94.44
496.877	94.44
497.094	95.44
497.312	93.44
497.529	87.44
497.746	87.44
497.963	88.44
498.181	97.44
498.398	88.44
498.615	88.44
498.832	93.44
499.049	93.44
499.267	97.44
499.484	86.44
499.701	89.44
499.918	100.44
500.135	85.44
500.352	81.44
500.569	85.44
500.786	93.44
501.003	93.44
501.22	93.44
501.437	92.44
501.654	98.44
501.871	89.44
502.088	81.44
502.305	82.44
502.522	99.44
502.739	82.44
502.956	90.44
503.172	90.44
503.389	94.44
503.606	101.44
503.823	89.44
504.04	88.44
504.256	85.44
504.473	77.44
504.69	89.44
504.907	94.44
505.123	70.44
505.34	90.44
505.557	88.44
505.773	101.44
505.99	84.44
506.207	93.44
506.423	86.44
506.64	90.44
506.856	77.44
507.073	85.44
507.289	87.44
507.506	105.44
507.722	90.44
507.939	90.44
508.155	97.44
508.372	97.44
508.588	84.44
508.805	95.44
509.021	91.44
509.238	94.44
509.454	81.44
509.67	97.44
509.887	111.44
510.103	92.44
510.319	107.44
510.536	95.44
510.752	84.44
510.968	82.44
511.184	97.44
511.401	84.44
511.617	79.44
511.833	97.44
512.049	100.44
512.265	93.44
512.481	90.44
512.698	82.44
512.914	83.44
513.13	94.44
513.346	97.44
513.562	91.44
513.778	84.44
513.994	80.44
514.21	97.44
514.426	106.44
514.642	92.44
514.858	100.44
515.074	91.44
515.29	99.44
515.506	87.44
515.721	98.44
515.937	85.44
516.153	89.44
516.369	82.44
516.585	97.44
