Data from FlinnAP9092KCOPPER.07152019.QSWITCHSynchronous.EN10.20scans.P1_HRD10591_14-49-24-574.txt Node
Date: Mon Jul 15 14:49:24 EDT 2019
User: cochatt
Spectrometer: HR+D1059
Trigger mode: 5
Integration Time (sec): 1.000000E-1
Scans to average: 1
Electric dark correction enabled: true
Nonlinearity correction enabled: false
Boxcar width: 0
XAxis mode: Wavelengths
Number of Pixels in Spectrum: 2048
>>>>>Begin Spectral Data<<<<<
223.165	-20.88
223.4	-20.88
223.635	-20.88
223.869	-38.88
224.104	-40.88
224.338	15.12
224.573	-20.88
224.808	-1.88
225.042	8.12
225.277	-13.88
225.511	-7.88
225.746	12.12
225.98	13.12
226.215	8.12
226.449	19.12
226.683	8.12
226.918	33.12
227.152	28.12
227.387	30.12
227.621	42.12
227.856	64.12
228.09	34.12
228.324	64.12
228.559	79.12
228.793	95.12
229.027	199.12
229.262	197.12
229.496	227.12
229.73	278.12
229.964	357.12
230.199	244.12
230.433	202.12
230.667	233.12
230.901	203.12
231.136	208.12
231.37	195.12
231.604	201.12
231.838	193.12
232.072	194.12
232.306	204.12
232.541	198.12
232.775	204.12
233.009	202.12
233.243	203.12
233.477	200.12
233.711	214.12
233.945	229.12
234.179	201.12
234.413	243.12
234.647	224.12
234.881	213.12
235.115	216.12
235.349	208.12
235.583	222.12
235.817	222.12
236.051	222.12
236.285	236.12
236.519	244.12
236.753	250.12
236.987	278.12
237.221	363.12
237.455	522.12
237.689	397.12
237.922	286.12
238.156	265.12
238.39	259.12
238.624	257.12
238.858	254.12
239.091	234.12
239.325	237.12
239.559	253.12
239.793	237.12
240.027	283.12
240.26	295.12
240.494	339.12
240.728	314.12
240.961	313.12
241.195	307.12
241.429	291.12
241.662	257.12
241.896	239.12
242.13	272.12
242.363	257.12
242.597	277.12
242.83	301.12
243.064	264.12
243.298	293.12
243.531	281.12
243.765	280.12
243.998	280.12
244.232	301.12
244.465	311.12
244.699	290.12
244.932	285.12
245.166	295.12
245.399	311.12
245.633	301.12
245.866	296.12
246.099	286.12
246.333	292.12
246.566	313.12
246.8	308.12
247.033	307.12
247.266	325.12
247.5	343.12
247.733	353.12
247.966	374.12
248.2	355.12
248.433	343.12
248.666	378.12
248.899	391.12
249.133	438.12
249.366	495.12
249.599	409.12
249.832	378.12
250.066	394.12
250.299	372.12
250.532	395.12
250.765	411.12
250.998	479.12
251.231	517.12
251.465	460.12
251.698	420.12
251.931	374.12
252.164	404.12
252.397	397.12
252.63	396.12
252.863	422.12
253.096	473.12
253.329	526.12
253.562	489.12
253.795	455.12
254.028	457.12
254.261	448.12
254.494	490.12
254.727	604.12
254.96	649.12
255.193	585.12
255.426	511.12
255.659	479.12
255.892	468.12
256.124	443.12
256.357	439.12
256.59	450.12
256.823	424.12
257.056	452.12
257.289	436.12
257.521	444.12
257.754	429.12
257.987	439.12
258.22	449.12
258.452	430.12
258.685	435.12
258.918	437.12
259.151	444.12
259.383	468.12
259.616	462.12
259.849	489.12
260.081	531.12
260.314	569.12
260.547	591.12
260.779	545.12
261.012	515.12
261.244	482.12
261.477	497.12
261.71	462.12
261.942	487.12
262.175	526.12
262.407	503.12
262.64	461.12
262.872	465.12
263.105	448.12
263.337	474.12
263.57	463.12
263.802	485.12
264.035	466.12
264.267	458.12
264.499	458.12
264.732	477.12
264.964	455.12
265.197	460.12
265.429	491.12
265.661	488.12
265.894	464.12
266.126	513.12
266.358	475.12
266.591	506.12
266.823	539.12
267.055	505.12
267.287	528.12
267.52	501.12
267.752	524.12
267.984	498.12
268.216	507.12
268.448	514.12
268.681	552.12
268.913	572.12
269.145	612.12
269.377	673.12
269.609	621.12
269.841	609.12
270.073	598.12
270.306	690.12
270.538	723.12
270.77	726.12
271.002	676.12
271.234	660.12
271.466	703.12
271.698	715.12
271.93	772.12
272.162	745.12
272.394	759.12
272.626	693.12
272.858	650.12
273.09	638.12
273.322	609.12
273.553	581.12
273.785	591.12
274.017	590.12
274.249	598.12
274.481	585.12
274.713	594.12
274.945	645.12
275.176	603.12
275.408	609.12
275.64	587.12
275.872	575.12
276.104	615.12
276.335	626.12
276.567	611.12
276.799	650.12
277.031	693.12
277.262	755.12
277.494	780.12
277.726	687.12
277.957	649.12
278.189	630.12
278.421	655.12
278.652	591.12
278.884	615.12
279.115	596.12
279.347	619.12
279.579	628.12
279.81	599.12
280.042	612.12
280.273	619.12
280.505	601.12
280.736	605.12
280.968	574.12
281.199	600.12
281.431	635.12
281.662	652.12
281.894	636.12
282.125	617.12
282.356	685.12
282.588	716.12
282.819	737.12
283.051	649.12
283.282	640.12
283.513	659.12
283.745	660.12
283.976	666.12
284.207	684.12
284.439	663.12
284.67	702.12
284.901	646.12
285.132	663.12
285.364	645.12
285.595	661.12
285.826	663.12
286.057	679.12
286.288	669.12
286.52	706.12
286.751	681.12
286.982	700.12
287.213	661.12
287.444	686.12
287.675	701.12
287.906	709.12
288.138	749.12
288.369	745.12
288.6	728.12
288.831	714.12
289.062	707.12
289.293	702.12
289.524	697.12
289.755	687.12
289.986	685.12
290.217	696.12
290.448	703.12
290.679	692.12
290.91	711.12
291.141	684.12
291.371	678.12
291.602	692.12
291.833	655.12
292.064	664.12
292.295	697.12
292.526	689.12
292.757	681.12
292.987	711.12
293.218	686.12
293.449	670.12
293.68	709.12
293.91	683.12
294.141	709.12
294.372	698.12
294.603	696.12
294.833	687.12
295.064	695.12
295.295	710.12
295.525	676.12
295.756	720.12
295.987	717.12
296.217	775.12
296.448	781.12
296.679	729.12
296.909	694.12
297.14	710.12
297.37	720.12
297.601	717.12
297.831	720.12
298.062	737.12
298.292	747.12
298.523	742.12
298.753	753.12
298.984	748.12
299.214	737.12
299.445	734.12
299.675	743.12
299.905	761.12
300.136	750.12
300.366	753.12
300.597	745.12
300.827	746.12
301.057	745.12
301.288	788.12
301.518	785.12
301.748	790.12
301.979	788.12
302.209	793.12
302.439	781.12
302.669	787.12
302.9	771.12
303.13	782.12
303.36	793.12
303.59	773.12
303.82	802.12
304.051	802.12
304.281	783.12
304.511	790.12
304.741	750.12
304.971	769.12
305.201	767.12
305.431	788.12
305.661	761.12
305.891	744.12
306.121	802.12
306.352	764.12
306.582	789.12
306.812	771.12
307.042	781.12
307.272	748.12
307.502	749.12
307.731	782.12
307.961	781.12
308.191	776.12
308.421	763.12
308.651	779.12
308.881	760.12
309.111	754.12
309.341	758.12
309.571	790.12
309.8	818.12
310.03	847.12
310.26	853.12
310.49	848.12
310.72	863.12
310.949	900.12
311.179	935.12
311.409	855.12
311.639	859.12
311.868	895.12
312.098	879.12
312.328	878.12
312.557	945.12
312.787	963.12
313.017	966.12
313.246	919.12
313.476	863.12
313.706	853.12
313.935	877.12
314.165	934.12
314.394	947.12
314.624	956.12
314.853	907.12
315.083	884.12
315.312	849.12
315.542	844.12
315.771	860.12
316.001	847.12
316.23	823.12
316.46	819.12
316.689	845.12
316.919	814.12
317.148	892.12
317.377	935.12
317.607	864.12
317.836	869.12
318.065	857.12
318.295	854.12
318.524	846.12
318.753	839.12
318.983	829.12
319.212	852.12
319.441	843.12
319.67	855.12
319.9	844.12
320.129	855.12
320.358	863.12
320.587	893.12
320.816	858.12
321.046	871.12
321.275	895.12
321.504	872.12
321.733	870.12
321.962	882.12
322.191	919.12
322.42	922.12
322.649	958.12
322.878	1014.12
323.108	1003.12
323.337	1077.12
323.566	1113.12
323.795	1158.12
324.024	1207.12
324.253	1458.12
324.482	2204.12
324.71	3586.12
324.939	5735.12
325.168	4973.12
325.397	2078.12
325.626	1308.12
325.855	1121.12
326.084	1054.12
326.313	1045.12
326.542	1085.12
326.77	1217.12
326.999	1430.12
327.228	2006.12
327.457	3250.12
327.686	4285.12
327.914	2526.12
328.143	1537.12
328.372	1316.12
328.6	1238.12
328.829	1225.12
329.058	1261.12
329.287	1331.12
329.515	1235.12
329.744	1135.12
329.972	1053.12
330.201	1064.12
330.43	1115.12
330.658	1230.12
330.887	1452.12
331.115	1449.12
331.344	1170.12
331.572	1109.12
331.801	1095.12
332.03	1135.12
332.258	1094.12
332.486	1073.12
332.715	1057.12
332.943	1082.12
333.172	1121.12
333.4	1123.12
333.629	1164.12
333.857	1183.12
334.085	1173.12
334.314	1151.12
334.542	1150.12
334.771	1120.12
334.999	1131.12
335.227	1115.12
335.455	1097.12
335.684	1094.12
335.912	1089.12
336.14	1056.12
336.369	1056.12
336.597	1097.12
336.825	1068.12
337.053	1052.12
337.281	1023.12
337.51	1007.12
337.738	1040.12
337.966	1040.12
338.194	1003.12
338.422	1035.12
338.65	1029.12
338.878	1006.12
339.106	964.12
339.334	1017.12
339.562	967.12
339.79	957.12
340.018	959.12
340.246	936.12
340.474	975.12
340.702	968.12
340.93	963.12
341.158	959.12
341.386	959.12
341.614	962.12
341.842	975.12
342.07	948.12
342.298	938.12
342.526	929.12
342.754	930.12
342.981	934.12
343.209	949.12
343.437	989.12
343.665	1012.12
343.893	1062.12
344.12	1090.12
344.348	1076.12
344.576	1035.12
344.804	1041.12
345.031	1010.12
345.259	1052.12
345.487	1034.12
345.714	960.12
345.942	943.12
346.17	925.12
346.397	938.12
346.625	908.12
346.853	898.12
347.08	883.12
347.308	912.12
347.535	956.12
347.763	962.12
347.99	952.12
348.218	942.12
348.445	973.12
348.673	953.12
348.9	947.12
349.128	957.12
349.355	887.12
349.583	882.12
349.81	889.12
350.037	867.12
350.265	887.12
350.492	889.12
350.72	891.12
350.947	874.12
351.174	947.12
351.402	925.12
351.629	939.12
351.856	920.12
352.083	947.12
352.311	967.12
352.538	949.12
352.765	973.12
352.992	952.12
353.22	899.12
353.447	911.12
353.674	911.12
353.901	875.12
354.128	852.12
354.355	822.12
354.583	842.12
354.81	852.12
355.037	867.12
355.264	831.12
355.491	840.12
355.718	838.12
355.945	842.12
356.172	834.12
356.399	846.12
356.626	834.12
356.853	860.12
357.08	870.12
357.307	826.12
357.534	849.12
357.761	825.12
357.988	856.12
358.215	820.12
358.441	847.12
358.668	855.12
358.895	856.12
359.122	857.12
359.349	868.12
359.576	891.12
359.802	959.12
360.029	1020.12
360.256	1080.12
360.483	1048.12
360.709	929.12
360.936	947.12
361.163	897.12
361.39	911.12
361.616	924.12
361.843	886.12
362.07	918.12
362.296	932.12
362.523	903.12
362.749	904.12
362.976	907.12
363.203	936.12
363.429	822.12
363.656	881.12
363.882	891.12
364.109	876.12
364.335	867.12
364.562	852.12
364.788	855.12
365.015	874.12
365.241	887.12
365.468	883.12
365.694	884.12
365.92	875.12
366.147	871.12
366.373	851.12
366.599	839.12
366.826	838.12
367.052	856.12
367.278	823.12
367.505	881.12
367.731	884.12
367.957	868.12
368.184	883.12
368.41	886.12
368.636	919.12
368.862	912.12
369.089	919.12
369.315	889.12
369.541	879.12
369.767	894.12
369.993	901.12
370.219	875.12
370.445	847.12
370.672	903.12
370.898	879.12
371.124	885.12
371.35	887.12
371.576	888.12
371.802	884.12
372.028	861.12
372.254	908.12
372.48	885.12
372.706	908.12
372.932	911.12
373.158	915.12
373.384	943.12
373.61	932.12
373.835	933.12
374.061	906.12
374.287	897.12
374.513	910.12
374.739	928.12
374.965	926.12
375.191	996.12
375.416	963.12
375.642	947.12
375.868	954.12
376.094	923.12
376.319	903.12
376.545	898.12
376.771	901.12
376.997	907.12
377.222	901.12
377.448	904.12
377.674	921.12
377.899	887.12
378.125	900.12
378.35	902.12
378.576	876.12
378.802	882.12
379.027	899.12
379.253	921.12
379.478	889.12
379.704	904.12
379.929	876.12
380.155	899.12
380.38	894.12
380.606	929.12
380.831	927.12
381.057	954.12
381.282	904.12
381.507	898.12
381.733	943.12
381.958	914.12
382.184	904.12
382.409	934.12
382.634	982.12
382.86	968.12
383.085	959.12
383.31	979.12
383.535	990.12
383.761	987.12
383.986	1005.12
384.211	1006.12
384.436	1004.12
384.662	1010.12
384.887	1031.12
385.112	1016.12
385.337	1066.12
385.562	1062.12
385.787	1051.12
386.013	1141.12
386.238	1115.12
386.463	1088.12
386.688	1118.12
386.913	1052.12
387.138	1075.12
387.363	1083.12
387.588	1086.12
387.813	1102.12
388.038	1056.12
388.263	1074.12
388.488	1094.12
388.713	1063.12
388.938	1074.12
389.163	1085.12
389.387	1083.12
389.612	1040.12
389.837	1056.12
390.062	1040.12
390.287	1079.12
390.512	1041.12
390.736	1078.12
390.961	1097.12
391.186	1090.12
391.411	1117.12
391.636	1177.12
391.86	1173.12
392.085	1185.12
392.31	1189.12
392.534	1147.12
392.759	1132.12
392.984	1114.12
393.208	1125.12
393.433	1137.12
393.658	1130.12
393.882	1117.12
394.107	1102.12
394.331	1130.12
394.556	1121.12
394.78	1146.12
395.005	1129.12
395.229	1126.12
395.454	1196.12
395.678	1203.12
395.903	1213.12
396.127	1265.12
396.352	1244.12
396.576	1157.12
396.801	1130.12
397.025	1157.12
397.249	1178.12
397.474	1237.12
397.698	1252.12
397.922	1245.12
398.147	1285.12
398.371	1253.12
398.595	1322.12
398.82	1305.12
399.044	1363.12
399.268	1480.12
399.492	1685.12
399.717	1815.12
399.941	1883.12
400.165	1852.12
400.389	1734.12
400.613	1524.12
400.837	1454.12
401.062	1373.12
401.286	1369.12
401.51	1352.12
401.734	1339.12
401.958	1399.12
402.182	1386.12
402.406	1457.12
402.63	1435.12
402.854	1436.12
403.078	1459.12
403.302	1463.12
403.526	1513.12
403.75	1525.12
403.974	1523.12
404.198	1507.12
404.422	1571.12
404.645	1564.12
404.869	1532.12
405.093	1564.12
405.317	1548.12
405.541	1598.12
405.765	1522.12
405.988	1525.12
406.212	1524.12
406.436	1608.12
406.66	1712.12
406.883	1622.12
407.107	1678.12
407.331	1771.12
407.555	1977.12
407.778	2007.12
408.002	1805.12
408.226	1653.12
408.449	1610.12
408.673	1611.12
408.896	1679.12
409.12	1731.12
409.344	1622.12
409.567	1511.12
409.791	1489.12
410.014	1459.12
410.238	1464.12
410.461	1487.12
410.685	1451.12
410.908	1501.12
411.132	1607.12
411.355	1665.12
411.578	1557.12
411.802	1449.12
412.025	1407.12
412.249	1447.12
412.472	1432.12
412.695	1425.12
412.919	1430.12
413.142	1410.12
413.365	1377.12
413.589	1405.12
413.812	1382.12
414.035	1438.12
414.258	1380.12
414.482	1380.12
414.705	1410.12
414.928	1402.12
415.151	1375.12
415.374	1373.12
415.597	1389.12
415.821	1360.12
416.044	1398.12
416.267	1414.12
416.49	1405.12
416.713	1376.12
416.936	1412.12
417.159	1396.12
417.382	1438.12
417.605	1417.12
417.828	1473.12
418.051	1524.12
418.274	1491.12
418.497	1443.12
418.72	1430.12
418.943	1452.12
419.166	1519.12
419.389	1629.12
419.611	1559.12
419.834	1532.12
420.057	1543.12
420.28	1476.12
420.503	1460.12
420.726	1452.12
420.948	1490.12
421.171	1660.12
421.394	1697.12
421.617	1539.12
421.839	1510.12
422.062	1522.12
422.285	1508.12
422.507	1675.12
422.73	1905.12
422.953	1774.12
423.175	1615.12
423.398	1580.12
423.621	1613.12
423.843	1695.12
424.066	1689.12
424.288	1627.12
424.511	1721.12
424.733	1822.12
424.956	2022.12
425.178	1921.12
425.401	1926.12
425.623	2008.12
425.846	1674.12
426.068	1553.12
426.291	1535.12
426.513	1573.12
426.735	1560.12
426.958	1647.12
427.18	1881.12
427.402	2225.12
427.625	2460.12
427.847	2014.12
428.069	1702.12
428.292	1537.12
428.514	1460.12
428.736	1422.12
428.958	1419.12
429.181	1403.12
429.403	1374.12
429.625	1387.12
429.847	1473.12
430.069	1721.12
430.292	1693.12
430.514	1422.12
430.736	1416.12
430.958	1411.12
431.18	1344.12
431.402	1328.12
431.624	1291.12
431.846	1242.12
432.068	1222.12
432.29	1227.12
432.512	1277.12
432.734	1385.12
432.956	1381.12
433.178	1452.12
433.4	1475.12
433.622	1393.12
433.844	1354.12
434.066	1299.12
434.287	1267.12
434.509	1259.12
434.731	1286.12
434.953	1363.12
435.175	1510.12
435.397	1608.12
435.618	1524.12
435.84	1645.12
436.062	1985.12
436.284	2062.12
436.505	1713.12
436.727	1551.12
436.949	1491.12
437.17	1442.12
437.392	1380.12
437.614	1398.12
437.835	1403.12
438.057	1659.12
438.278	1946.12
438.5	1913.12
438.721	2274.12
438.943	2179.12
439.165	1711.12
439.386	1625.12
439.608	1653.12
439.829	1634.12
440.05	1768.12
440.272	1922.12
440.493	1776.12
440.715	1618.12
440.936	1566.12
441.158	1578.12
441.379	1581.12
441.6	1667.12
441.822	1709.12
442.043	1810.12
442.264	2064.12
442.486	2115.12
442.707	1778.12
442.928	1710.12
443.149	1772.12
443.371	1874.12
443.592	1931.12
443.813	2166.12
444.034	2317.12
444.255	1915.12
444.476	1787.12
444.698	1781.12
444.919	1813.12
445.14	3338.12
445.361	2469.12
445.582	1919.12
445.803	2106.12
446.024	2404.12
446.245	2369.12
446.466	2142.12
446.687	1834.12
446.908	1709.12
447.129	1619.12
447.35	1569.12
447.571	1542.12
447.792	1504.12
448.013	1495.12
448.234	1525.12
448.455	1628.12
448.675	1959.12
448.896	2282.12
449.117	1874.12
449.338	1733.12
449.559	2130.12
449.779	2393.12
450	1843.12
450.221	1554.12
450.442	1469.12
450.662	1413.12
450.883	1460.12
451.104	1483.12
451.324	1419.12
451.545	1385.12
451.766	1319.12
451.986	1290.12
452.207	1279.12
452.428	1268.12
452.648	1271.12
452.869	1241.12
453.089	1341.12
453.31	1269.12
453.53	1198.12
453.751	1133.12
453.971	1157.12
454.192	1211.12
454.412	1165.12
454.633	1213.12
454.853	1182.12
455.073	1219.12
455.294	1260.12
455.514	1527.12
455.734	1412.12
455.955	1229.12
456.175	1142.12
456.395	1133.12
456.616	1081.12
456.836	1085.12
457.056	1068.12
457.276	1037.12
457.497	1076.12
457.717	1081.12
457.937	1100.12
458.157	1109.12
458.377	1122.12
458.598	1153.12
458.818	1279.12
459.038	1572.12
459.258	1597.12
459.478	1271.12
459.698	1195.12
459.918	1245.12
460.138	1274.12
460.358	1357.12
460.578	1379.12
460.798	1393.12
461.018	1390.12
461.238	1380.12
461.458	1355.12
461.678	1327.12
461.898	1351.12
462.118	1378.12
462.338	1413.12
462.558	1473.12
462.777	1444.12
462.997	1505.12
463.217	1607.12
463.437	1619.12
463.657	1537.12
463.876	1479.12
464.096	1471.12
464.316	1492.12
464.536	1558.12
464.755	1538.12
464.975	1507.12
465.195	1604.12
465.414	1769.12
465.634	1489.12
465.854	1365.12
466.073	1317.12
466.293	1334.12
466.512	1300.12
466.732	1324.12
466.951	1336.12
467.171	1350.12
467.391	1344.12
467.61	1357.12
467.829	1389.12
468.049	1364.12
468.268	1315.12
468.488	1299.12
468.707	1292.12
468.927	1291.12
469.146	1253.12
469.365	1317.12
469.585	1344.12
469.804	1382.12
470.023	1429.12
470.243	1451.12
470.462	1460.12
470.681	1496.12
470.901	1439.12
471.12	1437.12
471.339	1409.12
471.558	1438.12
471.777	1413.12
471.997	1334.12
472.216	1253.12
472.435	1195.12
472.654	1131.12
472.873	1170.12
473.092	1146.12
473.311	1207.12
473.53	1218.12
473.749	1253.12
473.968	1394.12
474.187	1657.12
474.406	1640.12
474.625	1409.12
474.844	1344.12
475.063	1277.12
475.282	1239.12
475.501	1221.12
475.72	1275.12
475.939	1250.12
476.158	1277.12
476.377	1306.12
476.596	1238.12
476.814	1237.12
477.033	1225.12
477.252	1248.12
477.471	1310.12
477.69	1422.12
477.908	1475.12
478.127	1493.12
478.346	1458.12
478.564	1453.12
478.783	1496.12
479.002	1533.12
479.22	1562.12
479.439	1572.12
479.658	1500.12
479.876	1453.12
480.095	1446.12
480.313	1638.12
480.532	1601.12
480.751	1517.12
480.969	1411.12
481.188	1397.12
481.406	1362.12
481.624	1310.12
481.843	1255.12
482.061	1261.12
482.28	1303.12
482.498	1328.12
482.717	1294.12
482.935	1359.12
483.153	1475.12
483.372	1537.12
483.59	1537.12
483.808	1480.12
484.027	1447.12
484.245	1427.12
484.463	1487.12
484.681	1559.12
484.9	1479.12
485.118	1477.12
485.336	1493.12
485.554	1383.12
485.772	1413.12
485.99	1361.12
486.209	1411.12
486.427	1450.12
486.645	1528.12
486.863	1657.12
487.081	1670.12
487.299	1592.12
487.517	1634.12
487.735	1739.12
487.953	1896.12
488.171	1902.12
488.389	1751.12
488.607	1709.12
488.825	1533.12
489.043	1552.12
489.261	1564.12
489.479	1597.12
489.696	1636.12
489.914	1613.12
490.132	1718.12
490.35	1782.12
490.568	1831.12
490.786	1935.12
491.003	1992.12
491.221	2115.12
491.439	2152.12
491.657	2176.12
491.874	2323.12
492.092	2430.12
492.31	2497.12
492.527	2394.12
492.745	2290.12
492.963	2253.12
493.18	2183.12
493.398	2245.12
493.615	2185.12
493.833	2190.12
