Data from FlinnAP9092KCOPPER.07152019.QSWITCHSynchronous.EN10.20scans.P1_HRD10591_14-49-17-574.txt Node
Date: Mon Jul 15 14:49:17 EDT 2019
User: cochatt
Spectrometer: HR+D1059
Trigger mode: 5
Integration Time (sec): 1.000000E-1
Scans to average: 1
Electric dark correction enabled: true
Nonlinearity correction enabled: false
Boxcar width: 0
XAxis mode: Wavelengths
Number of Pixels in Spectrum: 2048
>>>>>Begin Spectral Data<<<<<
223.165	-31.25
223.4	-31.25
223.635	-31.25
223.869	-32.25
224.104	-42.25
224.338	-5.25
224.573	-19.25
224.808	-26.25
225.042	13.75
225.277	2.75
225.511	-2.25
225.746	27.75
225.98	7.75
226.215	20.75
226.449	13.75
226.683	7.75
226.918	24.75
227.152	39.75
227.387	44.75
227.621	25.75
227.856	37.75
228.09	39.75
228.324	54.75
228.559	100.75
228.793	86.75
229.027	192.75
229.262	203.75
229.496	248.75
229.73	272.75
229.964	379.75
230.199	270.75
230.433	220.75
230.667	227.75
230.901	210.75
231.136	205.75
231.37	182.75
231.604	172.75
231.838	195.75
232.072	200.75
232.306	199.75
232.541	201.75
232.775	187.75
233.009	211.75
233.243	195.75
233.477	219.75
233.711	212.75
233.945	222.75
234.179	211.75
234.413	220.75
234.647	210.75
234.881	207.75
235.115	219.75
235.349	222.75
235.583	245.75
235.817	229.75
236.051	261.75
236.285	247.75
236.519	243.75
236.753	245.75
236.987	296.75
237.221	387.75
237.455	531.75
237.689	403.75
237.922	305.75
238.156	263.75
238.39	267.75
238.624	245.75
238.858	268.75
239.091	253.75
239.325	236.75
239.559	257.75
239.793	263.75
240.027	289.75
240.26	316.75
240.494	362.75
240.728	317.75
240.961	319.75
241.195	318.75
241.429	300.75
241.662	259.75
241.896	275.75
242.13	239.75
242.363	259.75
242.597	283.75
242.83	307.75
243.064	286.75
243.298	286.75
243.531	268.75
243.765	290.75
243.998	309.75
244.232	289.75
244.465	299.75
244.699	282.75
244.932	293.75
245.166	307.75
245.399	297.75
245.633	319.75
245.866	303.75
246.099	282.75
246.333	322.75
246.566	315.75
246.8	304.75
247.033	293.75
247.266	318.75
247.5	320.75
247.733	369.75
247.966	372.75
248.2	351.75
248.433	363.75
248.666	361.75
248.899	413.75
249.133	430.75
249.366	476.75
249.599	430.75
249.832	371.75
250.066	391.75
250.299	379.75
250.532	390.75
250.765	427.75
250.998	488.75
251.231	518.75
251.465	456.75
251.698	417.75
251.931	411.75
252.164	426.75
252.397	382.75
252.63	422.75
252.863	443.75
253.096	488.75
253.329	522.75
253.562	498.75
253.795	474.75
254.028	485.75
254.261	455.75
254.494	493.75
254.727	590.75
254.96	663.75
255.193	617.75
255.426	511.75
255.659	471.75
255.892	505.75
256.124	433.75
256.357	442.75
256.59	454.75
256.823	429.75
257.056	453.75
257.289	459.75
257.521	445.75
257.754	441.75
257.987	423.75
258.22	448.75
258.452	435.75
258.685	445.75
258.918	428.75
259.151	450.75
259.383	495.75
259.616	477.75
259.849	477.75
260.081	528.75
260.314	590.75
260.547	578.75
260.779	544.75
261.012	529.75
261.244	457.75
261.477	532.75
261.71	494.75
261.942	493.75
262.175	547.75
262.407	493.75
262.64	487.75
262.872	477.75
263.105	453.75
263.337	486.75
263.57	478.75
263.802	464.75
264.035	459.75
264.267	460.75
264.499	476.75
264.732	465.75
264.964	474.75
265.197	492.75
265.429	493.75
265.661	461.75
265.894	478.75
266.126	494.75
266.358	493.75
266.591	485.75
266.823	500.75
267.055	521.75
267.287	528.75
267.52	534.75
267.752	525.75
267.984	513.75
268.216	508.75
268.448	550.75
268.681	522.75
268.913	563.75
269.145	638.75
269.377	683.75
269.609	625.75
269.841	603.75
270.073	652.75
270.306	683.75
270.538	791.75
270.77	751.75
271.002	733.75
271.234	647.75
271.466	732.75
271.698	738.75
271.93	751.75
272.162	770.75
272.394	763.75
272.626	692.75
272.858	673.75
273.09	648.75
273.322	635.75
273.553	569.75
273.785	607.75
274.017	594.75
274.249	598.75
274.481	603.75
274.713	606.75
274.945	621.75
275.176	587.75
275.408	596.75
275.64	611.75
275.872	575.75
276.104	641.75
276.335	617.75
276.567	641.75
276.799	634.75
277.031	733.75
277.262	799.75
277.494	785.75
277.726	735.75
277.957	663.75
278.189	630.75
278.421	611.75
278.652	614.75
278.884	629.75
279.115	619.75
279.347	610.75
279.579	612.75
279.81	624.75
280.042	610.75
280.273	602.75
280.505	590.75
280.736	621.75
280.968	598.75
281.199	633.75
281.431	641.75
281.662	636.75
281.894	675.75
282.125	651.75
282.356	673.75
282.588	718.75
282.819	756.75
283.051	667.75
283.282	650.75
283.513	675.75
283.745	666.75
283.976	673.75
284.207	677.75
284.439	675.75
284.67	668.75
284.901	673.75
285.132	660.75
285.364	644.75
285.595	667.75
285.826	667.75
286.057	705.75
286.288	681.75
286.52	679.75
286.751	654.75
286.982	703.75
287.213	677.75
287.444	695.75
287.675	689.75
287.906	756.75
288.138	757.75
288.369	735.75
288.6	722.75
288.831	710.75
289.062	743.75
289.293	711.75
289.524	708.75
289.755	699.75
289.986	693.75
290.217	689.75
290.448	698.75
290.679	697.75
290.91	703.75
291.141	682.75
291.371	681.75
291.602	698.75
291.833	676.75
292.064	699.75
292.295	674.75
292.526	697.75
292.757	687.75
292.987	699.75
293.218	701.75
293.449	708.75
293.68	717.75
293.91	694.75
294.141	698.75
294.372	703.75
294.603	687.75
294.833	706.75
295.064	685.75
295.295	689.75
295.525	699.75
295.756	730.75
295.987	738.75
296.217	750.75
296.448	818.75
296.679	777.75
296.909	717.75
297.14	717.75
297.37	757.75
297.601	742.75
297.831	725.75
298.062	736.75
298.292	740.75
298.523	765.75
298.753	738.75
298.984	729.75
299.214	732.75
299.445	773.75
299.675	765.75
299.905	758.75
300.136	763.75
300.366	731.75
300.597	759.75
300.827	767.75
301.057	769.75
301.288	820.75
301.518	827.75
301.748	786.75
301.979	811.75
302.209	796.75
302.439	802.75
302.669	805.75
302.9	797.75
303.13	777.75
303.36	801.75
303.59	771.75
303.82	819.75
304.051	825.75
304.281	820.75
304.511	814.75
304.741	778.75
304.971	788.75
305.201	756.75
305.431	794.75
305.661	783.75
305.891	783.75
306.121	791.75
306.352	802.75
306.582	778.75
306.812	754.75
307.042	789.75
307.272	790.75
307.502	768.75
307.731	785.75
307.961	775.75
308.191	747.75
308.421	744.75
308.651	788.75
308.881	774.75
309.111	778.75
309.341	787.75
309.571	815.75
309.8	832.75
310.03	827.75
310.26	873.75
310.49	831.75
310.72	876.75
310.949	933.75
311.179	959.75
311.409	886.75
311.639	858.75
311.868	868.75
312.098	889.75
312.328	870.75
312.557	945.75
312.787	971.75
313.017	985.75
313.246	914.75
313.476	852.75
313.706	878.75
313.935	895.75
314.165	937.75
314.394	976.75
314.624	953.75
314.853	947.75
315.083	901.75
315.312	883.75
315.542	857.75
315.771	861.75
316.001	858.75
316.23	841.75
316.46	837.75
316.689	872.75
316.919	875.75
317.148	917.75
317.377	921.75
317.607	878.75
317.836	893.75
318.065	866.75
318.295	854.75
318.524	821.75
318.753	817.75
318.983	826.75
319.212	843.75
319.441	852.75
319.67	893.75
319.9	857.75
320.129	873.75
320.358	875.75
320.587	864.75
320.816	900.75
321.046	891.75
321.275	895.75
321.504	839.75
321.733	871.75
321.962	899.75
322.191	939.75
322.42	959.75
322.649	987.75
322.878	1016.75
323.108	1034.75
323.337	1040.75
323.566	1075.75
323.795	1168.75
324.024	1246.75
324.253	1493.75
324.482	2215.75
324.71	3705.75
324.939	5823.75
325.168	5027.75
325.397	2075.75
325.626	1349.75
325.855	1103.75
326.084	1084.75
326.313	1063.75
326.542	1093.75
326.77	1217.75
326.999	1453.75
327.228	2013.75
327.457	3332.75
327.686	4440.75
327.914	2627.75
328.143	1546.75
328.372	1311.75
328.6	1300.75
328.829	1243.75
329.058	1297.75
329.287	1413.75
329.515	1246.75
329.744	1145.75
329.972	1062.75
330.201	1109.75
330.43	1128.75
330.658	1240.75
330.887	1451.75
331.115	1457.75
331.344	1211.75
331.572	1143.75
331.801	1130.75
332.03	1163.75
332.258	1113.75
332.486	1043.75
332.715	1030.75
332.943	1108.75
333.172	1103.75
333.4	1160.75
333.629	1191.75
333.857	1215.75
334.085	1195.75
334.314	1169.75
334.542	1161.75
334.771	1147.75
334.999	1126.75
335.227	1114.75
335.455	1121.75
335.684	1136.75
335.912	1065.75
336.14	1070.75
336.369	1054.75
336.597	1108.75
336.825	1091.75
337.053	1047.75
337.281	1033.75
337.51	1030.75
337.738	1058.75
337.966	1034.75
338.194	1033.75
338.422	1030.75
338.65	1021.75
338.878	1034.75
339.106	1004.75
339.334	1022.75
339.562	978.75
339.79	945.75
340.018	962.75
340.246	957.75
340.474	1022.75
340.702	1026.75
340.93	951.75
341.158	985.75
341.386	950.75
341.614	994.75
341.842	1012.75
342.07	947.75
342.298	969.75
342.526	975.75
342.754	919.75
342.981	932.75
343.209	933.75
343.437	1015.75
343.665	995.75
343.893	1070.75
344.12	1116.75
344.348	1089.75
344.576	1023.75
344.804	1042.75
345.031	1017.75
345.259	1033.75
345.487	1047.75
345.714	974.75
345.942	966.75
346.17	939.75
346.397	934.75
346.625	925.75
346.853	934.75
347.08	921.75
347.308	929.75
347.535	957.75
347.763	999.75
347.99	971.75
348.218	966.75
348.445	995.75
348.673	966.75
348.9	932.75
349.128	912.75
349.355	863.75
349.583	869.75
349.81	861.75
350.037	899.75
350.265	889.75
350.492	870.75
350.72	901.75
350.947	890.75
351.174	933.75
351.402	937.75
351.629	951.75
351.856	909.75
352.083	928.75
352.311	949.75
352.538	967.75
352.765	982.75
352.992	958.75
353.22	912.75
353.447	915.75
353.674	929.75
353.901	863.75
354.128	861.75
354.355	860.75
354.583	894.75
354.81	884.75
355.037	897.75
355.264	848.75
355.491	845.75
355.718	819.75
355.945	855.75
356.172	832.75
356.399	855.75
356.626	823.75
356.853	849.75
357.08	857.75
357.307	878.75
357.534	834.75
357.761	832.75
357.988	868.75
358.215	827.75
358.441	852.75
358.668	846.75
358.895	868.75
359.122	859.75
359.349	854.75
359.576	922.75
359.802	963.75
360.029	1038.75
360.256	1110.75
360.483	1057.75
360.709	965.75
360.936	950.75
361.163	915.75
361.39	912.75
361.616	934.75
361.843	920.75
362.07	927.75
362.296	933.75
362.523	908.75
362.749	869.75
362.976	915.75
363.203	909.75
363.429	853.75
363.656	881.75
363.882	874.75
364.109	881.75
364.335	886.75
364.562	860.75
364.788	850.75
365.015	889.75
365.241	882.75
365.468	903.75
365.694	883.75
365.92	903.75
366.147	868.75
366.373	866.75
366.599	853.75
366.826	864.75
367.052	848.75
367.278	868.75
367.505	857.75
367.731	918.75
367.957	888.75
368.184	887.75
368.41	909.75
368.636	909.75
368.862	930.75
369.089	890.75
369.315	896.75
369.541	901.75
369.767	893.75
369.993	878.75
370.219	888.75
370.445	883.75
370.672	886.75
370.898	871.75
371.124	885.75
371.35	882.75
371.576	908.75
371.802	895.75
372.028	901.75
372.254	894.75
372.48	891.75
372.706	893.75
372.932	917.75
373.158	926.75
373.384	938.75
373.61	927.75
373.835	937.75
374.061	908.75
374.287	921.75
374.513	949.75
374.739	953.75
374.965	965.75
375.191	978.75
375.416	981.75
375.642	955.75
375.868	977.75
376.094	937.75
376.319	917.75
376.545	923.75
376.771	918.75
376.997	925.75
377.222	901.75
377.448	923.75
377.674	909.75
377.899	905.75
378.125	893.75
378.35	901.75
378.576	896.75
378.802	894.75
379.027	924.75
379.253	917.75
379.478	885.75
379.704	884.75
379.929	922.75
380.155	918.75
380.38	962.75
380.606	921.75
380.831	935.75
381.057	973.75
381.282	915.75
381.507	919.75
381.733	953.75
381.958	921.75
382.184	912.75
382.409	942.75
382.634	980.75
382.86	968.75
383.085	998.75
383.31	1017.75
383.535	1001.75
383.761	995.75
383.986	1013.75
384.211	1011.75
384.436	1020.75
384.662	1041.75
384.887	1065.75
385.112	1013.75
385.337	1057.75
385.562	1083.75
385.787	1053.75
386.013	1167.75
386.238	1147.75
386.463	1115.75
386.688	1101.75
386.913	1093.75
387.138	1084.75
387.363	1089.75
387.588	1081.75
387.813	1109.75
388.038	1061.75
388.263	1093.75
388.488	1062.75
388.713	1081.75
388.938	1099.75
389.163	1095.75
389.387	1078.75
389.612	1069.75
389.837	1057.75
390.062	1084.75
390.287	1079.75
390.512	1073.75
390.736	1062.75
390.961	1064.75
391.186	1103.75
391.411	1120.75
391.636	1111.75
391.86	1186.75
392.085	1169.75
392.31	1195.75
392.534	1162.75
392.759	1161.75
392.984	1130.75
393.208	1128.75
393.433	1122.75
393.658	1129.75
393.882	1155.75
394.107	1139.75
394.331	1167.75
394.556	1123.75
394.78	1153.75
395.005	1167.75
395.229	1167.75
395.454	1201.75
395.678	1224.75
395.903	1241.75
396.127	1269.75
396.352	1237.75
396.576	1167.75
396.801	1161.75
397.025	1180.75
397.249	1217.75
397.474	1255.75
397.698	1230.75
397.922	1277.75
398.147	1279.75
398.371	1310.75
398.595	1301.75
398.82	1319.75
399.044	1371.75
399.268	1506.75
399.492	1618.75
399.717	1858.75
399.941	1897.75
400.165	1846.75
400.389	1728.75
400.613	1543.75
400.837	1449.75
401.062	1420.75
401.286	1388.75
401.51	1385.75
401.734	1331.75
401.958	1374.75
402.182	1385.75
402.406	1423.75
402.63	1446.75
402.854	1449.75
403.078	1477.75
403.302	1474.75
403.526	1549.75
403.75	1539.75
403.974	1510.75
404.198	1514.75
404.422	1541.75
404.645	1550.75
404.869	1562.75
405.093	1569.75
405.317	1620.75
405.541	1657.75
405.765	1575.75
405.988	1526.75
406.212	1581.75
406.436	1631.75
406.66	1680.75
406.883	1647.75
407.107	1664.75
407.331	1837.75
407.555	2008.75
407.778	1993.75
408.002	1825.75
408.226	1670.75
408.449	1637.75
408.673	1632.75
408.896	1653.75
409.12	1773.75
409.344	1679.75
409.567	1548.75
409.791	1525.75
410.014	1543.75
410.238	1461.75
410.461	1514.75
410.685	1503.75
410.908	1515.75
411.132	1638.75
411.355	1674.75
411.578	1610.75
411.802	1488.75
412.025	1465.75
412.249	1429.75
412.472	1469.75
412.695	1422.75
412.919	1420.75
413.142	1422.75
413.365	1392.75
413.589	1433.75
413.812	1369.75
414.035	1433.75
414.258	1402.75
414.482	1360.75
414.705	1393.75
414.928	1416.75
415.151	1401.75
415.374	1408.75
415.597	1404.75
415.821	1411.75
416.044	1414.75
416.267	1439.75
416.49	1406.75
416.713	1359.75
416.936	1408.75
417.159	1388.75
417.382	1402.75
417.605	1437.75
417.828	1468.75
418.051	1519.75
418.274	1514.75
418.497	1465.75
418.72	1444.75
418.943	1483.75
419.166	1548.75
419.389	1585.75
419.611	1561.75
419.834	1494.75
420.057	1551.75
420.28	1516.75
420.503	1464.75
420.726	1448.75
420.948	1544.75
421.171	1669.75
421.394	1687.75
421.617	1589.75
421.839	1537.75
422.062	1523.75
422.285	1551.75
422.507	1702.75
422.73	1885.75
422.953	1781.75
423.175	1615.75
423.398	1597.75
423.621	1652.75
423.843	1720.75
424.066	1722.75
424.288	1669.75
424.511	1781.75
424.733	1825.75
424.956	2020.75
425.178	1917.75
425.401	1917.75
425.623	1975.75
425.846	1641.75
426.068	1562.75
426.291	1548.75
426.513	1532.75
426.735	1592.75
426.958	1696.75
427.18	1881.75
427.402	2329.75
427.625	2454.75
427.847	2026.75
428.069	1706.75
428.292	1555.75
428.514	1470.75
428.736	1414.75
428.958	1435.75
429.181	1409.75
429.403	1396.75
429.625	1397.75
429.847	1505.75
430.069	1707.75
430.292	1704.75
430.514	1441.75
430.736	1463.75
430.958	1408.75
431.18	1351.75
431.402	1344.75
431.624	1312.75
431.846	1250.75
432.068	1217.75
432.29	1218.75
432.512	1294.75
432.734	1397.75
432.956	1409.75
433.178	1451.75
433.4	1463.75
433.622	1442.75
433.844	1388.75
434.066	1353.75
434.287	1279.75
434.509	1250.75
434.731	1324.75
434.953	1429.75
435.175	1522.75
435.397	1589.75
435.618	1538.75
435.84	1655.75
436.062	2021.75
436.284	2167.75
436.505	1733.75
436.727	1609.75
436.949	1440.75
437.17	1439.75
437.392	1386.75
437.614	1396.75
437.835	1437.75
438.057	1687.75
438.278	2003.75
438.5	1975.75
438.721	2285.75
438.943	2177.75
439.165	1690.75
439.386	1644.75
439.608	1664.75
439.829	1683.75
440.05	1770.75
440.272	1979.75
440.493	1764.75
440.715	1634.75
440.936	1579.75
441.158	1611.75
441.379	1608.75
441.6	1686.75
441.822	1744.75
442.043	1794.75
442.264	2060.75
442.486	2157.75
442.707	1800.75
442.928	1736.75
443.149	1797.75
443.371	1898.75
443.592	1896.75
443.813	2175.75
444.034	2357.75
444.255	1961.75
444.476	1798.75
444.698	1827.75
444.919	1852.75
445.14	3542.75
445.361	2537.75
445.582	1955.75
445.803	2099.75
446.024	2422.75
446.245	2424.75
446.466	2162.75
446.687	1845.75
446.908	1719.75
447.129	1627.75
447.35	1546.75
447.571	1572.75
447.792	1521.75
448.013	1458.75
448.234	1535.75
448.455	1654.75
448.675	1985.75
448.896	2283.75
449.117	1905.75
449.338	1709.75
449.559	2129.75
449.779	2373.75
450	1870.75
450.221	1596.75
450.442	1449.75
450.662	1417.75
450.883	1475.75
451.104	1531.75
451.324	1444.75
451.545	1376.75
451.766	1270.75
451.986	1287.75
452.207	1278.75
452.428	1273.75
452.648	1260.75
452.869	1270.75
453.089	1266.75
453.31	1252.75
453.53	1223.75
453.751	1155.75
453.971	1175.75
454.192	1226.75
454.412	1191.75
454.633	1167.75
454.853	1216.75
455.073	1219.75
455.294	1316.75
455.514	1531.75
455.734	1445.75
455.955	1223.75
456.175	1137.75
456.395	1092.75
456.616	1082.75
456.836	1091.75
457.056	1061.75
457.276	1086.75
457.497	1099.75
457.717	1101.75
457.937	1100.75
458.157	1111.75
458.377	1123.75
458.598	1158.75
458.818	1325.75
459.038	1590.75
459.258	1594.75
459.478	1296.75
459.698	1217.75
459.918	1254.75
460.138	1283.75
460.358	1338.75
460.578	1370.75
460.798	1368.75
461.018	1429.75
461.238	1435.75
461.458	1372.75
461.678	1366.75
461.898	1406.75
462.118	1376.75
462.338	1417.75
462.558	1494.75
462.777	1501.75
462.997	1587.75
463.217	1662.75
463.437	1637.75
463.657	1552.75
463.876	1485.75
464.096	1494.75
464.316	1496.75
464.536	1541.75
464.755	1550.75
464.975	1523.75
465.195	1669.75
465.414	1797.75
465.634	1551.75
465.854	1365.75
466.073	1361.75
466.293	1329.75
466.512	1306.75
466.732	1294.75
466.951	1329.75
467.171	1353.75
467.391	1353.75
467.61	1380.75
467.829	1405.75
468.049	1339.75
468.268	1299.75
468.488	1291.75
468.707	1289.75
468.927	1298.75
469.146	1306.75
469.365	1340.75
469.585	1359.75
469.804	1399.75
470.023	1466.75
470.243	1481.75
470.462	1469.75
470.681	1517.75
470.901	1476.75
471.12	1443.75
471.339	1436.75
471.558	1443.75
471.777	1406.75
471.997	1322.75
472.216	1259.75
472.435	1190.75
472.654	1149.75
472.873	1161.75
473.092	1187.75
473.311	1219.75
473.53	1227.75
473.749	1309.75
473.968	1379.75
474.187	1669.75
474.406	1661.75
474.625	1380.75
474.844	1333.75
475.063	1275.75
475.282	1240.75
475.501	1219.75
475.72	1294.75
475.939	1300.75
476.158	1293.75
476.377	1258.75
476.596	1237.75
476.814	1227.75
477.033	1229.75
477.252	1271.75
477.471	1301.75
477.69	1374.75
477.908	1459.75
478.127	1503.75
478.346	1482.75
478.564	1464.75
478.783	1509.75
479.002	1568.75
479.22	1562.75
479.439	1564.75
479.658	1559.75
479.876	1506.75
480.095	1475.75
480.313	1661.75
480.532	1613.75
480.751	1526.75
480.969	1455.75
481.188	1437.75
481.406	1371.75
481.624	1307.75
481.843	1283.75
482.061	1295.75
482.28	1341.75
482.498	1346.75
482.717	1306.75
482.935	1403.75
483.153	1522.75
483.372	1575.75
483.59	1559.75
483.808	1475.75
484.027	1426.75
484.245	1438.75
484.463	1530.75
484.681	1600.75
484.9	1527.75
485.118	1513.75
485.336	1499.75
485.554	1427.75
485.772	1369.75
485.99	1413.75
486.209	1457.75
486.427	1435.75
486.645	1547.75
486.863	1693.75
487.081	1698.75
487.299	1594.75
487.517	1656.75
487.735	1797.75
487.953	1910.75
488.171	1894.75
488.389	1766.75
488.607	1717.75
488.825	1591.75
489.043	1531.75
489.261	1584.75
489.479	1617.75
489.696	1686.75
489.914	1673.75
490.132	1717.75
490.35	1799.75
490.568	1867.75
490.786	1944.75
491.003	2035.75
491.221	2099.75
491.439	2164.75
491.657	2255.75
491.874	2357.75
492.092	2413.75
492.31	2565.75
492.527	2425.75
492.745	2334.75
492.963	2277.75
493.18	2267.75
493.398	2280.75
493.615	2195.75
493.833	2161.75
