Data from FlinnAP9092KCOPPER.07152019.QSWITCHSynchronous.EN10.20scans.P1_HRD10591_14-49-15-574.txt Node
Date: Mon Jul 15 14:49:15 EDT 2019
User: cochatt
Spectrometer: HR+D1059
Trigger mode: 5
Integration Time (sec): 1.000000E-1
Scans to average: 1
Electric dark correction enabled: true
Nonlinearity correction enabled: false
Boxcar width: 0
XAxis mode: Wavelengths
Number of Pixels in Spectrum: 2048
>>>>>Begin Spectral Data<<<<<
223.165	-28.12
223.4	-28.12
223.635	-28.12
223.869	-29.12
224.104	-43.12
224.338	0.88
224.573	-16.12
224.808	-13.12
225.042	19.88
225.277	-0.12
225.511	-10.12
225.746	16.88
225.98	-2.12
226.215	9.88
226.449	19.88
226.683	21.88
226.918	25.88
227.152	26.88
227.387	43.88
227.621	28.88
227.856	63.88
228.09	25.88
228.324	55.88
228.559	90.88
228.793	100.88
229.027	196.88
229.262	216.88
229.496	234.88
229.73	281.88
229.964	373.88
230.199	263.88
230.433	225.88
230.667	211.88
230.901	194.88
231.136	191.88
231.37	193.88
231.604	184.88
231.838	187.88
232.072	213.88
232.306	220.88
232.541	196.88
232.775	195.88
233.009	196.88
233.243	200.88
233.477	214.88
233.711	216.88
233.945	212.88
234.179	205.88
234.413	230.88
234.647	220.88
234.881	217.88
235.115	228.88
235.349	204.88
235.583	235.88
235.817	227.88
236.051	257.88
236.285	244.88
236.519	241.88
236.753	239.88
236.987	289.88
237.221	360.88
237.455	522.88
237.689	407.88
237.922	305.88
238.156	276.88
238.39	257.88
238.624	246.88
238.858	241.88
239.091	241.88
239.325	239.88
239.559	267.88
239.793	269.88
240.027	311.88
240.26	311.88
240.494	345.88
240.728	310.88
240.961	312.88
241.195	296.88
241.429	300.88
241.662	258.88
241.896	253.88
242.13	275.88
242.363	267.88
242.597	259.88
242.83	289.88
243.064	274.88
243.298	287.88
243.531	255.88
243.765	300.88
243.998	290.88
244.232	300.88
244.465	303.88
244.699	279.88
244.932	280.88
245.166	293.88
245.399	303.88
245.633	301.88
245.866	289.88
246.099	284.88
246.333	305.88
246.566	297.88
246.8	308.88
247.033	314.88
247.266	323.88
247.5	325.88
247.733	365.88
247.966	364.88
248.2	360.88
248.433	363.88
248.666	368.88
248.899	423.88
249.133	444.88
249.366	498.88
249.599	441.88
249.832	390.88
250.066	385.88
250.299	379.88
250.532	375.88
250.765	422.88
250.998	483.88
251.231	492.88
251.465	469.88
251.698	394.88
251.931	410.88
252.164	413.88
252.397	409.88
252.63	421.88
252.863	416.88
253.096	458.88
253.329	507.88
253.562	497.88
253.795	477.88
254.028	461.88
254.261	467.88
254.494	471.88
254.727	587.88
254.96	663.88
255.193	607.88
255.426	523.88
255.659	476.88
255.892	462.88
256.124	430.88
256.357	452.88
256.59	452.88
256.823	419.88
257.056	450.88
257.289	442.88
257.521	448.88
257.754	448.88
257.987	436.88
258.22	480.88
258.452	413.88
258.685	455.88
258.918	437.88
259.151	447.88
259.383	488.88
259.616	490.88
259.849	479.88
260.081	544.88
260.314	570.88
260.547	586.88
260.779	545.88
261.012	509.88
261.244	471.88
261.477	516.88
261.71	483.88
261.942	489.88
262.175	542.88
262.407	541.88
262.64	461.88
262.872	483.88
263.105	474.88
263.337	488.88
263.57	467.88
263.802	458.88
264.035	461.88
264.267	460.88
264.499	478.88
264.732	485.88
264.964	469.88
265.197	465.88
265.429	479.88
265.661	489.88
265.894	481.88
266.126	519.88
266.358	490.88
266.591	510.88
266.823	502.88
267.055	519.88
267.287	522.88
267.52	515.88
267.752	524.88
267.984	529.88
268.216	506.88
268.448	552.88
268.681	545.88
268.913	584.88
269.145	634.88
269.377	667.88
269.609	642.88
269.841	633.88
270.073	615.88
270.306	705.88
270.538	753.88
270.77	753.88
271.002	694.88
271.234	668.88
271.466	699.88
271.698	700.88
271.93	764.88
272.162	748.88
272.394	755.88
272.626	691.88
272.858	668.88
273.09	633.88
273.322	599.88
273.553	583.88
273.785	610.88
274.017	585.88
274.249	587.88
274.481	616.88
274.713	581.88
274.945	625.88
275.176	589.88
275.408	611.88
275.64	608.88
275.872	599.88
276.104	590.88
276.335	604.88
276.567	637.88
276.799	685.88
277.031	731.88
277.262	803.88
277.494	797.88
277.726	721.88
277.957	675.88
278.189	629.88
278.421	614.88
278.652	633.88
278.884	601.88
279.115	620.88
279.347	628.88
279.579	626.88
279.81	617.88
280.042	599.88
280.273	596.88
280.505	596.88
280.736	609.88
280.968	624.88
281.199	631.88
281.431	636.88
281.662	629.88
281.894	641.88
282.125	660.88
282.356	721.88
282.588	737.88
282.819	759.88
283.051	655.88
283.282	627.88
283.513	674.88
283.745	645.88
283.976	677.88
284.207	688.88
284.439	652.88
284.67	636.88
284.901	675.88
285.132	645.88
285.364	639.88
285.595	662.88
285.826	667.88
286.057	679.88
286.288	670.88
286.52	678.88
286.751	670.88
286.982	689.88
287.213	674.88
287.444	693.88
287.675	692.88
287.906	712.88
288.138	723.88
288.369	726.88
288.6	737.88
288.831	713.88
289.062	731.88
289.293	716.88
289.524	675.88
289.755	689.88
289.986	672.88
290.217	697.88
290.448	689.88
290.679	695.88
290.91	709.88
291.141	695.88
291.371	679.88
291.602	672.88
291.833	699.88
292.064	683.88
292.295	698.88
292.526	689.88
292.757	710.88
292.987	685.88
293.218	708.88
293.449	714.88
293.68	693.88
293.91	688.88
294.141	698.88
294.372	708.88
294.603	728.88
294.833	696.88
295.064	659.88
295.295	702.88
295.525	694.88
295.756	759.88
295.987	729.88
296.217	787.88
296.448	820.88
296.679	743.88
296.909	721.88
297.14	729.88
297.37	722.88
297.601	698.88
297.831	725.88
298.062	725.88
298.292	753.88
298.523	740.88
298.753	751.88
298.984	741.88
299.214	740.88
299.445	746.88
299.675	740.88
299.905	778.88
300.136	751.88
300.366	724.88
300.597	742.88
300.827	769.88
301.057	766.88
301.288	817.88
301.518	824.88
301.748	794.88
301.979	755.88
302.209	790.88
302.439	825.88
302.669	782.88
302.9	797.88
303.13	788.88
303.36	773.88
303.59	823.88
303.82	799.88
304.051	820.88
304.281	809.88
304.511	812.88
304.741	767.88
304.971	759.88
305.201	783.88
305.431	759.88
305.661	795.88
305.891	754.88
306.121	765.88
306.352	759.88
306.582	770.88
306.812	785.88
307.042	772.88
307.272	760.88
307.502	776.88
307.731	788.88
307.961	773.88
308.191	751.88
308.421	780.88
308.651	783.88
308.881	751.88
309.111	769.88
309.341	769.88
309.571	786.88
309.8	855.88
310.03	854.88
310.26	875.88
310.49	848.88
310.72	882.88
310.949	923.88
311.179	955.88
311.409	887.88
311.639	856.88
311.868	876.88
312.098	884.88
312.328	883.88
312.557	956.88
312.787	979.88
313.017	985.88
313.246	921.88
313.476	869.88
313.706	850.88
313.935	868.88
314.165	922.88
314.394	990.88
314.624	967.88
314.853	908.88
315.083	898.88
315.312	887.88
315.542	832.88
315.771	843.88
316.001	870.88
316.23	861.88
316.46	870.88
316.689	848.88
316.919	864.88
317.148	917.88
317.377	931.88
317.607	908.88
317.836	854.88
318.065	844.88
318.295	853.88
318.524	831.88
318.753	832.88
318.983	859.88
319.212	845.88
319.441	847.88
319.67	899.88
319.9	871.88
320.129	857.88
320.358	853.88
320.587	885.88
320.816	871.88
321.046	877.88
321.275	924.88
321.504	865.88
321.733	872.88
321.962	884.88
322.191	913.88
322.42	933.88
322.649	991.88
322.878	1001.88
323.108	1021.88
323.337	1067.88
323.566	1116.88
323.795	1196.88
324.024	1225.88
324.253	1507.88
324.482	2245.88
324.71	3739.88
324.939	5873.88
325.168	5122.88
325.397	2089.88
325.626	1323.88
325.855	1144.88
326.084	1052.88
326.313	1066.88
326.542	1068.88
326.77	1187.88
326.999	1437.88
327.228	2096.88
327.457	3420.88
327.686	4486.88
327.914	2685.88
328.143	1558.88
328.372	1354.88
328.6	1295.88
328.829	1205.88
329.058	1304.88
329.287	1359.88
329.515	1275.88
329.744	1133.88
329.972	1110.88
330.201	1076.88
330.43	1146.88
330.658	1234.88
330.887	1475.88
331.115	1499.88
331.344	1222.88
331.572	1146.88
331.801	1151.88
332.03	1143.88
332.258	1125.88
332.486	1077.88
332.715	1066.88
332.943	1077.88
333.172	1097.88
333.4	1107.88
333.629	1169.88
333.857	1220.88
334.085	1195.88
334.314	1155.88
334.542	1168.88
334.771	1139.88
334.999	1139.88
335.227	1127.88
335.455	1110.88
335.684	1088.88
335.912	1066.88
336.14	1047.88
336.369	1051.88
336.597	1085.88
336.825	1083.88
337.053	1058.88
337.281	1027.88
337.51	1028.88
337.738	1069.88
337.966	1015.88
338.194	1036.88
338.422	1036.88
338.65	1023.88
338.878	1002.88
339.106	987.88
339.334	1016.88
339.562	962.88
339.79	963.88
340.018	1001.88
340.246	949.88
340.474	999.88
340.702	1008.88
340.93	982.88
341.158	964.88
341.386	977.88
341.614	979.88
341.842	948.88
342.07	936.88
342.298	955.88
342.526	920.88
342.754	917.88
342.981	956.88
343.209	917.88
343.437	1001.88
343.665	1013.88
343.893	1067.88
344.12	1142.88
344.348	1067.88
344.576	1042.88
344.804	1009.88
345.031	1042.88
345.259	1062.88
345.487	1023.88
345.714	978.88
345.942	930.88
346.17	916.88
346.397	923.88
346.625	905.88
346.853	939.88
347.08	895.88
347.308	951.88
347.535	917.88
347.763	941.88
347.99	967.88
348.218	979.88
348.445	973.88
348.673	988.88
348.9	948.88
349.128	916.88
349.355	873.88
349.583	893.88
349.81	872.88
350.037	887.88
350.265	901.88
350.492	884.88
350.72	887.88
350.947	877.88
351.174	935.88
351.402	958.88
351.629	943.88
351.856	923.88
352.083	923.88
352.311	955.88
352.538	954.88
352.765	994.88
352.992	925.88
353.22	927.88
353.447	921.88
353.674	909.88
353.901	903.88
354.128	886.88
354.355	849.88
354.583	863.88
354.81	850.88
355.037	888.88
355.264	831.88
355.491	849.88
355.718	836.88
355.945	862.88
356.172	852.88
356.399	844.88
356.626	857.88
356.853	839.88
357.08	853.88
357.307	832.88
357.534	822.88
357.761	826.88
357.988	843.88
358.215	833.88
358.441	860.88
358.668	851.88
358.895	842.88
359.122	865.88
359.349	899.88
359.576	925.88
359.802	964.88
360.029	1065.88
360.256	1113.88
360.483	1063.88
360.709	934.88
360.936	977.88
361.163	929.88
361.39	929.88
361.616	946.88
361.843	906.88
362.07	937.88
362.296	937.88
362.523	882.88
362.749	902.88
362.976	883.88
363.203	927.88
363.429	863.88
363.656	874.88
363.882	843.88
364.109	883.88
364.335	890.88
364.562	862.88
364.788	834.88
365.015	879.88
365.241	888.88
365.468	892.88
365.694	875.88
365.92	893.88
366.147	870.88
366.373	863.88
366.599	850.88
366.826	835.88
367.052	890.88
367.278	872.88
367.505	847.88
367.731	911.88
367.957	888.88
368.184	900.88
368.41	891.88
368.636	921.88
368.862	949.88
369.089	891.88
369.315	861.88
369.541	899.88
369.767	893.88
369.993	890.88
370.219	879.88
370.445	887.88
370.672	874.88
370.898	868.88
371.124	897.88
371.35	859.88
371.576	913.88
371.802	889.88
372.028	881.88
372.254	908.88
372.48	916.88
372.706	884.88
372.932	928.88
373.158	915.88
373.384	944.88
373.61	947.88
373.835	925.88
374.061	909.88
374.287	933.88
374.513	972.88
374.739	943.88
374.965	959.88
375.191	953.88
375.416	964.88
375.642	929.88
375.868	955.88
376.094	936.88
376.319	912.88
376.545	892.88
376.771	897.88
376.997	911.88
377.222	889.88
377.448	917.88
377.674	905.88
377.899	907.88
378.125	881.88
378.35	893.88
378.576	880.88
378.802	886.88
379.027	910.88
379.253	924.88
379.478	895.88
379.704	901.88
379.929	927.88
380.155	923.88
380.38	919.88
380.606	895.88
380.831	933.88
381.057	964.88
381.282	913.88
381.507	938.88
381.733	927.88
381.958	940.88
382.184	907.88
382.409	938.88
382.634	993.88
382.86	957.88
383.085	1008.88
383.31	1005.88
383.535	997.88
383.761	1012.88
383.986	1003.88
384.211	1029.88
384.436	1019.88
384.662	1029.88
384.887	1030.88
385.112	1065.88
385.337	1074.88
385.562	1065.88
385.787	1077.88
386.013	1156.88
386.238	1108.88
386.463	1107.88
386.688	1105.88
386.913	1067.88
387.138	1093.88
387.363	1086.88
387.588	1079.88
387.813	1083.88
388.038	1075.88
388.263	1073.88
388.488	1085.88
388.713	1075.88
388.938	1079.88
389.163	1080.88
389.387	1077.88
389.612	1077.88
389.837	1058.88
390.062	1070.88
390.287	1081.88
390.512	1064.88
390.736	1063.88
390.961	1083.88
391.186	1125.88
391.411	1115.88
391.636	1166.88
391.86	1155.88
392.085	1184.88
392.31	1168.88
392.534	1180.88
392.759	1181.88
392.984	1113.88
393.208	1128.88
393.433	1109.88
393.658	1124.88
393.882	1113.88
394.107	1139.88
394.331	1152.88
394.556	1141.88
394.78	1151.88
395.005	1155.88
395.229	1133.88
395.454	1219.88
395.678	1203.88
395.903	1222.88
396.127	1265.88
396.352	1260.88
396.576	1158.88
396.801	1161.88
397.025	1144.88
397.249	1204.88
397.474	1240.88
397.698	1227.88
397.922	1227.88
398.147	1267.88
398.371	1274.88
398.595	1299.88
398.82	1333.88
399.044	1369.88
399.268	1491.88
399.492	1655.88
399.717	1780.88
399.941	1817.88
400.165	1820.88
400.389	1741.88
400.613	1572.88
400.837	1426.88
401.062	1419.88
401.286	1393.88
401.51	1404.88
401.734	1366.88
401.958	1348.88
402.182	1379.88
402.406	1459.88
402.63	1436.88
402.854	1469.88
403.078	1485.88
403.302	1488.88
403.526	1558.88
403.75	1533.88
403.974	1504.88
404.198	1516.88
404.422	1520.88
404.645	1525.88
404.869	1513.88
405.093	1561.88
405.317	1576.88
405.541	1620.88
405.765	1562.88
405.988	1552.88
406.212	1576.88
406.436	1636.88
406.66	1701.88
406.883	1643.88
407.107	1690.88
407.331	1808.88
407.555	2032.88
407.778	2017.88
408.002	1839.88
408.226	1681.88
408.449	1616.88
408.673	1608.88
408.896	1667.88
409.12	1764.88
409.344	1670.88
409.567	1541.88
409.791	1529.88
410.014	1475.88
410.238	1433.88
410.461	1496.88
410.685	1506.88
410.908	1509.88
411.132	1605.88
411.355	1671.88
411.578	1608.88
411.802	1471.88
412.025	1422.88
412.249	1477.88
412.472	1436.88
412.695	1400.88
412.919	1384.88
413.142	1441.88
413.365	1369.88
413.589	1383.88
413.812	1364.88
414.035	1403.88
414.258	1356.88
414.482	1367.88
414.705	1404.88
414.928	1413.88
415.151	1369.88
415.374	1419.88
415.597	1411.88
415.821	1403.88
416.044	1425.88
416.267	1413.88
416.49	1368.88
416.713	1363.88
416.936	1422.88
417.159	1378.88
417.382	1457.88
417.605	1415.88
417.828	1472.88
418.051	1497.88
418.274	1488.88
418.497	1492.88
418.72	1495.88
418.943	1465.88
419.166	1553.88
419.389	1604.88
419.611	1575.88
419.834	1547.88
420.057	1529.88
420.28	1538.88
420.503	1454.88
420.726	1483.88
420.948	1507.88
421.171	1599.88
421.394	1724.88
421.617	1531.88
421.839	1515.88
422.062	1535.88
422.285	1503.88
422.507	1689.88
422.73	1919.88
422.953	1780.88
423.175	1594.88
423.398	1575.88
423.621	1627.88
423.843	1684.88
424.066	1685.88
424.288	1652.88
424.511	1696.88
424.733	1857.88
424.956	2055.88
425.178	1917.88
425.401	1947.88
425.623	1957.88
425.846	1643.88
426.068	1555.88
426.291	1526.88
426.513	1511.88
426.735	1539.88
426.958	1669.88
427.18	1879.88
427.402	2269.88
427.625	2451.88
427.847	2026.88
428.069	1711.88
428.292	1535.88
428.514	1452.88
428.736	1420.88
428.958	1402.88
429.181	1407.88
429.403	1387.88
429.625	1467.88
429.847	1543.88
430.069	1693.88
430.292	1685.88
430.514	1437.88
430.736	1415.88
430.958	1452.88
431.18	1371.88
431.402	1371.88
431.624	1308.88
431.846	1233.88
432.068	1201.88
432.29	1248.88
432.512	1341.88
432.734	1362.88
432.956	1399.88
433.178	1487.88
433.4	1489.88
433.622	1415.88
433.844	1385.88
434.066	1333.88
434.287	1235.88
434.509	1257.88
434.731	1301.88
434.953	1399.88
435.175	1487.88
435.397	1610.88
435.618	1542.88
435.84	1614.88
436.062	1999.88
436.284	2125.88
436.505	1713.88
436.727	1511.88
436.949	1506.88
437.17	1427.88
437.392	1369.88
437.614	1396.88
437.835	1418.88
438.057	1697.88
438.278	1981.88
438.5	1963.88
438.721	2271.88
438.943	2185.88
439.165	1707.88
439.386	1642.88
439.608	1655.88
439.829	1681.88
440.05	1782.88
440.272	1995.88
440.493	1834.88
440.715	1647.88
440.936	1609.88
441.158	1593.88
441.379	1603.88
441.6	1651.88
441.822	1701.88
442.043	1804.88
442.264	2057.88
442.486	2116.88
442.707	1826.88
442.928	1728.88
443.149	1795.88
443.371	1862.88
443.592	1938.88
443.813	2177.88
444.034	2357.88
444.255	1937.88
444.476	1821.88
444.698	1819.88
444.919	1780.88
445.14	3504.88
445.361	2553.88
445.582	1945.88
445.803	2164.88
446.024	2405.88
446.245	2426.88
446.466	2181.88
446.687	1829.88
446.908	1674.88
447.129	1632.88
447.35	1545.88
447.571	1565.88
447.792	1497.88
448.013	1458.88
448.234	1521.88
448.455	1670.88
448.675	1965.88
448.896	2282.88
449.117	1872.88
449.338	1753.88
449.559	2100.88
449.779	2379.88
450	1847.88
450.221	1579.88
450.442	1447.88
450.662	1385.88
450.883	1440.88
451.104	1514.88
451.324	1453.88
451.545	1352.88
451.766	1346.88
451.986	1271.88
452.207	1263.88
452.428	1238.88
452.648	1271.88
452.869	1289.88
453.089	1265.88
453.31	1275.88
453.53	1180.88
453.751	1179.88
453.971	1170.88
454.192	1225.88
454.412	1210.88
454.633	1155.88
454.853	1220.88
455.073	1198.88
455.294	1285.88
455.514	1560.88
455.734	1419.88
455.955	1206.88
456.175	1140.88
456.395	1089.88
456.616	1125.88
456.836	1088.88
457.056	1074.88
457.276	1046.88
457.497	1087.88
457.717	1071.88
457.937	1097.88
458.157	1122.88
458.377	1124.88
458.598	1147.88
458.818	1319.88
459.038	1562.88
459.258	1579.88
459.478	1283.88
459.698	1223.88
459.918	1218.88
460.138	1284.88
460.358	1346.88
460.578	1363.88
460.798	1387.88
461.018	1389.88
461.238	1386.88
461.458	1376.88
461.678	1354.88
461.898	1378.88
462.118	1396.88
462.338	1448.88
462.558	1471.88
462.777	1503.88
462.997	1542.88
463.217	1623.88
463.437	1635.88
463.657	1549.88
463.876	1482.88
464.096	1505.88
464.316	1483.88
464.536	1569.88
464.755	1582.88
464.975	1555.88
465.195	1611.88
465.414	1817.88
465.634	1540.88
465.854	1388.88
466.073	1364.88
466.293	1338.88
466.512	1335.88
466.732	1288.88
466.951	1344.88
467.171	1356.88
467.391	1375.88
467.61	1427.88
467.829	1428.88
468.049	1387.88
468.268	1321.88
468.488	1279.88
468.707	1304.88
468.927	1277.88
469.146	1308.88
469.365	1333.88
469.585	1367.88
469.804	1384.88
470.023	1421.88
470.243	1444.88
470.462	1498.88
470.681	1498.88
470.901	1473.88
471.12	1419.88
471.339	1457.88
471.558	1416.88
471.777	1409.88
471.997	1304.88
472.216	1257.88
472.435	1171.88
472.654	1119.88
472.873	1131.88
473.092	1155.88
473.311	1199.88
473.53	1248.88
473.749	1264.88
473.968	1373.88
474.187	1724.88
474.406	1675.88
474.625	1418.88
474.844	1335.88
475.063	1263.88
475.282	1259.88
475.501	1243.88
475.72	1271.88
475.939	1283.88
476.158	1285.88
476.377	1307.88
476.596	1253.88
476.814	1265.88
477.033	1235.88
477.252	1262.88
477.471	1337.88
477.69	1374.88
477.908	1480.88
478.127	1478.88
478.346	1511.88
478.564	1496.88
478.783	1518.88
479.002	1561.88
479.22	1576.88
479.439	1560.88
479.658	1504.88
479.876	1489.88
480.095	1467.88
480.313	1648.88
480.532	1607.88
480.751	1510.88
480.969	1398.88
481.188	1372.88
481.406	1311.88
481.624	1292.88
481.843	1265.88
482.061	1270.88
482.28	1334.88
482.498	1349.88
482.717	1327.88
482.935	1377.88
483.153	1510.88
483.372	1535.88
483.59	1552.88
483.808	1480.88
484.027	1431.88
484.245	1431.88
484.463	1488.88
484.681	1570.88
484.9	1489.88
485.118	1541.88
485.336	1493.88
485.554	1435.88
485.772	1387.88
485.99	1361.88
486.209	1450.88
486.427	1429.88
486.645	1467.88
486.863	1634.88
487.081	1663.88
487.299	1587.88
487.517	1643.88
487.735	1787.88
487.953	1880.88
488.171	1892.88
488.389	1800.88
488.607	1709.88
488.825	1568.88
489.043	1546.88
489.261	1600.88
489.479	1590.88
489.696	1655.88
489.914	1652.88
490.132	1692.88
490.35	1787.88
490.568	1860.88
490.786	1961.88
491.003	1985.88
491.221	2107.88
491.439	2195.88
491.657	2179.88
491.874	2314.88
492.092	2390.88
492.31	2482.88
492.527	2433.88
492.745	2312.88
492.963	2291.88
493.18	2226.88
493.398	2225.88
493.615	2212.88
493.833	2217.88
