Data from FlinnAP9092KCOPPER.07152019.QSWITCHSynchronous.EN10.P1_HRD10591_14-48-29-574.txt Node
Date: Mon Jul 15 14:48:29 EDT 2019
User: cochatt
Spectrometer: HR+D1059
Trigger mode: 5
Integration Time (sec): 1.000000E-1
Scans to average: 1
Electric dark correction enabled: true
Nonlinearity correction enabled: false
Boxcar width: 0
XAxis mode: Wavelengths
Number of Pixels in Spectrum: 2048
>>>>>Begin Spectral Data<<<<<
223.165	-37.31
223.4	-37.31
223.635	-37.31
223.869	-42.31
224.104	-48.31
224.338	1.69
224.573	-16.31
224.808	-25.31
225.042	21.69
225.277	-0.31
225.511	-6.31
225.746	21.69
225.98	16.69
226.215	8.69
226.449	28.69
226.683	4.69
226.918	24.69
227.152	47.69
227.387	42.69
227.621	36.69
227.856	46.69
228.09	41.69
228.324	52.69
228.559	80.69
228.793	84.69
229.027	182.69
229.262	215.69
229.496	223.69
229.73	296.69
229.964	353.69
230.199	267.69
230.433	213.69
230.667	207.69
230.901	203.69
231.136	184.69
231.37	181.69
231.604	209.69
231.838	192.69
232.072	194.69
232.306	203.69
232.541	193.69
232.775	193.69
233.009	200.69
233.243	198.69
233.477	213.69
233.711	220.69
233.945	199.69
234.179	211.69
234.413	228.69
234.647	237.69
234.881	209.69
235.115	203.69
235.349	219.69
235.583	230.69
235.817	230.69
236.051	247.69
236.285	245.69
236.519	257.69
236.753	236.69
236.987	276.69
237.221	364.69
237.455	515.69
237.689	409.69
237.922	287.69
238.156	265.69
238.39	259.69
238.624	229.69
238.858	237.69
239.091	230.69
239.325	243.69
239.559	240.69
239.793	261.69
240.027	278.69
240.26	300.69
240.494	372.69
240.728	342.69
240.961	321.69
241.195	318.69
241.429	281.69
241.662	257.69
241.896	258.69
242.13	261.69
242.363	270.69
242.597	249.69
242.83	296.69
243.064	271.69
243.298	287.69
243.531	265.69
243.765	273.69
243.998	304.69
244.232	271.69
244.465	295.69
244.699	304.69
244.932	293.69
245.166	292.69
245.399	325.69
245.633	298.69
245.866	301.69
246.099	301.69
246.333	306.69
246.566	303.69
246.8	303.69
247.033	287.69
247.266	316.69
247.5	333.69
247.733	345.69
247.966	376.69
248.2	379.69
248.433	329.69
248.666	344.69
248.899	403.69
249.133	410.69
249.366	498.69
249.599	437.69
249.832	402.69
250.066	396.69
250.299	368.69
250.532	403.69
250.765	414.69
250.998	488.69
251.231	504.69
251.465	446.69
251.698	427.69
251.931	424.69
252.164	419.69
252.397	395.69
252.63	437.69
252.863	439.69
253.096	475.69
253.329	519.69
253.562	511.69
253.795	443.69
254.028	457.69
254.261	437.69
254.494	497.69
254.727	613.69
254.96	678.69
255.193	616.69
255.426	523.69
255.659	477.69
255.892	461.69
256.124	432.69
256.357	442.69
256.59	437.69
256.823	417.69
257.056	418.69
257.289	412.69
257.521	418.69
257.754	422.69
257.987	432.69
258.22	476.69
258.452	455.69
258.685	437.69
258.918	423.69
259.151	437.69
259.383	470.69
259.616	474.69
259.849	504.69
260.081	518.69
260.314	581.69
260.547	557.69
260.779	525.69
261.012	515.69
261.244	502.69
261.477	484.69
261.71	471.69
261.942	511.69
262.175	529.69
262.407	497.69
262.64	468.69
262.872	445.69
263.105	461.69
263.337	497.69
263.57	451.69
263.802	465.69
264.035	479.69
264.267	472.69
264.499	471.69
264.732	500.69
264.964	476.69
265.197	455.69
265.429	467.69
265.661	465.69
265.894	481.69
266.126	490.69
266.358	483.69
266.591	502.69
266.823	509.69
267.055	511.69
267.287	538.69
267.52	507.69
267.752	520.69
267.984	535.69
268.216	524.69
268.448	552.69
268.681	533.69
268.913	555.69
269.145	633.69
269.377	657.69
269.609	624.69
269.841	609.69
270.073	616.69
270.306	675.69
270.538	745.69
270.77	757.69
271.002	697.69
271.234	675.69
271.466	709.69
271.698	729.69
271.93	759.69
272.162	742.69
272.394	763.69
272.626	693.69
272.858	663.69
273.09	647.69
273.322	620.69
273.553	595.69
273.785	605.69
274.017	599.69
274.249	615.69
274.481	589.69
274.713	595.69
274.945	620.69
275.176	609.69
275.408	625.69
275.64	611.69
275.872	608.69
276.104	605.69
276.335	634.69
276.567	639.69
276.799	681.69
277.031	724.69
277.262	796.69
277.494	796.69
277.726	730.69
277.957	685.69
278.189	635.69
278.421	632.69
278.652	611.69
278.884	591.69
279.115	621.69
279.347	617.69
279.579	600.69
279.81	606.69
280.042	614.69
280.273	612.69
280.505	613.69
280.736	630.69
280.968	635.69
281.199	634.69
281.431	614.69
281.662	644.69
281.894	614.69
282.125	635.69
282.356	680.69
282.588	736.69
282.819	741.69
283.051	679.69
283.282	646.69
283.513	675.69
283.745	659.69
283.976	663.69
284.207	697.69
284.439	692.69
284.67	692.69
284.901	660.69
285.132	636.69
285.364	661.69
285.595	637.69
285.826	653.69
286.057	663.69
286.288	673.69
286.52	681.69
286.751	681.69
286.982	684.69
287.213	646.69
287.444	705.69
287.675	713.69
287.906	742.69
288.138	720.69
288.369	747.69
288.6	745.69
288.831	714.69
289.062	722.69
289.293	710.69
289.524	709.69
289.755	703.69
289.986	694.69
290.217	710.69
290.448	675.69
290.679	699.69
290.91	714.69
291.141	681.69
291.371	703.69
291.602	688.69
291.833	683.69
292.064	705.69
292.295	706.69
292.526	696.69
292.757	693.69
292.987	701.69
293.218	682.69
293.449	719.69
293.68	692.69
293.91	683.69
294.141	717.69
294.372	682.69
294.603	703.69
294.833	697.69
295.064	678.69
295.295	707.69
295.525	698.69
295.756	707.69
295.987	712.69
296.217	795.69
296.448	801.69
296.679	755.69
296.909	690.69
297.14	709.69
297.37	736.69
297.601	697.69
297.831	742.69
298.062	739.69
298.292	746.69
298.523	739.69
298.753	776.69
298.984	752.69
299.214	744.69
299.445	759.69
299.675	773.69
299.905	793.69
300.136	745.69
300.366	728.69
300.597	745.69
300.827	766.69
301.057	767.69
301.288	775.69
301.518	807.69
301.748	790.69
301.979	781.69
302.209	797.69
302.439	792.69
302.669	790.69
302.9	772.69
303.13	804.69
303.36	813.69
303.59	785.69
303.82	786.69
304.051	803.69
304.281	795.69
304.511	786.69
304.741	787.69
304.971	756.69
305.201	755.69
305.431	775.69
305.661	783.69
305.891	755.69
306.121	770.69
306.352	790.69
306.582	773.69
306.812	771.69
307.042	756.69
307.272	758.69
307.502	757.69
307.731	771.69
307.961	743.69
308.191	755.69
308.421	773.69
308.651	795.69
308.881	773.69
309.111	785.69
309.341	777.69
309.571	796.69
309.8	797.69
310.03	824.69
310.26	903.69
310.49	871.69
310.72	895.69
310.949	923.69
311.179	953.69
311.409	883.69
311.639	864.69
311.868	875.69
312.098	897.69
312.328	901.69
312.557	922.69
312.787	989.69
313.017	996.69
313.246	918.69
313.476	841.69
313.706	869.69
313.935	886.69
314.165	935.69
314.394	963.69
314.624	964.69
314.853	902.69
315.083	896.69
315.312	857.69
315.542	835.69
315.771	852.69
316.001	837.69
316.23	855.69
316.46	834.69
316.689	832.69
316.919	850.69
317.148	929.69
317.377	910.69
317.607	886.69
317.836	912.69
318.065	870.69
318.295	842.69
318.524	821.69
318.753	843.69
318.983	823.69
319.212	857.69
319.441	856.69
319.67	872.69
319.9	864.69
320.129	851.69
320.358	863.69
320.587	860.69
320.816	861.69
321.046	880.69
321.275	910.69
321.504	887.69
321.733	860.69
321.962	892.69
322.191	929.69
322.42	926.69
322.649	989.69
322.878	1004.69
323.108	1019.69
323.337	1045.69
323.566	1088.69
323.795	1183.69
324.024	1241.69
324.253	1476.69
324.482	2219.69
324.71	3764.69
324.939	5903.69
325.168	5124.69
325.397	2065.69
325.626	1308.69
325.855	1131.69
326.084	1051.69
326.313	1065.69
326.542	1079.69
326.77	1229.69
326.999	1436.69
327.228	2080.69
327.457	3471.69
327.686	4511.69
327.914	2634.69
328.143	1525.69
328.372	1322.69
328.6	1270.69
328.829	1192.69
329.058	1328.69
329.287	1393.69
329.515	1226.69
329.744	1111.69
329.972	1074.69
330.201	1069.69
330.43	1167.69
330.658	1232.69
330.887	1446.69
331.115	1491.69
331.344	1212.69
331.572	1097.69
331.801	1127.69
332.03	1165.69
332.258	1130.69
332.486	1065.69
332.715	1063.69
332.943	1099.69
333.172	1137.69
333.4	1155.69
333.629	1159.69
333.857	1172.69
334.085	1175.69
334.314	1176.69
334.542	1131.69
334.771	1139.69
334.999	1154.69
335.227	1121.69
335.455	1131.69
335.684	1101.69
335.912	1080.69
336.14	1076.69
336.369	1079.69
336.597	1106.69
336.825	1109.69
337.053	1076.69
337.281	1016.69
337.51	1014.69
337.738	1047.69
337.966	1010.69
338.194	1004.69
338.422	1035.69
338.65	1030.69
338.878	1015.69
339.106	959.69
339.334	987.69
339.562	960.69
339.79	966.69
340.018	952.69
340.246	948.69
340.474	964.69
340.702	950.69
340.93	956.69
341.158	916.69
341.386	973.69
341.614	997.69
341.842	981.69
342.07	948.69
342.298	987.69
342.526	957.69
342.754	910.69
342.981	920.69
343.209	942.69
343.437	1011.69
343.665	993.69
343.893	1059.69
344.12	1104.69
344.348	1096.69
344.576	1031.69
344.804	1031.69
345.031	1046.69
345.259	1051.69
345.487	991.69
345.714	982.69
345.942	942.69
346.17	931.69
346.397	905.69
346.625	931.69
346.853	909.69
347.08	917.69
347.308	936.69
347.535	946.69
347.763	989.69
347.99	978.69
348.218	959.69
348.445	943.69
348.673	987.69
348.9	967.69
349.128	904.69
349.355	895.69
349.583	902.69
349.81	872.69
350.037	889.69
350.265	877.69
350.492	878.69
350.72	867.69
350.947	913.69
351.174	918.69
351.402	916.69
351.629	941.69
351.856	925.69
352.083	940.69
352.311	999.69
352.538	961.69
352.765	987.69
352.992	955.69
353.22	932.69
353.447	883.69
353.674	906.69
353.901	873.69
354.128	861.69
354.355	846.69
354.583	838.69
354.81	856.69
355.037	859.69
355.264	828.69
355.491	848.69
355.718	831.69
355.945	827.69
356.172	819.69
356.399	813.69
356.626	832.69
356.853	835.69
357.08	852.69
357.307	845.69
357.534	853.69
357.761	839.69
357.988	869.69
358.215	873.69
358.441	845.69
358.668	822.69
358.895	863.69
359.122	855.69
359.349	887.69
359.576	909.69
359.802	927.69
360.029	1093.69
360.256	1115.69
360.483	1045.69
360.709	954.69
360.936	954.69
361.163	945.69
361.39	932.69
361.616	920.69
361.843	905.69
362.07	907.69
362.296	926.69
362.523	913.69
362.749	931.69
362.976	916.69
363.203	875.69
363.429	875.69
363.656	874.69
363.882	887.69
364.109	857.69
364.335	867.69
364.562	882.69
364.788	854.69
365.015	870.69
365.241	859.69
365.468	888.69
365.694	903.69
365.92	897.69
366.147	881.69
366.373	838.69
366.599	853.69
366.826	850.69
367.052	864.69
367.278	851.69
367.505	845.69
367.731	891.69
367.957	855.69
368.184	885.69
368.41	929.69
368.636	910.69
368.862	947.69
369.089	947.69
369.315	872.69
369.541	887.69
369.767	907.69
369.993	872.69
370.219	888.69
370.445	868.69
370.672	896.69
370.898	885.69
371.124	887.69
371.35	909.69
371.576	897.69
371.802	900.69
372.028	866.69
372.254	888.69
372.48	891.69
372.706	907.69
372.932	931.69
373.158	922.69
373.384	949.69
373.61	935.69
373.835	932.69
374.061	929.69
374.287	930.69
374.513	921.69
374.739	962.69
374.965	955.69
375.191	959.69
375.416	997.69
375.642	938.69
375.868	943.69
376.094	941.69
376.319	918.69
376.545	899.69
376.771	932.69
376.997	931.69
377.222	898.69
377.448	913.69
377.674	903.69
377.899	920.69
378.125	889.69
378.35	911.69
378.576	904.69
378.802	883.69
379.027	908.69
379.253	954.69
379.478	895.69
379.704	910.69
379.929	903.69
380.155	893.69
380.38	932.69
380.606	916.69
380.831	929.69
381.057	1011.69
381.282	925.69
381.507	934.69
381.733	947.69
381.958	907.69
382.184	945.69
382.409	936.69
382.634	994.69
382.86	973.69
383.085	969.69
383.31	976.69
383.535	1000.69
383.761	1000.69
383.986	1014.69
384.211	1036.69
384.436	1024.69
384.662	1026.69
384.887	1043.69
385.112	1073.69
385.337	1097.69
385.562	1044.69
385.787	1063.69
386.013	1173.69
386.238	1137.69
386.463	1130.69
386.688	1093.69
386.913	1080.69
387.138	1057.69
387.363	1067.69
387.588	1095.69
387.813	1094.69
388.038	1097.69
388.263	1081.69
388.488	1070.69
388.713	1102.69
388.938	1087.69
389.163	1100.69
389.387	1121.69
389.612	1077.69
389.837	1064.69
390.062	1064.69
390.287	1064.69
390.512	1062.69
390.736	1075.69
390.961	1062.69
391.186	1115.69
391.411	1115.69
391.636	1138.69
391.86	1178.69
392.085	1192.69
392.31	1203.69
392.534	1203.69
392.759	1188.69
392.984	1147.69
393.208	1140.69
393.433	1135.69
393.658	1110.69
393.882	1103.69
394.107	1113.69
394.331	1123.69
394.556	1159.69
394.78	1160.69
395.005	1164.69
395.229	1151.69
395.454	1184.69
395.678	1165.69
395.903	1253.69
396.127	1296.69
396.352	1240.69
396.576	1175.69
396.801	1148.69
397.025	1141.69
397.249	1171.69
397.474	1273.69
397.698	1216.69
397.922	1267.69
398.147	1264.69
398.371	1287.69
398.595	1298.69
398.82	1324.69
399.044	1390.69
399.268	1495.69
399.492	1629.69
399.717	1815.69
399.941	1890.69
400.165	1810.69
400.389	1738.69
400.613	1555.69
400.837	1447.69
401.062	1392.69
401.286	1367.69
401.51	1377.69
401.734	1356.69
401.958	1408.69
402.182	1384.69
402.406	1461.69
402.63	1477.69
402.854	1439.69
403.078	1466.69
403.302	1463.69
403.526	1543.69
403.75	1558.69
403.974	1543.69
404.198	1488.69
404.422	1525.69
404.645	1532.69
404.869	1497.69
405.093	1528.69
405.317	1569.69
405.541	1658.69
405.765	1551.69
405.988	1507.69
406.212	1560.69
406.436	1636.69
406.66	1707.69
406.883	1620.69
407.107	1719.69
407.331	1794.69
407.555	1994.69
407.778	1998.69
408.002	1801.69
408.226	1695.69
408.449	1633.69
408.673	1596.69
408.896	1687.69
409.12	1772.69
409.344	1701.69
409.567	1534.69
409.791	1537.69
410.014	1497.69
410.238	1463.69
410.461	1526.69
410.685	1500.69
410.908	1524.69
411.132	1629.69
411.355	1688.69
411.578	1628.69
411.802	1459.69
412.025	1439.69
412.249	1451.69
412.472	1466.69
412.695	1397.69
412.919	1411.69
413.142	1384.69
413.365	1388.69
413.589	1404.69
413.812	1385.69
414.035	1395.69
414.258	1421.69
414.482	1379.69
414.705	1385.69
414.928	1413.69
415.151	1432.69
415.374	1383.69
415.597	1395.69
415.821	1395.69
416.044	1398.69
416.267	1444.69
416.49	1403.69
416.713	1371.69
416.936	1433.69
417.159	1393.69
417.382	1434.69
417.605	1443.69
417.828	1501.69
418.051	1514.69
418.274	1512.69
418.497	1463.69
418.72	1467.69
418.943	1453.69
419.166	1538.69
419.389	1649.69
419.611	1584.69
419.834	1543.69
420.057	1563.69
420.28	1515.69
420.503	1449.69
420.726	1469.69
420.948	1487.69
421.171	1594.69
421.394	1711.69
421.617	1587.69
421.839	1553.69
422.062	1513.69
422.285	1548.69
422.507	1722.69
422.73	1869.69
422.953	1760.69
423.175	1605.69
423.398	1543.69
423.621	1618.69
423.843	1718.69
424.066	1703.69
424.288	1676.69
424.511	1696.69
424.733	1903.69
424.956	2079.69
425.178	1913.69
425.401	1935.69
425.623	1991.69
425.846	1697.69
426.068	1571.69
426.291	1527.69
426.513	1549.69
426.735	1597.69
426.958	1641.69
427.18	1857.69
427.402	2273.69
427.625	2434.69
427.847	2014.69
428.069	1703.69
428.292	1523.69
428.514	1465.69
428.736	1443.69
428.958	1429.69
429.181	1397.69
429.403	1389.69
429.625	1412.69
429.847	1537.69
430.069	1698.69
430.292	1672.69
430.514	1425.69
430.736	1475.69
430.958	1408.69
431.18	1334.69
431.402	1336.69
431.624	1298.69
431.846	1304.69
432.068	1217.69
432.29	1230.69
432.512	1319.69
432.734	1375.69
432.956	1411.69
433.178	1481.69
433.4	1487.69
433.622	1471.69
433.844	1426.69
434.066	1340.69
434.287	1240.69
434.509	1279.69
434.731	1311.69
434.953	1412.69
435.175	1553.69
435.397	1638.69
435.618	1545.69
435.84	1624.69
436.062	1948.69
436.284	2134.69
436.505	1724.69
436.727	1578.69
436.949	1459.69
437.17	1460.69
437.392	1427.69
437.614	1403.69
437.835	1452.69
438.057	1687.69
438.278	1989.69
438.5	1954.69
438.721	2242.69
438.943	2135.69
439.165	1712.69
439.386	1642.69
439.608	1654.69
439.829	1674.69
440.05	1826.69
440.272	2012.69
440.493	1803.69
440.715	1655.69
440.936	1578.69
441.158	1570.69
441.379	1549.69
441.6	1676.69
441.822	1747.69
442.043	1829.69
442.264	2052.69
442.486	2164.69
442.707	1777.69
442.928	1738.69
443.149	1763.69
443.371	1891.69
443.592	1925.69
443.813	2163.69
444.034	2382.69
444.255	1949.69
444.476	1827.69
444.698	1828.69
444.919	1855.69
445.14	3513.69
445.361	2536.69
445.582	1955.69
445.803	2142.69
446.024	2408.69
446.245	2401.69
446.466	2180.69
446.687	1814.69
446.908	1720.69
447.129	1613.69
447.35	1586.69
447.571	1578.69
447.792	1511.69
448.013	1504.69
448.234	1594.69
448.455	1632.69
448.675	1967.69
448.896	2296.69
449.117	1834.69
449.338	1775.69
449.559	2128.69
449.779	2416.69
450	1848.69
450.221	1585.69
450.442	1490.69
450.662	1439.69
450.883	1436.69
451.104	1538.69
451.324	1457.69
451.545	1394.69
451.766	1351.69
451.986	1297.69
452.207	1309.69
452.428	1283.69
452.648	1267.69
452.869	1259.69
453.089	1313.69
453.31	1272.69
453.53	1203.69
453.751	1175.69
453.971	1169.69
454.192	1210.69
454.412	1192.69
454.633	1191.69
454.853	1200.69
455.073	1237.69
455.294	1280.69
455.514	1547.69
455.734	1435.69
455.955	1203.69
456.175	1146.69
456.395	1119.69
456.616	1081.69
456.836	1111.69
457.056	1067.69
457.276	1044.69
457.497	1081.69
457.717	1126.69
457.937	1105.69
458.157	1107.69
458.377	1153.69
458.598	1151.69
458.818	1304.69
459.038	1571.69
459.258	1648.69
459.478	1329.69
459.698	1214.69
459.918	1250.69
460.138	1265.69
460.358	1380.69
460.578	1371.69
460.798	1431.69
461.018	1433.69
461.238	1395.69
461.458	1399.69
461.678	1307.69
461.898	1371.69
462.118	1356.69
462.338	1442.69
462.558	1461.69
462.777	1479.69
462.997	1572.69
463.217	1637.69
463.437	1626.69
463.657	1526.69
463.876	1472.69
464.096	1510.69
464.316	1474.69
464.536	1563.69
464.755	1518.69
464.975	1521.69
465.195	1634.69
465.414	1845.69
465.634	1549.69
465.854	1386.69
466.073	1329.69
466.293	1319.69
466.512	1322.69
466.732	1328.69
466.951	1299.69
467.171	1347.69
467.391	1388.69
467.61	1401.69
467.829	1411.69
468.049	1374.69
468.268	1292.69
468.488	1310.69
468.707	1327.69
468.927	1286.69
469.146	1306.69
469.365	1340.69
469.585	1337.69
469.804	1408.69
470.023	1429.69
470.243	1447.69
470.462	1478.69
470.681	1556.69
470.901	1452.69
471.12	1427.69
471.339	1440.69
471.558	1430.69
471.777	1424.69
471.997	1340.69
472.216	1247.69
472.435	1197.69
472.654	1154.69
472.873	1153.69
473.092	1173.69
473.311	1263.69
473.53	1252.69
473.749	1267.69
473.968	1367.69
474.187	1643.69
474.406	1703.69
474.625	1397.69
474.844	1336.69
475.063	1289.69
475.282	1265.69
475.501	1211.69
475.72	1283.69
475.939	1281.69
476.158	1302.69
476.377	1324.69
476.596	1269.69
476.814	1220.69
477.033	1211.69
477.252	1233.69
477.471	1337.69
477.69	1384.69
477.908	1488.69
478.127	1521.69
478.346	1465.69
478.564	1514.69
478.783	1526.69
479.002	1613.69
479.22	1569.69
479.439	1564.69
479.658	1578.69
479.876	1475.69
480.095	1488.69
480.313	1654.69
480.532	1576.69
480.751	1546.69
480.969	1421.69
481.188	1424.69
481.406	1377.69
481.624	1293.69
481.843	1255.69
482.061	1289.69
482.28	1343.69
482.498	1312.69
482.717	1285.69
482.935	1417.69
483.153	1501.69
483.372	1574.69
483.59	1555.69
483.808	1456.69
484.027	1442.69
484.245	1417.69
484.463	1476.69
484.681	1579.69
484.9	1511.69
485.118	1552.69
485.336	1510.69
485.554	1405.69
485.772	1373.69
485.99	1410.69
486.209	1427.69
486.427	1413.69
486.645	1532.69
486.863	1667.69
487.081	1661.69
487.299	1595.69
487.517	1649.69
487.735	1784.69
487.953	1956.69
488.171	1906.69
488.389	1776.69
488.607	1693.69
488.825	1591.69
489.043	1562.69
489.261	1596.69
489.479	1661.69
489.696	1687.69
489.914	1653.69
490.132	1719.69
490.35	1821.69
490.568	1908.69
490.786	1958.69
491.003	2032.69
491.221	2055.69
491.439	2188.69
491.657	2239.69
491.874	2383.69
492.092	2453.69
492.31	2543.69
492.527	2441.69
492.745	2365.69
492.963	2235.69
493.18	2266.69
493.398	2234.69
493.615	2242.69
493.833	2176.69
494.05	2241.69
