Data from FlinnAP9092KCOPPER.07152019.QSWITCHSynchronous.EN10.P1_HRD10591_14-48-28-574.txt Node
Date: Mon Jul 15 14:48:28 EDT 2019
User: cochatt
Spectrometer: HR+D1059
Trigger mode: 5
Integration Time (sec): 1.000000E-1
Scans to average: 1
Electric dark correction enabled: true
Nonlinearity correction enabled: false
Boxcar width: 0
XAxis mode: Wavelengths
Number of Pixels in Spectrum: 2048
>>>>>Begin Spectral Data<<<<<
223.165	-35.88
223.4	-35.88
223.635	-35.88
223.869	-38.88
224.104	-38.88
224.338	-5.88
224.573	-22.88
224.808	-8.88
225.042	11.12
225.277	-0.88
225.511	0.12
225.746	13.12
225.98	18.12
226.215	15.12
226.449	24.12
226.683	23.12
226.918	16.12
227.152	31.12
227.387	35.12
227.621	39.12
227.856	53.12
228.09	53.12
228.324	52.12
228.559	81.12
228.793	104.12
229.027	201.12
229.262	213.12
229.496	245.12
229.73	287.12
229.964	365.12
230.199	286.12
230.433	230.12
230.667	235.12
230.901	208.12
231.136	208.12
231.37	197.12
231.604	205.12
231.838	191.12
232.072	197.12
232.306	214.12
232.541	206.12
232.775	190.12
233.009	207.12
233.243	206.12
233.477	205.12
233.711	217.12
233.945	224.12
234.179	213.12
234.413	245.12
234.647	240.12
234.881	212.12
235.115	240.12
235.349	237.12
235.583	243.12
235.817	232.12
236.051	248.12
236.285	252.12
236.519	248.12
236.753	248.12
236.987	278.12
237.221	353.12
237.455	523.12
237.689	423.12
237.922	297.12
238.156	262.12
238.39	233.12
238.624	229.12
238.858	245.12
239.091	241.12
239.325	256.12
239.559	252.12
239.793	270.12
240.027	285.12
240.26	293.12
240.494	361.12
240.728	336.12
240.961	332.12
241.195	300.12
241.429	288.12
241.662	262.12
241.896	277.12
242.13	263.12
242.363	261.12
242.597	301.12
242.83	316.12
243.064	300.12
243.298	295.12
243.531	302.12
243.765	285.12
243.998	271.12
244.232	316.12
244.465	311.12
244.699	307.12
244.932	298.12
245.166	299.12
245.399	324.12
245.633	296.12
245.866	287.12
246.099	304.12
246.333	323.12
246.566	319.12
246.8	324.12
247.033	328.12
247.266	324.12
247.5	345.12
247.733	362.12
247.966	381.12
248.2	371.12
248.433	356.12
248.666	365.12
248.899	401.12
249.133	449.12
249.366	477.12
249.599	434.12
249.832	390.12
250.066	407.12
250.299	368.12
250.532	386.12
250.765	395.12
250.998	502.12
251.231	509.12
251.465	475.12
251.698	410.12
251.931	423.12
252.164	414.12
252.397	409.12
252.63	432.12
252.863	460.12
253.096	492.12
253.329	502.12
253.562	510.12
253.795	468.12
254.028	479.12
254.261	461.12
254.494	477.12
254.727	592.12
254.96	640.12
255.193	606.12
255.426	511.12
255.659	470.12
255.892	472.12
256.124	427.12
256.357	445.12
256.59	443.12
256.823	433.12
257.056	441.12
257.289	406.12
257.521	451.12
257.754	443.12
257.987	419.12
258.22	465.12
258.452	430.12
258.685	432.12
258.918	440.12
259.151	445.12
259.383	489.12
259.616	493.12
259.849	504.12
260.081	542.12
260.314	584.12
260.547	592.12
260.779	542.12
261.012	509.12
261.244	505.12
261.477	505.12
261.71	484.12
261.942	518.12
262.175	523.12
262.407	520.12
262.64	448.12
262.872	475.12
263.105	476.12
263.337	486.12
263.57	484.12
263.802	464.12
264.035	471.12
264.267	469.12
264.499	479.12
264.732	494.12
264.964	475.12
265.197	485.12
265.429	486.12
265.661	479.12
265.894	494.12
266.126	499.12
266.358	482.12
266.591	483.12
266.823	510.12
267.055	519.12
267.287	528.12
267.52	499.12
267.752	524.12
267.984	521.12
268.216	501.12
268.448	532.12
268.681	542.12
268.913	582.12
269.145	637.12
269.377	677.12
269.609	647.12
269.841	614.12
270.073	619.12
270.306	687.12
270.538	779.12
270.77	785.12
271.002	714.12
271.234	672.12
271.466	715.12
271.698	756.12
271.93	732.12
272.162	772.12
272.394	735.12
272.626	701.12
272.858	637.12
273.09	636.12
273.322	628.12
273.553	573.12
273.785	581.12
274.017	590.12
274.249	609.12
274.481	596.12
274.713	587.12
274.945	648.12
275.176	612.12
275.408	621.12
275.64	588.12
275.872	599.12
276.104	625.12
276.335	611.12
276.567	616.12
276.799	653.12
277.031	720.12
277.262	793.12
277.494	773.12
277.726	708.12
277.957	671.12
278.189	614.12
278.421	629.12
278.652	616.12
278.884	639.12
279.115	620.12
279.347	598.12
279.579	637.12
279.81	611.12
280.042	632.12
280.273	615.12
280.505	608.12
280.736	620.12
280.968	637.12
281.199	632.12
281.431	634.12
281.662	632.12
281.894	628.12
282.125	640.12
282.356	668.12
282.588	715.12
282.819	741.12
283.051	678.12
283.282	632.12
283.513	679.12
283.745	662.12
283.976	665.12
284.207	696.12
284.439	654.12
284.67	680.12
284.901	649.12
285.132	670.12
285.364	643.12
285.595	667.12
285.826	673.12
286.057	689.12
286.288	658.12
286.52	686.12
286.751	682.12
286.982	670.12
287.213	656.12
287.444	703.12
287.675	703.12
287.906	728.12
288.138	747.12
288.369	742.12
288.6	731.12
288.831	722.12
289.062	745.12
289.293	691.12
289.524	687.12
289.755	696.12
289.986	691.12
290.217	674.12
290.448	677.12
290.679	711.12
290.91	730.12
291.141	681.12
291.371	705.12
291.602	694.12
291.833	689.12
292.064	697.12
292.295	688.12
292.526	703.12
292.757	708.12
292.987	685.12
293.218	692.12
293.449	679.12
293.68	678.12
293.91	677.12
294.141	707.12
294.372	683.12
294.603	695.12
294.833	709.12
295.064	676.12
295.295	696.12
295.525	703.12
295.756	729.12
295.987	726.12
296.217	776.12
296.448	794.12
296.679	749.12
296.909	736.12
297.14	732.12
297.37	752.12
297.601	722.12
297.831	721.12
298.062	735.12
298.292	747.12
298.523	744.12
298.753	736.12
298.984	729.12
299.214	747.12
299.445	742.12
299.675	740.12
299.905	720.12
300.136	728.12
300.366	747.12
300.597	749.12
300.827	799.12
301.057	784.12
301.288	813.12
301.518	778.12
301.748	757.12
301.979	789.12
302.209	793.12
302.439	804.12
302.669	785.12
302.9	779.12
303.13	781.12
303.36	797.12
303.59	784.12
303.82	798.12
304.051	808.12
304.281	802.12
304.511	787.12
304.741	780.12
304.971	769.12
305.201	805.12
305.431	795.12
305.661	763.12
305.891	780.12
306.121	759.12
306.352	763.12
306.582	751.12
306.812	748.12
307.042	809.12
307.272	767.12
307.502	780.12
307.731	782.12
307.961	764.12
308.191	803.12
308.421	751.12
308.651	771.12
308.881	789.12
309.111	775.12
309.341	780.12
309.571	786.12
309.8	805.12
310.03	846.12
310.26	868.12
310.49	863.12
310.72	861.12
310.949	937.12
311.179	947.12
311.409	884.12
311.639	880.12
311.868	877.12
312.098	888.12
312.328	883.12
312.557	916.12
312.787	948.12
313.017	976.12
313.246	921.12
313.476	859.12
313.706	829.12
313.935	858.12
314.165	919.12
314.394	949.12
314.624	959.12
314.853	926.12
315.083	885.12
315.312	861.12
315.542	855.12
315.771	874.12
316.001	844.12
316.23	831.12
316.46	814.12
316.689	860.12
316.919	875.12
317.148	915.12
317.377	913.12
317.607	897.12
317.836	868.12
318.065	855.12
318.295	859.12
318.524	840.12
318.753	835.12
318.983	827.12
319.212	834.12
319.441	875.12
319.67	872.12
319.9	850.12
320.129	826.12
320.358	850.12
320.587	854.12
320.816	866.12
321.046	872.12
321.275	905.12
321.504	867.12
321.733	891.12
321.962	890.12
322.191	917.12
322.42	919.12
322.649	963.12
322.878	1026.12
323.108	1029.12
323.337	1056.12
323.566	1120.12
323.795	1152.12
324.024	1267.12
324.253	1453.12
324.482	2207.12
324.71	3662.12
324.939	5795.12
325.168	5001.12
325.397	2069.12
325.626	1329.12
325.855	1117.12
326.084	1052.12
326.313	1051.12
326.542	1083.12
326.77	1207.12
326.999	1402.12
327.228	2049.12
327.457	3314.12
327.686	4472.12
327.914	2627.12
328.143	1555.12
328.372	1308.12
328.6	1303.12
328.829	1211.12
329.058	1272.12
329.287	1387.12
329.515	1261.12
329.744	1128.12
329.972	1060.12
330.201	1087.12
330.43	1121.12
330.658	1227.12
330.887	1448.12
331.115	1497.12
331.344	1211.12
331.572	1142.12
331.801	1109.12
332.03	1169.12
332.258	1129.12
332.486	1103.12
332.715	1058.12
332.943	1105.12
333.172	1151.12
333.4	1139.12
333.629	1187.12
333.857	1205.12
334.085	1165.12
334.314	1148.12
334.542	1124.12
334.771	1117.12
334.999	1135.12
335.227	1116.12
335.455	1069.12
335.684	1115.12
335.912	1088.12
336.14	1054.12
336.369	1069.12
336.597	1070.12
336.825	1095.12
337.053	1062.12
337.281	1042.12
337.51	1012.12
337.738	1041.12
337.966	1005.12
338.194	1060.12
338.422	1054.12
338.65	1037.12
338.878	996.12
339.106	983.12
339.334	1002.12
339.562	968.12
339.79	963.12
340.018	956.12
340.246	952.12
340.474	986.12
340.702	992.12
340.93	968.12
341.158	964.12
341.386	968.12
341.614	968.12
341.842	988.12
342.07	947.12
342.298	969.12
342.526	964.12
342.754	939.12
342.981	927.12
343.209	954.12
343.437	990.12
343.665	974.12
343.893	1051.12
344.12	1105.12
344.348	1075.12
344.576	1046.12
344.804	1025.12
345.031	1022.12
345.259	1090.12
345.487	1005.12
345.714	963.12
345.942	927.12
346.17	943.12
346.397	940.12
346.625	921.12
346.853	936.12
347.08	901.12
347.308	932.12
347.535	948.12
347.763	954.12
347.99	959.12
348.218	969.12
348.445	954.12
348.673	969.12
348.9	931.12
349.128	927.12
349.355	885.12
349.583	852.12
349.81	866.12
350.037	909.12
350.265	909.12
350.492	880.12
350.72	894.12
350.947	915.12
351.174	953.12
351.402	946.12
351.629	937.12
351.856	937.12
352.083	937.12
352.311	953.12
352.538	980.12
352.765	957.12
352.992	940.12
353.22	923.12
353.447	916.12
353.674	922.12
353.901	889.12
354.128	864.12
354.355	861.12
354.583	851.12
354.81	879.12
355.037	871.12
355.264	847.12
355.491	856.12
355.718	837.12
355.945	843.12
356.172	832.12
356.399	854.12
356.626	852.12
356.853	855.12
357.08	843.12
357.307	843.12
357.534	830.12
357.761	823.12
357.988	864.12
358.215	847.12
358.441	821.12
358.668	849.12
358.895	857.12
359.122	871.12
359.349	871.12
359.576	921.12
359.802	949.12
360.029	1073.12
360.256	1096.12
360.483	1056.12
360.709	949.12
360.936	957.12
361.163	895.12
361.39	904.12
361.616	920.12
361.843	892.12
362.07	913.12
362.296	937.12
362.523	905.12
362.749	913.12
362.976	918.12
363.203	915.12
363.429	857.12
363.656	894.12
363.882	890.12
364.109	885.12
364.335	879.12
364.562	845.12
364.788	860.12
365.015	859.12
365.241	867.12
365.468	884.12
365.694	901.12
365.92	904.12
366.147	862.12
366.373	817.12
366.599	855.12
366.826	870.12
367.052	854.12
367.278	927.12
367.505	860.12
367.731	875.12
367.957	864.12
368.184	841.12
368.41	889.12
368.636	932.12
368.862	960.12
369.089	861.12
369.315	854.12
369.541	897.12
369.767	870.12
369.993	878.12
370.219	913.12
370.445	882.12
370.672	911.12
370.898	875.12
371.124	871.12
371.35	899.12
371.576	879.12
371.802	912.12
372.028	863.12
372.254	914.12
372.48	877.12
372.706	895.12
372.932	927.12
373.158	922.12
373.384	943.12
373.61	927.12
373.835	913.12
374.061	862.12
374.287	945.12
374.513	917.12
374.739	924.12
374.965	958.12
375.191	982.12
375.416	1008.12
375.642	935.12
375.868	954.12
376.094	905.12
376.319	910.12
376.545	891.12
376.771	877.12
376.997	897.12
377.222	914.12
377.448	923.12
377.674	894.12
377.899	889.12
378.125	886.12
378.35	895.12
378.576	920.12
378.802	890.12
379.027	908.12
379.253	909.12
379.478	908.12
379.704	890.12
379.929	888.12
380.155	911.12
380.38	927.12
380.606	933.12
380.831	919.12
381.057	951.12
381.282	904.12
381.507	907.12
381.733	957.12
381.958	942.12
382.184	930.12
382.409	973.12
382.634	967.12
382.86	964.12
383.085	990.12
383.31	988.12
383.535	1011.12
383.761	1011.12
383.986	1023.12
384.211	1020.12
384.436	1028.12
384.662	1031.12
384.887	1071.12
385.112	1038.12
385.337	1107.12
385.562	1091.12
385.787	1066.12
386.013	1168.12
386.238	1109.12
386.463	1099.12
386.688	1094.12
386.913	1067.12
387.138	1045.12
387.363	1044.12
387.588	1086.12
387.813	1088.12
388.038	1086.12
388.263	1124.12
388.488	1061.12
388.713	1096.12
388.938	1106.12
389.163	1084.12
389.387	1073.12
389.612	1096.12
389.837	1084.12
390.062	1065.12
390.287	1078.12
390.512	1063.12
390.736	1065.12
390.961	1071.12
391.186	1128.12
391.411	1141.12
391.636	1138.12
391.86	1177.12
392.085	1206.12
392.31	1211.12
392.534	1173.12
392.759	1170.12
392.984	1153.12
393.208	1138.12
393.433	1100.12
393.658	1137.12
393.882	1146.12
394.107	1133.12
394.331	1149.12
394.556	1155.12
394.78	1141.12
395.005	1156.12
395.229	1149.12
395.454	1223.12
395.678	1219.12
395.903	1240.12
396.127	1282.12
396.352	1235.12
396.576	1169.12
396.801	1156.12
397.025	1172.12
397.249	1205.12
397.474	1237.12
397.698	1228.12
397.922	1223.12
398.147	1251.12
398.371	1235.12
398.595	1302.12
398.82	1297.12
399.044	1349.12
399.268	1453.12
399.492	1653.12
399.717	1801.12
399.941	1880.12
400.165	1811.12
400.389	1720.12
400.613	1577.12
400.837	1455.12
401.062	1386.12
401.286	1352.12
401.51	1357.12
401.734	1353.12
401.958	1400.12
402.182	1377.12
402.406	1447.12
402.63	1457.12
402.854	1437.12
403.078	1475.12
403.302	1469.12
403.526	1524.12
403.75	1575.12
403.974	1507.12
404.198	1513.12
404.422	1521.12
404.645	1543.12
404.869	1540.12
405.093	1594.12
405.317	1611.12
405.541	1651.12
405.765	1547.12
405.988	1499.12
406.212	1597.12
406.436	1612.12
406.66	1682.12
406.883	1638.12
407.107	1710.12
407.331	1819.12
407.555	2003.12
407.778	1999.12
408.002	1823.12
408.226	1681.12
408.449	1594.12
408.673	1614.12
408.896	1651.12
409.12	1814.12
409.344	1677.12
409.567	1537.12
409.791	1483.12
410.014	1495.12
410.238	1477.12
410.461	1475.12
410.685	1511.12
410.908	1536.12
411.132	1636.12
411.355	1685.12
411.578	1625.12
411.802	1483.12
412.025	1418.12
412.249	1453.12
412.472	1446.12
412.695	1401.12
412.919	1371.12
413.142	1387.12
413.365	1394.12
413.589	1414.12
413.812	1380.12
414.035	1407.12
414.258	1379.12
414.482	1367.12
414.705	1393.12
414.928	1411.12
415.151	1437.12
415.374	1401.12
415.597	1385.12
415.821	1413.12
416.044	1411.12
416.267	1434.12
416.49	1418.12
416.713	1384.12
416.936	1405.12
417.159	1388.12
417.382	1447.12
417.605	1405.12
417.828	1478.12
418.051	1549.12
418.274	1507.12
418.497	1467.12
418.72	1472.12
418.943	1456.12
419.166	1563.12
419.389	1627.12
419.611	1566.12
419.834	1539.12
420.057	1560.12
420.28	1531.12
420.503	1477.12
420.726	1489.12
420.948	1516.12
421.171	1630.12
421.394	1703.12
421.617	1555.12
421.839	1526.12
422.062	1567.12
422.285	1552.12
422.507	1681.12
422.73	1890.12
422.953	1779.12
423.175	1605.12
423.398	1615.12
423.621	1654.12
423.843	1730.12
424.066	1699.12
424.288	1637.12
424.511	1703.12
424.733	1864.12
424.956	2077.12
425.178	1936.12
425.401	1962.12
425.623	2006.12
425.846	1670.12
426.068	1575.12
426.291	1521.12
426.513	1543.12
426.735	1561.12
426.958	1668.12
427.18	1920.12
427.402	2313.12
427.625	2461.12
427.847	2003.12
428.069	1710.12
428.292	1567.12
428.514	1471.12
428.736	1431.12
428.958	1415.12
429.181	1423.12
429.403	1416.12
429.625	1407.12
429.847	1557.12
430.069	1739.12
430.292	1699.12
430.514	1469.12
430.736	1415.12
430.958	1437.12
431.18	1367.12
431.402	1323.12
431.624	1320.12
431.846	1250.12
432.068	1216.12
432.29	1260.12
432.512	1334.12
432.734	1364.12
432.956	1407.12
433.178	1443.12
433.4	1477.12
433.622	1436.12
433.844	1403.12
434.066	1327.12
434.287	1245.12
434.509	1228.12
434.731	1325.12
434.953	1395.12
435.175	1527.12
435.397	1589.12
435.618	1541.12
435.84	1652.12
436.062	1991.12
436.284	2147.12
436.505	1715.12
436.727	1589.12
436.949	1472.12
437.17	1445.12
437.392	1392.12
437.614	1391.12
437.835	1413.12
438.057	1715.12
438.278	1999.12
438.5	1979.12
438.721	2242.12
438.943	2120.12
439.165	1752.12
439.386	1651.12
439.608	1682.12
439.829	1649.12
440.05	1797.12
440.272	1997.12
440.493	1821.12
440.715	1618.12
440.936	1590.12
441.158	1592.12
441.379	1545.12
441.6	1677.12
441.822	1688.12
442.043	1814.12
442.264	2087.12
442.486	2123.12
442.707	1794.12
442.928	1741.12
443.149	1754.12
443.371	1890.12
443.592	1956.12
443.813	2179.12
444.034	2340.12
444.255	1985.12
444.476	1781.12
444.698	1795.12
444.919	1819.12
445.14	3499.12
445.361	2602.12
445.582	1966.12
445.803	2157.12
446.024	2412.12
446.245	2411.12
446.466	2168.12
446.687	1813.12
446.908	1745.12
447.129	1627.12
447.35	1536.12
447.571	1539.12
447.792	1501.12
448.013	1511.12
448.234	1537.12
448.455	1648.12
448.675	1993.12
448.896	2329.12
449.117	1897.12
449.338	1757.12
449.559	2142.12
449.779	2437.12
450	1872.12
450.221	1575.12
450.442	1526.12
450.662	1428.12
450.883	1468.12
451.104	1547.12
451.324	1461.12
451.545	1369.12
451.766	1341.12
451.986	1291.12
452.207	1306.12
452.428	1288.12
452.648	1280.12
452.869	1252.12
453.089	1298.12
453.31	1265.12
453.53	1180.12
453.751	1157.12
453.971	1190.12
454.192	1199.12
454.412	1212.12
454.633	1181.12
454.853	1183.12
455.073	1199.12
455.294	1320.12
455.514	1520.12
455.734	1447.12
455.955	1230.12
456.175	1149.12
456.395	1132.12
456.616	1067.12
456.836	1087.12
457.056	1085.12
457.276	1065.12
457.497	1071.12
457.717	1111.12
457.937	1120.12
458.157	1132.12
458.377	1119.12
458.598	1180.12
458.818	1305.12
459.038	1553.12
459.258	1598.12
459.478	1308.12
459.698	1203.12
459.918	1227.12
460.138	1308.12
460.358	1337.12
460.578	1370.12
460.798	1387.12
461.018	1415.12
461.238	1381.12
461.458	1407.12
461.678	1361.12
461.898	1376.12
462.118	1385.12
462.338	1431.12
462.558	1448.12
462.777	1486.12
462.997	1541.12
463.217	1659.12
463.437	1656.12
463.657	1578.12
463.876	1494.12
464.096	1502.12
464.316	1495.12
464.536	1527.12
464.755	1533.12
464.975	1554.12
465.195	1660.12
465.414	1805.12
465.634	1527.12
465.854	1365.12
466.073	1386.12
466.293	1331.12
466.512	1326.12
466.732	1336.12
466.951	1356.12
467.171	1324.12
467.391	1384.12
467.61	1417.12
467.829	1426.12
468.049	1371.12
468.268	1315.12
468.488	1277.12
468.707	1307.12
468.927	1302.12
469.146	1293.12
469.365	1367.12
469.585	1361.12
469.804	1404.12
470.023	1403.12
470.243	1458.12
470.462	1495.12
470.681	1543.12
470.901	1468.12
471.12	1409.12
471.339	1436.12
471.558	1424.12
471.777	1411.12
471.997	1353.12
472.216	1258.12
472.435	1208.12
472.654	1143.12
472.873	1147.12
473.092	1194.12
473.311	1225.12
473.53	1233.12
473.749	1274.12
473.968	1425.12
474.187	1679.12
474.406	1701.12
474.625	1386.12
474.844	1349.12
475.063	1292.12
475.282	1284.12
475.501	1261.12
475.72	1302.12
475.939	1315.12
476.158	1315.12
476.377	1310.12
476.596	1271.12
476.814	1233.12
477.033	1221.12
477.252	1268.12
477.471	1331.12
477.69	1418.12
477.908	1441.12
478.127	1513.12
478.346	1496.12
478.564	1511.12
478.783	1503.12
479.002	1557.12
479.22	1535.12
479.439	1568.12
479.658	1526.12
479.876	1526.12
480.095	1496.12
480.313	1668.12
480.532	1625.12
480.751	1497.12
480.969	1433.12
481.188	1391.12
481.406	1372.12
481.624	1317.12
481.843	1286.12
482.061	1311.12
482.28	1377.12
482.498	1342.12
482.717	1333.12
482.935	1404.12
483.153	1497.12
483.372	1554.12
483.59	1585.12
483.808	1483.12
484.027	1443.12
484.245	1429.12
484.463	1495.12
484.681	1573.12
484.9	1558.12
485.118	1520.12
485.336	1507.12
485.554	1435.12
485.772	1399.12
485.99	1423.12
486.209	1431.12
486.427	1447.12
486.645	1540.12
486.863	1657.12
487.081	1646.12
487.299	1654.12
487.517	1649.12
487.735	1803.12
487.953	1893.12
488.171	1844.12
488.389	1779.12
488.607	1689.12
488.825	1584.12
489.043	1528.12
489.261	1571.12
489.479	1638.12
489.696	1639.12
489.914	1644.12
490.132	1677.12
490.35	1818.12
490.568	1869.12
490.786	1960.12
491.003	2059.12
491.221	2145.12
491.439	2193.12
491.657	2224.12
491.874	2331.12
492.092	2427.12
492.31	2538.12
492.527	2428.12
492.745	2287.12
492.963	2261.12
493.18	2207.12
493.398	2235.12
493.615	2227.12
493.833	2245.12
494.05	2195.12
