Data from FlinnAP5935BZINC.07152019.LAMPEdge.EN7.5scans.P1_HRD10591_15-01-05-579.txt Node
Date: Mon Jul 15 15:01:05 EDT 2019
User: cochatt
Spectrometer: HR+D1059
Trigger mode: 1
Integration Time (sec): 1.000000E-1
Scans to average: 1
Electric dark correction enabled: true
Nonlinearity correction enabled: false
Boxcar width: 0
XAxis mode: Wavelengths
Number of Pixels in Spectrum: 2048
>>>>>Begin Spectral Data<<<<<
223.165	-5.19
223.4	-5.19
223.635	-5.19
223.869	-12.19
224.104	-20.19
224.338	-21.19
224.573	-12.19
224.808	-16.19
225.042	-4.19
225.277	-17.19
225.511	-22.19
225.746	5.81
225.98	13.81
226.215	13.81
226.449	17.81
226.683	21.81
226.918	26.81
227.152	30.81
227.387	33.81
227.621	38.81
227.856	46.81
228.09	48.81
228.324	48.81
228.559	56.81
228.793	78.81
229.027	111.81
229.262	122.81
229.496	138.81
229.73	130.81
229.964	157.81
230.199	153.81
230.433	129.81
230.667	155.81
230.901	141.81
231.136	127.81
231.37	152.81
231.604	171.81
231.838	166.81
232.072	179.81
232.306	163.81
232.541	159.81
232.775	163.81
233.009	159.81
233.243	180.81
233.477	165.81
233.711	158.81
233.945	168.81
234.179	166.81
234.413	166.81
234.647	182.81
234.881	180.81
235.115	182.81
235.349	196.81
235.583	184.81
235.817	180.81
236.051	196.81
236.285	183.81
236.519	175.81
236.753	172.81
236.987	198.81
237.221	181.81
237.455	210.81
237.689	180.81
237.922	177.81
238.156	197.81
238.39	194.81
238.624	192.81
238.858	198.81
239.091	200.81
239.325	193.81
239.559	208.81
239.793	217.81
240.027	217.81
240.26	229.81
240.494	219.81
240.728	206.81
240.961	225.81
241.195	233.81
241.429	214.81
241.662	234.81
241.896	230.81
242.13	237.81
242.363	221.81
242.597	244.81
242.83	244.81
243.064	257.81
243.298	243.81
243.531	247.81
243.765	251.81
243.998	261.81
244.232	258.81
244.465	258.81
244.699	254.81
244.932	296.81
245.166	273.81
245.399	269.81
245.633	270.81
245.866	268.81
246.099	289.81
246.333	275.81
246.566	290.81
246.8	286.81
247.033	304.81
247.266	295.81
247.5	291.81
247.733	300.81
247.966	321.81
248.2	325.81
248.433	313.81
248.666	308.81
248.899	322.81
249.133	352.81
249.366	336.81
249.599	357.81
249.832	383.81
250.066	430.81
250.299	499.81
250.532	654.81
250.765	739.81
250.998	632.81
251.231	506.81
251.465	482.81
251.698	436.81
251.931	423.81
252.164	427.81
252.397	406.81
252.63	405.81
252.863	406.81
253.096	375.81
253.329	402.81
253.562	393.81
253.795	391.81
254.028	428.81
254.261	457.81
254.494	410.81
254.727	442.81
254.96	448.81
255.193	454.81
255.426	526.81
255.659	614.81
255.892	811.81
256.124	1125.81
256.357	1261.81
256.59	1010.81
256.823	797.81
257.056	675.81
257.289	624.81
257.521	560.81
257.754	540.81
257.987	527.81
258.22	505.81
258.452	478.81
258.685	498.81
258.918	486.81
259.151	475.81
259.383	507.81
259.616	475.81
259.849	476.81
260.081	467.81
260.314	463.81
260.547	465.81
260.779	454.81
261.012	487.81
261.244	473.81
261.477	463.81
261.71	457.81
261.942	469.81
262.175	474.81
262.407	471.81
262.64	444.81
262.872	453.81
263.105	467.81
263.337	471.81
263.57	475.81
263.802	471.81
264.035	475.81
264.267	472.81
264.499	476.81
264.732	476.81
264.964	476.81
265.197	489.81
265.429	469.81
265.661	484.81
265.894	500.81
266.126	491.81
266.358	510.81
266.591	501.81
266.823	495.81
267.055	488.81
267.287	507.81
267.52	486.81
267.752	511.81
267.984	517.81
268.216	534.81
268.448	499.81
268.681	526.81
268.913	508.81
269.145	527.81
269.377	539.81
269.609	514.81
269.841	533.81
270.073	521.81
270.306	544.81
270.538	546.81
270.77	530.81
271.002	542.81
271.234	536.81
271.466	555.81
271.698	563.81
271.93	562.81
272.162	552.81
272.394	577.81
272.626	565.81
272.858	569.81
273.09	595.81
273.322	597.81
273.553	557.81
273.785	588.81
274.017	600.81
274.249	591.81
274.481	607.81
274.713	602.81
274.945	638.81
275.176	647.81
275.408	659.81
275.64	660.81
275.872	697.81
276.104	699.81
276.335	702.81
276.567	693.81
276.799	715.81
277.031	774.81
277.262	834.81
277.494	846.81
277.726	770.81
277.957	774.81
278.189	760.81
278.421	731.81
278.652	731.81
278.884	725.81
279.115	720.81
279.347	739.81
279.579	778.81
279.81	805.81
280.042	833.81
280.273	989.81
280.505	989.81
280.736	872.81
280.968	817.81
281.199	785.81
281.431	767.81
281.662	746.81
281.894	738.81
282.125	723.81
282.356	745.81
282.588	713.81
282.819	713.81
283.051	709.81
283.282	718.81
283.513	683.81
283.745	702.81
283.976	718.81
284.207	702.81
284.439	715.81
284.67	720.81
284.901	714.81
285.132	711.81
285.364	707.81
285.595	698.81
285.826	736.81
286.057	753.81
286.288	716.81
286.52	715.81
286.751	746.81
286.982	727.81
287.213	738.81
287.444	750.81
287.675	733.81
287.906	736.81
288.138	741.81
288.369	724.81
288.6	755.81
288.831	766.81
289.062	755.81
289.293	758.81
289.524	749.81
289.755	715.81
289.986	752.81
290.217	732.81
290.448	760.81
290.679	748.81
290.91	726.81
291.141	738.81
291.371	756.81
291.602	724.81
291.833	721.81
292.064	766.81
292.295	765.81
292.526	737.81
292.757	749.81
292.987	733.81
293.218	726.81
293.449	736.81
293.68	748.81
293.91	747.81
294.141	744.81
294.372	728.81
294.603	731.81
294.833	746.81
295.064	730.81
295.295	745.81
295.525	750.81
295.756	737.81
295.987	739.81
296.217	750.81
296.448	767.81
296.679	750.81
296.909	765.81
297.14	758.81
297.37	759.81
297.601	770.81
297.831	780.81
298.062	753.81
298.292	797.81
298.523	802.81
298.753	800.81
298.984	765.81
299.214	792.81
299.445	816.81
299.675	771.81
299.905	769.81
300.136	778.81
300.366	811.81
300.597	810.81
300.827	817.81
301.057	818.81
301.288	848.81
301.518	844.81
301.748	836.81
301.979	879.81
302.209	858.81
302.439	857.81
302.669	854.81
302.9	827.81
303.13	849.81
303.36	852.81
303.59	873.81
303.82	919.81
304.051	927.81
304.281	880.81
304.511	890.81
304.741	871.81
304.971	847.81
305.201	845.81
305.431	868.81
305.661	843.81
305.891	815.81
306.121	814.81
306.352	855.81
306.582	820.81
306.812	838.81
307.042	896.81
307.272	933.81
307.502	1005.81
307.731	1025.81
307.961	963.81
308.191	903.81
308.421	864.81
308.651	878.81
308.881	860.81
309.111	875.81
309.341	843.81
309.571	845.81
309.8	843.81
310.03	839.81
310.26	849.81
310.49	843.81
310.72	866.81
310.949	877.81
311.179	868.81
311.409	900.81
311.639	894.81
311.868	879.81
312.098	876.81
312.328	885.81
312.557	870.81
312.787	861.81
313.017	882.81
313.246	908.81
313.476	909.81
313.706	898.81
313.935	871.81
314.165	899.81
314.394	901.81
314.624	913.81
314.853	916.81
315.083	911.81
315.312	901.81
315.542	913.81
315.771	872.81
316.001	900.81
316.23	908.81
316.46	916.81
316.689	934.81
316.919	892.81
317.148	891.81
317.377	929.81
317.607	906.81
317.836	915.81
318.065	945.81
318.295	949.81
318.524	935.81
318.753	925.81
318.983	930.81
319.212	926.81
319.441	939.81
319.67	950.81
319.9	930.81
320.129	934.81
320.358	930.81
320.587	944.81
320.816	939.81
321.046	946.81
321.275	937.81
321.504	955.81
321.733	966.81
321.962	974.81
322.191	1004.81
322.42	989.81
322.649	1002.81
322.878	1009.81
323.108	1034.81
323.337	1041.81
323.566	1056.81
323.795	1070.81
324.024	1074.81
324.253	1097.81
324.482	1095.81
324.71	1103.81
324.939	1127.81
325.168	1150.81
325.397	1140.81
325.626	1173.81
325.855	1193.81
326.084	1258.81
326.313	1233.81
326.542	1267.81
326.77	1308.81
326.999	1373.81
327.228	1413.81
327.457	1516.81
327.686	1673.81
327.914	1991.81
328.143	2498.81
328.372	3063.81
328.6	2776.81
328.829	2073.81
329.058	1884.81
329.287	1930.81
329.515	2123.81
329.744	2473.81
329.972	3309.81
330.201	4531.81
330.43	5469.81
330.658	4501.81
330.887	2779.81
331.115	2131.81
331.344	1880.81
331.572	1753.81
331.801	1688.81
332.03	1689.81
332.258	1673.81
332.486	1725.81
332.715	1772.81
332.943	1877.81
333.172	1981.81
333.4	2177.81
333.629	2461.81
333.857	2907.81
334.085	3666.81
334.314	5124.81
334.542	6869.81
334.771	7305.81
334.999	4793.81
335.227	3041.81
335.455	2363.81
335.684	2062.81
335.912	1879.81
336.14	1682.81
336.369	1593.81
336.597	1542.81
336.825	1501.81
337.053	1447.81
337.281	1354.81
337.51	1333.81
337.738	1318.81
337.966	1254.81
338.194	1256.81
338.422	1225.81
338.65	1187.81
338.878	1221.81
339.106	1171.81
339.334	1195.81
339.562	1158.81
339.79	1159.81
340.018	1117.81
340.246	1094.81
340.474	1073.81
340.702	1084.81
340.93	1074.81
341.158	1095.81
341.386	1057.81
341.614	1079.81
341.842	1065.81
342.07	1077.81
342.298	1055.81
342.526	1024.81
342.754	1033.81
342.981	1054.81
343.209	1055.81
343.437	1104.81
343.665	1153.81
343.893	1199.81
344.12	1233.81
344.348	1183.81
344.576	1109.81
344.804	1076.81
345.031	1064.81
345.259	1054.81
345.487	1012.81
345.714	1018.81
345.942	1023.81
346.17	994.81
346.397	1001.81
346.625	1008.81
346.853	980.81
347.08	978.81
347.308	965.81
347.535	960.81
347.763	1003.81
347.99	972.81
348.218	1011.81
348.445	999.81
348.673	963.81
348.9	967.81
349.128	938.81
349.355	962.81
349.583	969.81
349.81	957.81
350.037	963.81
350.265	942.81
350.492	943.81
350.72	956.81
350.947	922.81
351.174	948.81
351.402	955.81
351.629	933.81
351.856	940.81
352.083	939.81
352.311	961.81
352.538	945.81
352.765	949.81
352.992	956.81
353.22	963.81
353.447	942.81
353.674	935.81
353.901	951.81
354.128	940.81
354.355	968.81
354.583	918.81
354.81	942.81
355.037	947.81
355.264	943.81
355.491	924.81
355.718	933.81
355.945	926.81
356.172	916.81
356.399	935.81
356.626	916.81
356.853	914.81
357.08	942.81
357.307	945.81
357.534	920.81
357.761	920.81
357.988	935.81
358.215	930.81
358.441	939.81
358.668	945.81
358.895	936.81
359.122	926.81
359.349	939.81
359.576	929.81
359.802	913.81
360.029	896.81
360.256	917.81
360.483	943.81
360.709	926.81
360.936	930.81
361.163	913.81
361.39	913.81
361.616	935.81
361.843	913.81
362.07	921.81
362.296	933.81
362.523	899.81
362.749	912.81
362.976	909.81
363.203	920.81
363.429	917.81
363.656	917.81
363.882	898.81
364.109	911.81
364.335	899.81
364.562	893.81
364.788	926.81
365.015	929.81
365.241	898.81
365.468	930.81
365.694	895.81
365.92	909.81
366.147	883.81
366.373	906.81
366.599	895.81
366.826	916.81
367.052	897.81
367.278	914.81
367.505	900.81
367.731	929.81
367.957	910.81
368.184	907.81
368.41	924.81
368.636	933.81
368.862	909.81
369.089	900.81
369.315	925.81
369.541	943.81
369.767	926.81
369.993	927.81
370.219	973.81
370.445	928.81
370.672	960.81
370.898	948.81
371.124	985.81
371.35	953.81
371.576	943.81
371.802	945.81
372.028	962.81
372.254	985.81
372.48	962.81
372.706	995.81
372.932	996.81
373.158	982.81
373.384	981.81
373.61	950.81
373.835	985.81
374.061	971.81
374.287	978.81
374.513	966.81
374.739	1016.81
374.965	1020.81
375.191	1030.81
375.416	1013.81
375.642	1016.81
375.868	986.81
376.094	972.81
376.319	975.81
376.545	973.81
376.771	920.81
376.997	953.81
377.222	948.81
377.448	945.81
377.674	930.81
377.899	925.81
378.125	921.81
378.35	944.81
378.576	936.81
378.802	928.81
379.027	955.81
379.253	933.81
379.478	926.81
379.704	962.81
379.929	944.81
380.155	947.81
380.38	928.81
380.606	942.81
380.831	957.81
381.057	923.81
381.282	955.81
381.507	928.81
381.733	977.81
381.958	972.81
382.184	981.81
382.409	977.81
382.634	983.81
382.86	976.81
383.085	987.81
383.31	1024.81
383.535	1030.81
383.761	1040.81
383.986	1047.81
384.211	1049.81
384.436	1078.81
384.662	1081.81
384.887	1069.81
385.112	1077.81
385.337	1124.81
385.562	1131.81
385.787	1113.81
386.013	1134.81
386.238	1141.81
386.463	1122.81
386.688	1116.81
386.913	1084.81
387.138	1083.81
387.363	1116.81
387.588	1089.81
387.813	1092.81
388.038	1098.81
388.263	1109.81
388.488	1092.81
388.713	1122.81
388.938	1093.81
389.163	1082.81
389.387	1081.81
389.612	1072.81
389.837	1057.81
390.062	1049.81
390.287	1085.81
390.512	1072.81
390.736	1103.81
390.961	1123.81
391.186	1103.81
391.411	1152.81
391.636	1145.81
391.86	1212.81
392.085	1197.81
392.31	1202.81
392.534	1189.81
392.759	1152.81
392.984	1185.81
393.208	1142.81
393.433	1173.81
393.658	1152.81
393.882	1119.81
394.107	1175.81
394.331	1140.81
394.556	1151.81
394.78	1157.81
395.005	1168.81
395.229	1173.81
395.454	1206.81
395.678	1213.81
395.903	1196.81
396.127	1214.81
396.352	1182.81
396.576	1154.81
396.801	1173.81
397.025	1163.81
397.249	1204.81
397.474	1208.81
397.698	1198.81
397.922	1247.81
398.147	1236.81
398.371	1266.81
398.595	1292.81
398.82	1310.81
399.044	1397.81
399.268	1521.81
399.492	1732.81
399.717	1866.81
399.941	1888.81
400.165	1749.81
400.389	1598.81
400.613	1525.81
400.837	1449.81
401.062	1359.81
401.286	1346.81
401.51	1361.81
401.734	1319.81
401.958	1369.81
402.182	1383.81
402.406	1386.81
402.63	1381.81
402.854	1461.81
403.078	1411.81
403.302	1451.81
403.526	1469.81
403.75	1514.81
403.974	1563.81
404.198	1600.81
404.422	1605.81
404.645	1639.81
404.869	1706.81
405.093	1823.81
405.317	1914.81
405.541	2003.81
405.765	1771.81
405.988	1659.81
406.212	1607.81
406.436	1536.81
406.66	1551.81
406.883	1537.81
407.107	1577.81
407.331	1652.81
407.555	1693.81
407.778	1701.81
408.002	1634.81
408.226	1606.81
408.449	1589.81
408.673	1518.81
408.896	1514.81
409.12	1494.81
409.344	1461.81
409.567	1458.81
409.791	1487.81
410.014	1505.81
410.238	1478.81
410.461	1488.81
410.685	1446.81
410.908	1442.81
411.132	1481.81
411.355	1441.81
411.578	1446.81
411.802	1470.81
412.025	1530.81
412.249	1638.81
412.472	1779.81
412.695	1918.81
412.919	1878.81
413.142	1773.81
413.365	1686.81
413.589	1606.81
413.812	1519.81
414.035	1477.81
414.258	1478.81
414.482	1475.81
414.705	1428.81
414.928	1411.81
415.151	1397.81
415.374	1400.81
415.597	1393.81
415.821	1352.81
416.044	1380.81
416.267	1375.81
416.49	1377.81
416.713	1365.81
416.936	1387.81
417.159	1401.81
417.382	1427.81
417.605	1485.81
417.828	1537.81
418.051	1439.81
418.274	1375.81
418.497	1357.81
418.72	1388.81
418.943	1414.81
419.166	1500.81
419.389	1617.81
419.611	1591.81
419.834	1613.81
420.057	1653.81
420.28	1723.81
420.503	1759.81
420.726	1640.81
420.948	1601.81
421.171	1548.81
421.394	1499.81
421.617	1443.81
421.839	1430.81
422.062	1413.81
422.285	1385.81
422.507	1429.81
422.73	1431.81
422.953	1402.81
423.175	1389.81
423.398	1398.81
423.621	1402.81
423.843	1429.81
424.066	1425.81
424.288	1436.81
424.511	1401.81
424.733	1364.81
424.956	1330.81
425.178	1356.81
425.401	1353.81
425.623	1355.81
425.846	1301.81
426.068	1345.81
426.291	1305.81
426.513	1316.81
426.735	1331.81
426.958	1303.81
427.18	1296.81
427.402	1385.81
427.625	1466.81
427.847	1693.81
428.069	1829.81
428.292	1685.81
428.514	1436.81
428.736	1360.81
428.958	1317.81
429.181	1274.81
429.403	1249.81
429.625	1218.81
429.847	1198.81
430.069	1164.81
430.292	1221.81
430.514	1166.81
430.736	1197.81
430.958	1193.81
431.18	1187.81
431.402	1200.81
431.624	1178.81
431.846	1215.81
432.068	1204.81
432.29	1233.81
432.512	1218.81
432.734	1179.81
432.956	1181.81
433.178	1174.81
433.4	1181.81
433.622	1169.81
433.844	1191.81
434.066	1207.81
434.287	1202.81
434.509	1235.81
434.731	1273.81
434.953	1291.81
435.175	1307.81
435.397	1282.81
435.618	1235.81
435.84	1191.81
436.062	1216.81
436.284	1174.81
436.505	1151.81
436.727	1194.81
436.949	1201.81
437.17	1175.81
437.392	1149.81
437.614	1110.81
437.835	1123.81
438.057	1136.81
438.278	1073.81
438.5	1090.81
438.721	1118.81
438.943	1121.81
439.165	1128.81
439.386	1141.81
439.608	1136.81
439.829	1153.81
440.05	1170.81
440.272	1157.81
440.493	1150.81
440.715	1156.81
440.936	1191.81
441.158	1218.81
441.379	1239.81
441.6	1270.81
441.822	1301.81
442.043	1283.81
442.264	1274.81
442.486	1232.81
442.707	1259.81
442.928	1213.81
443.149	1257.81
443.371	1216.81
443.592	1221.81
443.813	1268.81
444.034	1309.81
444.255	1331.81
444.476	1365.81
444.698	1447.81
444.919	1459.81
445.14	1578.81
445.361	1433.81
445.582	1305.81
445.803	1254.81
446.024	1215.81
446.245	1226.81
446.466	1223.81
446.687	1152.81
446.908	1175.81
447.129	1129.81
447.35	1126.81
447.571	1123.81
447.792	1106.81
448.013	1111.81
448.234	1094.81
448.455	1092.81
448.675	1083.81
448.896	1074.81
449.117	1077.81
449.338	1075.81
449.559	1050.81
449.779	1061.81
450	1037.81
450.221	1035.81
450.442	1064.81
450.662	1039.81
450.883	1078.81
451.104	1083.81
451.324	1079.81
451.545	1071.81
451.766	1056.81
451.986	1063.81
452.207	1031.81
452.428	1042.81
452.648	1035.81
452.869	1021.81
453.089	1001.81
453.31	1064.81
453.53	1044.81
453.751	1015.81
453.971	998.81
454.192	993.81
454.412	985.81
454.633	1012.81
454.853	1006.81
455.073	1006.81
455.294	1030.81
455.514	1000.81
455.734	1009.81
455.955	989.81
456.175	993.81
456.395	979.81
456.616	990.81
456.836	996.81
457.056	1004.81
457.276	1010.81
457.497	1049.81
457.717	1019.81
457.937	1034.81
458.157	1026.81
458.377	1042.81
458.598	1081.81
458.818	1094.81
459.038	1075.81
459.258	1100.81
459.478	1124.81
459.698	1209.81
459.918	1213.81
460.138	1259.81
460.358	1309.81
460.578	1328.81
460.798	1327.81
461.018	1376.81
461.238	1316.81
461.458	1314.81
461.678	1283.81
461.898	1383.81
462.118	1382.81
462.338	1411.81
462.558	1429.81
462.777	1495.81
462.997	1560.81
463.217	1709.81
463.437	1670.81
463.657	1590.81
463.876	1495.81
464.096	1514.81
464.316	1489.81
464.536	1482.81
464.755	1456.81
464.975	1435.81
465.195	1376.81
465.414	1289.81
465.634	1233.81
465.854	1221.81
466.073	1237.81
466.293	1204.81
466.512	1169.81
466.732	1148.81
466.951	1167.81
467.171	1201.81
467.391	1234.81
467.61	1233.81
467.829	1372.81
468.049	1890.81
468.268	2744.81
468.488	2133.81
468.707	1602.81
468.927	1456.81
469.146	1345.81
469.365	1277.81
469.585	1281.81
469.804	1286.81
470.023	1263.81
470.243	1263.81
470.462	1265.81
470.681	1289.81
470.901	1297.81
471.12	1291.81
471.339	1294.81
471.558	1337.81
471.777	1434.81
471.997	1699.81
472.216	2678.81
472.435	5199.81
472.654	4254.81
472.873	2633.81
473.092	2063.81
473.311	1758.81
473.53	1617.81
473.749	1469.81
473.968	1398.81
474.187	1359.81
474.406	1333.81
474.625	1314.81
474.844	1267.81
475.063	1267.81
475.282	1262.81
475.501	1205.81
475.72	1231.81
475.939	1238.81
476.158	1261.81
476.377	1265.81
476.596	1260.81
476.814	1241.81
477.033	1269.81
477.252	1278.81
477.471	1324.81
477.69	1327.81
477.908	1345.81
478.127	1417.81
478.346	1409.81
478.564	1396.81
478.783	1427.81
479.002	1468.81
479.22	1478.81
479.439	1526.81
479.658	1519.81
479.876	1549.81
480.095	1644.81
480.313	1737.81
480.532	1927.81
480.751	2222.81
480.969	3160.81
481.188	6862.81
481.406	8733.81
481.624	4901.81
481.843	3441.81
482.061	2761.81
482.28	2356.81
482.498	2087.81
482.717	1979.81
482.935	1862.81
483.153	1818.81
483.372	1717.81
483.59	1677.81
483.808	1634.81
484.027	1560.81
484.245	1577.81
484.463	1584.81
484.681	1554.81
484.9	1561.81
485.118	1530.81
485.336	1543.81
485.554	1522.81
485.772	1504.81
485.99	1497.81
486.209	1553.81
486.427	1524.81
486.645	1489.81
486.863	1505.81
487.081	1521.81
487.299	1513.81
487.517	1515.81
487.735	1523.81
487.953	1535.81
488.171	1526.81
488.389	1548.81
488.607	1557.81
488.825	1559.81
489.043	1549.81
489.261	1552.81
489.479	1601.81
489.696	1623.81
489.914	1615.81
490.132	1656.81
490.35	1714.81
490.568	1716.81
490.786	1748.81
491.003	1842.81
491.221	1901.81
491.439	1955.81
491.657	2033.81
491.874	2036.81
492.092	2109.81
492.31	2110.81
492.527	2188.81
492.745	2260.81
492.963	2240.81
493.18	2252.81
493.398	2238.81
493.615	2186.81
