Data from FlinnAP9092KCOPPER.07152019.QSWITCH.EN10.P1_HRD10591_14-47-56-673.txt Node
Date: Mon Jul 15 14:47:56 EDT 2019
User: cochatt
Spectrometer: HR+D1059
Trigger mode: 3
Integration Time (sec): 1.000000E-1
Scans to average: 1
Electric dark correction enabled: true
Nonlinearity correction enabled: false
Boxcar width: 0
XAxis mode: Wavelengths
Number of Pixels in Spectrum: 2048
>>>>>Begin Spectral Data<<<<<
223.165	-25
223.4	-25
223.635	-25
223.869	-16
224.104	-21
224.338	-8
224.573	-9
224.808	-22
225.042	-14
225.277	-8
225.511	-27
225.746	-1
225.98	15
226.215	12
226.449	20
226.683	42
226.918	36
227.152	26
227.387	10
227.621	35
227.856	41
228.09	44
228.324	37
228.559	50
228.793	48
229.027	59
229.262	65
229.496	74
229.73	77
229.964	96
230.199	84
230.433	79
230.667	75
230.901	80
231.136	75
231.37	85
231.604	88
231.838	88
232.072	86
232.306	69
232.541	85
232.775	94
233.009	78
233.243	89
233.477	91
233.711	75
233.945	96
234.179	83
234.413	89
234.647	75
234.881	90
235.115	92
235.349	95
235.583	80
235.817	83
236.051	81
236.285	80
236.519	90
236.753	78
236.987	79
237.221	80
237.455	87
237.689	69
237.922	79
238.156	79
238.39	68
238.624	84
238.858	65
239.091	72
239.325	75
239.559	89
239.793	88
240.027	78
240.26	72
240.494	84
240.728	76
240.961	92
241.195	76
241.429	72
241.662	83
241.896	67
242.13	80
242.363	81
242.597	73
242.83	86
243.064	98
243.298	65
243.531	84
243.765	77
243.998	85
244.232	84
244.465	88
244.699	67
244.932	76
245.166	87
245.399	86
245.633	88
245.866	85
246.099	81
246.333	98
246.566	75
246.8	87
247.033	87
247.266	65
247.5	95
247.733	90
247.966	84
248.2	73
248.433	79
248.666	73
248.899	87
249.133	82
249.366	89
249.599	86
249.832	79
250.066	77
250.299	79
250.532	85
250.765	70
250.998	67
251.231	77
251.465	75
251.698	73
251.931	81
252.164	90
252.397	83
252.63	83
252.863	75
253.096	66
253.329	75
253.562	75
253.795	91
254.028	84
254.261	85
254.494	94
254.727	80
254.96	92
255.193	90
255.426	83
255.659	86
255.892	68
256.124	66
256.357	89
256.59	76
256.823	81
257.056	75
257.289	90
257.521	93
257.754	75
257.987	91
258.22	92
258.452	76
258.685	85
258.918	72
259.151	74
259.383	90
259.616	84
259.849	77
260.081	82
260.314	85
260.547	94
260.779	92
261.012	84
261.244	106
261.477	89
261.71	77
261.942	111
262.175	121
262.407	92
262.64	91
262.872	73
263.105	89
263.337	99
263.57	99
263.802	92
264.035	96
264.267	77
264.499	91
264.732	89
264.964	99
265.197	90
265.429	85
265.661	94
265.894	95
266.126	107
266.358	78
266.591	84
266.823	88
267.055	65
267.287	79
267.52	96
267.752	89
267.984	85
268.216	79
268.448	94
268.681	78
268.913	83
269.145	89
269.377	87
269.609	93
269.841	90
270.073	95
270.306	89
270.538	92
270.77	87
271.002	84
271.234	86
271.466	93
271.698	83
271.93	82
272.162	97
272.394	91
272.626	91
272.858	89
273.09	99
273.322	81
273.553	89
273.785	96
274.017	91
274.249	80
274.481	87
274.713	89
274.945	74
275.176	86
275.408	75
275.64	90
275.872	80
276.104	86
276.335	95
276.567	96
276.799	112
277.031	117
277.262	96
277.494	91
277.726	84
277.957	91
278.189	90
278.421	101
278.652	83
278.884	86
279.115	91
279.347	86
279.579	90
279.81	95
280.042	83
280.273	78
280.505	90
280.736	87
280.968	81
281.199	83
281.431	92
281.662	92
281.894	86
282.125	92
282.356	108
282.588	107
282.819	113
283.051	83
283.282	95
283.513	93
283.745	76
283.976	83
284.207	89
284.439	95
284.67	81
284.901	66
285.132	87
285.364	84
285.595	87
285.826	90
286.057	96
286.288	96
286.52	88
286.751	89
286.982	97
287.213	79
287.444	87
287.675	103
287.906	90
288.138	88
288.369	95
288.6	85
288.831	78
289.062	100
289.293	81
289.524	83
289.755	93
289.986	96
290.217	85
290.448	74
290.679	94
290.91	79
291.141	77
291.371	79
291.602	91
291.833	81
292.064	90
292.295	83
292.526	109
292.757	75
292.987	88
293.218	92
293.449	98
293.68	79
293.91	88
294.141	82
294.372	83
294.603	89
294.833	97
295.064	87
295.295	97
295.525	94
295.756	93
295.987	100
296.217	125
296.448	118
296.679	107
296.909	85
297.14	97
297.37	83
297.601	82
297.831	90
298.062	91
298.292	82
298.523	95
298.753	84
298.984	89
299.214	91
299.445	89
299.675	95
299.905	91
300.136	86
300.366	91
300.597	77
300.827	97
301.057	95
301.288	100
301.518	104
301.748	76
301.979	85
302.209	82
302.439	93
302.669	93
302.9	94
303.13	91
303.36	92
303.59	99
303.82	87
304.051	101
304.281	83
304.511	72
304.741	104
304.971	91
305.201	91
305.431	92
305.661	105
305.891	108
306.121	100
306.352	96
306.582	101
306.812	104
307.042	102
307.272	85
307.502	84
307.731	107
307.961	84
308.191	101
308.421	79
308.651	101
308.881	95
309.111	100
309.341	102
309.571	99
309.8	95
310.03	91
310.26	103
310.49	96
310.72	97
310.949	99
311.179	111
311.409	92
311.639	92
311.868	93
312.098	97
312.328	79
312.557	97
312.787	109
313.017	112
313.246	95
313.476	94
313.706	92
313.935	98
314.165	92
314.394	97
314.624	102
314.853	96
315.083	101
315.312	97
315.542	88
315.771	92
316.001	92
316.23	89
316.46	80
316.689	93
316.919	96
317.148	85
317.377	101
317.607	88
317.836	95
318.065	90
318.295	96
318.524	98
318.753	95
318.983	85
319.212	88
319.441	94
319.67	106
319.9	102
320.129	88
320.358	87
320.587	94
320.816	89
321.046	110
321.275	105
321.504	85
321.733	96
321.962	98
322.191	113
322.42	96
322.649	111
322.878	96
323.108	87
323.337	114
323.566	105
323.795	123
324.024	130
324.253	187
324.482	319
324.71	624
324.939	949
325.168	756
325.397	265
325.626	154
325.855	108
326.084	105
326.313	96
326.542	116
326.77	140
326.999	179
327.228	317
327.457	607
327.686	740
327.914	371
328.143	166
328.372	147
328.6	120
328.829	94
329.058	130
329.287	143
329.515	125
329.744	97
329.972	82
330.201	92
330.43	89
330.658	113
330.887	154
331.115	169
331.344	106
331.572	100
331.801	113
332.03	119
332.258	104
332.486	82
332.715	86
332.943	93
333.172	97
333.4	85
333.629	93
333.857	113
334.085	116
334.314	114
334.542	91
334.771	90
334.999	105
335.227	102
335.455	100
335.684	100
335.912	85
336.14	87
336.369	105
336.597	106
336.825	109
337.053	90
337.281	94
337.51	76
337.738	73
337.966	103
338.194	102
338.422	80
338.65	83
338.878	107
339.106	101
339.334	100
339.562	95
339.79	91
340.018	98
340.246	95
340.474	89
340.702	77
340.93	93
341.158	82
341.386	100
341.614	98
341.842	99
342.07	94
342.298	79
342.526	102
342.754	88
342.981	103
343.209	83
343.437	101
343.665	91
343.893	95
344.12	90
344.348	101
344.576	80
344.804	101
345.031	101
345.259	106
345.487	92
345.714	92
345.942	95
346.17	83
346.397	90
346.625	84
346.853	79
347.08	106
347.308	98
347.535	90
347.763	95
347.99	112
348.218	98
348.445	109
348.673	93
348.9	88
349.128	89
349.355	80
349.583	101
349.81	91
350.037	97
350.265	92
350.492	92
350.72	83
350.947	95
351.174	111
351.402	107
351.629	83
351.856	104
352.083	104
352.311	93
352.538	108
352.765	103
352.992	118
353.22	106
353.447	105
353.674	101
353.901	97
354.128	98
354.355	98
354.583	91
354.81	84
355.037	98
355.264	89
355.491	88
355.718	71
355.945	95
356.172	91
356.399	74
356.626	82
356.853	91
357.08	100
357.307	84
357.534	92
357.761	96
357.988	89
358.215	92
358.441	81
358.668	69
358.895	91
359.122	91
359.349	85
359.576	84
359.802	93
360.029	111
360.256	114
360.483	128
360.709	89
360.936	99
361.163	102
361.39	89
361.616	107
361.843	95
362.07	100
362.296	83
362.523	88
362.749	95
362.976	85
363.203	91
363.429	84
363.656	98
363.882	79
364.109	79
364.335	90
364.562	91
364.788	94
365.015	96
365.241	92
365.468	108
365.694	102
365.92	78
366.147	81
366.373	91
366.599	74
366.826	91
367.052	87
367.278	96
367.505	87
367.731	89
367.957	88
368.184	88
368.41	104
368.636	88
368.862	101
369.089	110
369.315	101
369.541	98
369.767	96
369.993	102
370.219	95
370.445	89
370.672	83
370.898	91
371.124	81
371.35	79
371.576	90
371.802	81
372.028	90
372.254	93
372.48	100
372.706	100
372.932	100
373.158	97
373.384	91
373.61	80
373.835	102
374.061	84
374.287	81
374.513	98
374.739	88
374.965	96
375.191	76
375.416	95
375.642	83
375.868	93
376.094	88
376.319	92
376.545	96
376.771	97
376.997	87
377.222	91
377.448	94
377.674	88
377.899	84
378.125	91
378.35	91
378.576	93
378.802	91
379.027	82
379.253	73
379.478	89
379.704	85
379.929	77
380.155	92
380.38	88
380.606	84
380.831	91
381.057	101
381.282	72
381.507	73
381.733	88
381.958	94
382.184	81
382.409	91
382.634	92
382.86	85
383.085	91
383.31	91
383.535	101
383.761	88
383.986	97
384.211	82
384.436	85
384.662	74
384.887	93
385.112	89
385.337	84
385.562	81
385.787	89
386.013	110
386.238	97
386.463	92
386.688	80
386.913	100
387.138	92
387.363	91
387.588	100
387.813	86
388.038	91
388.263	106
388.488	97
388.713	93
388.938	88
389.163	104
389.387	96
389.612	84
389.837	82
390.062	92
390.287	91
390.512	95
390.736	92
390.961	83
391.186	89
391.411	80
391.636	89
391.86	72
392.085	92
392.31	101
392.534	97
392.759	88
392.984	95
393.208	87
393.433	106
393.658	88
393.882	87
394.107	89
394.331	89
394.556	80
394.78	90
395.005	91
395.229	77
395.454	92
395.678	94
395.903	86
396.127	83
396.352	96
396.576	92
396.801	86
397.025	99
397.249	99
397.474	85
397.698	93
397.922	78
398.147	97
398.371	93
398.595	104
398.82	81
399.044	94
399.268	93
399.492	102
399.717	102
399.941	87
400.165	90
400.389	80
400.613	101
400.837	89
401.062	90
401.286	95
401.51	114
401.734	79
401.958	108
402.182	109
402.406	146
402.63	145
402.854	100
403.078	96
403.302	90
403.526	98
403.75	85
403.974	97
404.198	99
404.422	100
404.645	84
404.869	100
405.093	99
405.317	93
405.541	120
405.765	116
405.988	117
406.212	139
406.436	196
406.66	175
406.883	97
407.107	92
407.331	99
407.555	111
407.778	112
408.002	104
408.226	87
408.449	81
408.673	88
408.896	83
409.12	98
409.344	89
409.567	102
409.791	97
410.014	92
410.238	100
410.461	91
410.685	94
410.908	89
411.132	105
411.355	93
411.578	98
411.802	98
412.025	95
412.249	91
412.472	85
412.695	92
412.919	94
413.142	100
413.365	80
413.589	95
413.812	89
414.035	114
414.258	91
414.482	97
414.705	91
414.928	103
415.151	101
415.374	87
415.597	89
415.821	98
416.044	96
416.267	107
416.49	92
416.713	104
416.936	94
417.159	92
417.382	105
417.605	92
417.828	95
418.051	104
418.274	87
418.497	94
418.72	100
418.943	90
419.166	104
419.389	105
419.611	88
419.834	95
420.057	93
420.28	91
420.503	98
420.726	80
420.948	95
421.171	109
421.394	98
421.617	88
421.839	105
422.062	105
422.285	90
422.507	104
422.73	97
422.953	100
423.175	103
423.398	119
423.621	102
423.843	91
424.066	98
424.288	81
424.511	101
424.733	107
424.956	109
425.178	110
425.401	103
425.623	116
425.846	99
426.068	107
426.291	113
426.513	96
426.735	97
426.958	108
427.18	114
427.402	133
427.625	165
427.847	152
428.069	114
428.292	107
428.514	106
428.736	94
428.958	92
429.181	120
429.403	94
429.625	83
429.847	94
430.069	117
430.292	107
430.514	94
430.736	95
430.958	92
431.18	103
431.402	97
431.624	86
431.846	98
432.068	90
432.29	91
432.512	87
432.734	96
432.956	101
433.178	108
433.4	107
433.622	93
433.844	102
434.066	104
434.287	97
434.509	97
434.731	100
434.953	91
435.175	96
435.397	108
435.618	99
435.84	114
436.062	119
436.284	123
436.505	116
436.727	103
436.949	119
437.17	100
437.392	95
437.614	100
437.835	104
438.057	105
438.278	113
438.5	94
438.721	125
438.943	126
439.165	123
439.386	110
439.608	103
439.829	121
440.05	130
440.272	156
440.493	118
440.715	103
440.936	112
441.158	123
441.379	114
441.6	110
441.822	99
442.043	111
442.264	109
442.486	109
442.707	108
442.928	129
443.149	130
443.371	151
443.592	125
443.813	127
444.034	142
444.255	101
444.476	102
444.698	89
444.919	101
445.14	251
445.361	186
445.582	124
445.803	140
446.024	142
446.245	139
446.466	132
446.687	110
446.908	119
447.129	114
447.35	95
447.571	94
447.792	118
448.013	125
448.234	122
448.455	120
448.675	124
448.896	133
449.117	110
449.338	98
449.559	127
449.779	117
450	103
450.221	119
450.442	106
450.662	103
450.883	121
451.104	140
451.324	113
451.545	104
451.766	103
451.986	93
452.207	110
452.428	115
452.648	121
452.869	108
453.089	124
453.31	126
453.53	108
453.751	96
453.971	95
454.192	109
454.412	107
454.633	98
454.853	110
455.073	85
455.294	102
455.514	118
455.734	108
455.955	99
456.175	103
456.395	86
456.616	92
456.836	89
457.056	100
457.276	100
457.497	83
457.717	63
457.937	69
458.157	93
458.377	98
458.598	97
458.818	140
459.038	148
459.258	127
459.478	103
459.698	83
459.918	85
460.138	83
460.358	92
460.578	91
460.798	91
461.018	89
461.238	97
461.458	90
461.678	77
461.898	93
462.118	97
462.338	96
462.558	94
462.777	94
462.997	98
463.217	79
463.437	96
463.657	94
463.876	96
464.096	101
464.316	107
464.536	105
464.755	107
464.975	98
465.195	168
465.414	188
465.634	110
465.854	91
466.073	94
466.293	101
466.512	91
466.732	110
466.951	112
467.171	120
467.391	112
467.61	139
467.829	142
468.049	128
468.268	113
468.488	108
468.707	111
468.927	108
469.146	108
469.365	110
469.585	112
469.804	121
470.023	129
470.243	116
470.462	115
470.681	135
470.901	121
471.12	119
471.339	103
471.558	117
471.777	124
471.997	98
472.216	99
472.435	92
472.654	88
472.873	116
473.092	98
473.311	109
473.53	105
473.749	101
473.968	120
474.187	122
474.406	115
474.625	109
474.844	97
475.063	100
475.282	97
475.501	99
475.72	80
475.939	93
476.158	83
476.377	95
476.596	102
476.814	89
477.033	95
477.252	95
477.471	99
477.69	106
477.908	109
478.127	105
478.346	105
478.564	100
478.783	118
479.002	113
479.22	113
479.439	113
479.658	116
479.876	112
480.095	98
480.313	104
480.532	98
480.751	105
480.969	107
481.188	84
481.406	89
481.624	72
481.843	78
482.061	92
482.28	92
482.498	99
482.717	87
482.935	101
483.153	114
483.372	116
483.59	101
483.808	103
484.027	100
484.245	86
484.463	82
484.681	92
484.9	107
485.118	98
485.336	98
485.554	106
485.772	95
485.99	100
486.209	95
486.427	110
486.645	122
486.863	120
487.081	106
487.299	96
487.517	109
487.735	117
487.953	121
488.171	102
488.389	93
488.607	95
488.825	105
489.043	97
489.261	98
489.479	92
489.696	110
489.914	116
490.132	119
490.35	116
490.568	123
490.786	127
491.003	128
491.221	119
491.439	135
491.657	143
491.874	142
492.092	143
492.31	142
492.527	136
492.745	143
492.963	137
493.18	138
493.398	147
493.615	140
493.833	142
494.05	143
494.268	130
494.485	132
494.703	125
494.92	125
495.138	133
495.355	135
495.573	137
495.79	132
496.008	130
496.225	128
496.442	135
496.66	116
496.877	130
497.094	126
497.312	120
497.529	112
497.746	127
497.963	111
498.181	110
498.398	101
498.615	99
498.832	101
499.049	100
499.267	104
499.484	114
499.701	99
499.918	118
500.135	119
500.352	118
500.569	90
500.786	105
501.003	126
501.22	108
501.437	105
501.654	127
501.871	131
502.088	115
502.305	90
502.522	106
502.739	103
502.956	97
503.172	120
503.389	118
503.606	109
503.823	112
504.04	121
504.256	113
504.473	107
504.69	96
504.907	95
505.123	87
505.34	93
505.557	102
505.773	115
505.99	113
506.207	104
506.423	99
506.64	117
506.856	104
507.073	109
507.289	112
507.506	110
507.722	119
507.939	141
508.155	105
508.372	91
508.588	100
508.805	89
509.021	95
509.238	95
509.454	85
509.67	97
509.887	84
510.103	93
510.319	127
510.536	309
510.752	1111
510.968	549
511.184	142
511.401	101
511.617	83
511.833	89
512.049	89
512.265	94
512.481	109
512.698	78
512.914	91
513.13	83
513.346	96
513.562	95
513.778	99
513.994	109
514.21	98
514.426	100
514.642	143
514.858	135
515.074	148
515.29	335
515.506	1129
515.721	672
515.937	185
516.153	133
516.369	101
516.585	84
516.801	90
517.016	91
517.232	84
517.448	87
517.664	100
517.879	107
518.095	89
518.311	97
518.527	95
518.742	84
518.958	83
519.173	96
519.389	92
519.605	101
519.82	95
520.036	108
520.251	115
520.467	118
520.682	103
520.898	95
521.113	112
521.329	140
521.544	160
521.76	414
521.975	1631
522.19	1579
522.406	383
522.621	148
522.836	116
523.052	116
523.267	100
523.482	95
523.698	114
523.913	135
524.128	131
524.343	108
524.559	106
524.774	97
524.989	115
525.204	123
525.419	122
525.634	106
525.849	89
526.064	94
526.28	89
526.495	77
526.71	105
526.925	98
527.14	86
527.355	83
527.57	88
527.785	87
527.999	77
528.214	89
528.429	100
528.644	109
528.859	117
529.074	110
529.289	115
529.503	206
529.718	128
529.933	91
530.148	86
530.363	99
530.577	94
530.792	82
531.007	87
531.221	89
531.436	73
531.651	76
531.865	88
532.08	101
532.295	76
532.509	88
532.724	85
532.938	79
533.153	99
533.367	93
533.582	104
533.796	115
534.011	93
534.225	83
534.44	89
534.654	92
534.868	91
535.083	112
535.297	87
535.511	95
535.726	117
535.94	98
536.154	100
536.369	90
536.583	76
536.797	102
537.011	92
537.225	100
537.44	79
537.654	91
537.868	95
538.082	86
538.296	95
538.51	89
538.724	105
538.938	107
539.153	107
539.367	141
539.581	120
539.795	96
540.009	93
540.222	106
540.436	104
540.65	90
540.864	107
541.078	129
541.292	137
541.506	140
541.72	136
541.934	139
542.147	144
542.361	146
542.575	162
542.789	151
543.002	133
543.216	125
543.43	140
543.644	137
543.857	138
544.071	157
544.285	151
544.498	133
544.712	144
544.925	165
545.139	159
545.352	141
545.566	154
545.779	159
545.993	162
546.206	179
546.42	189
546.633	172
546.847	143
547.06	153
547.274	148
547.487	132
547.7	145
547.914	148
548.127	151
548.34	147
548.554	149
548.767	154
548.98	148
549.193	157
549.407	141
549.62	140
549.833	164
550.046	136
550.259	127
550.473	132
550.686	156
550.899	138
551.112	149
551.325	140
551.538	127
551.751	114
551.964	114
552.177	122
552.39	127
552.603	144
552.816	150
553.029	147
553.242	137
553.455	161
553.667	156
553.88	157
554.093	147
554.306	146
554.519	143
554.732	133
554.944	133
555.157	132
555.37	125
555.583	131
555.795	140
556.008	121
556.221	113
556.433	121
556.646	126
556.859	131
557.071	131
557.284	140
557.496	141
557.709	124
557.921	140
558.134	141
558.346	137
558.559	135
558.771	116
558.984	120
559.196	125
559.409	121
559.621	113
559.833	120
560.046	125
560.258	126
560.47	107
560.683	112
560.895	119
561.107	123
561.32	123
561.532	126
561.744	136
561.956	125
562.168	143
562.381	121
562.593	125
562.805	131
563.017	129
563.229	118
563.441	121
563.653	119
563.865	106
564.077	110
564.289	131
564.501	115
564.713	115
564.925	121
565.137	117
565.349	117
565.561	124
565.773	114
565.985	113
566.197	110
566.408	117
566.62	110
566.832	101
567.044	113
567.255	108
567.467	105
567.679	94
567.891	98
568.102	108
568.314	112
568.526	93
568.737	94
568.949	92
569.161	95
569.372	91
569.584	85
569.795	86
570.007	107
570.218	162
570.43	147
570.641	85
570.853	95
571.064	93
571.276	90
571.487	85
571.698	103
571.91	105
572.121	101
572.333	104
572.544	87
572.755	80
572.966	88
573.178	103
573.389	86
573.6	77
573.811	87
574.023	83
574.234	85
574.445	103
574.656	81
574.867	94
575.078	90
575.289	100
575.501	101
575.712	92
575.923	95
576.134	92
576.345	91
576.556	109
576.767	113
576.978	100
577.188	107
577.399	95
577.61	91
577.821	88
578.032	108
578.243	164
578.454	509
