Data from FlinnAP9092KCOPPER.07152019.QSWITCHSynchronous.EN10.20scans.P1_HRD10591_14-49-23-574.txt Node
Date: Mon Jul 15 14:49:23 EDT 2019
User: cochatt
Spectrometer: HR+D1059
Trigger mode: 5
Integration Time (sec): 1.000000E-1
Scans to average: 1
Electric dark correction enabled: true
Nonlinearity correction enabled: false
Boxcar width: 0
XAxis mode: Wavelengths
Number of Pixels in Spectrum: 2048
>>>>>Begin Spectral Data<<<<<
223.165	-38.62
223.4	-38.62
223.635	-38.62
223.869	-46.62
224.104	-27.62
224.338	-3.62
224.573	-15.62
224.808	-19.62
225.042	1.38
225.277	-4.62
225.511	9.38
225.746	0.38
225.98	15.38
226.215	9.38
226.449	21.38
226.683	21.38
226.918	21.38
227.152	56.38
227.387	39.38
227.621	31.38
227.856	56.38
228.09	33.38
228.324	39.38
228.559	81.38
228.793	94.38
229.027	188.38
229.262	217.38
229.496	208.38
229.73	275.38
229.964	356.38
230.199	254.38
230.433	196.38
230.667	196.38
230.901	198.38
231.136	178.38
231.37	200.38
231.604	189.38
231.838	192.38
232.072	183.38
232.306	184.38
232.541	202.38
232.775	196.38
233.009	206.38
233.243	205.38
233.477	185.38
233.711	194.38
233.945	212.38
234.179	207.38
234.413	222.38
234.647	221.38
234.881	215.38
235.115	211.38
235.349	229.38
235.583	239.38
235.817	212.38
236.051	238.38
236.285	254.38
236.519	247.38
236.753	241.38
236.987	288.38
237.221	361.38
237.455	541.38
237.689	385.38
237.922	291.38
238.156	256.38
238.39	258.38
238.624	234.38
238.858	239.38
239.091	246.38
239.325	248.38
239.559	239.38
239.793	257.38
240.027	280.38
240.26	293.38
240.494	355.38
240.728	329.38
240.961	321.38
241.195	325.38
241.429	274.38
241.662	254.38
241.896	256.38
242.13	259.38
242.363	260.38
242.597	247.38
242.83	283.38
243.064	256.38
243.298	284.38
243.531	268.38
243.765	278.38
243.998	291.38
244.232	273.38
244.465	290.38
244.699	290.38
244.932	274.38
245.166	291.38
245.399	296.38
245.633	308.38
245.866	293.38
246.099	280.38
246.333	296.38
246.566	290.38
246.8	277.38
247.033	316.38
247.266	324.38
247.5	361.38
247.733	343.38
247.966	364.38
248.2	359.38
248.433	348.38
248.666	373.38
248.899	400.38
249.133	440.38
249.366	499.38
249.599	433.38
249.832	372.38
250.066	400.38
250.299	364.38
250.532	373.38
250.765	401.38
250.998	468.38
251.231	492.38
251.465	462.38
251.698	413.38
251.931	399.38
252.164	392.38
252.397	392.38
252.63	402.38
252.863	426.38
253.096	485.38
253.329	526.38
253.562	462.38
253.795	469.38
254.028	457.38
254.261	453.38
254.494	465.38
254.727	600.38
254.96	646.38
255.193	586.38
255.426	518.38
255.659	465.38
255.892	503.38
256.124	456.38
256.357	438.38
256.59	421.38
256.823	414.38
257.056	419.38
257.289	415.38
257.521	439.38
257.754	438.38
257.987	422.38
258.22	463.38
258.452	433.38
258.685	430.38
258.918	429.38
259.151	422.38
259.383	467.38
259.616	489.38
259.849	479.38
260.081	540.38
260.314	591.38
260.547	586.38
260.779	532.38
261.012	520.38
261.244	501.38
261.477	512.38
261.71	477.38
261.942	504.38
262.175	514.38
262.407	512.38
262.64	484.38
262.872	478.38
263.105	476.38
263.337	472.38
263.57	473.38
263.802	453.38
264.035	465.38
264.267	458.38
264.499	464.38
264.732	477.38
264.964	473.38
265.197	458.38
265.429	482.38
265.661	468.38
265.894	471.38
266.126	509.38
266.358	474.38
266.591	489.38
266.823	487.38
267.055	489.38
267.287	532.38
267.52	498.38
267.752	521.38
267.984	505.38
268.216	518.38
268.448	552.38
268.681	523.38
268.913	538.38
269.145	631.38
269.377	658.38
269.609	630.38
269.841	621.38
270.073	621.38
270.306	689.38
270.538	756.38
270.77	752.38
271.002	692.38
271.234	673.38
271.466	674.38
271.698	766.38
271.93	740.38
272.162	750.38
272.394	759.38
272.626	712.38
272.858	640.38
273.09	637.38
273.322	629.38
273.553	593.38
273.785	626.38
274.017	595.38
274.249	598.38
274.481	569.38
274.713	590.38
274.945	615.38
275.176	584.38
275.408	593.38
275.64	586.38
275.872	594.38
276.104	634.38
276.335	623.38
276.567	623.38
276.799	648.38
277.031	712.38
277.262	778.38
277.494	787.38
277.726	706.38
277.957	645.38
278.189	622.38
278.421	608.38
278.652	601.38
278.884	612.38
279.115	632.38
279.347	611.38
279.579	602.38
279.81	578.38
280.042	586.38
280.273	609.38
280.505	588.38
280.736	624.38
280.968	632.38
281.199	628.38
281.431	595.38
281.662	638.38
281.894	625.38
282.125	630.38
282.356	688.38
282.588	710.38
282.819	739.38
283.051	678.38
283.282	649.38
283.513	675.38
283.745	676.38
283.976	658.38
284.207	662.38
284.439	675.38
284.67	649.38
284.901	631.38
285.132	657.38
285.364	654.38
285.595	646.38
285.826	642.38
286.057	695.38
286.288	672.38
286.52	671.38
286.751	664.38
286.982	636.38
287.213	662.38
287.444	692.38
287.675	700.38
287.906	718.38
288.138	722.38
288.369	753.38
288.6	725.38
288.831	692.38
289.062	715.38
289.293	698.38
289.524	660.38
289.755	679.38
289.986	681.38
290.217	685.38
290.448	665.38
290.679	679.38
290.91	704.38
291.141	658.38
291.371	707.38
291.602	695.38
291.833	682.38
292.064	658.38
292.295	692.38
292.526	694.38
292.757	703.38
292.987	688.38
293.218	694.38
293.449	682.38
293.68	674.38
293.91	681.38
294.141	702.38
294.372	664.38
294.603	687.38
294.833	704.38
295.064	670.38
295.295	685.38
295.525	697.38
295.756	724.38
295.987	721.38
296.217	773.38
296.448	814.38
296.679	752.38
296.909	712.38
297.14	709.38
297.37	742.38
297.601	725.38
297.831	721.38
298.062	727.38
298.292	743.38
298.523	735.38
298.753	728.38
298.984	741.38
299.214	744.38
299.445	741.38
299.675	756.38
299.905	766.38
300.136	753.38
300.366	733.38
300.597	764.38
300.827	756.38
301.057	766.38
301.288	804.38
301.518	805.38
301.748	773.38
301.979	779.38
302.209	791.38
302.439	786.38
302.669	782.38
302.9	782.38
303.13	775.38
303.36	783.38
303.59	781.38
303.82	798.38
304.051	775.38
304.281	786.38
304.511	776.38
304.741	760.38
304.971	754.38
305.201	827.38
305.431	786.38
305.661	749.38
305.891	752.38
306.121	779.38
306.352	784.38
306.582	764.38
306.812	767.38
307.042	787.38
307.272	753.38
307.502	786.38
307.731	789.38
307.961	769.38
308.191	768.38
308.421	773.38
308.651	768.38
308.881	766.38
309.111	792.38
309.341	790.38
309.571	824.38
309.8	821.38
310.03	841.38
310.26	843.38
310.49	851.38
310.72	877.38
310.949	896.38
311.179	921.38
311.409	873.38
311.639	889.38
311.868	881.38
312.098	885.38
312.328	889.38
312.557	927.38
312.787	982.38
313.017	974.38
313.246	906.38
313.476	839.38
313.706	842.38
313.935	881.38
314.165	900.38
314.394	950.38
314.624	920.38
314.853	930.38
315.083	874.38
315.312	870.38
315.542	879.38
315.771	848.38
316.001	828.38
316.23	850.38
316.46	837.38
316.689	854.38
316.919	850.38
317.148	917.38
317.377	930.38
317.607	879.38
317.836	864.38
318.065	861.38
318.295	838.38
318.524	852.38
318.753	841.38
318.983	824.38
319.212	832.38
319.441	848.38
319.67	862.38
319.9	858.38
320.129	850.38
320.358	858.38
320.587	847.38
320.816	838.38
321.046	898.38
321.275	919.38
321.504	878.38
321.733	853.38
321.962	882.38
322.191	908.38
322.42	928.38
322.649	978.38
322.878	993.38
323.108	1017.38
323.337	1052.38
323.566	1106.38
323.795	1165.38
324.024	1262.38
324.253	1478.38
324.482	2229.38
324.71	3741.38
324.939	5849.38
325.168	5040.38
325.397	2086.38
325.626	1361.38
325.855	1107.38
326.084	1064.38
326.313	1084.38
326.542	1068.38
326.77	1180.38
326.999	1398.38
327.228	2015.38
327.457	3363.38
327.686	4476.38
327.914	2634.38
328.143	1557.38
328.372	1342.38
328.6	1250.38
328.829	1222.38
329.058	1303.38
329.287	1365.38
329.515	1232.38
329.744	1127.38
329.972	1039.38
330.201	1074.38
330.43	1143.38
330.658	1246.38
330.887	1425.38
331.115	1466.38
331.344	1206.38
331.572	1153.38
331.801	1123.38
332.03	1128.38
332.258	1124.38
332.486	1080.38
332.715	1082.38
332.943	1069.38
333.172	1133.38
333.4	1127.38
333.629	1170.38
333.857	1160.38
334.085	1156.38
334.314	1144.38
334.542	1125.38
334.771	1134.38
334.999	1130.38
335.227	1101.38
335.455	1071.38
335.684	1079.38
335.912	1075.38
336.14	1042.38
336.369	1056.38
336.597	1101.38
336.825	1111.38
337.053	1078.38
337.281	1030.38
337.51	1023.38
337.738	1033.38
337.966	1030.38
338.194	1040.38
338.422	1012.38
338.65	1059.38
338.878	990.38
339.106	957.38
339.334	1013.38
339.562	942.38
339.79	949.38
340.018	952.38
340.246	955.38
340.474	996.38
340.702	989.38
340.93	993.38
341.158	928.38
341.386	979.38
341.614	969.38
341.842	976.38
342.07	942.38
342.298	950.38
342.526	958.38
342.754	921.38
342.981	929.38
343.209	958.38
343.437	990.38
343.665	1017.38
343.893	1047.38
344.12	1122.38
344.348	1055.38
344.576	1045.38
344.804	1026.38
345.031	1021.38
345.259	1050.38
345.487	1011.38
345.714	998.38
345.942	917.38
346.17	911.38
346.397	893.38
346.625	900.38
346.853	922.38
347.08	894.38
347.308	915.38
347.535	960.38
347.763	950.38
347.99	970.38
348.218	963.38
348.445	964.38
348.673	953.38
348.9	912.38
349.128	937.38
349.355	872.38
349.583	891.38
349.81	864.38
350.037	893.38
350.265	888.38
350.492	891.38
350.72	841.38
350.947	882.38
351.174	928.38
351.402	935.38
351.629	925.38
351.856	926.38
352.083	936.38
352.311	961.38
352.538	986.38
352.765	1017.38
352.992	964.38
353.22	930.38
353.447	911.38
353.674	903.38
353.901	873.38
354.128	865.38
354.355	832.38
354.583	839.38
354.81	848.38
355.037	876.38
355.264	862.38
355.491	857.38
355.718	842.38
355.945	834.38
356.172	822.38
356.399	833.38
356.626	839.38
356.853	855.38
357.08	856.38
357.307	848.38
357.534	796.38
357.761	824.38
357.988	862.38
358.215	859.38
358.441	836.38
358.668	847.38
358.895	866.38
359.122	880.38
359.349	871.38
359.576	923.38
359.802	968.38
360.029	1052.38
360.256	1096.38
360.483	1059.38
360.709	928.38
360.936	960.38
361.163	930.38
361.39	935.38
361.616	944.38
361.843	881.38
362.07	912.38
362.296	942.38
362.523	912.38
362.749	911.38
362.976	883.38
363.203	922.38
363.429	838.38
363.656	879.38
363.882	860.38
364.109	888.38
364.335	866.38
364.562	852.38
364.788	838.38
365.015	847.38
365.241	847.38
365.468	906.38
365.694	858.38
365.92	898.38
366.147	890.38
366.373	871.38
366.599	857.38
366.826	837.38
367.052	841.38
367.278	860.38
367.505	854.38
367.731	878.38
367.957	869.38
368.184	854.38
368.41	853.38
368.636	912.38
368.862	926.38
369.089	896.38
369.315	885.38
369.541	877.38
369.767	895.38
369.993	894.38
370.219	895.38
370.445	857.38
370.672	845.38
370.898	890.38
371.124	866.38
371.35	900.38
371.576	878.38
371.802	893.38
372.028	873.38
372.254	872.38
372.48	885.38
372.706	886.38
372.932	914.38
373.158	910.38
373.384	928.38
373.61	920.38
373.835	895.38
374.061	870.38
374.287	905.38
374.513	902.38
374.739	945.38
374.965	933.38
375.191	953.38
375.416	967.38
375.642	946.38
375.868	946.38
376.094	938.38
376.319	887.38
376.545	901.38
376.771	883.38
376.997	918.38
377.222	918.38
377.448	909.38
377.674	903.38
377.899	912.38
378.125	903.38
378.35	911.38
378.576	894.38
378.802	901.38
379.027	905.38
379.253	928.38
379.478	886.38
379.704	905.38
379.929	898.38
380.155	892.38
380.38	917.38
380.606	901.38
380.831	905.38
381.057	962.38
381.282	910.38
381.507	918.38
381.733	952.38
381.958	915.38
382.184	949.38
382.409	946.38
382.634	976.38
382.86	958.38
383.085	960.38
383.31	968.38
383.535	996.38
383.761	1007.38
383.986	996.38
384.211	996.38
384.436	1016.38
384.662	1039.38
384.887	1069.38
385.112	1029.38
385.337	1053.38
385.562	1077.38
385.787	1064.38
386.013	1155.38
386.238	1113.38
386.463	1113.38
386.688	1090.38
386.913	1052.38
387.138	1060.38
387.363	1086.38
387.588	1083.38
387.813	1084.38
388.038	1052.38
388.263	1097.38
388.488	1089.38
388.713	1057.38
388.938	1079.38
389.163	1084.38
389.387	1088.38
389.612	1044.38
389.837	1074.38
390.062	1060.38
390.287	1074.38
390.512	1049.38
390.736	1064.38
390.961	1092.38
391.186	1071.38
391.411	1119.38
391.636	1143.38
391.86	1174.38
392.085	1194.38
392.31	1181.38
392.534	1141.38
392.759	1157.38
392.984	1121.38
393.208	1135.38
393.433	1118.38
393.658	1096.38
393.882	1124.38
394.107	1095.38
394.331	1156.38
394.556	1121.38
394.78	1142.38
395.005	1175.38
395.229	1155.38
395.454	1174.38
395.678	1189.38
395.903	1220.38
396.127	1221.38
396.352	1199.38
396.576	1180.38
396.801	1165.38
397.025	1157.38
397.249	1168.38
397.474	1228.38
397.698	1198.38
397.922	1235.38
398.147	1261.38
398.371	1313.38
398.595	1301.38
398.82	1299.38
399.044	1399.38
399.268	1484.38
399.492	1613.38
399.717	1853.38
399.941	1888.38
400.165	1821.38
400.389	1765.38
400.613	1560.38
400.837	1472.38
401.062	1393.38
401.286	1354.38
401.51	1349.38
401.734	1340.38
401.958	1338.38
402.182	1385.38
402.406	1410.38
402.63	1420.38
402.854	1437.38
403.078	1485.38
403.302	1479.38
403.526	1518.38
403.75	1511.38
403.974	1535.38
404.198	1510.38
404.422	1550.38
404.645	1519.38
404.869	1549.38
405.093	1544.38
405.317	1579.38
405.541	1651.38
405.765	1536.38
405.988	1500.38
406.212	1580.38
406.436	1624.38
406.66	1693.38
406.883	1662.38
407.107	1639.38
407.331	1826.38
407.555	1992.38
407.778	1993.38
408.002	1814.38
408.226	1697.38
408.449	1666.38
408.673	1618.38
408.896	1673.38
409.12	1765.38
409.344	1681.38
409.567	1557.38
409.791	1548.38
410.014	1497.38
410.238	1461.38
410.461	1504.38
410.685	1503.38
410.908	1508.38
411.132	1614.38
411.355	1662.38
411.578	1602.38
411.802	1455.38
412.025	1428.38
412.249	1414.38
412.472	1419.38
412.695	1421.38
412.919	1389.38
413.142	1433.38
413.365	1368.38
413.589	1385.38
413.812	1398.38
414.035	1394.38
414.258	1377.38
414.482	1372.38
414.705	1376.38
414.928	1394.38
415.151	1397.38
415.374	1390.38
415.597	1408.38
415.821	1376.38
416.044	1410.38
416.267	1434.38
416.49	1424.38
416.713	1392.38
416.936	1400.38
417.159	1375.38
417.382	1406.38
417.605	1418.38
417.828	1478.38
418.051	1520.38
418.274	1489.38
418.497	1464.38
418.72	1464.38
418.943	1452.38
419.166	1529.38
419.389	1602.38
419.611	1537.38
419.834	1554.38
420.057	1546.38
420.28	1458.38
420.503	1469.38
420.726	1459.38
420.948	1502.38
421.171	1644.38
421.394	1697.38
421.617	1552.38
421.839	1496.38
422.062	1502.38
422.285	1487.38
422.507	1712.38
422.73	1841.38
422.953	1773.38
423.175	1623.38
423.398	1604.38
423.621	1627.38
423.843	1691.38
424.066	1688.38
424.288	1657.38
424.511	1715.38
424.733	1825.38
424.956	2034.38
425.178	1938.38
425.401	1924.38
425.623	1968.38
425.846	1656.38
426.068	1562.38
426.291	1512.38
426.513	1502.38
426.735	1594.38
426.958	1669.38
427.18	1885.38
427.402	2253.38
427.625	2466.38
427.847	2054.38
428.069	1714.38
428.292	1553.38
428.514	1490.38
428.736	1428.38
428.958	1440.38
429.181	1403.38
429.403	1397.38
429.625	1436.38
429.847	1488.38
430.069	1680.38
430.292	1719.38
430.514	1429.38
430.736	1408.38
430.958	1400.38
431.18	1318.38
431.402	1344.38
431.624	1280.38
431.846	1235.38
432.068	1179.38
432.29	1238.38
432.512	1303.38
432.734	1376.38
432.956	1383.38
433.178	1465.38
433.4	1464.38
433.622	1422.38
433.844	1381.38
434.066	1316.38
434.287	1264.38
434.509	1263.38
434.731	1300.38
434.953	1398.38
435.175	1458.38
435.397	1633.38
435.618	1541.38
435.84	1616.38
436.062	2035.38
436.284	2128.38
436.505	1710.38
436.727	1568.38
436.949	1520.38
437.17	1422.38
437.392	1390.38
437.614	1394.38
437.835	1453.38
438.057	1690.38
438.278	1998.38
438.5	1954.38
438.721	2276.38
438.943	2162.38
439.165	1690.38
439.386	1633.38
439.608	1668.38
439.829	1674.38
440.05	1801.38
440.272	1972.38
440.493	1806.38
440.715	1616.38
440.936	1604.38
441.158	1565.38
441.379	1597.38
441.6	1676.38
441.822	1708.38
442.043	1797.38
442.264	2019.38
442.486	2120.38
442.707	1800.38
442.928	1707.38
443.149	1760.38
443.371	1880.38
443.592	1907.38
443.813	2195.38
444.034	2394.38
444.255	1954.38
444.476	1782.38
444.698	1743.38
444.919	1801.38
445.14	3328.38
445.361	2446.38
445.582	1944.38
445.803	2080.38
446.024	2396.38
446.245	2405.38
446.466	2112.38
446.687	1800.38
446.908	1726.38
447.129	1627.38
447.35	1554.38
447.571	1566.38
447.792	1525.38
448.013	1470.38
448.234	1558.38
448.455	1652.38
448.675	1986.38
448.896	2304.38
449.117	1838.38
449.338	1753.38
449.559	2140.38
449.779	2422.38
450	1820.38
450.221	1565.38
450.442	1441.38
450.662	1440.38
450.883	1446.38
451.104	1504.38
451.324	1448.38
451.545	1374.38
451.766	1323.38
451.986	1254.38
452.207	1240.38
452.428	1274.38
452.648	1279.38
452.869	1258.38
453.089	1252.38
453.31	1239.38
453.53	1212.38
453.751	1160.38
453.971	1146.38
454.192	1220.38
454.412	1156.38
454.633	1198.38
454.853	1190.38
455.073	1205.38
455.294	1266.38
455.514	1514.38
455.734	1458.38
455.955	1211.38
456.175	1158.38
456.395	1098.38
456.616	1097.38
456.836	1093.38
457.056	1068.38
457.276	1031.38
457.497	1058.38
457.717	1093.38
457.937	1103.38
458.157	1097.38
458.377	1070.38
458.598	1151.38
458.818	1319.38
459.038	1569.38
459.258	1607.38
459.478	1302.38
459.698	1202.38
459.918	1228.38
460.138	1254.38
460.358	1346.38
460.578	1384.38
460.798	1349.38
461.018	1399.38
461.238	1389.38
461.458	1371.38
461.678	1318.38
461.898	1400.38
462.118	1359.38
462.338	1428.38
462.558	1434.38
462.777	1450.38
462.997	1557.38
463.217	1628.38
463.437	1618.38
463.657	1554.38
463.876	1473.38
464.096	1483.38
464.316	1443.38
464.536	1517.38
464.755	1504.38
464.975	1505.38
465.195	1614.38
465.414	1813.38
465.634	1521.38
465.854	1390.38
466.073	1310.38
466.293	1312.38
466.512	1318.38
466.732	1311.38
466.951	1326.38
467.171	1349.38
467.391	1350.38
467.61	1389.38
467.829	1404.38
468.049	1346.38
468.268	1304.38
468.488	1306.38
468.707	1324.38
468.927	1332.38
469.146	1314.38
469.365	1296.38
469.585	1345.38
469.804	1412.38
470.023	1429.38
470.243	1408.38
470.462	1460.38
470.681	1523.38
470.901	1466.38
471.12	1408.38
471.339	1423.38
471.558	1453.38
471.777	1391.38
471.997	1333.38
472.216	1253.38
472.435	1194.38
472.654	1127.38
472.873	1138.38
473.092	1176.38
473.311	1193.38
473.53	1221.38
473.749	1263.38
473.968	1402.38
474.187	1675.38
474.406	1690.38
474.625	1388.38
474.844	1316.38
475.063	1258.38
475.282	1262.38
475.501	1203.38
475.72	1302.38
475.939	1247.38
476.158	1290.38
476.377	1284.38
476.596	1233.38
476.814	1218.38
477.033	1222.38
477.252	1229.38
477.471	1312.38
477.69	1403.38
477.908	1438.38
478.127	1510.38
478.346	1486.38
478.564	1475.38
478.783	1488.38
479.002	1556.38
479.22	1513.38
479.439	1564.38
479.658	1540.38
479.876	1458.38
480.095	1426.38
480.313	1661.38
480.532	1584.38
480.751	1530.38
480.969	1465.38
481.188	1378.38
481.406	1315.38
481.624	1318.38
481.843	1235.38
482.061	1319.38
482.28	1349.38
482.498	1338.38
482.717	1291.38
482.935	1404.38
483.153	1495.38
483.372	1549.38
483.59	1557.38
483.808	1481.38
484.027	1436.38
484.245	1408.38
484.463	1483.38
484.681	1598.38
484.9	1509.38
485.118	1513.38
485.336	1482.38
485.554	1402.38
485.772	1378.38
485.99	1410.38
486.209	1438.38
486.427	1438.38
486.645	1509.38
486.863	1641.38
487.081	1659.38
487.299	1566.38
487.517	1624.38
487.735	1801.38
487.953	1865.38
488.171	1897.38
488.389	1781.38
488.607	1671.38
488.825	1568.38
489.043	1549.38
489.261	1565.38
489.479	1561.38
489.696	1624.38
489.914	1610.38
490.132	1639.38
490.35	1761.38
490.568	1807.38
490.786	1998.38
491.003	1999.38
491.221	2070.38
491.439	2160.38
491.657	2192.38
491.874	2261.38
492.092	2407.38
492.31	2473.38
492.527	2404.38
492.745	2273.38
492.963	2245.38
493.18	2238.38
493.398	2224.38
493.615	2185.38
493.833	2200.38
