Data from FlinnAP5935BZINC.07152019.QSWITCHedge.EN10.5scans.P1_HRD10591_15-05-41-551.txt Node
Date: Mon Jul 15 15:05:41 EDT 2019
User: cochatt
Spectrometer: HR+D1059
Trigger mode: 1
Integration Time (sec): 1.000000E-1
Scans to average: 1
Electric dark correction enabled: true
Nonlinearity correction enabled: false
Boxcar width: 0
XAxis mode: Wavelengths
Number of Pixels in Spectrum: 2048
>>>>>Begin Spectral Data<<<<<
223.165	-5.06
223.4	-5.06
223.635	-5.06
223.869	-13.06
224.104	-18.06
224.338	-17.06
224.573	-4.06
224.808	-11.06
225.042	-14.06
225.277	-13.06
225.511	-16.06
225.746	-17.06
225.98	7.94
226.215	15.94
226.449	20.94
226.683	26.94
226.918	19.94
227.152	36.94
227.387	24.94
227.621	27.94
227.856	47.94
228.09	42.94
228.324	50.94
228.559	64.94
228.793	59.94
229.027	74.94
229.262	62.94
229.496	68.94
229.73	67.94
229.964	58.94
230.199	71.94
230.433	67.94
230.667	90.94
230.901	90.94
231.136	85.94
231.37	86.94
231.604	84.94
231.838	86.94
232.072	82.94
232.306	74.94
232.541	79.94
232.775	79.94
233.009	86.94
233.243	79.94
233.477	76.94
233.711	82.94
233.945	69.94
234.179	83.94
234.413	83.94
234.647	86.94
234.881	72.94
235.115	77.94
235.349	79.94
235.583	69.94
235.817	78.94
236.051	78.94
236.285	75.94
236.519	72.94
236.753	79.94
236.987	68.94
237.221	92.94
237.455	77.94
237.689	78.94
237.922	86.94
238.156	88.94
238.39	82.94
238.624	75.94
238.858	78.94
239.091	65.94
239.325	73.94
239.559	85.94
239.793	80.94
240.027	90.94
240.26	83.94
240.494	72.94
240.728	78.94
240.961	90.94
241.195	94.94
241.429	83.94
241.662	72.94
241.896	88.94
242.13	75.94
242.363	76.94
242.597	90.94
242.83	75.94
243.064	90.94
243.298	82.94
243.531	70.94
243.765	88.94
243.998	82.94
244.232	74.94
244.465	82.94
244.699	92.94
244.932	79.94
245.166	84.94
245.399	99.94
245.633	82.94
245.866	87.94
246.099	88.94
246.333	79.94
246.566	84.94
246.8	79.94
247.033	90.94
247.266	87.94
247.5	82.94
247.733	102.94
247.966	79.94
248.2	80.94
248.433	82.94
248.666	72.94
248.899	88.94
249.133	72.94
249.366	87.94
249.599	75.94
249.832	85.94
250.066	82.94
250.299	77.94
250.532	90.94
250.765	78.94
250.998	84.94
251.231	85.94
251.465	84.94
251.698	78.94
251.931	75.94
252.164	88.94
252.397	79.94
252.63	67.94
252.863	80.94
253.096	81.94
253.329	84.94
253.562	77.94
253.795	87.94
254.028	84.94
254.261	79.94
254.494	86.94
254.727	82.94
254.96	90.94
255.193	72.94
255.426	83.94
255.659	84.94
255.892	82.94
256.124	87.94
256.357	84.94
256.59	76.94
256.823	82.94
257.056	77.94
257.289	95.94
257.521	88.94
257.754	92.94
257.987	87.94
258.22	76.94
258.452	95.94
258.685	92.94
258.918	61.94
259.151	87.94
259.383	95.94
259.616	77.94
259.849	89.94
260.081	84.94
260.314	82.94
260.547	79.94
260.779	80.94
261.012	88.94
261.244	104.94
261.477	88.94
261.71	88.94
261.942	87.94
262.175	74.94
262.407	86.94
262.64	82.94
262.872	81.94
263.105	74.94
263.337	82.94
263.57	75.94
263.802	72.94
264.035	76.94
264.267	94.94
264.499	72.94
264.732	75.94
264.964	88.94
265.197	75.94
265.429	81.94
265.661	92.94
265.894	95.94
266.126	82.94
266.358	86.94
266.591	74.94
266.823	73.94
267.055	81.94
267.287	102.94
267.52	80.94
267.752	88.94
267.984	80.94
268.216	76.94
268.448	80.94
268.681	90.94
268.913	87.94
269.145	88.94
269.377	91.94
269.609	84.94
269.841	84.94
270.073	89.94
270.306	92.94
270.538	91.94
270.77	84.94
271.002	86.94
271.234	77.94
271.466	72.94
271.698	66.94
271.93	91.94
272.162	77.94
272.394	87.94
272.626	92.94
272.858	87.94
273.09	86.94
273.322	85.94
273.553	76.94
273.785	86.94
274.017	104.94
274.249	87.94
274.481	82.94
274.713	88.94
274.945	94.94
275.176	83.94
275.408	88.94
275.64	95.94
275.872	102.94
276.104	82.94
276.335	92.94
276.567	98.94
276.799	98.94
277.031	84.94
277.262	127.94
277.494	130.94
277.726	98.94
277.957	87.94
278.189	86.94
278.421	80.94
278.652	90.94
278.884	92.94
279.115	87.94
279.347	100.94
279.579	88.94
279.81	110.94
280.042	120.94
280.273	152.94
280.505	147.94
280.736	99.94
280.968	85.94
281.199	102.94
281.431	83.94
281.662	81.94
281.894	89.94
282.125	81.94
282.356	98.94
282.588	75.94
282.819	75.94
283.051	80.94
283.282	88.94
283.513	97.94
283.745	97.94
283.976	98.94
284.207	91.94
284.439	75.94
284.67	101.94
284.901	86.94
285.132	82.94
285.364	101.94
285.595	101.94
285.826	88.94
286.057	93.94
286.288	88.94
286.52	111.94
286.751	79.94
286.982	89.94
287.213	81.94
287.444	90.94
287.675	101.94
287.906	89.94
288.138	85.94
288.369	79.94
288.6	89.94
288.831	83.94
289.062	88.94
289.293	89.94
289.524	79.94
289.755	82.94
289.986	87.94
290.217	98.94
290.448	88.94
290.679	97.94
290.91	78.94
291.141	85.94
291.371	76.94
291.602	92.94
291.833	80.94
292.064	90.94
292.295	81.94
292.526	89.94
292.757	82.94
292.987	83.94
293.218	75.94
293.449	93.94
293.68	93.94
293.91	90.94
294.141	88.94
294.372	88.94
294.603	83.94
294.833	95.94
295.064	92.94
295.295	87.94
295.525	93.94
295.756	89.94
295.987	93.94
296.217	77.94
296.448	77.94
296.679	86.94
296.909	88.94
297.14	85.94
297.37	95.94
297.601	94.94
297.831	72.94
298.062	80.94
298.292	76.94
298.523	90.94
298.753	91.94
298.984	89.94
299.214	80.94
299.445	83.94
299.675	84.94
299.905	83.94
300.136	83.94
300.366	75.94
300.597	75.94
300.827	77.94
301.057	71.94
301.288	83.94
301.518	98.94
301.748	105.94
301.979	81.94
302.209	104.94
302.439	80.94
302.669	80.94
302.9	71.94
303.13	86.94
303.36	93.94
303.59	98.94
303.82	105.94
304.051	95.94
304.281	85.94
304.511	83.94
304.741	97.94
304.971	93.94
305.201	79.94
305.431	85.94
305.661	86.94
305.891	88.94
306.121	90.94
306.352	88.94
306.582	92.94
306.812	79.94
307.042	93.94
307.272	108.94
307.502	133.94
307.731	119.94
307.961	119.94
308.191	109.94
308.421	92.94
308.651	72.94
308.881	92.94
309.111	83.94
309.341	91.94
309.571	86.94
309.8	90.94
310.03	87.94
310.26	92.94
310.49	89.94
310.72	88.94
310.949	90.94
311.179	82.94
311.409	87.94
311.639	78.94
311.868	84.94
312.098	95.94
312.328	83.94
312.557	83.94
312.787	92.94
313.017	70.94
313.246	99.94
313.476	78.94
313.706	83.94
313.935	86.94
314.165	98.94
314.394	89.94
314.624	94.94
314.853	98.94
315.083	88.94
315.312	104.94
315.542	89.94
315.771	92.94
316.001	84.94
316.23	94.94
316.46	95.94
316.689	96.94
316.919	83.94
317.148	82.94
317.377	87.94
317.607	84.94
317.836	85.94
318.065	104.94
318.295	69.94
318.524	80.94
318.753	88.94
318.983	82.94
319.212	90.94
319.441	67.94
319.67	92.94
319.9	83.94
320.129	98.94
320.358	96.94
320.587	79.94
320.816	85.94
321.046	85.94
321.275	84.94
321.504	90.94
321.733	83.94
321.962	78.94
322.191	90.94
322.42	94.94
322.649	85.94
322.878	86.94
323.108	83.94
323.337	93.94
323.566	95.94
323.795	98.94
324.024	103.94
324.253	99.94
324.482	97.94
324.71	82.94
324.939	97.94
325.168	91.94
325.397	96.94
325.626	91.94
325.855	81.94
326.084	111.94
326.313	97.94
326.542	91.94
326.77	91.94
326.999	90.94
327.228	96.94
327.457	91.94
327.686	105.94
327.914	115.94
328.143	183.94
328.372	216.94
328.6	238.94
328.829	122.94
329.058	103.94
329.287	89.94
329.515	99.94
329.744	124.94
329.972	192.94
330.201	322.94
330.43	507.94
330.658	405.94
330.887	170.94
331.115	111.94
331.344	94.94
331.572	91.94
331.801	97.94
332.03	96.94
332.258	97.94
332.486	99.94
332.715	91.94
332.943	104.94
333.172	90.94
333.4	91.94
333.629	105.94
333.857	103.94
334.085	156.94
334.314	300.94
334.542	538.94
334.771	634.94
334.999	347.94
335.227	127.94
335.455	98.94
335.684	102.94
335.912	90.94
336.14	102.94
336.369	98.94
336.597	96.94
336.825	85.94
337.053	90.94
337.281	93.94
337.51	83.94
337.738	88.94
337.966	82.94
338.194	86.94
338.422	94.94
338.65	95.94
338.878	91.94
339.106	87.94
339.334	82.94
339.562	90.94
339.79	88.94
340.018	95.94
340.246	86.94
340.474	95.94
340.702	83.94
340.93	83.94
341.158	77.94
341.386	77.94
341.614	88.94
341.842	90.94
342.07	86.94
342.298	93.94
342.526	90.94
342.754	68.94
342.981	92.94
343.209	97.94
343.437	81.94
343.665	73.94
343.893	81.94
344.12	86.94
344.348	80.94
344.576	94.94
344.804	73.94
345.031	86.94
345.259	84.94
345.487	83.94
345.714	87.94
345.942	80.94
346.17	90.94
346.397	94.94
346.625	88.94
346.853	90.94
347.08	82.94
347.308	97.94
347.535	78.94
347.763	88.94
347.99	92.94
348.218	106.94
348.445	106.94
348.673	88.94
348.9	97.94
349.128	93.94
349.355	84.94
349.583	83.94
349.81	81.94
350.037	83.94
350.265	98.94
350.492	82.94
350.72	73.94
350.947	88.94
351.174	93.94
351.402	84.94
351.629	70.94
351.856	86.94
352.083	97.94
352.311	88.94
352.538	76.94
352.765	86.94
352.992	96.94
353.22	94.94
353.447	88.94
353.674	100.94
353.901	81.94
354.128	88.94
354.355	88.94
354.583	87.94
354.81	83.94
355.037	96.94
355.264	99.94
355.491	75.94
355.718	80.94
355.945	87.94
356.172	81.94
356.399	97.94
356.626	92.94
356.853	91.94
357.08	91.94
357.307	84.94
357.534	78.94
357.761	82.94
357.988	75.94
358.215	87.94
358.441	88.94
358.668	81.94
358.895	87.94
359.122	100.94
359.349	77.94
359.576	82.94
359.802	93.94
360.029	92.94
360.256	96.94
360.483	78.94
360.709	92.94
360.936	97.94
361.163	88.94
361.39	99.94
361.616	83.94
361.843	91.94
362.07	82.94
362.296	79.94
362.523	67.94
362.749	80.94
362.976	85.94
363.203	84.94
363.429	76.94
363.656	86.94
363.882	88.94
364.109	90.94
364.335	87.94
364.562	87.94
364.788	78.94
365.015	89.94
365.241	92.94
365.468	88.94
365.694	83.94
365.92	80.94
366.147	82.94
366.373	98.94
366.599	94.94
366.826	73.94
367.052	92.94
367.278	94.94
367.505	91.94
367.731	87.94
367.957	79.94
368.184	100.94
368.41	92.94
368.636	71.94
368.862	82.94
369.089	78.94
369.315	89.94
369.541	98.94
369.767	85.94
369.993	96.94
370.219	87.94
370.445	75.94
370.672	63.94
370.898	79.94
371.124	83.94
371.35	63.94
371.576	84.94
371.802	80.94
372.028	91.94
372.254	96.94
372.48	90.94
372.706	85.94
372.932	88.94
373.158	75.94
373.384	88.94
373.61	95.94
373.835	92.94
374.061	85.94
374.287	89.94
374.513	82.94
374.739	86.94
374.965	91.94
375.191	65.94
375.416	88.94
375.642	84.94
375.868	83.94
376.094	91.94
376.319	75.94
376.545	84.94
376.771	86.94
376.997	86.94
377.222	79.94
377.448	81.94
377.674	73.94
377.899	78.94
378.125	77.94
378.35	76.94
378.576	89.94
378.802	80.94
379.027	92.94
379.253	78.94
379.478	96.94
379.704	86.94
379.929	88.94
380.155	90.94
380.38	89.94
380.606	94.94
380.831	82.94
381.057	96.94
381.282	86.94
381.507	93.94
381.733	75.94
381.958	72.94
382.184	91.94
382.409	78.94
382.634	85.94
382.86	82.94
383.085	78.94
383.31	81.94
383.535	98.94
383.761	92.94
383.986	90.94
384.211	84.94
384.436	83.94
384.662	84.94
384.887	90.94
385.112	81.94
385.337	90.94
385.562	83.94
385.787	69.94
386.013	84.94
386.238	96.94
386.463	89.94
386.688	80.94
386.913	87.94
387.138	75.94
387.363	73.94
387.588	87.94
387.813	76.94
388.038	85.94
388.263	85.94
388.488	95.94
388.713	64.94
388.938	78.94
389.163	86.94
389.387	82.94
389.612	100.94
389.837	73.94
390.062	82.94
390.287	89.94
390.512	84.94
390.736	94.94
390.961	83.94
391.186	82.94
391.411	90.94
391.636	82.94
391.86	89.94
392.085	92.94
392.31	82.94
392.534	63.94
392.759	88.94
392.984	80.94
393.208	98.94
393.433	85.94
393.658	83.94
393.882	90.94
394.107	84.94
394.331	75.94
394.556	78.94
394.78	97.94
395.005	93.94
395.229	73.94
395.454	87.94
395.678	85.94
395.903	87.94
396.127	84.94
396.352	78.94
396.576	84.94
396.801	75.94
397.025	86.94
397.249	77.94
397.474	84.94
397.698	84.94
397.922	90.94
398.147	89.94
398.371	76.94
398.595	91.94
398.82	77.94
399.044	74.94
399.268	84.94
399.492	88.94
399.717	80.94
399.941	86.94
400.165	92.94
400.389	86.94
400.613	83.94
400.837	96.94
401.062	90.94
401.286	82.94
401.51	104.94
401.734	94.94
401.958	93.94
402.182	86.94
402.406	74.94
402.63	76.94
402.854	99.94
403.078	86.94
403.302	93.94
403.526	93.94
403.75	76.94
403.974	81.94
404.198	86.94
404.422	85.94
404.645	89.94
404.869	91.94
405.093	84.94
405.317	88.94
405.541	77.94
405.765	74.94
405.988	73.94
406.212	81.94
406.436	90.94
406.66	97.94
406.883	89.94
407.107	76.94
407.331	81.94
407.555	82.94
407.778	76.94
408.002	89.94
408.226	84.94
408.449	67.94
408.673	93.94
408.896	73.94
409.12	74.94
409.344	86.94
409.567	77.94
409.791	80.94
410.014	82.94
410.238	80.94
410.461	82.94
410.685	93.94
410.908	89.94
411.132	105.94
411.355	91.94
411.578	70.94
411.802	86.94
412.025	83.94
412.249	73.94
412.472	97.94
412.695	88.94
412.919	88.94
413.142	84.94
413.365	97.94
413.589	91.94
413.812	75.94
414.035	73.94
414.258	70.94
414.482	89.94
414.705	89.94
414.928	78.94
415.151	84.94
415.374	76.94
415.597	81.94
415.821	78.94
416.044	93.94
416.267	97.94
416.49	80.94
416.713	87.94
416.936	84.94
417.159	86.94
417.382	88.94
417.605	94.94
417.828	104.94
418.051	80.94
418.274	97.94
418.497	100.94
418.72	88.94
418.943	84.94
419.166	99.94
419.389	86.94
419.611	92.94
419.834	82.94
420.057	75.94
420.28	79.94
420.503	92.94
420.726	91.94
420.948	79.94
421.171	71.94
421.394	81.94
421.617	82.94
421.839	78.94
422.062	78.94
422.285	75.94
422.507	78.94
422.73	75.94
422.953	74.94
423.175	83.94
423.398	79.94
423.621	96.94
423.843	78.94
424.066	76.94
424.288	74.94
424.511	82.94
424.733	83.94
424.956	82.94
425.178	80.94
425.401	92.94
425.623	93.94
425.846	84.94
426.068	88.94
426.291	93.94
426.513	68.94
426.735	90.94
426.958	82.94
427.18	92.94
427.402	95.94
427.625	95.94
427.847	93.94
428.069	126.94
428.292	95.94
428.514	90.94
428.736	102.94
428.958	78.94
429.181	94.94
429.403	83.94
429.625	94.94
429.847	89.94
430.069	95.94
430.292	71.94
430.514	82.94
430.736	77.94
430.958	81.94
431.18	67.94
431.402	89.94
431.624	82.94
431.846	75.94
432.068	86.94
432.29	88.94
432.512	81.94
432.734	80.94
432.956	74.94
433.178	84.94
433.4	87.94
433.622	94.94
433.844	90.94
434.066	83.94
434.287	96.94
434.509	75.94
434.731	89.94
434.953	83.94
435.175	88.94
435.397	83.94
435.618	84.94
435.84	83.94
436.062	104.94
436.284	86.94
436.505	79.94
436.727	92.94
436.949	70.94
437.17	72.94
437.392	76.94
437.614	88.94
437.835	78.94
438.057	84.94
438.278	72.94
438.5	71.94
438.721	87.94
438.943	86.94
439.165	82.94
439.386	90.94
439.608	64.94
439.829	75.94
440.05	88.94
440.272	85.94
440.493	88.94
440.715	87.94
440.936	79.94
441.158	83.94
441.379	80.94
441.6	81.94
441.822	85.94
442.043	106.94
442.264	78.94
442.486	83.94
442.707	82.94
442.928	86.94
443.149	76.94
443.371	79.94
443.592	81.94
443.813	77.94
444.034	84.94
444.255	88.94
444.476	73.94
444.698	76.94
444.919	86.94
445.14	242.94
445.361	150.94
445.582	84.94
445.803	87.94
446.024	79.94
446.245	96.94
446.466	89.94
446.687	88.94
446.908	79.94
447.129	91.94
447.35	78.94
447.571	95.94
447.792	78.94
448.013	101.94
448.234	92.94
448.455	88.94
448.675	79.94
448.896	98.94
449.117	88.94
449.338	98.94
449.559	83.94
449.779	90.94
450	96.94
450.221	79.94
450.442	90.94
450.662	92.94
450.883	82.94
451.104	86.94
451.324	82.94
451.545	80.94
451.766	85.94
451.986	64.94
452.207	76.94
452.428	83.94
452.648	78.94
452.869	79.94
453.089	87.94
453.31	78.94
453.53	89.94
453.751	83.94
453.971	78.94
454.192	102.94
454.412	80.94
454.633	89.94
454.853	88.94
455.073	79.94
455.294	92.94
455.514	83.94
455.734	87.94
455.955	67.94
456.175	79.94
456.395	86.94
456.616	79.94
456.836	67.94
457.056	90.94
457.276	72.94
457.497	91.94
457.717	83.94
457.937	95.94
458.157	91.94
458.377	81.94
458.598	77.94
458.818	90.94
459.038	89.94
459.258	76.94
459.478	81.94
459.698	81.94
459.918	91.94
460.138	90.94
460.358	88.94
460.578	78.94
460.798	94.94
461.018	79.94
461.238	77.94
461.458	87.94
461.678	79.94
461.898	72.94
462.118	84.94
462.338	78.94
462.558	86.94
462.777	92.94
462.997	92.94
463.217	87.94
463.437	88.94
463.657	82.94
463.876	83.94
464.096	74.94
464.316	78.94
464.536	88.94
464.755	82.94
464.975	84.94
465.195	80.94
465.414	86.94
465.634	80.94
465.854	84.94
466.073	87.94
466.293	82.94
466.512	74.94
466.732	84.94
466.951	82.94
467.171	92.94
467.391	98.94
467.61	111.94
467.829	119.94
468.049	261.94
468.268	506.94
468.488	174.94
468.707	104.94
468.927	95.94
469.146	89.94
469.365	94.94
469.585	86.94
469.804	84.94
470.023	86.94
470.243	82.94
470.462	95.94
470.681	100.94
470.901	88.94
471.12	86.94
471.339	98.94
471.558	106.94
471.777	110.94
471.997	150.94
472.216	397.94
472.435	1030.94
472.654	394.94
472.873	129.94
473.092	95.94
473.311	88.94
473.53	77.94
473.749	93.94
473.968	74.94
474.187	85.94
474.406	88.94
474.625	89.94
474.844	72.94
475.063	92.94
475.282	97.94
475.501	82.94
475.72	92.94
475.939	94.94
476.158	85.94
476.377	61.94
476.596	97.94
476.814	87.94
477.033	84.94
477.252	91.94
477.471	71.94
477.69	80.94
477.908	90.94
478.127	89.94
478.346	79.94
478.564	92.94
478.783	66.94
479.002	81.94
479.22	69.94
479.439	75.94
479.658	92.94
479.876	95.94
480.095	89.94
480.313	89.94
480.532	115.94
480.751	157.94
480.969	345.94
481.188	1312.94
481.406	1273.94
481.624	227.94
481.843	122.94
482.061	95.94
482.28	83.94
482.498	88.94
482.717	91.94
482.935	87.94
483.153	98.94
483.372	94.94
483.59	91.94
483.808	94.94
484.027	90.94
484.245	91.94
484.463	86.94
484.681	69.94
484.9	86.94
485.118	89.94
485.336	81.94
485.554	86.94
485.772	81.94
485.99	93.94
486.209	85.94
486.427	89.94
486.645	97.94
486.863	75.94
487.081	88.94
487.299	83.94
487.517	93.94
487.735	91.94
487.953	83.94
488.171	102.94
488.389	86.94
488.607	52.94
488.825	82.94
489.043	69.94
489.261	91.94
489.479	89.94
489.696	103.94
489.914	88.94
490.132	98.94
490.35	99.94
490.568	83.94
490.786	103.94
491.003	82.94
491.221	92.94
491.439	82.94
491.657	91.94
491.874	93.94
492.092	90.94
492.31	90.94
492.527	79.94
492.745	97.94
492.963	92.94
493.18	75.94
493.398	108.94
493.615	96.94
493.833	99.94
494.05	87.94
494.268	85.94
494.485	81.94
494.703	89.94
494.92	99.94
495.138	90.94
495.355	78.94
495.573	84.94
495.79	79.94
496.008	76.94
496.225	92.94
496.442	86.94
496.66	74.94
496.877	97.94
497.094	91.94
497.312	84.94
497.529	86.94
497.746	78.94
497.963	69.94
498.181	83.94
498.398	95.94
498.615	81.94
498.832	77.94
499.049	95.94
499.267	84.94
499.484	88.94
499.701	78.94
499.918	89.94
500.135	83.94
500.352	82.94
500.569	90.94
500.786	92.94
501.003	96.94
501.22	87.94
501.437	95.94
501.654	95.94
501.871	90.94
502.088	91.94
502.305	97.94
502.522	96.94
502.739	87.94
502.956	97.94
503.172	87.94
503.389	83.94
503.606	80.94
503.823	86.94
504.04	103.94
504.256	87.94
504.473	95.94
504.69	85.94
504.907	92.94
505.123	83.94
505.34	84.94
505.557	95.94
505.773	91.94
505.99	79.94
506.207	89.94
506.423	59.94
506.64	85.94
506.856	88.94
507.073	81.94
507.289	88.94
507.506	105.94
507.722	94.94
507.939	89.94
508.155	75.94
508.372	78.94
508.588	83.94
508.805	84.94
509.021	77.94
509.238	95.94
509.454	82.94
509.67	83.94
509.887	88.94
510.103	79.94
510.319	82.94
510.536	83.94
510.752	90.94
510.968	84.94
511.184	88.94
511.401	77.94
511.617	92.94
511.833	82.94
512.049	87.94
512.265	83.94
512.481	86.94
512.698	86.94
512.914	81.94
513.13	80.94
513.346	92.94
513.562	99.94
513.778	77.94
513.994	88.94
514.21	84.94
514.426	80.94
514.642	99.94
514.858	73.94
515.074	83.94
515.29	96.94
515.506	98.94
515.721	70.94
515.937	74.94
516.153	99.94
516.369	93.94
516.585	91.94
516.801	91.94
517.016	82.94
517.232	66.94
517.448	82.94
517.664	96.94
517.879	74.94
518.095	90.94
