Data from FlinnAP9092KCOPPER.07152019.QSWITCHSynchronous.EN10.20scans.P1_HRD10591_14-49-26-574.txt Node
Date: Mon Jul 15 14:49:26 EDT 2019
User: cochatt
Spectrometer: HR+D1059
Trigger mode: 5
Integration Time (sec): 1.000000E-1
Scans to average: 1
Electric dark correction enabled: true
Nonlinearity correction enabled: false
Boxcar width: 0
XAxis mode: Wavelengths
Number of Pixels in Spectrum: 2048
>>>>>Begin Spectral Data<<<<<
223.165	-46.69
223.4	-46.69
223.635	-46.69
223.869	-37.69
224.104	-45.69
224.338	9.31
224.573	-5.69
224.808	-16.69
225.042	19.31
225.277	-11.69
225.511	0.31
225.746	30.31
225.98	22.31
226.215	11.31
226.449	13.31
226.683	6.31
226.918	20.31
227.152	31.31
227.387	45.31
227.621	56.31
227.856	55.31
228.09	36.31
228.324	42.31
228.559	75.31
228.793	99.31
229.027	191.31
229.262	212.31
229.496	233.31
229.73	262.31
229.964	368.31
230.199	259.31
230.433	213.31
230.667	233.31
230.901	206.31
231.136	200.31
231.37	212.31
231.604	199.31
231.838	222.31
232.072	188.31
232.306	204.31
232.541	200.31
232.775	197.31
233.009	211.31
233.243	205.31
233.477	207.31
233.711	215.31
233.945	180.31
234.179	208.31
234.413	220.31
234.647	220.31
234.881	227.31
235.115	211.31
235.349	218.31
235.583	263.31
235.817	237.31
236.051	250.31
236.285	234.31
236.519	246.31
236.753	266.31
236.987	290.31
237.221	367.31
237.455	533.31
237.689	383.31
237.922	294.31
238.156	263.31
238.39	255.31
238.624	237.31
238.858	256.31
239.091	257.31
239.325	238.31
239.559	248.31
239.793	272.31
240.027	286.31
240.26	284.31
240.494	377.31
240.728	344.31
240.961	340.31
241.195	329.31
241.429	279.31
241.662	271.31
241.896	264.31
242.13	259.31
242.363	259.31
242.597	261.31
242.83	292.31
243.064	279.31
243.298	285.31
243.531	275.31
243.765	272.31
243.998	282.31
244.232	296.31
244.465	298.31
244.699	313.31
244.932	293.31
245.166	284.31
245.399	311.31
245.633	326.31
245.866	308.31
246.099	313.31
246.333	303.31
246.566	298.31
246.8	311.31
247.033	318.31
247.266	334.31
247.5	358.31
247.733	348.31
247.966	351.31
248.2	352.31
248.433	353.31
248.666	368.31
248.899	398.31
249.133	438.31
249.366	476.31
249.599	449.31
249.832	382.31
250.066	402.31
250.299	379.31
250.532	393.31
250.765	435.31
250.998	478.31
251.231	518.31
251.465	476.31
251.698	418.31
251.931	398.31
252.164	386.31
252.397	400.31
252.63	418.31
252.863	424.31
253.096	468.31
253.329	492.31
253.562	482.31
253.795	455.31
254.028	452.31
254.261	434.31
254.494	483.31
254.727	593.31
254.96	690.31
255.193	591.31
255.426	527.31
255.659	459.31
255.892	482.31
256.124	431.31
256.357	461.31
256.59	451.31
256.823	432.31
257.056	441.31
257.289	449.31
257.521	459.31
257.754	427.31
257.987	432.31
258.22	471.31
258.452	451.31
258.685	440.31
258.918	425.31
259.151	466.31
259.383	491.31
259.616	485.31
259.849	498.31
260.081	514.31
260.314	566.31
260.547	603.31
260.779	537.31
261.012	496.31
261.244	476.31
261.477	487.31
261.71	463.31
261.942	497.31
262.175	519.31
262.407	499.31
262.64	488.31
262.872	446.31
263.105	470.31
263.337	484.31
263.57	473.31
263.802	462.31
264.035	480.31
264.267	465.31
264.499	460.31
264.732	504.31
264.964	479.31
265.197	472.31
265.429	467.31
265.661	463.31
265.894	489.31
266.126	493.31
266.358	495.31
266.591	474.31
266.823	511.31
267.055	508.31
267.287	528.31
267.52	491.31
267.752	503.31
267.984	491.31
268.216	504.31
268.448	554.31
268.681	534.31
268.913	578.31
269.145	621.31
269.377	666.31
269.609	640.31
269.841	616.31
270.073	624.31
270.306	704.31
270.538	744.31
270.77	735.31
271.002	699.31
271.234	648.31
271.466	669.31
271.698	720.31
271.93	752.31
272.162	734.31
272.394	734.31
272.626	663.31
272.858	617.31
273.09	619.31
273.322	612.31
273.553	592.31
273.785	600.31
274.017	590.31
274.249	578.31
274.481	594.31
274.713	609.31
274.945	621.31
275.176	587.31
275.408	605.31
275.64	612.31
275.872	600.31
276.104	621.31
276.335	590.31
276.567	621.31
276.799	631.31
277.031	714.31
277.262	794.31
277.494	788.31
277.726	704.31
277.957	644.31
278.189	618.31
278.421	628.31
278.652	613.31
278.884	636.31
279.115	632.31
279.347	619.31
279.579	618.31
279.81	598.31
280.042	607.31
280.273	607.31
280.505	606.31
280.736	621.31
280.968	612.31
281.199	620.31
281.431	645.31
281.662	637.31
281.894	629.31
282.125	655.31
282.356	672.31
282.588	704.31
282.819	721.31
283.051	662.31
283.282	610.31
283.513	652.31
283.745	668.31
283.976	673.31
284.207	691.31
284.439	682.31
284.67	683.31
284.901	658.31
285.132	642.31
285.364	629.31
285.595	666.31
285.826	640.31
286.057	704.31
286.288	667.31
286.52	676.31
286.751	653.31
286.982	680.31
287.213	653.31
287.444	695.31
287.675	706.31
287.906	727.31
288.138	709.31
288.369	717.31
288.6	732.31
288.831	690.31
289.062	725.31
289.293	674.31
289.524	696.31
289.755	685.31
289.986	664.31
290.217	695.31
290.448	688.31
290.679	702.31
290.91	686.31
291.141	669.31
291.371	664.31
291.602	672.31
291.833	674.31
292.064	677.31
292.295	695.31
292.526	712.31
292.757	711.31
292.987	693.31
293.218	691.31
293.449	718.31
293.68	694.31
293.91	673.31
294.141	676.31
294.372	677.31
294.603	665.31
294.833	692.31
295.064	665.31
295.295	720.31
295.525	685.31
295.756	701.31
295.987	712.31
296.217	750.31
296.448	790.31
296.679	721.31
296.909	714.31
297.14	699.31
297.37	732.31
297.601	728.31
297.831	698.31
298.062	737.31
298.292	732.31
298.523	760.31
298.753	754.31
298.984	726.31
299.214	764.31
299.445	719.31
299.675	728.31
299.905	756.31
300.136	761.31
300.366	723.31
300.597	746.31
300.827	767.31
301.057	768.31
301.288	811.31
301.518	785.31
301.748	774.31
301.979	790.31
302.209	773.31
302.439	804.31
302.669	822.31
302.9	785.31
303.13	790.31
303.36	807.31
303.59	782.31
303.82	781.31
304.051	791.31
304.281	822.31
304.511	784.31
304.741	773.31
304.971	759.31
305.201	787.31
305.431	754.31
305.661	751.31
305.891	742.31
306.121	777.31
306.352	774.31
306.582	780.31
306.812	753.31
307.042	780.31
307.272	754.31
307.502	736.31
307.731	760.31
307.961	761.31
308.191	745.31
308.421	755.31
308.651	764.31
308.881	762.31
309.111	764.31
309.341	762.31
309.571	788.31
309.8	810.31
310.03	840.31
310.26	858.31
310.49	847.31
310.72	859.31
310.949	904.31
311.179	922.31
311.409	894.31
311.639	845.31
311.868	864.31
312.098	884.31
312.328	857.31
312.557	898.31
312.787	977.31
313.017	972.31
313.246	917.31
313.476	877.31
313.706	848.31
313.935	894.31
314.165	910.31
314.394	934.31
314.624	918.31
314.853	921.31
315.083	888.31
315.312	884.31
315.542	850.31
315.771	835.31
316.001	834.31
316.23	828.31
316.46	830.31
316.689	865.31
316.919	857.31
317.148	894.31
317.377	906.31
317.607	912.31
317.836	872.31
318.065	850.31
318.295	860.31
318.524	843.31
318.753	822.31
318.983	824.31
319.212	866.31
319.441	860.31
319.67	893.31
319.9	840.31
320.129	839.31
320.358	848.31
320.587	828.31
320.816	862.31
321.046	888.31
321.275	914.31
321.504	880.31
321.733	894.31
321.962	896.31
322.191	896.31
322.42	906.31
322.649	984.31
322.878	1011.31
323.108	988.31
323.337	1022.31
323.566	1081.31
323.795	1145.31
324.024	1251.31
324.253	1458.31
324.482	2180.31
324.71	3694.31
324.939	5853.31
325.168	5034.31
325.397	2050.31
325.626	1272.31
325.855	1139.31
326.084	1052.31
326.313	1030.31
326.542	1090.31
326.77	1192.31
326.999	1441.31
327.228	2061.31
327.457	3348.31
327.686	4418.31
327.914	2570.31
328.143	1524.31
328.372	1307.31
328.6	1250.31
328.829	1209.31
329.058	1268.31
329.287	1354.31
329.515	1228.31
329.744	1102.31
329.972	1055.31
330.201	1066.31
330.43	1145.31
330.658	1246.31
330.887	1419.31
331.115	1486.31
331.344	1183.31
331.572	1142.31
331.801	1117.31
332.03	1136.31
332.258	1129.31
332.486	1088.31
332.715	1064.31
332.943	1077.31
333.172	1103.31
333.4	1148.31
333.629	1189.31
333.857	1171.31
334.085	1133.31
334.314	1160.31
334.542	1138.31
334.771	1151.31
334.999	1151.31
335.227	1152.31
335.455	1109.31
335.684	1069.31
335.912	1090.31
336.14	1063.31
336.369	1056.31
336.597	1094.31
336.825	1089.31
337.053	1066.31
337.281	1051.31
337.51	1004.31
337.738	1033.31
337.966	1004.31
338.194	1022.31
338.422	1040.31
338.65	1007.31
338.878	1028.31
339.106	975.31
339.334	1005.31
339.562	961.31
339.79	957.31
340.018	941.31
340.246	933.31
340.474	979.31
340.702	977.31
340.93	960.31
341.158	972.31
341.386	974.31
341.614	987.31
341.842	942.31
342.07	924.31
342.298	963.31
342.526	949.31
342.754	938.31
342.981	912.31
343.209	938.31
343.437	984.31
343.665	986.31
343.893	1035.31
344.12	1087.31
344.348	1055.31
344.576	1057.31
344.804	1000.31
345.031	994.31
345.259	1046.31
345.487	1008.31
345.714	973.31
345.942	929.31
346.17	919.31
346.397	912.31
346.625	891.31
346.853	905.31
347.08	892.31
347.308	926.31
347.535	923.31
347.763	967.31
347.99	989.31
348.218	948.31
348.445	941.31
348.673	930.31
348.9	930.31
349.128	934.31
349.355	873.31
349.583	910.31
349.81	886.31
350.037	870.31
350.265	918.31
350.492	863.31
350.72	863.31
350.947	890.31
351.174	908.31
351.402	955.31
351.629	934.31
351.856	877.31
352.083	938.31
352.311	960.31
352.538	958.31
352.765	997.31
352.992	963.31
353.22	893.31
353.447	908.31
353.674	928.31
353.901	894.31
354.128	862.31
354.355	844.31
354.583	875.31
354.81	855.31
355.037	862.31
355.264	854.31
355.491	847.31
355.718	838.31
355.945	854.31
356.172	852.31
356.399	846.31
356.626	823.31
356.853	836.31
357.08	847.31
357.307	830.31
357.534	826.31
357.761	830.31
357.988	855.31
358.215	887.31
358.441	816.31
358.668	824.31
358.895	839.31
359.122	857.31
359.349	858.31
359.576	898.31
359.802	970.31
360.029	1052.31
360.256	1090.31
360.483	1064.31
360.709	922.31
360.936	953.31
361.163	898.31
361.39	918.31
361.616	926.31
361.843	894.31
362.07	908.31
362.296	914.31
362.523	910.31
362.749	898.31
362.976	898.31
363.203	911.31
363.429	853.31
363.656	887.31
363.882	874.31
364.109	914.31
364.335	876.31
364.562	874.31
364.788	830.31
365.015	875.31
365.241	868.31
365.468	899.31
365.694	870.31
365.92	889.31
366.147	866.31
366.373	855.31
366.599	839.31
366.826	839.31
367.052	838.31
367.278	869.31
367.505	868.31
367.731	867.31
367.957	873.31
368.184	848.31
368.41	877.31
368.636	938.31
368.862	964.31
369.089	868.31
369.315	892.31
369.541	894.31
369.767	892.31
369.993	909.31
370.219	896.31
370.445	896.31
370.672	877.31
370.898	894.31
371.124	888.31
371.35	885.31
371.576	896.31
371.802	856.31
372.028	893.31
372.254	884.31
372.48	914.31
372.706	887.31
372.932	922.31
373.158	878.31
373.384	908.31
373.61	914.31
373.835	901.31
374.061	892.31
374.287	924.31
374.513	911.31
374.739	934.31
374.965	954.31
375.191	958.31
375.416	986.31
375.642	931.31
375.868	946.31
376.094	912.31
376.319	889.31
376.545	898.31
376.771	870.31
376.997	916.31
377.222	888.31
377.448	885.31
377.674	902.31
377.899	888.31
378.125	888.31
378.35	904.31
378.576	871.31
378.802	876.31
379.027	936.31
379.253	913.31
379.478	889.31
379.704	895.31
379.929	902.31
380.155	915.31
380.38	900.31
380.606	908.31
380.831	911.31
381.057	965.31
381.282	931.31
381.507	963.31
381.733	955.31
381.958	884.31
382.184	908.31
382.409	949.31
382.634	970.31
382.86	958.31
383.085	986.31
383.31	973.31
383.535	1017.31
383.761	972.31
383.986	1012.31
384.211	987.31
384.436	1027.31
384.662	1003.31
384.887	1030.31
385.112	1044.31
385.337	1052.31
385.562	1068.31
385.787	1096.31
386.013	1128.31
386.238	1103.31
386.463	1097.31
386.688	1066.31
386.913	1050.31
387.138	1043.31
387.363	1053.31
387.588	1096.31
387.813	1080.31
388.038	1057.31
388.263	1088.31
388.488	1067.31
388.713	1046.31
388.938	1089.31
389.163	1103.31
389.387	1062.31
389.612	1032.31
389.837	1072.31
390.062	1085.31
390.287	1044.31
390.512	1058.31
390.736	1059.31
390.961	1063.31
391.186	1088.31
391.411	1127.31
391.636	1138.31
391.86	1168.31
392.085	1218.31
392.31	1228.31
392.534	1174.31
392.759	1161.31
392.984	1140.31
393.208	1101.31
393.433	1115.31
393.658	1092.31
393.882	1106.31
394.107	1148.31
394.331	1162.31
394.556	1130.31
394.78	1129.31
395.005	1162.31
395.229	1170.31
395.454	1207.31
395.678	1200.31
395.903	1266.31
396.127	1302.31
396.352	1282.31
396.576	1164.31
396.801	1142.31
397.025	1154.31
397.249	1189.31
397.474	1219.31
397.698	1189.31
397.922	1251.31
398.147	1248.31
398.371	1316.31
398.595	1286.31
398.82	1285.31
399.044	1379.31
399.268	1450.31
399.492	1638.31
399.717	1840.31
399.941	1881.31
400.165	1782.31
400.389	1705.31
400.613	1555.31
400.837	1435.31
401.062	1405.31
401.286	1352.31
401.51	1326.31
401.734	1345.31
401.958	1340.31
402.182	1337.31
402.406	1414.31
402.63	1456.31
402.854	1478.31
403.078	1484.31
403.302	1481.31
403.526	1506.31
403.75	1518.31
403.974	1511.31
404.198	1517.31
404.422	1547.31
404.645	1542.31
404.869	1501.31
405.093	1522.31
405.317	1550.31
405.541	1617.31
405.765	1547.31
405.988	1485.31
406.212	1543.31
406.436	1622.31
406.66	1664.31
406.883	1611.31
407.107	1709.31
407.331	1810.31
407.555	1983.31
407.778	1952.31
408.002	1809.31
408.226	1660.31
408.449	1608.31
408.673	1587.31
408.896	1700.31
409.12	1758.31
409.344	1666.31
409.567	1517.31
409.791	1503.31
410.014	1469.31
410.238	1465.31
410.461	1508.31
410.685	1499.31
410.908	1505.31
411.132	1644.31
411.355	1688.31
411.578	1576.31
411.802	1448.31
412.025	1385.31
412.249	1426.31
412.472	1458.31
412.695	1442.31
412.919	1412.31
413.142	1425.31
413.365	1395.31
413.589	1401.31
413.812	1377.31
414.035	1350.31
414.258	1362.31
414.482	1318.31
414.705	1434.31
414.928	1389.31
415.151	1390.31
415.374	1375.31
415.597	1376.31
415.821	1387.31
416.044	1423.31
416.267	1444.31
416.49	1373.31
416.713	1373.31
416.936	1398.31
417.159	1362.31
417.382	1445.31
417.605	1408.31
417.828	1485.31
418.051	1521.31
418.274	1501.31
418.497	1430.31
418.72	1445.31
418.943	1458.31
419.166	1556.31
419.389	1613.31
419.611	1586.31
419.834	1543.31
420.057	1542.31
420.28	1504.31
420.503	1510.31
420.726	1472.31
420.948	1487.31
421.171	1618.31
421.394	1688.31
421.617	1568.31
421.839	1528.31
422.062	1513.31
422.285	1514.31
422.507	1703.31
422.73	1904.31
422.953	1765.31
423.175	1579.31
423.398	1566.31
423.621	1610.31
423.843	1704.31
424.066	1674.31
424.288	1670.31
424.511	1687.31
424.733	1859.31
424.956	2058.31
425.178	1927.31
425.401	1940.31
425.623	1949.31
425.846	1680.31
426.068	1599.31
426.291	1522.31
426.513	1516.31
426.735	1607.31
426.958	1705.31
427.18	1886.31
427.402	2220.31
427.625	2472.31
427.847	1996.31
428.069	1731.31
428.292	1531.31
428.514	1459.31
428.736	1414.31
428.958	1391.31
429.181	1391.31
429.403	1373.31
429.625	1422.31
429.847	1497.31
430.069	1710.31
430.292	1725.31
430.514	1444.31
430.736	1410.31
430.958	1406.31
431.18	1354.31
431.402	1334.31
431.624	1265.31
431.846	1268.31
432.068	1186.31
432.29	1230.31
432.512	1312.31
432.734	1368.31
432.956	1387.31
433.178	1452.31
433.4	1488.31
433.622	1417.31
433.844	1388.31
434.066	1309.31
434.287	1274.31
434.509	1213.31
434.731	1272.31
434.953	1418.31
435.175	1514.31
435.397	1577.31
435.618	1535.31
435.84	1661.31
436.062	1956.31
436.284	2080.31
436.505	1705.31
436.727	1578.31
436.949	1481.31
437.17	1438.31
437.392	1389.31
437.614	1418.31
437.835	1432.31
438.057	1663.31
438.278	1992.31
438.5	1972.31
438.721	2286.31
438.943	2165.31
439.165	1670.31
439.386	1611.31
439.608	1675.31
439.829	1625.31
440.05	1812.31
440.272	1946.31
440.493	1808.31
440.715	1632.31
440.936	1598.31
441.158	1597.31
441.379	1571.31
441.6	1641.31
441.822	1698.31
442.043	1771.31
442.264	2011.31
442.486	2125.31
442.707	1770.31
442.928	1693.31
443.149	1758.31
443.371	1854.31
443.592	1911.31
443.813	2200.31
444.034	2328.31
444.255	1893.31
444.476	1792.31
444.698	1835.31
444.919	1806.31
445.14	3343.31
445.361	2453.31
445.582	1918.31
445.803	2170.31
446.024	2415.31
446.245	2397.31
446.466	2156.31
446.687	1783.31
446.908	1704.31
447.129	1615.31
447.35	1549.31
447.571	1525.31
447.792	1487.31
448.013	1470.31
448.234	1547.31
448.455	1650.31
448.675	1978.31
448.896	2299.31
449.117	1908.31
449.338	1738.31
449.559	2114.31
449.779	2411.31
450	1881.31
450.221	1557.31
450.442	1448.31
450.662	1440.31
450.883	1452.31
451.104	1479.31
451.324	1466.31
451.545	1348.31
451.766	1349.31
451.986	1279.31
452.207	1294.31
452.428	1247.31
452.648	1284.31
452.869	1224.31
453.089	1263.31
453.31	1248.31
453.53	1195.31
453.751	1178.31
453.971	1158.31
454.192	1224.31
454.412	1183.31
454.633	1174.31
454.853	1204.31
455.073	1223.31
455.294	1314.31
455.514	1496.31
455.734	1418.31
455.955	1259.31
456.175	1132.31
456.395	1111.31
456.616	1108.31
456.836	1094.31
457.056	1063.31
457.276	1055.31
457.497	1069.31
457.717	1098.31
457.937	1097.31
458.157	1096.31
458.377	1111.31
458.598	1151.31
458.818	1284.31
459.038	1591.31
459.258	1596.31
459.478	1297.31
459.698	1206.31
459.918	1236.31
460.138	1256.31
460.358	1358.31
460.578	1397.31
460.798	1376.31
461.018	1404.31
461.238	1376.31
461.458	1352.31
461.678	1371.31
461.898	1360.31
462.118	1386.31
462.338	1438.31
462.558	1515.31
462.777	1486.31
462.997	1597.31
463.217	1638.31
463.437	1630.31
463.657	1542.31
463.876	1468.31
464.096	1495.31
464.316	1486.31
464.536	1554.31
464.755	1533.31
464.975	1542.31
465.195	1614.31
465.414	1779.31
465.634	1513.31
465.854	1387.31
466.073	1336.31
466.293	1317.31
466.512	1322.31
466.732	1304.31
466.951	1315.31
467.171	1356.31
467.391	1384.31
467.61	1414.31
467.829	1372.31
468.049	1344.31
468.268	1296.31
468.488	1344.31
468.707	1304.31
468.927	1322.31
469.146	1280.31
469.365	1339.31
469.585	1308.31
469.804	1355.31
470.023	1446.31
470.243	1438.31
470.462	1472.31
470.681	1531.31
470.901	1471.31
471.12	1436.31
471.339	1452.31
471.558	1403.31
471.777	1366.31
471.997	1314.31
472.216	1263.31
472.435	1175.31
472.654	1106.31
472.873	1145.31
473.092	1150.31
473.311	1237.31
473.53	1272.31
473.749	1284.31
473.968	1401.31
474.187	1676.31
474.406	1688.31
474.625	1378.31
474.844	1346.31
475.063	1292.31
475.282	1255.31
475.501	1214.31
475.72	1300.31
475.939	1255.31
476.158	1298.31
476.377	1283.31
476.596	1243.31
476.814	1228.31
477.033	1227.31
477.252	1265.31
477.471	1310.31
477.69	1403.31
477.908	1446.31
478.127	1511.31
478.346	1473.31
478.564	1469.31
478.783	1495.31
479.002	1542.31
479.22	1575.31
479.439	1591.31
479.658	1526.31
479.876	1502.31
480.095	1451.31
480.313	1629.31
480.532	1615.31
480.751	1523.31
480.969	1419.31
481.188	1374.31
481.406	1362.31
481.624	1327.31
481.843	1283.31
482.061	1270.31
482.28	1339.31
482.498	1319.31
482.717	1304.31
482.935	1369.31
483.153	1503.31
483.372	1540.31
483.59	1550.31
483.808	1456.31
484.027	1430.31
484.245	1423.31
484.463	1505.31
484.681	1571.31
484.9	1508.31
485.118	1538.31
485.336	1451.31
485.554	1395.31
485.772	1366.31
485.99	1374.31
486.209	1406.31
486.427	1420.31
486.645	1497.31
486.863	1640.31
487.081	1661.31
487.299	1606.31
487.517	1646.31
487.735	1753.31
487.953	1903.31
488.171	1886.31
488.389	1772.31
488.607	1679.31
488.825	1594.31
489.043	1535.31
489.261	1580.31
489.479	1619.31
489.696	1670.31
489.914	1633.31
490.132	1705.31
490.35	1788.31
490.568	1854.31
490.786	1967.31
491.003	1994.31
491.221	2073.31
491.439	2189.31
491.657	2212.31
491.874	2358.31
492.092	2381.31
492.31	2485.31
492.527	2435.31
492.745	2325.31
492.963	2294.31
493.18	2232.31
493.398	2207.31
493.615	2197.31
493.833	2153.31
