Data from FlinnAP9092KCOPPER.07152019.LAMP.EN10.P1_HRD10591_14-45-30-668.txt Node
Date: Mon Jul 15 14:45:30 EDT 2019
User: cochatt
Spectrometer: HR+D1059
Trigger mode: 3
Integration Time (sec): 1.000000E-1
Scans to average: 1
Electric dark correction enabled: true
Nonlinearity correction enabled: false
Boxcar width: 0
XAxis mode: Wavelengths
Number of Pixels in Spectrum: 2048
>>>>>Begin Spectral Data<<<<<
223.165	-1.62
223.4	-1.62
223.635	-1.62
223.869	-11.62
224.104	-20.62
224.338	-17.62
224.573	-9.62
224.808	3.38
225.042	-19.62
225.277	-2.62
225.511	-15.62
225.746	-2.62
225.98	-2.62
226.215	5.38
226.449	19.38
226.683	18.38
226.918	26.38
227.152	31.38
227.387	48.38
227.621	42.38
227.856	47.38
228.09	29.38
228.324	59.38
228.559	51.38
228.793	91.38
229.027	172.38
229.262	194.38
229.496	202.38
229.73	255.38
229.964	323.38
230.199	243.38
230.433	198.38
230.667	181.38
230.901	188.38
231.136	179.38
231.37	176.38
231.604	176.38
231.838	188.38
232.072	186.38
232.306	189.38
232.541	178.38
232.775	176.38
233.009	178.38
233.243	186.38
233.477	194.38
233.711	200.38
233.945	182.38
234.179	186.38
234.413	203.38
234.647	184.38
234.881	169.38
235.115	176.38
235.349	194.38
235.583	207.38
235.817	210.38
236.051	210.38
236.285	234.38
236.519	215.38
236.753	229.38
236.987	249.38
237.221	352.38
237.455	494.38
237.689	383.38
237.922	280.38
238.156	278.38
238.39	236.38
238.624	214.38
238.858	209.38
239.091	216.38
239.325	215.38
239.559	211.38
239.793	226.38
240.027	251.38
240.26	263.38
240.494	305.38
240.728	314.38
240.961	306.38
241.195	282.38
241.429	263.38
241.662	247.38
241.896	253.38
242.13	268.38
242.363	238.38
242.597	262.38
242.83	260.38
243.064	266.38
243.298	255.38
243.531	266.38
243.765	272.38
243.998	270.38
244.232	259.38
244.465	258.38
244.699	274.38
244.932	290.38
245.166	283.38
245.399	269.38
245.633	289.38
245.866	272.38
246.099	284.38
246.333	293.38
246.566	286.38
246.8	274.38
247.033	303.38
247.266	304.38
247.5	313.38
247.733	326.38
247.966	340.38
248.2	332.38
248.433	336.38
248.666	332.38
248.899	382.38
249.133	418.38
249.366	448.38
249.599	415.38
249.832	381.38
250.066	361.38
250.299	367.38
250.532	354.38
250.765	402.38
250.998	460.38
251.231	490.38
251.465	436.38
251.698	429.38
251.931	403.38
252.164	389.38
252.397	392.38
252.63	399.38
252.863	420.38
253.096	464.38
253.329	478.38
253.562	460.38
253.795	431.38
254.028	422.38
254.261	440.38
254.494	476.38
254.727	538.38
254.96	653.38
255.193	584.38
255.426	504.38
255.659	464.38
255.892	440.38
256.124	432.38
256.357	422.38
256.59	419.38
256.823	416.38
257.056	405.38
257.289	409.38
257.521	416.38
257.754	424.38
257.987	433.38
258.22	430.38
258.452	425.38
258.685	424.38
258.918	406.38
259.151	423.38
259.383	466.38
259.616	451.38
259.849	468.38
260.081	502.38
260.314	567.38
260.547	571.38
260.779	528.38
261.012	494.38
261.244	489.38
261.477	466.38
261.71	470.38
261.942	475.38
262.175	491.38
262.407	470.38
262.64	442.38
262.872	446.38
263.105	436.38
263.337	453.38
263.57	471.38
263.802	462.38
264.035	462.38
264.267	429.38
264.499	464.38
264.732	442.38
264.964	452.38
265.197	460.38
265.429	465.38
265.661	451.38
265.894	468.38
266.126	457.38
266.358	462.38
266.591	491.38
266.823	493.38
267.055	516.38
267.287	517.38
267.52	490.38
267.752	485.38
267.984	482.38
268.216	518.38
268.448	509.38
268.681	504.38
268.913	560.38
269.145	600.38
269.377	653.38
269.609	606.38
269.841	610.38
270.073	584.38
270.306	668.38
270.538	770.38
270.77	741.38
271.002	688.38
271.234	672.38
271.466	656.38
271.698	721.38
271.93	748.38
272.162	723.38
272.394	724.38
272.626	664.38
272.858	625.38
273.09	594.38
273.322	589.38
273.553	567.38
273.785	575.38
274.017	562.38
274.249	574.38
274.481	586.38
274.713	598.38
274.945	630.38
275.176	605.38
275.408	613.38
275.64	594.38
275.872	566.38
276.104	594.38
276.335	598.38
276.567	600.38
276.799	659.38
277.031	724.38
277.262	751.38
277.494	740.38
277.726	670.38
277.957	663.38
278.189	616.38
278.421	601.38
278.652	604.38
278.884	579.38
279.115	594.38
279.347	574.38
279.579	606.38
279.81	580.38
280.042	597.38
280.273	622.38
280.505	588.38
280.736	600.38
280.968	596.38
281.199	611.38
281.431	592.38
281.662	608.38
281.894	601.38
282.125	611.38
282.356	636.38
282.588	698.38
282.819	723.38
283.051	651.38
283.282	616.38
283.513	624.38
283.745	648.38
283.976	644.38
284.207	647.38
284.439	646.38
284.67	652.38
284.901	651.38
285.132	616.38
285.364	627.38
285.595	641.38
285.826	626.38
286.057	639.38
286.288	664.38
286.52	648.38
286.751	641.38
286.982	664.38
287.213	654.38
287.444	654.38
287.675	682.38
287.906	680.38
288.138	723.38
288.369	705.38
288.6	712.38
288.831	724.38
289.062	662.38
289.293	695.38
289.524	684.38
289.755	652.38
289.986	660.38
290.217	670.38
290.448	670.38
290.679	681.38
290.91	666.38
291.141	687.38
291.371	666.38
291.602	686.38
291.833	665.38
292.064	647.38
292.295	687.38
292.526	682.38
292.757	678.38
292.987	688.38
293.218	662.38
293.449	702.38
293.68	675.38
293.91	659.38
294.141	674.38
294.372	682.38
294.603	666.38
294.833	684.38
295.064	676.38
295.295	684.38
295.525	698.38
295.756	696.38
295.987	723.38
296.217	758.38
296.448	764.38
296.679	716.38
296.909	709.38
297.14	699.38
297.37	707.38
297.601	712.38
297.831	720.38
298.062	728.38
298.292	721.38
298.523	727.38
298.753	703.38
298.984	730.38
299.214	718.38
299.445	735.38
299.675	720.38
299.905	739.38
300.136	726.38
300.366	739.38
300.597	726.38
300.827	746.38
301.057	760.38
301.288	787.38
301.518	795.38
301.748	770.38
301.979	785.38
302.209	806.38
302.439	800.38
302.669	773.38
302.9	789.38
303.13	770.38
303.36	760.38
303.59	792.38
303.82	769.38
304.051	771.38
304.281	787.38
304.511	751.38
304.741	762.38
304.971	758.38
305.201	739.38
305.431	763.38
305.661	755.38
305.891	736.38
306.121	741.38
306.352	743.38
306.582	783.38
306.812	743.38
307.042	738.38
307.272	737.38
307.502	756.38
307.731	753.38
307.961	770.38
308.191	751.38
308.421	745.38
308.651	780.38
308.881	748.38
309.111	774.38
309.341	771.38
309.571	773.38
309.8	823.38
310.03	822.38
310.26	860.38
310.49	812.38
310.72	848.38
310.949	943.38
311.179	921.38
311.409	838.38
311.639	830.38
311.868	842.38
312.098	862.38
312.328	868.38
312.557	936.38
312.787	946.38
313.017	959.38
313.246	925.38
313.476	853.38
313.706	832.38
313.935	860.38
314.165	910.38
314.394	932.38
314.624	936.38
314.853	883.38
315.083	870.38
315.312	870.38
315.542	854.38
315.771	826.38
316.001	825.38
316.23	844.38
316.46	824.38
316.689	831.38
316.919	837.38
317.148	861.38
317.377	886.38
317.607	872.38
317.836	866.38
318.065	842.38
318.295	850.38
318.524	835.38
318.753	816.38
318.983	842.38
319.212	829.38
319.441	864.38
319.67	875.38
319.9	834.38
320.129	852.38
320.358	815.38
320.587	848.38
320.816	857.38
321.046	862.38
321.275	836.38
321.504	844.38
321.733	866.38
321.962	862.38
322.191	865.38
322.42	940.38
322.649	930.38
322.878	964.38
323.108	989.38
323.337	1054.38
323.566	1106.38
323.795	1119.38
324.024	1202.38
324.253	1475.38
324.482	2144.38
324.71	3607.38
324.939	5749.38
325.168	4900.38
325.397	1970.38
325.626	1266.38
325.855	1111.38
326.084	1042.38
326.313	1071.38
326.542	1068.38
326.77	1204.38
326.999	1426.38
327.228	2054.38
327.457	3322.38
327.686	4318.38
327.914	2550.38
328.143	1457.38
328.372	1300.38
328.6	1216.38
328.829	1211.38
329.058	1260.38
329.287	1336.38
329.515	1203.38
329.744	1074.38
329.972	1030.38
330.201	1074.38
330.43	1135.38
330.658	1238.38
330.887	1442.38
331.115	1442.38
331.344	1186.38
331.572	1087.38
331.801	1114.38
332.03	1120.38
332.258	1111.38
332.486	1051.38
332.715	1053.38
332.943	1054.38
333.172	1116.38
333.4	1085.38
333.629	1120.38
333.857	1158.38
334.085	1129.38
334.314	1132.38
334.542	1148.38
334.771	1138.38
334.999	1113.38
335.227	1131.38
335.455	1128.38
335.684	1081.38
335.912	1046.38
336.14	1064.38
336.369	1054.38
336.597	1079.38
336.825	1077.38
337.053	1058.38
337.281	1012.38
337.51	1019.38
337.738	1018.38
337.966	997.38
338.194	1047.38
338.422	1016.38
338.65	988.38
338.878	1000.38
339.106	943.38
339.334	982.38
339.562	956.38
339.79	974.38
340.018	956.38
340.246	952.38
340.474	958.38
340.702	985.38
340.93	958.38
341.158	956.38
341.386	963.38
341.614	974.38
341.842	942.38
342.07	950.38
342.298	936.38
342.526	937.38
342.754	918.38
342.981	914.38
343.209	923.38
343.437	951.38
343.665	1004.38
343.893	1028.38
344.12	1087.38
344.348	1038.38
344.576	1035.38
344.804	979.38
345.031	1044.38
345.259	1050.38
345.487	993.38
345.714	959.38
345.942	950.38
346.17	917.38
346.397	889.38
346.625	890.38
346.853	874.38
347.08	876.38
347.308	896.38
347.535	935.38
347.763	924.38
347.99	924.38
348.218	959.38
348.445	957.38
348.673	957.38
348.9	904.38
349.128	891.38
349.355	864.38
349.583	866.38
349.81	891.38
350.037	875.38
350.265	857.38
350.492	866.38
350.72	915.38
350.947	856.38
351.174	893.38
351.402	962.38
351.629	966.38
351.856	927.38
352.083	935.38
352.311	928.38
352.538	967.38
352.765	935.38
352.992	923.38
353.22	914.38
353.447	898.38
353.674	871.38
353.901	818.38
354.128	859.38
354.355	847.38
354.583	850.38
354.81	840.38
355.037	852.38
355.264	820.38
355.491	814.38
355.718	839.38
355.945	824.38
356.172	837.38
356.399	828.38
356.626	816.38
356.853	837.38
357.08	839.38
357.307	812.38
357.534	816.38
357.761	824.38
357.988	842.38
358.215	822.38
358.441	798.38
358.668	826.38
358.895	827.38
359.122	861.38
359.349	872.38
359.576	874.38
359.802	954.38
360.029	1041.38
360.256	1079.38
360.483	1023.38
360.709	933.38
360.936	900.38
361.163	889.38
361.39	914.38
361.616	922.38
361.843	884.38
362.07	926.38
362.296	923.38
362.523	918.38
362.749	877.38
362.976	866.38
363.203	865.38
363.429	814.38
363.656	858.38
363.882	846.38
364.109	838.38
364.335	834.38
364.562	836.38
364.788	871.38
365.015	836.38
365.241	842.38
365.468	867.38
365.694	887.38
365.92	856.38
366.147	863.38
366.373	850.38
366.599	873.38
366.826	856.38
367.052	814.38
367.278	824.38
367.505	858.38
367.731	852.38
367.957	861.38
368.184	853.38
368.41	895.38
368.636	891.38
368.862	888.38
369.089	879.38
369.315	854.38
369.541	865.38
369.767	881.38
369.993	832.38
370.219	851.38
370.445	875.38
370.672	856.38
370.898	863.38
371.124	891.38
371.35	890.38
371.576	896.38
371.802	896.38
372.028	874.38
372.254	874.38
372.48	894.38
372.706	902.38
372.932	932.38
373.158	918.38
373.384	886.38
373.61	890.38
373.835	906.38
374.061	905.38
374.287	886.38
374.513	906.38
374.739	929.38
374.965	957.38
375.191	955.38
375.416	960.38
375.642	902.38
375.868	919.38
376.094	918.38
376.319	901.38
376.545	926.38
376.771	903.38
376.997	904.38
377.222	891.38
377.448	898.38
377.674	888.38
377.899	887.38
378.125	868.38
378.35	872.38
378.576	901.38
378.802	889.38
379.027	896.38
379.253	899.38
379.478	886.38
379.704	899.38
379.929	915.38
380.155	899.38
380.38	904.38
380.606	930.38
380.831	917.38
381.057	903.38
381.282	922.38
381.507	912.38
381.733	921.38
381.958	911.38
382.184	902.38
382.409	931.38
382.634	952.38
382.86	957.38
383.085	970.38
383.31	941.38
383.535	997.38
383.761	959.38
383.986	1017.38
384.211	1034.38
384.436	1037.38
384.662	1040.38
384.887	1037.38
385.112	1043.38
385.337	1048.38
385.562	1051.38
385.787	1046.38
386.013	1072.38
386.238	1114.38
386.463	1080.38
386.688	1076.38
386.913	1051.38
387.138	1074.38
387.363	1074.38
387.588	1020.38
387.813	1049.38
388.038	1058.38
388.263	1037.38
388.488	1050.38
388.713	1046.38
388.938	1084.38
389.163	1063.38
389.387	1050.38
389.612	1022.38
389.837	1037.38
390.062	1039.38
390.287	1054.38
390.512	1055.38
390.736	1044.38
390.961	1073.38
391.186	1100.38
391.411	1101.38
391.636	1122.38
391.86	1155.38
392.085	1164.38
392.31	1178.38
392.534	1149.38
392.759	1137.38
392.984	1118.38
393.208	1122.38
393.433	1111.38
393.658	1111.38
393.882	1088.38
394.107	1120.38
394.331	1143.38
394.556	1142.38
394.78	1158.38
395.005	1170.38
395.229	1148.38
395.454	1196.38
395.678	1192.38
395.903	1220.38
396.127	1260.38
396.352	1220.38
396.576	1160.38
396.801	1146.38
397.025	1164.38
397.249	1167.38
397.474	1173.38
397.698	1191.38
397.922	1266.38
398.147	1286.38
398.371	1283.38
398.595	1286.38
398.82	1309.38
399.044	1410.38
399.268	1497.38
399.492	1642.38
399.717	1787.38
399.941	1854.38
400.165	1810.38
400.389	1758.38
400.613	1553.38
400.837	1434.38
401.062	1360.38
401.286	1341.38
401.51	1341.38
401.734	1344.38
401.958	1391.38
402.182	1348.38
402.406	1416.38
402.63	1449.38
402.854	1458.38
403.078	1440.38
403.302	1448.38
403.526	1538.38
403.75	1504.38
403.974	1474.38
404.198	1493.38
404.422	1527.38
404.645	1536.38
404.869	1487.38
405.093	1531.38
405.317	1595.38
405.541	1586.38
405.765	1522.38
405.988	1499.38
406.212	1566.38
406.436	1640.38
406.66	1684.38
406.883	1602.38
407.107	1686.38
407.331	1792.38
407.555	2016.38
407.778	1956.38
408.002	1794.38
408.226	1663.38
408.449	1601.38
408.673	1572.38
408.896	1685.38
409.12	1768.38
409.344	1667.38
409.567	1548.38
409.791	1506.38
410.014	1498.38
410.238	1509.38
410.461	1515.38
410.685	1523.38
410.908	1499.38
411.132	1585.38
411.355	1658.38
411.578	1570.38
411.802	1457.38
412.025	1424.38
412.249	1429.38
412.472	1430.38
412.695	1424.38
412.919	1393.38
413.142	1384.38
413.365	1382.38
413.589	1389.38
413.812	1395.38
414.035	1370.38
414.258	1373.38
414.482	1351.38
414.705	1359.38
414.928	1380.38
415.151	1390.38
415.374	1378.38
415.597	1403.38
415.821	1385.38
416.044	1421.38
416.267	1440.38
416.49	1376.38
416.713	1369.38
416.936	1409.38
417.159	1400.38
417.382	1425.38
417.605	1440.38
417.828	1457.38
418.051	1538.38
418.274	1480.38
418.497	1429.38
418.72	1487.38
418.943	1430.38
419.166	1527.38
419.389	1594.38
419.611	1562.38
419.834	1534.38
420.057	1519.38
420.28	1518.38
420.503	1464.38
420.726	1466.38
420.948	1480.38
421.171	1596.38
421.394	1708.38
421.617	1544.38
421.839	1524.38
422.062	1506.38
422.285	1516.38
422.507	1699.38
422.73	1879.38
422.953	1745.38
423.175	1616.38
423.398	1571.38
423.621	1543.38
423.843	1683.38
424.066	1707.38
424.288	1640.38
424.511	1678.38
424.733	1852.38
424.956	2001.38
425.178	1904.38
425.401	1952.38
425.623	2001.38
425.846	1644.38
426.068	1574.38
426.291	1522.38
426.513	1557.38
426.735	1533.38
426.958	1665.38
427.18	1886.38
427.402	2276.38
427.625	2466.38
427.847	2042.38
428.069	1652.38
428.292	1570.38
428.514	1404.38
428.736	1398.38
428.958	1442.38
429.181	1360.38
429.403	1366.38
429.625	1397.38
429.847	1481.38
430.069	1698.38
430.292	1660.38
430.514	1482.38
430.736	1394.38
430.958	1384.38
431.18	1360.38
431.402	1330.38
431.624	1266.38
431.846	1248.38
432.068	1204.38
432.29	1228.38
432.512	1282.38
432.734	1356.38
432.956	1379.38
433.178	1432.38
433.4	1450.38
433.622	1405.38
433.844	1404.38
434.066	1314.38
434.287	1269.38
434.509	1242.38
434.731	1308.38
434.953	1391.38
435.175	1513.38
435.397	1549.38
435.618	1520.38
435.84	1560.38
436.062	1844.38
436.284	2052.38
436.505	1694.38
436.727	1606.38
436.949	1464.38
437.17	1417.38
437.392	1407.38
437.614	1413.38
437.835	1405.38
438.057	1637.38
438.278	1950.38
438.5	1983.38
438.721	2272.38
438.943	2142.38
439.165	1742.38
439.386	1626.38
439.608	1656.38
439.829	1641.38
440.05	1740.38
440.272	1960.38
440.493	1769.38
440.715	1601.38
440.936	1571.38
441.158	1535.38
441.379	1602.38
441.6	1682.38
441.822	1709.38
442.043	1788.38
442.264	2037.38
442.486	2128.38
442.707	1804.38
442.928	1726.38
443.149	1743.38
443.371	1826.38
443.592	1904.38
443.813	2162.38
444.034	2351.38
444.255	1911.38
444.476	1803.38
444.698	1826.38
444.919	1840.38
445.14	1915.38
445.361	1866.38
445.582	1947.38
445.803	2100.38
446.024	2428.38
446.245	2339.38
446.466	2154.38
446.687	1803.38
446.908	1720.38
447.129	1594.38
447.35	1556.38
447.571	1570.38
447.792	1523.38
448.013	1476.38
448.234	1552.38
448.455	1651.38
448.675	1978.38
448.896	2290.38
449.117	1867.38
449.338	1730.38
449.559	2084.38
449.779	2401.38
450	1844.38
450.221	1564.38
450.442	1462.38
450.662	1444.38
450.883	1455.38
451.104	1526.38
451.324	1446.38
451.545	1366.38
451.766	1319.38
451.986	1273.38
452.207	1245.38
452.428	1254.38
452.648	1227.38
452.869	1231.38
453.089	1260.38
453.31	1268.38
453.53	1177.38
453.751	1154.38
453.971	1134.38
454.192	1213.38
454.412	1169.38
454.633	1174.38
454.853	1174.38
455.073	1215.38
455.294	1258.38
455.514	1526.38
455.734	1422.38
455.955	1214.38
456.175	1154.38
456.395	1117.38
456.616	1067.38
456.836	1110.38
457.056	1068.38
457.276	1048.38
457.497	1080.38
457.717	1133.38
457.937	1096.38
458.157	1116.38
458.377	1124.38
458.598	1140.38
458.818	1311.38
459.038	1550.38
459.258	1549.38
459.478	1305.38
459.698	1177.38
459.918	1223.38
460.138	1269.38
460.358	1323.38
460.578	1358.38
460.798	1403.38
461.018	1400.38
461.238	1385.38
461.458	1384.38
461.678	1336.38
461.898	1366.38
462.118	1354.38
462.338	1431.38
462.558	1458.38
462.777	1483.38
462.997	1519.38
463.217	1616.38
463.437	1641.38
463.657	1522.38
463.876	1492.38
464.096	1495.38
464.316	1476.38
464.536	1516.38
464.755	1522.38
464.975	1518.38
465.195	1594.38
465.414	1762.38
465.634	1498.38
465.854	1401.38
466.073	1347.38
466.293	1315.38
466.512	1295.38
466.732	1330.38
466.951	1328.38
467.171	1363.38
467.391	1368.38
467.61	1411.38
467.829	1422.38
468.049	1334.38
468.268	1328.38
468.488	1302.38
468.707	1296.38
468.927	1278.38
469.146	1318.38
469.365	1351.38
469.585	1363.38
469.804	1398.38
470.023	1474.38
470.243	1458.38
470.462	1479.38
470.681	1511.38
470.901	1481.38
471.12	1435.38
471.339	1474.38
471.558	1461.38
471.777	1407.38
471.997	1334.38
472.216	1269.38
472.435	1191.38
472.654	1149.38
472.873	1122.38
473.092	1150.38
473.311	1214.38
473.53	1213.38
473.749	1266.38
473.968	1370.38
474.187	1656.38
474.406	1716.38
474.625	1363.38
474.844	1342.38
475.063	1303.38
475.282	1243.38
475.501	1256.38
475.72	1260.38
475.939	1244.38
476.158	1303.38
476.377	1320.38
476.596	1276.38
476.814	1246.38
477.033	1211.38
477.252	1247.38
477.471	1335.38
477.69	1384.38
477.908	1458.38
478.127	1509.38
478.346	1497.38
478.564	1518.38
478.783	1530.38
479.002	1543.38
479.22	1584.38
479.439	1566.38
479.658	1522.38
479.876	1488.38
480.095	1472.38
480.313	1631.38
480.532	1581.38
480.751	1516.38
480.969	1453.38
481.188	1372.38
481.406	1349.38
481.624	1262.38
481.843	1254.38
482.061	1286.38
482.28	1318.38
482.498	1335.38
482.717	1327.38
482.935	1403.38
483.153	1489.38
483.372	1567.38
483.59	1569.38
483.808	1482.38
484.027	1443.38
484.245	1423.38
484.463	1499.38
484.681	1542.38
484.9	1523.38
485.118	1483.38
485.336	1471.38
485.554	1413.38
485.772	1357.38
485.99	1374.38
486.209	1407.38
486.427	1415.38
486.645	1478.38
486.863	1686.38
487.081	1655.38
487.299	1582.38
487.517	1596.38
487.735	1780.38
487.953	1926.38
488.171	1884.38
488.389	1790.38
488.607	1682.38
488.825	1582.38
489.043	1541.38
489.261	1546.38
489.479	1620.38
489.696	1681.38
489.914	1645.38
490.132	1722.38
490.35	1800.38
490.568	1852.38
490.786	1960.38
491.003	2039.38
491.221	2114.38
491.439	2170.38
491.657	2261.38
491.874	2353.38
492.092	2495.38
492.31	2518.38
492.527	2462.38
492.745	2345.38
492.963	2271.38
493.18	2231.38
493.398	2242.38
493.615	2273.38
493.833	2204.38
494.05	2194.38
494.268	2143.38
