Data from FlinnAP9092KCOPPER.07152019.QSWITCHSynchronous.EN10.20scans.P1_HRD10591_14-49-18-574.txt Node
Date: Mon Jul 15 14:49:18 EDT 2019
User: cochatt
Spectrometer: HR+D1059
Trigger mode: 5
Integration Time (sec): 1.000000E-1
Scans to average: 1
Electric dark correction enabled: true
Nonlinearity correction enabled: false
Boxcar width: 0
XAxis mode: Wavelengths
Number of Pixels in Spectrum: 2048
>>>>>Begin Spectral Data<<<<<
223.165	-31.31
223.4	-31.31
223.635	-31.31
223.869	-36.31
224.104	-43.31
224.338	1.69
224.573	-22.31
224.808	-10.31
225.042	-0.31
225.277	8.69
225.511	-14.31
225.746	16.69
225.98	19.69
226.215	14.69
226.449	15.69
226.683	14.69
226.918	36.69
227.152	29.69
227.387	36.69
227.621	45.69
227.856	51.69
228.09	32.69
228.324	42.69
228.559	78.69
228.793	83.69
229.027	202.69
229.262	211.69
229.496	206.69
229.73	246.69
229.964	347.69
230.199	271.69
230.433	217.69
230.667	209.69
230.901	202.69
231.136	198.69
231.37	202.69
231.604	198.69
231.838	209.69
232.072	197.69
232.306	202.69
232.541	209.69
232.775	210.69
233.009	189.69
233.243	196.69
233.477	189.69
233.711	207.69
233.945	228.69
234.179	213.69
234.413	206.69
234.647	216.69
234.881	202.69
235.115	207.69
235.349	219.69
235.583	240.69
235.817	215.69
236.051	240.69
236.285	237.69
236.519	220.69
236.753	232.69
236.987	256.69
237.221	354.69
237.455	500.69
237.689	400.69
237.922	293.69
238.156	273.69
238.39	249.69
238.624	240.69
238.858	248.69
239.091	252.69
239.325	221.69
239.559	227.69
239.793	261.69
240.027	279.69
240.26	304.69
240.494	362.69
240.728	301.69
240.961	319.69
241.195	325.69
241.429	299.69
241.662	259.69
241.896	260.69
242.13	249.69
242.363	261.69
242.597	254.69
242.83	264.69
243.064	283.69
243.298	274.69
243.531	281.69
243.765	293.69
243.998	286.69
244.232	295.69
244.465	308.69
244.699	280.69
244.932	291.69
245.166	287.69
245.399	320.69
245.633	319.69
245.866	296.69
246.099	301.69
246.333	308.69
246.566	313.69
246.8	321.69
247.033	309.69
247.266	332.69
247.5	323.69
247.733	338.69
247.966	347.69
248.2	350.69
248.433	335.69
248.666	353.69
248.899	406.69
249.133	445.69
249.366	483.69
249.599	433.69
249.832	388.69
250.066	370.69
250.299	347.69
250.532	396.69
250.765	419.69
250.998	480.69
251.231	507.69
251.465	469.69
251.698	431.69
251.931	407.69
252.164	401.69
252.397	399.69
252.63	412.69
252.863	421.69
253.096	483.69
253.329	520.69
253.562	502.69
253.795	474.69
254.028	466.69
254.261	465.69
254.494	470.69
254.727	585.69
254.96	661.69
255.193	607.69
255.426	497.69
255.659	478.69
255.892	471.69
256.124	436.69
256.357	431.69
256.59	435.69
256.823	434.69
257.056	405.69
257.289	421.69
257.521	425.69
257.754	436.69
257.987	437.69
258.22	451.69
258.452	451.69
258.685	436.69
258.918	425.69
259.151	434.69
259.383	495.69
259.616	470.69
259.849	506.69
260.081	505.69
260.314	585.69
260.547	582.69
260.779	560.69
261.012	543.69
261.244	498.69
261.477	505.69
261.71	463.69
261.942	500.69
262.175	535.69
262.407	478.69
262.64	457.69
262.872	469.69
263.105	441.69
263.337	488.69
263.57	471.69
263.802	465.69
264.035	481.69
264.267	469.69
264.499	468.69
264.732	486.69
264.964	474.69
265.197	459.69
265.429	482.69
265.661	455.69
265.894	472.69
266.126	497.69
266.358	486.69
266.591	481.69
266.823	495.69
267.055	507.69
267.287	528.69
267.52	513.69
267.752	526.69
267.984	507.69
268.216	521.69
268.448	550.69
268.681	542.69
268.913	577.69
269.145	590.69
269.377	673.69
269.609	631.69
269.841	595.69
270.073	617.69
270.306	674.69
270.538	759.69
270.77	721.69
271.002	719.69
271.234	669.69
271.466	693.69
271.698	723.69
271.93	751.69
272.162	783.69
272.394	778.69
272.626	710.69
272.858	639.69
273.09	637.69
273.322	625.69
273.553	576.69
273.785	605.69
274.017	574.69
274.249	590.69
274.481	605.69
274.713	591.69
274.945	610.69
275.176	616.69
275.408	618.69
275.64	624.69
275.872	600.69
276.104	600.69
276.335	613.69
276.567	616.69
276.799	636.69
277.031	734.69
277.262	776.69
277.494	814.69
277.726	723.69
277.957	657.69
278.189	637.69
278.421	617.69
278.652	604.69
278.884	609.69
279.115	605.69
279.347	621.69
279.579	622.69
279.81	598.69
280.042	601.69
280.273	620.69
280.505	598.69
280.736	604.69
280.968	601.69
281.199	615.69
281.431	603.69
281.662	633.69
281.894	636.69
282.125	637.69
282.356	688.69
282.588	727.69
282.819	739.69
283.051	654.69
283.282	638.69
283.513	669.69
283.745	682.69
283.976	689.69
284.207	665.69
284.439	669.69
284.67	690.69
284.901	645.69
285.132	651.69
285.364	648.69
285.595	650.69
285.826	637.69
286.057	704.69
286.288	634.69
286.52	669.69
286.751	649.69
286.982	671.69
287.213	657.69
287.444	661.69
287.675	692.69
287.906	705.69
288.138	723.69
288.369	720.69
288.6	731.69
288.831	709.69
289.062	710.69
289.293	699.69
289.524	690.69
289.755	689.69
289.986	690.69
290.217	696.69
290.448	681.69
290.679	691.69
290.91	703.69
291.141	662.69
291.371	681.69
291.602	671.69
291.833	664.69
292.064	682.69
292.295	694.69
292.526	705.69
292.757	706.69
292.987	678.69
293.218	682.69
293.449	705.69
293.68	699.69
293.91	673.69
294.141	680.69
294.372	658.69
294.603	698.69
294.833	708.69
295.064	663.69
295.295	698.69
295.525	670.69
295.756	745.69
295.987	713.69
296.217	745.69
296.448	774.69
296.679	733.69
296.909	722.69
297.14	721.69
297.37	752.69
297.601	715.69
297.831	701.69
298.062	741.69
298.292	736.69
298.523	756.69
298.753	727.69
298.984	749.69
299.214	725.69
299.445	738.69
299.675	771.69
299.905	753.69
300.136	731.69
300.366	696.69
300.597	735.69
300.827	757.69
301.057	790.69
301.288	807.69
301.518	793.69
301.748	783.69
301.979	790.69
302.209	783.69
302.439	804.69
302.669	807.69
302.9	781.69
303.13	780.69
303.36	801.69
303.59	794.69
303.82	808.69
304.051	810.69
304.281	791.69
304.511	753.69
304.741	749.69
304.971	743.69
305.201	793.69
305.431	772.69
305.661	795.69
305.891	751.69
306.121	752.69
306.352	772.69
306.582	774.69
306.812	767.69
307.042	761.69
307.272	791.69
307.502	764.69
307.731	777.69
307.961	750.69
308.191	769.69
308.421	765.69
308.651	742.69
308.881	744.69
309.111	799.69
309.341	758.69
309.571	757.69
309.8	844.69
310.03	873.69
310.26	877.69
310.49	829.69
310.72	871.69
310.949	916.69
311.179	943.69
311.409	886.69
311.639	874.69
311.868	858.69
312.098	873.69
312.328	875.69
312.557	925.69
312.787	949.69
313.017	971.69
313.246	918.69
313.476	845.69
313.706	814.69
313.935	871.69
314.165	941.69
314.394	927.69
314.624	938.69
314.853	896.69
315.083	901.69
315.312	878.69
315.542	858.69
315.771	832.69
316.001	818.69
316.23	841.69
316.46	842.69
316.689	847.69
316.919	853.69
317.148	889.69
317.377	897.69
317.607	869.69
317.836	848.69
318.065	851.69
318.295	824.69
318.524	829.69
318.753	831.69
318.983	872.69
319.212	878.69
319.441	877.69
319.67	891.69
319.9	849.69
320.129	847.69
320.358	863.69
320.587	827.69
320.816	847.69
321.046	878.69
321.275	897.69
321.504	855.69
321.733	881.69
321.962	869.69
322.191	917.69
322.42	917.69
322.649	986.69
322.878	1010.69
323.108	1008.69
323.337	1024.69
323.566	1077.69
323.795	1134.69
324.024	1224.69
324.253	1444.69
324.482	2145.69
324.71	3585.69
324.939	5489.69
325.168	4806.69
325.397	2020.69
325.626	1329.69
325.855	1101.69
326.084	1053.69
326.313	1033.69
326.542	1047.69
326.77	1164.69
326.999	1374.69
327.228	2014.69
327.457	3229.69
327.686	4262.69
327.914	2502.69
328.143	1471.69
328.372	1299.69
328.6	1229.69
328.829	1194.69
329.058	1281.69
329.287	1343.69
329.515	1221.69
329.744	1122.69
329.972	1061.69
330.201	1057.69
330.43	1122.69
330.658	1218.69
330.887	1432.69
331.115	1473.69
331.344	1248.69
331.572	1145.69
331.801	1126.69
332.03	1141.69
332.258	1133.69
332.486	1058.69
332.715	1077.69
332.943	1081.69
333.172	1120.69
333.4	1123.69
333.629	1140.69
333.857	1147.69
334.085	1141.69
334.314	1158.69
334.542	1122.69
334.771	1097.69
334.999	1120.69
335.227	1115.69
335.455	1079.69
335.684	1112.69
335.912	1082.69
336.14	1034.69
336.369	1033.69
336.597	1099.69
336.825	1113.69
337.053	1074.69
337.281	1025.69
337.51	996.69
337.738	1046.69
337.966	998.69
338.194	1045.69
338.422	1029.69
338.65	1023.69
338.878	987.69
339.106	1012.69
339.334	993.69
339.562	962.69
339.79	951.69
340.018	965.69
340.246	949.69
340.474	955.69
340.702	966.69
340.93	959.69
341.158	968.69
341.386	972.69
341.614	997.69
341.842	923.69
342.07	925.69
342.298	977.69
342.526	926.69
342.754	937.69
342.981	907.69
343.209	917.69
343.437	986.69
343.665	1006.69
343.893	1062.69
344.12	1062.69
344.348	1067.69
344.576	1032.69
344.804	993.69
345.031	1049.69
345.259	1055.69
345.487	1028.69
345.714	966.69
345.942	921.69
346.17	927.69
346.397	910.69
346.625	914.69
346.853	917.69
347.08	918.69
347.308	933.69
347.535	951.69
347.763	953.69
347.99	970.69
348.218	962.69
348.445	951.69
348.673	965.69
348.9	946.69
349.128	928.69
349.355	891.69
349.583	901.69
349.81	877.69
350.037	872.69
350.265	931.69
350.492	861.69
350.72	867.69
350.947	882.69
351.174	907.69
351.402	942.69
351.629	909.69
351.856	902.69
352.083	921.69
352.311	943.69
352.538	963.69
352.765	957.69
352.992	939.69
353.22	925.69
353.447	900.69
353.674	896.69
353.901	870.69
354.128	857.69
354.355	840.69
354.583	848.69
354.81	839.69
355.037	861.69
355.264	835.69
355.491	822.69
355.718	827.69
355.945	854.69
356.172	844.69
356.399	877.69
356.626	831.69
356.853	816.69
357.08	835.69
357.307	841.69
357.534	830.69
357.761	821.69
357.988	855.69
358.215	846.69
358.441	846.69
358.668	809.69
358.895	830.69
359.122	877.69
359.349	859.69
359.576	904.69
359.802	941.69
360.029	1034.69
360.256	1130.69
360.483	1040.69
360.709	939.69
360.936	963.69
361.163	904.69
361.39	893.69
361.616	915.69
361.843	897.69
362.07	917.69
362.296	898.69
362.523	898.69
362.749	880.69
362.976	899.69
363.203	915.69
363.429	878.69
363.656	890.69
363.882	858.69
364.109	874.69
364.335	859.69
364.562	864.69
364.788	842.69
365.015	875.69
365.241	881.69
365.468	881.69
365.694	876.69
365.92	889.69
366.147	850.69
366.373	871.69
366.599	858.69
366.826	825.69
367.052	853.69
367.278	857.69
367.505	852.69
367.731	897.69
367.957	877.69
368.184	869.69
368.41	897.69
368.636	901.69
368.862	937.69
369.089	905.69
369.315	894.69
369.541	903.69
369.767	901.69
369.993	889.69
370.219	865.69
370.445	881.69
370.672	864.69
370.898	881.69
371.124	881.69
371.35	858.69
371.576	881.69
371.802	870.69
372.028	854.69
372.254	882.69
372.48	886.69
372.706	915.69
372.932	925.69
373.158	907.69
373.384	950.69
373.61	941.69
373.835	930.69
374.061	878.69
374.287	913.69
374.513	925.69
374.739	954.69
374.965	953.69
375.191	953.69
375.416	962.69
375.642	951.69
375.868	956.69
376.094	921.69
376.319	915.69
376.545	903.69
376.771	904.69
376.997	912.69
377.222	920.69
377.448	938.69
377.674	919.69
377.899	898.69
378.125	891.69
378.35	909.69
378.576	862.69
378.802	889.69
379.027	909.69
379.253	925.69
379.478	883.69
379.704	870.69
379.929	905.69
380.155	909.69
380.38	876.69
380.606	910.69
380.831	922.69
381.057	971.69
381.282	897.69
381.507	906.69
381.733	948.69
381.958	917.69
382.184	930.69
382.409	953.69
382.634	987.69
382.86	943.69
383.085	998.69
383.31	963.69
383.535	1038.69
383.761	986.69
383.986	1018.69
384.211	1017.69
384.436	1026.69
384.662	1023.69
384.887	1054.69
385.112	1049.69
385.337	1035.69
385.562	1041.69
385.787	1067.69
386.013	1157.69
386.238	1103.69
386.463	1087.69
386.688	1084.69
386.913	1081.69
387.138	1071.69
387.363	1063.69
387.588	1109.69
387.813	1072.69
388.038	1079.69
388.263	1075.69
388.488	1096.69
388.713	1074.69
388.938	1079.69
389.163	1085.69
389.387	1072.69
389.612	1077.69
389.837	1074.69
390.062	1090.69
390.287	1057.69
390.512	1086.69
390.736	1064.69
390.961	1053.69
391.186	1097.69
391.411	1130.69
391.636	1149.69
391.86	1157.69
392.085	1178.69
392.31	1211.69
392.534	1214.69
392.759	1123.69
392.984	1123.69
393.208	1093.69
393.433	1117.69
393.658	1114.69
393.882	1133.69
394.107	1119.69
394.331	1146.69
394.556	1079.69
394.78	1120.69
395.005	1142.69
395.229	1125.69
395.454	1156.69
395.678	1189.69
395.903	1224.69
396.127	1259.69
396.352	1227.69
396.576	1133.69
396.801	1122.69
397.025	1136.69
397.249	1166.69
397.474	1229.69
397.698	1194.69
397.922	1247.69
398.147	1286.69
398.371	1285.69
398.595	1292.69
398.82	1314.69
399.044	1365.69
399.268	1471.69
399.492	1631.69
399.717	1821.69
399.941	1898.69
400.165	1834.69
400.389	1749.69
400.613	1545.69
400.837	1412.69
401.062	1374.69
401.286	1327.69
401.51	1354.69
401.734	1348.69
401.958	1390.69
402.182	1403.69
402.406	1418.69
402.63	1452.69
402.854	1466.69
403.078	1474.69
403.302	1468.69
403.526	1557.69
403.75	1552.69
403.974	1505.69
404.198	1525.69
404.422	1539.69
404.645	1525.69
404.869	1529.69
405.093	1550.69
405.317	1585.69
405.541	1609.69
405.765	1528.69
405.988	1521.69
406.212	1553.69
406.436	1617.69
406.66	1693.69
406.883	1621.69
407.107	1673.69
407.331	1783.69
407.555	1975.69
407.778	1978.69
408.002	1795.69
408.226	1629.69
408.449	1615.69
408.673	1605.69
408.896	1609.69
409.12	1767.69
409.344	1650.69
409.567	1535.69
409.791	1506.69
410.014	1505.69
410.238	1452.69
410.461	1496.69
410.685	1493.69
410.908	1486.69
411.132	1655.69
411.355	1639.69
411.578	1602.69
411.802	1459.69
412.025	1431.69
412.249	1439.69
412.472	1430.69
412.695	1413.69
412.919	1363.69
413.142	1392.69
413.365	1361.69
413.589	1404.69
413.812	1385.69
414.035	1389.69
414.258	1378.69
414.482	1375.69
414.705	1404.69
414.928	1385.69
415.151	1417.69
415.374	1389.69
415.597	1395.69
415.821	1360.69
416.044	1367.69
416.267	1399.69
416.49	1381.69
416.713	1369.69
416.936	1370.69
417.159	1447.69
417.382	1443.69
417.605	1427.69
417.828	1451.69
418.051	1503.69
418.274	1529.69
418.497	1462.69
418.72	1474.69
418.943	1433.69
419.166	1533.69
419.389	1606.69
419.611	1566.69
419.834	1542.69
420.057	1569.69
420.28	1548.69
420.503	1464.69
420.726	1455.69
420.948	1489.69
421.171	1599.69
421.394	1683.69
421.617	1544.69
421.839	1543.69
422.062	1519.69
422.285	1560.69
422.507	1657.69
422.73	1883.69
422.953	1753.69
423.175	1622.69
423.398	1524.69
423.621	1591.69
423.843	1675.69
424.066	1675.69
424.288	1661.69
424.511	1692.69
424.733	1794.69
424.956	2019.69
425.178	1898.69
425.401	1959.69
425.623	1970.69
425.846	1715.69
426.068	1549.69
426.291	1525.69
426.513	1517.69
426.735	1541.69
426.958	1657.69
427.18	1901.69
427.402	2211.69
427.625	2399.69
427.847	2013.69
428.069	1696.69
428.292	1530.69
428.514	1449.69
428.736	1415.69
428.958	1412.69
429.181	1381.69
429.403	1385.69
429.625	1420.69
429.847	1510.69
430.069	1720.69
430.292	1700.69
430.514	1439.69
430.736	1394.69
430.958	1379.69
431.18	1367.69
431.402	1315.69
431.624	1282.69
431.846	1215.69
432.068	1199.69
432.29	1227.69
432.512	1281.69
432.734	1374.69
432.956	1401.69
433.178	1466.69
433.4	1492.69
433.622	1450.69
433.844	1377.69
434.066	1318.69
434.287	1240.69
434.509	1237.69
434.731	1342.69
434.953	1399.69
435.175	1471.69
435.397	1613.69
435.618	1521.69
435.84	1656.69
436.062	1950.69
436.284	2085.69
436.505	1665.69
436.727	1545.69
436.949	1474.69
437.17	1444.69
437.392	1389.69
437.614	1382.69
437.835	1403.69
438.057	1644.69
438.278	1901.69
438.5	1939.69
438.721	2264.69
438.943	2142.69
439.165	1717.69
439.386	1619.69
439.608	1671.69
439.829	1649.69
440.05	1765.69
440.272	1885.69
440.493	1771.69
440.715	1615.69
440.936	1581.69
441.158	1569.69
441.379	1577.69
441.6	1647.69
441.822	1675.69
442.043	1777.69
442.264	2013.69
442.486	2081.69
442.707	1768.69
442.928	1741.69
443.149	1718.69
443.371	1853.69
443.592	1911.69
443.813	2099.69
444.034	2337.69
444.255	1947.69
444.476	1781.69
444.698	1801.69
444.919	1829.69
445.14	3510.69
445.361	2581.69
445.582	1921.69
445.803	2085.69
446.024	2385.69
446.245	2334.69
446.466	2090.69
446.687	1797.69
446.908	1696.69
447.129	1591.69
447.35	1543.69
447.571	1531.69
447.792	1499.69
448.013	1490.69
448.234	1541.69
448.455	1655.69
448.675	1960.69
448.896	2227.69
449.117	1829.69
449.338	1762.69
449.559	2072.69
449.779	2350.69
450	1830.69
450.221	1595.69
450.442	1454.69
450.662	1403.69
450.883	1436.69
451.104	1509.69
451.324	1474.69
451.545	1364.69
451.766	1341.69
451.986	1235.69
452.207	1238.69
452.428	1270.69
452.648	1271.69
452.869	1238.69
453.089	1239.69
453.31	1265.69
453.53	1153.69
453.751	1139.69
453.971	1141.69
454.192	1204.69
454.412	1213.69
454.633	1209.69
454.853	1204.69
455.073	1203.69
455.294	1267.69
455.514	1494.69
455.734	1447.69
455.955	1219.69
456.175	1127.69
456.395	1073.69
456.616	1073.69
456.836	1110.69
457.056	1065.69
457.276	1049.69
457.497	1047.69
457.717	1089.69
457.937	1113.69
458.157	1112.69
458.377	1101.69
458.598	1129.69
458.818	1278.69
459.038	1553.69
459.258	1605.69
459.478	1269.69
459.698	1219.69
459.918	1237.69
460.138	1282.69
460.358	1317.69
460.578	1356.69
460.798	1381.69
461.018	1408.69
461.238	1381.69
461.458	1369.69
461.678	1389.69
461.898	1400.69
462.118	1389.69
462.338	1433.69
462.558	1447.69
462.777	1460.69
462.997	1571.69
463.217	1593.69
463.437	1642.69
463.657	1540.69
463.876	1459.69
464.096	1489.69
464.316	1495.69
464.536	1549.69
464.755	1537.69
464.975	1512.69
465.195	1632.69
465.414	1749.69
465.634	1503.69
465.854	1368.69
466.073	1308.69
466.293	1328.69
466.512	1318.69
466.732	1310.69
466.951	1328.69
467.171	1296.69
467.391	1330.69
467.61	1367.69
467.829	1370.69
468.049	1323.69
468.268	1329.69
468.488	1325.69
468.707	1277.69
468.927	1295.69
469.146	1302.69
469.365	1354.69
469.585	1341.69
469.804	1358.69
470.023	1400.69
470.243	1459.69
470.462	1450.69
470.681	1505.69
470.901	1476.69
471.12	1437.69
471.339	1435.69
471.558	1440.69
471.777	1391.69
471.997	1317.69
472.216	1249.69
472.435	1160.69
472.654	1123.69
472.873	1122.69
473.092	1157.69
473.311	1179.69
473.53	1249.69
473.749	1305.69
473.968	1403.69
474.187	1666.69
474.406	1627.69
474.625	1405.69
474.844	1345.69
475.063	1255.69
475.282	1220.69
475.501	1207.69
475.72	1289.69
475.939	1243.69
476.158	1311.69
476.377	1281.69
476.596	1234.69
476.814	1242.69
477.033	1232.69
477.252	1251.69
477.471	1343.69
477.69	1385.69
477.908	1452.69
478.127	1503.69
478.346	1478.69
478.564	1484.69
478.783	1529.69
479.002	1569.69
479.22	1528.69
479.439	1557.69
479.658	1518.69
479.876	1498.69
480.095	1490.69
480.313	1579.69
480.532	1577.69
480.751	1488.69
480.969	1422.69
481.188	1360.69
481.406	1327.69
481.624	1318.69
481.843	1263.69
482.061	1258.69
482.28	1333.69
482.498	1334.69
482.717	1267.69
482.935	1394.69
483.153	1501.69
483.372	1561.69
483.59	1587.69
483.808	1446.69
484.027	1434.69
484.245	1422.69
484.463	1487.69
484.681	1591.69
484.9	1495.69
485.118	1510.69
485.336	1475.69
485.554	1420.69
485.772	1364.69
485.99	1417.69
486.209	1421.69
486.427	1413.69
486.645	1493.69
486.863	1660.69
487.081	1653.69
487.299	1582.69
487.517	1618.69
487.735	1755.69
487.953	1868.69
488.171	1901.69
488.389	1789.69
488.607	1688.69
488.825	1575.69
489.043	1547.69
489.261	1587.69
489.479	1592.69
489.696	1612.69
489.914	1658.69
490.132	1709.69
490.35	1782.69
490.568	1847.69
490.786	1935.69
491.003	2007.69
491.221	2103.69
491.439	2166.69
491.657	2212.69
491.874	2290.69
492.092	2433.69
492.31	2499.69
492.527	2444.69
492.745	2279.69
492.963	2284.69
493.18	2268.69
493.398	2207.69
493.615	2206.69
493.833	2203.69
