Data from FlinnAP5935BZINC.07152019.LAMPEdge.EN5.5scans.P1_HRD10591_14-59-59-580.txt Node
Date: Mon Jul 15 14:59:59 EDT 2019
User: cochatt
Spectrometer: HR+D1059
Trigger mode: 1
Integration Time (sec): 1.000000E-1
Scans to average: 1
Electric dark correction enabled: true
Nonlinearity correction enabled: false
Boxcar width: 0
XAxis mode: Wavelengths
Number of Pixels in Spectrum: 2048
>>>>>Begin Spectral Data<<<<<
223.165	-12.56
223.4	-12.56
223.635	-12.56
223.869	-10.56
224.104	-12.56
224.338	-6.56
224.573	-19.56
224.808	-9.56
225.042	-5.56
225.277	0.44
225.511	-14.56
225.746	1.44
225.98	14.44
226.215	-8.56
226.449	12.44
226.683	19.44
226.918	18.44
227.152	33.44
227.387	36.44
227.621	39.44
227.856	40.44
228.09	35.44
228.324	47.44
228.559	47.44
228.793	78.44
229.027	101.44
229.262	103.44
229.496	101.44
229.73	123.44
229.964	117.44
230.199	134.44
230.433	120.44
230.667	134.44
230.901	127.44
231.136	144.44
231.37	144.44
231.604	126.44
231.838	131.44
232.072	130.44
232.306	142.44
232.541	131.44
232.775	128.44
233.009	154.44
233.243	142.44
233.477	152.44
233.711	148.44
233.945	143.44
234.179	142.44
234.413	154.44
234.647	144.44
234.881	147.44
235.115	142.44
235.349	142.44
235.583	137.44
235.817	150.44
236.051	154.44
236.285	155.44
236.519	161.44
236.753	154.44
236.987	168.44
237.221	146.44
237.455	140.44
237.689	155.44
237.922	159.44
238.156	163.44
238.39	139.44
238.624	155.44
238.858	152.44
239.091	171.44
239.325	161.44
239.559	162.44
239.793	173.44
240.027	167.44
240.26	169.44
240.494	179.44
240.728	180.44
240.961	164.44
241.195	176.44
241.429	164.44
241.662	181.44
241.896	187.44
242.13	178.44
242.363	187.44
242.597	184.44
242.83	191.44
243.064	177.44
243.298	208.44
243.531	217.44
243.765	186.44
243.998	208.44
244.232	194.44
244.465	196.44
244.699	198.44
244.932	219.44
245.166	232.44
245.399	195.44
245.633	202.44
245.866	213.44
246.099	206.44
246.333	210.44
246.566	225.44
246.8	218.44
247.033	223.44
247.266	227.44
247.5	226.44
247.733	212.44
247.966	225.44
248.2	244.44
248.433	250.44
248.666	249.44
248.899	244.44
249.133	255.44
249.366	256.44
249.599	259.44
249.832	280.44
250.066	315.44
250.299	363.44
250.532	464.44
250.765	526.44
250.998	431.44
251.231	373.44
251.465	338.44
251.698	310.44
251.931	307.44
252.164	307.44
252.397	304.44
252.63	304.44
252.863	296.44
253.096	314.44
253.329	306.44
253.562	297.44
253.795	310.44
254.028	304.44
254.261	317.44
254.494	317.44
254.727	325.44
254.96	338.44
255.193	337.44
255.426	388.44
255.659	433.44
255.892	574.44
256.124	772.44
256.357	872.44
256.59	684.44
256.823	568.44
257.056	464.44
257.289	436.44
257.521	429.44
257.754	380.44
257.987	398.44
258.22	374.44
258.452	372.44
258.685	375.44
258.918	362.44
259.151	348.44
259.383	338.44
259.616	353.44
259.849	358.44
260.081	347.44
260.314	358.44
260.547	350.44
260.779	338.44
261.012	369.44
261.244	369.44
261.477	363.44
261.71	352.44
261.942	335.44
262.175	352.44
262.407	356.44
262.64	334.44
262.872	351.44
263.105	342.44
263.337	339.44
263.57	356.44
263.802	345.44
264.035	326.44
264.267	353.44
264.499	353.44
264.732	352.44
264.964	344.44
265.197	358.44
265.429	365.44
265.661	350.44
265.894	355.44
266.126	357.44
266.358	348.44
266.591	352.44
266.823	355.44
267.055	350.44
267.287	385.44
267.52	356.44
267.752	377.44
267.984	360.44
268.216	379.44
268.448	382.44
268.681	372.44
268.913	396.44
269.145	380.44
269.377	396.44
269.609	364.44
269.841	393.44
270.073	404.44
270.306	391.44
270.538	389.44
270.77	388.44
271.002	389.44
271.234	392.44
271.466	384.44
271.698	408.44
271.93	397.44
272.162	397.44
272.394	430.44
272.626	421.44
272.858	394.44
273.09	423.44
273.322	426.44
273.553	435.44
273.785	433.44
274.017	461.44
274.249	449.44
274.481	437.44
274.713	447.44
274.945	450.44
275.176	461.44
275.408	475.44
275.64	485.44
275.872	513.44
276.104	505.44
276.335	502.44
276.567	508.44
276.799	537.44
277.031	543.44
277.262	603.44
277.494	628.44
277.726	597.44
277.957	555.44
278.189	527.44
278.421	536.44
278.652	521.44
278.884	515.44
279.115	534.44
279.347	521.44
279.579	536.44
279.81	608.44
280.042	630.44
280.273	706.44
280.505	728.44
280.736	636.44
280.968	598.44
281.199	552.44
281.431	557.44
281.662	532.44
281.894	522.44
282.125	519.44
282.356	525.44
282.588	513.44
282.819	512.44
283.051	527.44
283.282	520.44
283.513	507.44
283.745	507.44
283.976	517.44
284.207	507.44
284.439	503.44
284.67	509.44
284.901	505.44
285.132	524.44
285.364	528.44
285.595	540.44
285.826	530.44
286.057	528.44
286.288	523.44
286.52	535.44
286.751	528.44
286.982	534.44
287.213	539.44
287.444	535.44
287.675	538.44
287.906	542.44
288.138	516.44
288.369	518.44
288.6	536.44
288.831	546.44
289.062	539.44
289.293	541.44
289.524	529.44
289.755	551.44
289.986	534.44
290.217	537.44
290.448	536.44
290.679	548.44
290.91	530.44
291.141	551.44
291.371	561.44
291.602	536.44
291.833	542.44
292.064	532.44
292.295	534.44
292.526	538.44
292.757	556.44
292.987	547.44
293.218	537.44
293.449	526.44
293.68	542.44
293.91	543.44
294.141	561.44
294.372	538.44
294.603	536.44
294.833	536.44
295.064	536.44
295.295	541.44
295.525	533.44
295.756	543.44
295.987	529.44
296.217	554.44
296.448	548.44
296.679	580.44
296.909	544.44
297.14	547.44
297.37	552.44
297.601	535.44
297.831	547.44
298.062	541.44
298.292	578.44
298.523	584.44
298.753	548.44
298.984	547.44
299.214	555.44
299.445	577.44
299.675	560.44
299.905	577.44
300.136	583.44
300.366	564.44
300.597	563.44
300.827	589.44
301.057	598.44
301.288	603.44
301.518	592.44
301.748	610.44
301.979	645.44
302.209	650.44
302.439	624.44
302.669	600.44
302.9	629.44
303.13	611.44
303.36	618.44
303.59	637.44
303.82	672.44
304.051	662.44
304.281	636.44
304.511	645.44
304.741	627.44
304.971	615.44
305.201	606.44
305.431	594.44
305.661	605.44
305.891	600.44
306.121	606.44
306.352	592.44
306.582	604.44
306.812	592.44
307.042	661.44
307.272	666.44
307.502	718.44
307.731	713.44
307.961	692.44
308.191	655.44
308.421	606.44
308.651	588.44
308.881	607.44
309.111	611.44
309.341	592.44
309.571	596.44
309.8	610.44
310.03	617.44
310.26	622.44
310.49	645.44
310.72	623.44
310.949	600.44
311.179	631.44
311.409	622.44
311.639	617.44
311.868	620.44
312.098	625.44
312.328	643.44
312.557	647.44
312.787	647.44
313.017	642.44
313.246	651.44
313.476	618.44
313.706	656.44
313.935	653.44
314.165	657.44
314.394	651.44
314.624	665.44
314.853	653.44
315.083	647.44
315.312	662.44
315.542	642.44
315.771	674.44
316.001	684.44
316.23	658.44
316.46	679.44
316.689	670.44
316.919	676.44
317.148	666.44
317.377	659.44
317.607	644.44
317.836	677.44
318.065	670.44
318.295	656.44
318.524	684.44
318.753	659.44
318.983	676.44
319.212	664.44
319.441	650.44
319.67	671.44
319.9	660.44
320.129	666.44
320.358	643.44
320.587	704.44
320.816	658.44
321.046	698.44
321.275	674.44
321.504	692.44
321.733	690.44
321.962	696.44
322.191	715.44
322.42	718.44
322.649	718.44
322.878	679.44
323.108	719.44
323.337	740.44
323.566	745.44
323.795	787.44
324.024	767.44
324.253	760.44
324.482	780.44
324.71	790.44
324.939	768.44
325.168	812.44
325.397	796.44
325.626	823.44
325.855	838.44
326.084	850.44
326.313	873.44
326.542	916.44
326.77	939.44
326.999	917.44
327.228	985.44
327.457	1046.44
327.686	1218.44
327.914	1414.44
328.143	1734.44
328.372	2171.44
328.6	1976.44
328.829	1451.44
329.058	1276.44
329.287	1306.44
329.515	1452.44
329.744	1710.44
329.972	2281.44
330.201	3164.44
330.43	3962.44
330.658	3197.44
330.887	1913.44
331.115	1445.44
331.344	1322.44
331.572	1245.44
331.801	1207.44
332.03	1184.44
332.258	1188.44
332.486	1187.44
332.715	1232.44
332.943	1272.44
333.172	1384.44
333.4	1528.44
333.629	1674.44
333.857	1996.44
334.085	2592.44
334.314	3595.44
334.542	4846.44
334.771	5179.44
334.999	3362.44
335.227	2108.44
335.455	1661.44
335.684	1422.44
335.912	1287.44
336.14	1184.44
336.369	1108.44
336.597	1081.44
336.825	1072.44
337.053	998.44
337.281	1003.44
337.51	963.44
337.738	946.44
337.966	924.44
338.194	887.44
338.422	871.44
338.65	841.44
338.878	837.44
339.106	836.44
339.334	847.44
339.562	830.44
339.79	805.44
340.018	812.44
340.246	795.44
340.474	785.44
340.702	782.44
340.93	754.44
341.158	777.44
341.386	781.44
341.614	784.44
341.842	759.44
342.07	746.44
342.298	749.44
342.526	768.44
342.754	745.44
342.981	724.44
343.209	770.44
343.437	782.44
343.665	808.44
343.893	854.44
344.12	880.44
344.348	836.44
344.576	797.44
344.804	756.44
345.031	752.44
345.259	783.44
345.487	733.44
345.714	726.44
345.942	733.44
346.17	742.44
346.397	712.44
346.625	706.44
346.853	722.44
347.08	705.44
347.308	691.44
347.535	699.44
347.763	687.44
347.99	711.44
348.218	710.44
348.445	698.44
348.673	696.44
348.9	708.44
349.128	697.44
349.355	694.44
349.583	678.44
349.81	661.44
350.037	709.44
350.265	668.44
350.492	691.44
350.72	699.44
350.947	672.44
351.174	658.44
351.402	667.44
351.629	666.44
351.856	675.44
352.083	669.44
352.311	669.44
352.538	669.44
352.765	661.44
352.992	665.44
353.22	668.44
353.447	661.44
353.674	665.44
353.901	673.44
354.128	677.44
354.355	685.44
354.583	658.44
354.81	646.44
355.037	685.44
355.264	664.44
355.491	679.44
355.718	690.44
355.945	684.44
356.172	706.44
356.399	687.44
356.626	694.44
356.853	695.44
357.08	668.44
357.307	668.44
357.534	649.44
357.761	652.44
357.988	673.44
358.215	677.44
358.441	665.44
358.668	657.44
358.895	669.44
359.122	678.44
359.349	660.44
359.576	644.44
359.802	663.44
360.029	670.44
360.256	649.44
360.483	660.44
360.709	674.44
360.936	666.44
361.163	656.44
361.39	664.44
361.616	658.44
361.843	662.44
362.07	676.44
362.296	658.44
362.523	634.44
362.749	656.44
362.976	654.44
363.203	638.44
363.429	646.44
363.656	655.44
363.882	648.44
364.109	674.44
364.335	638.44
364.562	652.44
364.788	671.44
365.015	659.44
365.241	653.44
365.468	654.44
365.694	660.44
365.92	652.44
366.147	637.44
366.373	640.44
366.599	646.44
366.826	656.44
367.052	622.44
367.278	655.44
367.505	664.44
367.731	676.44
367.957	646.44
368.184	674.44
368.41	656.44
368.636	646.44
368.862	654.44
369.089	673.44
369.315	685.44
369.541	659.44
369.767	673.44
369.993	659.44
370.219	674.44
370.445	694.44
370.672	689.44
370.898	686.44
371.124	708.44
371.35	685.44
371.576	690.44
371.802	705.44
372.028	697.44
372.254	688.44
372.48	705.44
372.706	706.44
372.932	710.44
373.158	735.44
373.384	720.44
373.61	690.44
373.835	706.44
374.061	672.44
374.287	692.44
374.513	726.44
374.739	730.44
374.965	745.44
375.191	756.44
375.416	742.44
375.642	738.44
375.868	743.44
376.094	705.44
376.319	659.44
376.545	678.44
376.771	681.44
376.997	684.44
377.222	679.44
377.448	663.44
377.674	670.44
377.899	661.44
378.125	679.44
378.35	661.44
378.576	701.44
378.802	678.44
379.027	701.44
379.253	674.44
379.478	684.44
379.704	678.44
379.929	671.44
380.155	668.44
380.38	682.44
380.606	689.44
380.831	668.44
381.057	670.44
381.282	721.44
381.507	701.44
381.733	701.44
381.958	707.44
382.184	682.44
382.409	717.44
382.634	718.44
382.86	748.44
383.085	720.44
383.31	724.44
383.535	738.44
383.761	764.44
383.986	736.44
384.211	766.44
384.436	765.44
384.662	788.44
384.887	796.44
385.112	785.44
385.337	809.44
385.562	808.44
385.787	800.44
386.013	824.44
386.238	808.44
386.463	852.44
386.688	812.44
386.913	778.44
387.138	806.44
387.363	804.44
387.588	816.44
387.813	777.44
388.038	773.44
388.263	826.44
388.488	806.44
388.713	773.44
388.938	784.44
389.163	784.44
389.387	792.44
389.612	781.44
389.837	778.44
390.062	745.44
390.287	770.44
390.512	801.44
390.736	787.44
390.961	822.44
391.186	797.44
391.411	835.44
391.636	885.44
391.86	881.44
392.085	898.44
392.31	870.44
392.534	866.44
392.759	849.44
392.984	836.44
393.208	831.44
393.433	832.44
393.658	813.44
393.882	831.44
394.107	818.44
394.331	853.44
394.556	836.44
394.78	828.44
395.005	842.44
395.229	842.44
395.454	850.44
395.678	864.44
395.903	873.44
396.127	884.44
396.352	853.44
396.576	825.44
396.801	829.44
397.025	848.44
397.249	848.44
397.474	882.44
397.698	874.44
397.922	883.44
398.147	897.44
398.371	906.44
398.595	916.44
398.82	953.44
399.044	998.44
399.268	1108.44
399.492	1230.44
399.717	1356.44
399.941	1340.44
400.165	1235.44
400.389	1142.44
400.613	1056.44
400.837	1004.44
401.062	992.44
401.286	970.44
401.51	962.44
401.734	954.44
401.958	993.44
402.182	996.44
402.406	994.44
402.63	1028.44
402.854	1043.44
403.078	1024.44
403.302	1009.44
403.526	1072.44
403.75	1121.44
403.974	1128.44
404.198	1153.44
404.422	1169.44
404.645	1164.44
404.869	1208.44
405.093	1293.44
405.317	1388.44
405.541	1408.44
405.765	1281.44
405.988	1203.44
406.212	1140.44
406.436	1136.44
406.66	1143.44
406.883	1126.44
407.107	1176.44
407.331	1173.44
407.555	1224.44
407.778	1216.44
408.002	1187.44
408.226	1171.44
408.449	1154.44
408.673	1092.44
408.896	1096.44
409.12	1081.44
409.344	1096.44
409.567	1094.44
409.791	1074.44
410.014	1048.44
410.238	1071.44
410.461	1078.44
410.685	1035.44
410.908	1056.44
411.132	1055.44
411.355	1019.44
411.578	1018.44
411.802	1058.44
412.025	1098.44
412.249	1161.44
412.472	1277.44
412.695	1370.44
412.919	1342.44
413.142	1262.44
413.365	1196.44
413.589	1086.44
413.812	1093.44
414.035	1080.44
414.258	1050.44
414.482	1026.44
414.705	1063.44
414.928	1022.44
415.151	1010.44
415.374	1001.44
415.597	991.44
415.821	1015.44
416.044	997.44
416.267	1013.44
416.49	972.44
416.713	999.44
416.936	992.44
417.159	1026.44
417.382	990.44
417.605	1081.44
417.828	1097.44
418.051	1046.44
418.274	998.44
418.497	997.44
418.72	1026.44
418.943	998.44
419.166	1072.44
419.389	1158.44
419.611	1125.44
419.834	1162.44
420.057	1189.44
420.28	1221.44
420.503	1219.44
420.726	1180.44
420.948	1126.44
421.171	1121.44
421.394	1086.44
421.617	1040.44
421.839	1014.44
422.062	1017.44
422.285	999.44
422.507	1022.44
422.73	1011.44
422.953	1027.44
423.175	1045.44
423.398	1025.44
423.621	1012.44
423.843	996.44
424.066	1037.44
424.288	1027.44
424.511	1016.44
424.733	991.44
424.956	965.44
425.178	963.44
425.401	955.44
425.623	968.44
425.846	936.44
426.068	965.44
426.291	945.44
426.513	931.44
426.735	946.44
426.958	956.44
427.18	930.44
427.402	977.44
427.625	1050.44
427.847	1139.44
428.069	1304.44
428.292	1218.44
428.514	1048.44
428.736	999.44
428.958	965.44
429.181	913.44
429.403	889.44
429.625	900.44
429.847	878.44
430.069	855.44
430.292	880.44
430.514	885.44
430.736	885.44
430.958	881.44
431.18	838.44
431.402	876.44
431.624	837.44
431.846	870.44
432.068	856.44
432.29	866.44
432.512	849.44
432.734	877.44
432.956	831.44
433.178	862.44
433.4	849.44
433.622	866.44
433.844	870.44
434.066	854.44
434.287	873.44
434.509	912.44
434.731	912.44
434.953	933.44
435.175	917.44
435.397	931.44
435.618	890.44
435.84	874.44
436.062	870.44
436.284	862.44
436.505	846.44
436.727	854.44
436.949	840.44
437.17	866.44
437.392	840.44
437.614	836.44
437.835	777.44
438.057	806.44
438.278	812.44
438.5	816.44
438.721	849.44
438.943	846.44
439.165	839.44
439.386	842.44
439.608	863.44
439.829	852.44
440.05	844.44
440.272	860.44
440.493	863.44
440.715	846.44
440.936	874.44
441.158	883.44
441.379	893.44
441.6	934.44
441.822	928.44
442.043	913.44
442.264	909.44
442.486	900.44
442.707	925.44
442.928	888.44
443.149	924.44
443.371	913.44
443.592	917.44
443.813	938.44
444.034	919.44
444.255	926.44
444.476	1008.44
444.698	1032.44
444.919	1045.44
445.14	1165.44
445.361	1009.44
445.582	951.44
445.803	927.44
446.024	895.44
446.245	900.44
446.466	877.44
446.687	848.44
446.908	879.44
447.129	843.44
447.35	813.44
447.571	829.44
447.792	790.44
448.013	790.44
448.234	792.44
448.455	802.44
448.675	812.44
448.896	780.44
449.117	777.44
449.338	768.44
449.559	752.44
449.779	797.44
450	746.44
450.221	770.44
450.442	795.44
450.662	761.44
450.883	756.44
451.104	793.44
451.324	787.44
451.545	762.44
451.766	786.44
451.986	772.44
452.207	774.44
452.428	778.44
452.648	765.44
452.869	760.44
453.089	731.44
453.31	744.44
453.53	766.44
453.751	757.44
453.971	726.44
454.192	739.44
454.412	732.44
454.633	714.44
454.853	739.44
455.073	741.44
455.294	736.44
455.514	745.44
455.734	734.44
455.955	724.44
456.175	707.44
456.395	732.44
456.616	710.44
456.836	731.44
457.056	734.44
457.276	716.44
457.497	753.44
457.717	744.44
457.937	752.44
458.157	749.44
458.377	769.44
458.598	782.44
458.818	766.44
459.038	801.44
459.258	796.44
459.478	821.44
459.698	857.44
459.918	855.44
460.138	883.44
460.358	945.44
460.578	954.44
460.798	942.44
461.018	948.44
461.238	941.44
461.458	965.44
461.678	938.44
461.898	960.44
462.118	966.44
462.338	970.44
462.558	1012.44
462.777	1060.44
462.997	1162.44
463.217	1231.44
463.437	1244.44
463.657	1155.44
463.876	1090.44
464.096	1088.44
464.316	1084.44
464.536	1061.44
464.755	1070.44
464.975	1022.44
465.195	1000.44
465.414	911.44
465.634	911.44
465.854	878.44
466.073	868.44
466.293	869.44
466.512	861.44
466.732	832.44
466.951	834.44
467.171	874.44
467.391	877.44
467.61	904.44
467.829	963.44
468.049	1376.44
468.268	2049.44
468.488	1564.44
468.707	1162.44
468.927	1014.44
469.146	955.44
469.365	940.44
469.585	924.44
469.804	910.44
470.023	934.44
470.243	900.44
470.462	921.44
470.681	912.44
470.901	937.44
471.12	924.44
471.339	982.44
471.558	951.44
471.777	1023.44
471.997	1241.44
472.216	1932.44
472.435	3806.44
472.654	3006.44
472.873	1850.44
473.092	1438.44
473.311	1245.44
473.53	1130.44
473.749	1054.44
473.968	1019.44
474.187	964.44
474.406	962.44
474.625	950.44
474.844	941.44
475.063	910.44
475.282	912.44
475.501	884.44
475.72	889.44
475.939	906.44
476.158	884.44
476.377	901.44
476.596	888.44
476.814	904.44
477.033	908.44
477.252	893.44
477.471	921.44
477.69	940.44
477.908	1000.44
478.127	992.44
478.346	982.44
478.564	1007.44
478.783	1051.44
479.002	1056.44
479.22	1074.44
479.439	1082.44
479.658	1096.44
479.876	1127.44
480.095	1146.44
480.313	1264.44
480.532	1344.44
480.751	1588.44
480.969	2248.44
481.188	4906.44
481.406	6304.44
481.624	3451.44
481.843	2365.44
482.061	1914.44
482.28	1654.44
482.498	1475.44
482.717	1345.44
482.935	1310.44
483.153	1221.44
483.372	1199.44
483.59	1180.44
483.808	1135.44
484.027	1112.44
484.245	1113.44
484.463	1092.44
484.681	1119.44
484.9	1072.44
485.118	1107.44
485.336	1080.44
485.554	1070.44
485.772	1089.44
485.99	1055.44
486.209	1080.44
486.427	1085.44
486.645	1066.44
486.863	1058.44
487.081	1072.44
487.299	1069.44
487.517	1092.44
487.735	1083.44
487.953	1110.44
488.171	1080.44
488.389	1096.44
488.607	1066.44
488.825	1091.44
489.043	1090.44
489.261	1116.44
489.479	1113.44
489.696	1110.44
489.914	1160.44
490.132	1178.44
490.35	1188.44
490.568	1203.44
490.786	1244.44
491.003	1260.44
491.221	1318.44
491.439	1394.44
491.657	1408.44
491.874	1404.44
492.092	1432.44
492.31	1518.44
492.527	1517.44
492.745	1550.44
492.963	1550.44
493.18	1544.44
493.398	1554.44
493.615	1445.44
493.833	1435.44
494.05	1411.44
494.268	1409.44
494.485	1353.44
494.703	1354.44
494.92	1322.44
495.138	1299.44
495.355	1324.44
495.573	1275.44
495.79	1272.44
496.008	1230.44
496.225	1218.44
496.442	1209.44
496.66	1264.44
496.877	1261.44
497.094	1240.44
497.312	1253.44
497.529	1267.44
497.746	1277.44
497.963	1264.44
498.181	1332.44
498.398	1380.44
