Data from FlinnAP5935BZINC.07152019.QSWITCHedge.EN10.5scans.P1_HRD10591_15-05-43-552.txt Node
Date: Mon Jul 15 15:05:43 EDT 2019
User: cochatt
Spectrometer: HR+D1059
Trigger mode: 1
Integration Time (sec): 1.000000E-1
Scans to average: 1
Electric dark correction enabled: true
Nonlinearity correction enabled: false
Boxcar width: 0
XAxis mode: Wavelengths
Number of Pixels in Spectrum: 2048
>>>>>Begin Spectral Data<<<<<
223.165	-3.44
223.4	-3.44
223.635	-3.44
223.869	-17.44
224.104	-6.44
224.338	-13.44
224.573	-5.44
224.808	-13.44
225.042	-13.44
225.277	-23.44
225.511	-4.44
225.746	-3.44
225.98	7.56
226.215	8.56
226.449	26.56
226.683	13.56
226.918	19.56
227.152	28.56
227.387	35.56
227.621	39.56
227.856	33.56
228.09	36.56
228.324	52.56
228.559	49.56
228.793	69.56
229.027	58.56
229.262	66.56
229.496	85.56
229.73	86.56
229.964	79.56
230.199	72.56
230.433	83.56
230.667	90.56
230.901	78.56
231.136	94.56
231.37	82.56
231.604	88.56
231.838	80.56
232.072	81.56
232.306	84.56
232.541	97.56
232.775	95.56
233.009	74.56
233.243	80.56
233.477	75.56
233.711	100.56
233.945	76.56
234.179	72.56
234.413	85.56
234.647	74.56
234.881	76.56
235.115	74.56
235.349	84.56
235.583	71.56
235.817	75.56
236.051	74.56
236.285	83.56
236.519	75.56
236.753	76.56
236.987	78.56
237.221	71.56
237.455	66.56
237.689	76.56
237.922	86.56
238.156	86.56
238.39	93.56
238.624	84.56
238.858	77.56
239.091	88.56
239.325	72.56
239.559	80.56
239.793	71.56
240.027	82.56
240.26	71.56
240.494	83.56
240.728	79.56
240.961	86.56
241.195	83.56
241.429	70.56
241.662	76.56
241.896	84.56
242.13	85.56
242.363	86.56
242.597	81.56
242.83	80.56
243.064	66.56
243.298	81.56
243.531	90.56
243.765	86.56
243.998	78.56
244.232	63.56
244.465	83.56
244.699	96.56
244.932	94.56
245.166	93.56
245.399	85.56
245.633	77.56
245.866	73.56
246.099	81.56
246.333	74.56
246.566	91.56
246.8	84.56
247.033	80.56
247.266	83.56
247.5	98.56
247.733	90.56
247.966	86.56
248.2	96.56
248.433	84.56
248.666	84.56
248.899	84.56
249.133	90.56
249.366	75.56
249.599	89.56
249.832	89.56
250.066	86.56
250.299	90.56
250.532	76.56
250.765	84.56
250.998	81.56
251.231	96.56
251.465	97.56
251.698	84.56
251.931	94.56
252.164	99.56
252.397	86.56
252.63	70.56
252.863	82.56
253.096	96.56
253.329	91.56
253.562	92.56
253.795	88.56
254.028	68.56
254.261	83.56
254.494	76.56
254.727	99.56
254.96	85.56
255.193	78.56
255.426	78.56
255.659	77.56
255.892	96.56
256.124	77.56
256.357	80.56
256.59	95.56
256.823	78.56
257.056	89.56
257.289	93.56
257.521	88.56
257.754	81.56
257.987	80.56
258.22	93.56
258.452	82.56
258.685	103.56
258.918	86.56
259.151	89.56
259.383	92.56
259.616	85.56
259.849	83.56
260.081	85.56
260.314	78.56
260.547	100.56
260.779	84.56
261.012	83.56
261.244	86.56
261.477	95.56
261.71	85.56
261.942	96.56
262.175	95.56
262.407	87.56
262.64	82.56
262.872	82.56
263.105	78.56
263.337	79.56
263.57	79.56
263.802	89.56
264.035	94.56
264.267	85.56
264.499	95.56
264.732	71.56
264.964	82.56
265.197	74.56
265.429	88.56
265.661	90.56
265.894	72.56
266.126	86.56
266.358	84.56
266.591	86.56
266.823	92.56
267.055	90.56
267.287	90.56
267.52	83.56
267.752	87.56
267.984	85.56
268.216	83.56
268.448	93.56
268.681	87.56
268.913	101.56
269.145	82.56
269.377	77.56
269.609	89.56
269.841	104.56
270.073	88.56
270.306	99.56
270.538	90.56
270.77	94.56
271.002	102.56
271.234	92.56
271.466	93.56
271.698	66.56
271.93	84.56
272.162	82.56
272.394	93.56
272.626	78.56
272.858	90.56
273.09	91.56
273.322	98.56
273.553	85.56
273.785	89.56
274.017	84.56
274.249	74.56
274.481	99.56
274.713	95.56
274.945	87.56
275.176	83.56
275.408	82.56
275.64	95.56
275.872	120.56
276.104	114.56
276.335	92.56
276.567	85.56
276.799	100.56
277.031	111.56
277.262	140.56
277.494	124.56
277.726	94.56
277.957	85.56
278.189	91.56
278.421	92.56
278.652	82.56
278.884	88.56
279.115	90.56
279.347	88.56
279.579	106.56
279.81	121.56
280.042	130.56
280.273	150.56
280.505	154.56
280.736	109.56
280.968	93.56
281.199	89.56
281.431	97.56
281.662	89.56
281.894	89.56
282.125	85.56
282.356	92.56
282.588	83.56
282.819	85.56
283.051	95.56
283.282	102.56
283.513	90.56
283.745	92.56
283.976	85.56
284.207	98.56
284.439	79.56
284.67	91.56
284.901	93.56
285.132	83.56
285.364	66.56
285.595	89.56
285.826	84.56
286.057	84.56
286.288	91.56
286.52	102.56
286.751	91.56
286.982	92.56
287.213	89.56
287.444	84.56
287.675	82.56
287.906	102.56
288.138	103.56
288.369	88.56
288.6	81.56
288.831	87.56
289.062	94.56
289.293	94.56
289.524	89.56
289.755	96.56
289.986	97.56
290.217	90.56
290.448	90.56
290.679	83.56
290.91	83.56
291.141	85.56
291.371	93.56
291.602	91.56
291.833	103.56
292.064	82.56
292.295	92.56
292.526	90.56
292.757	92.56
292.987	94.56
293.218	87.56
293.449	82.56
293.68	92.56
293.91	91.56
294.141	93.56
294.372	101.56
294.603	99.56
294.833	84.56
295.064	77.56
295.295	85.56
295.525	90.56
295.756	88.56
295.987	92.56
296.217	91.56
296.448	98.56
296.679	98.56
296.909	100.56
297.14	98.56
297.37	73.56
297.601	95.56
297.831	81.56
298.062	79.56
298.292	92.56
298.523	88.56
298.753	96.56
298.984	84.56
299.214	91.56
299.445	89.56
299.675	81.56
299.905	99.56
300.136	96.56
300.366	80.56
300.597	97.56
300.827	86.56
301.057	94.56
301.288	96.56
301.518	94.56
301.748	100.56
301.979	101.56
302.209	94.56
302.439	93.56
302.669	103.56
302.9	100.56
303.13	90.56
303.36	83.56
303.59	94.56
303.82	102.56
304.051	88.56
304.281	82.56
304.511	100.56
304.741	92.56
304.971	78.56
305.201	90.56
305.431	92.56
305.661	93.56
305.891	90.56
306.121	89.56
306.352	92.56
306.582	94.56
306.812	85.56
307.042	94.56
307.272	131.56
307.502	124.56
307.731	120.56
307.961	113.56
308.191	100.56
308.421	83.56
308.651	77.56
308.881	82.56
309.111	104.56
309.341	90.56
309.571	82.56
309.8	100.56
310.03	92.56
310.26	78.56
310.49	96.56
310.72	80.56
310.949	87.56
311.179	93.56
311.409	80.56
311.639	98.56
311.868	89.56
312.098	83.56
312.328	71.56
312.557	102.56
312.787	103.56
313.017	96.56
313.246	88.56
313.476	83.56
313.706	87.56
313.935	78.56
314.165	105.56
314.394	93.56
314.624	89.56
314.853	86.56
315.083	96.56
315.312	98.56
315.542	82.56
315.771	92.56
316.001	98.56
316.23	76.56
316.46	86.56
316.689	84.56
316.919	84.56
317.148	99.56
317.377	107.56
317.607	83.56
317.836	95.56
318.065	79.56
318.295	87.56
318.524	86.56
318.753	82.56
318.983	82.56
319.212	99.56
319.441	95.56
319.67	96.56
319.9	89.56
320.129	98.56
320.358	108.56
320.587	95.56
320.816	81.56
321.046	91.56
321.275	87.56
321.504	86.56
321.733	91.56
321.962	103.56
322.191	100.56
322.42	82.56
322.649	86.56
322.878	94.56
323.108	96.56
323.337	97.56
323.566	83.56
323.795	85.56
324.024	90.56
324.253	99.56
324.482	92.56
324.71	84.56
324.939	87.56
325.168	83.56
325.397	86.56
325.626	88.56
325.855	92.56
326.084	86.56
326.313	106.56
326.542	92.56
326.77	100.56
326.999	89.56
327.228	94.56
327.457	101.56
327.686	110.56
327.914	142.56
328.143	208.56
328.372	284.56
328.6	252.56
328.829	132.56
329.058	101.56
329.287	111.56
329.515	101.56
329.744	127.56
329.972	219.56
330.201	375.56
330.43	578.56
330.658	441.56
330.887	168.56
331.115	101.56
331.344	111.56
331.572	85.56
331.801	105.56
332.03	93.56
332.258	86.56
332.486	90.56
332.715	98.56
332.943	95.56
333.172	99.56
333.4	108.56
333.629	109.56
333.857	125.56
334.085	163.56
334.314	344.56
334.542	616.56
334.771	745.56
334.999	389.56
335.227	150.56
335.455	98.56
335.684	90.56
335.912	87.56
336.14	90.56
336.369	96.56
336.597	99.56
336.825	100.56
337.053	98.56
337.281	102.56
337.51	88.56
337.738	95.56
337.966	90.56
338.194	85.56
338.422	94.56
338.65	83.56
338.878	88.56
339.106	81.56
339.334	91.56
339.562	83.56
339.79	100.56
340.018	84.56
340.246	90.56
340.474	94.56
340.702	94.56
340.93	98.56
341.158	90.56
341.386	95.56
341.614	79.56
341.842	79.56
342.07	92.56
342.298	87.56
342.526	80.56
342.754	88.56
342.981	85.56
343.209	87.56
343.437	90.56
343.665	82.56
343.893	86.56
344.12	93.56
344.348	86.56
344.576	97.56
344.804	92.56
345.031	94.56
345.259	91.56
345.487	96.56
345.714	94.56
345.942	84.56
346.17	88.56
346.397	84.56
346.625	87.56
346.853	61.56
347.08	81.56
347.308	88.56
347.535	84.56
347.763	84.56
347.99	92.56
348.218	92.56
348.445	95.56
348.673	87.56
348.9	91.56
349.128	93.56
349.355	90.56
349.583	88.56
349.81	88.56
350.037	84.56
350.265	87.56
350.492	90.56
350.72	91.56
350.947	108.56
351.174	88.56
351.402	91.56
351.629	89.56
351.856	101.56
352.083	94.56
352.311	98.56
352.538	94.56
352.765	98.56
352.992	97.56
353.22	99.56
353.447	92.56
353.674	104.56
353.901	94.56
354.128	109.56
354.355	79.56
354.583	95.56
354.81	93.56
355.037	80.56
355.264	76.56
355.491	86.56
355.718	93.56
355.945	95.56
356.172	83.56
356.399	78.56
356.626	90.56
356.853	93.56
357.08	86.56
357.307	84.56
357.534	94.56
357.761	99.56
357.988	97.56
358.215	95.56
358.441	83.56
358.668	83.56
358.895	87.56
359.122	103.56
359.349	96.56
359.576	82.56
359.802	93.56
360.029	94.56
360.256	80.56
360.483	85.56
360.709	78.56
360.936	97.56
361.163	92.56
361.39	102.56
361.616	106.56
361.843	90.56
362.07	92.56
362.296	91.56
362.523	89.56
362.749	77.56
362.976	91.56
363.203	108.56
363.429	93.56
363.656	96.56
363.882	81.56
364.109	95.56
364.335	81.56
364.562	79.56
364.788	78.56
365.015	88.56
365.241	70.56
365.468	84.56
365.694	83.56
365.92	84.56
366.147	87.56
366.373	83.56
366.599	101.56
366.826	78.56
367.052	80.56
367.278	88.56
367.505	87.56
367.731	96.56
367.957	86.56
368.184	83.56
368.41	91.56
368.636	87.56
368.862	93.56
369.089	74.56
369.315	91.56
369.541	83.56
369.767	92.56
369.993	89.56
370.219	87.56
370.445	88.56
370.672	88.56
370.898	84.56
371.124	85.56
371.35	98.56
371.576	98.56
371.802	96.56
372.028	93.56
372.254	88.56
372.48	79.56
372.706	105.56
372.932	92.56
373.158	75.56
373.384	83.56
373.61	96.56
373.835	86.56
374.061	92.56
374.287	102.56
374.513	88.56
374.739	83.56
374.965	92.56
375.191	80.56
375.416	85.56
375.642	83.56
375.868	98.56
376.094	93.56
376.319	79.56
376.545	93.56
376.771	95.56
376.997	81.56
377.222	91.56
377.448	99.56
377.674	83.56
377.899	76.56
378.125	88.56
378.35	80.56
378.576	79.56
378.802	88.56
379.027	93.56
379.253	92.56
379.478	97.56
379.704	85.56
379.929	85.56
380.155	95.56
380.38	91.56
380.606	91.56
380.831	81.56
381.057	94.56
381.282	94.56
381.507	90.56
381.733	86.56
381.958	83.56
382.184	91.56
382.409	83.56
382.634	79.56
382.86	83.56
383.085	90.56
383.31	90.56
383.535	104.56
383.761	90.56
383.986	87.56
384.211	86.56
384.436	98.56
384.662	85.56
384.887	85.56
385.112	83.56
385.337	98.56
385.562	87.56
385.787	84.56
386.013	90.56
386.238	91.56
386.463	95.56
386.688	83.56
386.913	87.56
387.138	86.56
387.363	98.56
387.588	87.56
387.813	96.56
388.038	85.56
388.263	78.56
388.488	87.56
388.713	82.56
388.938	104.56
389.163	101.56
389.387	93.56
389.612	86.56
389.837	76.56
390.062	95.56
390.287	81.56
390.512	90.56
390.736	84.56
390.961	84.56
391.186	84.56
391.411	70.56
391.636	93.56
391.86	96.56
392.085	93.56
392.31	100.56
392.534	91.56
392.759	87.56
392.984	87.56
393.208	85.56
393.433	105.56
393.658	89.56
393.882	90.56
394.107	82.56
394.331	85.56
394.556	96.56
394.78	91.56
395.005	90.56
395.229	93.56
395.454	82.56
395.678	100.56
395.903	87.56
396.127	93.56
396.352	94.56
396.576	76.56
396.801	85.56
397.025	84.56
397.249	81.56
397.474	81.56
397.698	104.56
397.922	74.56
398.147	83.56
398.371	80.56
398.595	78.56
398.82	74.56
399.044	95.56
399.268	92.56
399.492	87.56
399.717	98.56
399.941	90.56
400.165	83.56
400.389	92.56
400.613	89.56
400.837	84.56
401.062	82.56
401.286	84.56
401.51	83.56
401.734	83.56
401.958	95.56
402.182	85.56
402.406	90.56
402.63	87.56
402.854	85.56
403.078	84.56
403.302	89.56
403.526	94.56
403.75	89.56
403.974	75.56
404.198	85.56
404.422	83.56
404.645	88.56
404.869	86.56
405.093	91.56
405.317	85.56
405.541	97.56
405.765	86.56
405.988	105.56
406.212	93.56
406.436	97.56
406.66	93.56
406.883	97.56
407.107	80.56
407.331	82.56
407.555	95.56
407.778	92.56
408.002	84.56
408.226	79.56
408.449	76.56
408.673	73.56
408.896	92.56
409.12	96.56
409.344	84.56
409.567	88.56
409.791	96.56
410.014	86.56
410.238	92.56
410.461	76.56
410.685	87.56
410.908	95.56
411.132	98.56
411.355	94.56
411.578	79.56
411.802	86.56
412.025	96.56
412.249	77.56
412.472	95.56
412.695	99.56
412.919	77.56
413.142	96.56
413.365	84.56
413.589	82.56
413.812	79.56
414.035	91.56
414.258	90.56
414.482	95.56
414.705	93.56
414.928	78.56
415.151	77.56
415.374	96.56
415.597	94.56
415.821	80.56
416.044	78.56
416.267	96.56
416.49	98.56
416.713	93.56
416.936	98.56
417.159	81.56
417.382	94.56
417.605	89.56
417.828	87.56
418.051	93.56
418.274	93.56
418.497	90.56
418.72	88.56
418.943	87.56
419.166	95.56
419.389	83.56
419.611	83.56
419.834	86.56
420.057	102.56
420.28	77.56
420.503	82.56
420.726	86.56
420.948	83.56
421.171	77.56
421.394	98.56
421.617	84.56
421.839	85.56
422.062	83.56
422.285	80.56
422.507	97.56
422.73	82.56
422.953	78.56
423.175	83.56
423.398	75.56
423.621	89.56
423.843	85.56
424.066	79.56
424.288	102.56
424.511	84.56
424.733	85.56
424.956	75.56
425.178	86.56
425.401	93.56
425.623	93.56
425.846	71.56
426.068	92.56
426.291	71.56
426.513	78.56
426.735	107.56
426.958	76.56
427.18	86.56
427.402	93.56
427.625	88.56
427.847	119.56
428.069	125.56
428.292	104.56
428.514	104.56
428.736	96.56
428.958	91.56
429.181	94.56
429.403	77.56
429.625	86.56
429.847	81.56
430.069	80.56
430.292	84.56
430.514	99.56
430.736	96.56
430.958	81.56
431.18	85.56
431.402	86.56
431.624	83.56
431.846	87.56
432.068	95.56
432.29	93.56
432.512	92.56
432.734	86.56
432.956	87.56
433.178	95.56
433.4	71.56
433.622	86.56
433.844	82.56
434.066	83.56
434.287	79.56
434.509	90.56
434.731	68.56
434.953	87.56
435.175	86.56
435.397	95.56
435.618	100.56
435.84	96.56
436.062	105.56
436.284	96.56
436.505	85.56
436.727	93.56
436.949	86.56
437.17	90.56
437.392	84.56
437.614	80.56
437.835	82.56
438.057	73.56
438.278	88.56
438.5	78.56
438.721	95.56
438.943	91.56
439.165	89.56
439.386	97.56
439.608	82.56
439.829	88.56
440.05	76.56
440.272	86.56
440.493	96.56
440.715	92.56
440.936	99.56
441.158	90.56
441.379	88.56
441.6	92.56
441.822	82.56
442.043	79.56
442.264	95.56
442.486	94.56
442.707	92.56
442.928	83.56
443.149	71.56
443.371	82.56
443.592	78.56
443.813	90.56
444.034	98.56
444.255	94.56
444.476	74.56
444.698	88.56
444.919	92.56
445.14	242.56
445.361	143.56
445.582	76.56
445.803	92.56
446.024	98.56
446.245	88.56
446.466	86.56
446.687	89.56
446.908	94.56
447.129	92.56
447.35	81.56
447.571	87.56
447.792	91.56
448.013	94.56
448.234	102.56
448.455	84.56
448.675	72.56
448.896	98.56
449.117	86.56
449.338	95.56
449.559	103.56
449.779	102.56
450	88.56
450.221	86.56
450.442	95.56
450.662	88.56
450.883	80.56
451.104	91.56
451.324	96.56
451.545	85.56
451.766	95.56
451.986	94.56
452.207	98.56
452.428	95.56
452.648	107.56
452.869	87.56
453.089	78.56
453.31	98.56
453.53	101.56
453.751	99.56
453.971	82.56
454.192	90.56
454.412	97.56
454.633	101.56
454.853	98.56
455.073	90.56
455.294	77.56
455.514	84.56
455.734	95.56
455.955	86.56
456.175	80.56
456.395	86.56
456.616	88.56
456.836	87.56
457.056	82.56
457.276	93.56
457.497	90.56
457.717	92.56
457.937	88.56
458.157	95.56
458.377	84.56
458.598	92.56
458.818	71.56
459.038	89.56
459.258	100.56
459.478	89.56
459.698	87.56
459.918	94.56
460.138	95.56
460.358	93.56
460.578	101.56
460.798	76.56
461.018	85.56
461.238	90.56
461.458	78.56
461.678	107.56
461.898	95.56
462.118	116.56
462.338	89.56
462.558	85.56
462.777	86.56
462.997	89.56
463.217	99.56
463.437	109.56
463.657	77.56
463.876	82.56
464.096	106.56
464.316	90.56
464.536	91.56
464.755	91.56
464.975	96.56
465.195	82.56
465.414	92.56
465.634	86.56
465.854	79.56
466.073	87.56
466.293	83.56
466.512	75.56
466.732	99.56
466.951	99.56
467.171	92.56
467.391	86.56
467.61	101.56
467.829	117.56
468.049	275.56
468.268	469.56
468.488	182.56
468.707	101.56
468.927	98.56
469.146	86.56
469.365	83.56
469.585	95.56
469.804	86.56
470.023	90.56
470.243	80.56
470.462	103.56
470.681	88.56
470.901	91.56
471.12	90.56
471.339	90.56
471.558	109.56
471.777	113.56
471.997	166.56
472.216	434.56
472.435	1076.56
472.654	400.56
472.873	142.56
473.092	91.56
473.311	89.56
473.53	100.56
473.749	104.56
473.968	101.56
474.187	84.56
474.406	85.56
474.625	82.56
474.844	92.56
475.063	88.56
475.282	96.56
475.501	87.56
475.72	99.56
475.939	92.56
476.158	95.56
476.377	71.56
476.596	82.56
476.814	106.56
477.033	90.56
477.252	82.56
477.471	76.56
477.69	90.56
477.908	88.56
478.127	92.56
478.346	85.56
478.564	78.56
478.783	101.56
479.002	101.56
479.22	96.56
479.439	95.56
479.658	95.56
479.876	96.56
480.095	108.56
480.313	98.56
480.532	105.56
480.751	155.56
480.969	368.56
481.188	1388.56
481.406	1290.56
481.624	238.56
481.843	112.56
482.061	97.56
482.28	108.56
482.498	94.56
482.717	85.56
482.935	84.56
483.153	94.56
483.372	80.56
483.59	70.56
483.808	98.56
484.027	94.56
484.245	90.56
484.463	91.56
484.681	88.56
484.9	78.56
485.118	107.56
485.336	93.56
485.554	76.56
485.772	95.56
485.99	75.56
486.209	94.56
486.427	95.56
486.645	93.56
486.863	78.56
487.081	97.56
487.299	95.56
487.517	98.56
487.735	96.56
487.953	109.56
488.171	105.56
488.389	95.56
488.607	98.56
488.825	100.56
489.043	102.56
489.261	91.56
489.479	82.56
489.696	96.56
489.914	89.56
490.132	108.56
490.35	77.56
490.568	97.56
490.786	74.56
491.003	87.56
491.221	85.56
491.439	111.56
491.657	92.56
491.874	103.56
492.092	99.56
492.31	96.56
492.527	96.56
492.745	86.56
492.963	92.56
493.18	92.56
493.398	98.56
493.615	83.56
493.833	89.56
494.05	102.56
494.268	88.56
494.485	90.56
494.703	104.56
494.92	100.56
495.138	89.56
495.355	101.56
495.573	103.56
495.79	99.56
496.008	78.56
496.225	93.56
496.442	81.56
496.66	109.56
496.877	91.56
497.094	100.56
497.312	86.56
497.529	100.56
497.746	91.56
497.963	90.56
498.181	84.56
498.398	101.56
498.615	95.56
498.832	94.56
499.049	85.56
499.267	84.56
499.484	94.56
499.701	86.56
499.918	104.56
500.135	96.56
500.352	92.56
500.569	99.56
500.786	93.56
501.003	82.56
501.22	70.56
501.437	91.56
501.654	84.56
501.871	78.56
502.088	76.56
502.305	86.56
502.522	81.56
502.739	77.56
502.956	75.56
503.172	103.56
503.389	86.56
503.606	87.56
503.823	86.56
504.04	80.56
504.256	88.56
504.473	68.56
504.69	92.56
504.907	87.56
505.123	87.56
505.34	86.56
505.557	101.56
505.773	89.56
505.99	97.56
506.207	92.56
506.423	102.56
506.64	91.56
506.856	95.56
507.073	88.56
507.289	86.56
507.506	85.56
507.722	84.56
507.939	87.56
508.155	101.56
508.372	95.56
508.588	96.56
508.805	92.56
509.021	93.56
509.238	83.56
509.454	96.56
509.67	86.56
509.887	81.56
510.103	95.56
510.319	94.56
510.536	104.56
510.752	91.56
510.968	99.56
511.184	88.56
511.401	92.56
511.617	76.56
511.833	97.56
512.049	86.56
512.265	82.56
512.481	81.56
512.698	93.56
512.914	77.56
513.13	95.56
513.346	82.56
513.562	86.56
513.778	93.56
513.994	85.56
514.21	96.56
514.426	90.56
514.642	88.56
514.858	95.56
515.074	90.56
515.29	88.56
515.506	95.56
515.721	90.56
515.937	84.56
516.153	98.56
516.369	93.56
516.585	98.56
516.801	107.56
517.016	85.56
