Data from FlinnAP9092KCOPPER.07152019.QSWITCHSynchronous.EN10.20scans.P1_HRD10591_14-49-21-573.txt Node
Date: Mon Jul 15 14:49:21 EDT 2019
User: cochatt
Spectrometer: HR+D1059
Trigger mode: 5
Integration Time (sec): 1.000000E-1
Scans to average: 1
Electric dark correction enabled: true
Nonlinearity correction enabled: false
Boxcar width: 0
XAxis mode: Wavelengths
Number of Pixels in Spectrum: 2048
>>>>>Begin Spectral Data<<<<<
223.165	-39.69
223.4	-39.69
223.635	-39.69
223.869	-31.69
224.104	-28.69
224.338	2.31
224.573	-11.69
224.808	-1.69
225.042	21.31
225.277	1.31
225.511	-15.69
225.746	22.31
225.98	5.31
226.215	-2.69
226.449	9.31
226.683	4.31
226.918	25.31
227.152	40.31
227.387	53.31
227.621	39.31
227.856	73.31
228.09	45.31
228.324	53.31
228.559	64.31
228.793	98.31
229.027	202.31
229.262	210.31
229.496	229.31
229.73	264.31
229.964	371.31
230.199	280.31
230.433	219.31
230.667	225.31
230.901	221.31
231.136	201.31
231.37	210.31
231.604	203.31
231.838	190.31
232.072	175.31
232.306	216.31
232.541	195.31
232.775	202.31
233.009	211.31
233.243	201.31
233.477	215.31
233.711	219.31
233.945	229.31
234.179	221.31
234.413	228.31
234.647	221.31
234.881	231.31
235.115	234.31
235.349	217.31
235.583	229.31
235.817	238.31
236.051	256.31
236.285	244.31
236.519	237.31
236.753	254.31
236.987	292.31
237.221	380.31
237.455	538.31
237.689	437.31
237.922	302.31
238.156	275.31
238.39	256.31
238.624	252.31
238.858	255.31
239.091	242.31
239.325	257.31
239.559	271.31
239.793	280.31
240.027	318.31
240.26	321.31
240.494	377.31
240.728	349.31
240.961	324.31
241.195	310.31
241.429	298.31
241.662	270.31
241.896	255.31
242.13	255.31
242.363	275.31
242.597	278.31
242.83	290.31
243.064	297.31
243.298	301.31
243.531	286.31
243.765	295.31
243.998	281.31
244.232	293.31
244.465	295.31
244.699	325.31
244.932	298.31
245.166	278.31
245.399	322.31
245.633	298.31
245.866	294.31
246.099	313.31
246.333	302.31
246.566	326.31
246.8	317.31
247.033	328.31
247.266	340.31
247.5	346.31
247.733	375.31
247.966	372.31
248.2	372.31
248.433	365.31
248.666	371.31
248.899	414.31
249.133	460.31
249.366	496.31
249.599	453.31
249.832	384.31
250.066	423.31
250.299	399.31
250.532	390.31
250.765	433.31
250.998	507.31
251.231	526.31
251.465	472.31
251.698	420.31
251.931	426.31
252.164	400.31
252.397	388.31
252.63	432.31
252.863	445.31
253.096	457.31
253.329	529.31
253.562	511.31
253.795	475.31
254.028	477.31
254.261	479.31
254.494	492.31
254.727	588.31
254.96	697.31
255.193	630.31
255.426	509.31
255.659	498.31
255.892	489.31
256.124	453.31
256.357	454.31
256.59	463.31
256.823	434.31
257.056	460.31
257.289	428.31
257.521	449.31
257.754	450.31
257.987	446.31
258.22	469.31
258.452	405.31
258.685	430.31
258.918	443.31
259.151	460.31
259.383	475.31
259.616	492.31
259.849	493.31
260.081	549.31
260.314	584.31
260.547	618.31
260.779	540.31
261.012	529.31
261.244	483.31
261.477	506.31
261.71	479.31
261.942	503.31
262.175	541.31
262.407	509.31
262.64	479.31
262.872	455.31
263.105	465.31
263.337	496.31
263.57	456.31
263.802	472.31
264.035	463.31
264.267	474.31
264.499	490.31
264.732	485.31
264.964	477.31
265.197	484.31
265.429	477.31
265.661	486.31
265.894	509.31
266.126	516.31
266.358	503.31
266.591	506.31
266.823	514.31
267.055	505.31
267.287	522.31
267.52	517.31
267.752	527.31
267.984	520.31
268.216	511.31
268.448	552.31
268.681	553.31
268.913	580.31
269.145	652.31
269.377	666.31
269.609	619.31
269.841	638.31
270.073	633.31
270.306	684.31
270.538	780.31
270.77	749.31
271.002	706.31
271.234	679.31
271.466	700.31
271.698	754.31
271.93	785.31
272.162	772.31
272.394	769.31
272.626	710.31
272.858	648.31
273.09	639.31
273.322	630.31
273.553	579.31
273.785	589.31
274.017	595.31
274.249	600.31
274.481	591.31
274.713	609.31
274.945	648.31
275.176	595.31
275.408	622.31
275.64	615.31
275.872	594.31
276.104	629.31
276.335	628.31
276.567	618.31
276.799	656.31
277.031	744.31
277.262	773.31
277.494	806.31
277.726	743.31
277.957	662.31
278.189	675.31
278.421	632.31
278.652	644.31
278.884	617.31
279.115	621.31
279.347	654.31
279.579	612.31
279.81	622.31
280.042	609.31
280.273	625.31
280.505	608.31
280.736	620.31
280.968	629.31
281.199	642.31
281.431	629.31
281.662	616.31
281.894	649.31
282.125	664.31
282.356	678.31
282.588	750.31
282.819	765.31
283.051	679.31
283.282	647.31
283.513	688.31
283.745	655.31
283.976	678.31
284.207	694.31
284.439	673.31
284.67	708.31
284.901	669.31
285.132	675.31
285.364	650.31
285.595	684.31
285.826	649.31
286.057	697.31
286.288	685.31
286.52	678.31
286.751	666.31
286.982	683.31
287.213	680.31
287.444	701.31
287.675	696.31
287.906	745.31
288.138	745.31
288.369	727.31
288.6	756.31
288.831	730.31
289.062	741.31
289.293	716.31
289.524	690.31
289.755	707.31
289.986	688.31
290.217	695.31
290.448	687.31
290.679	718.31
290.91	708.31
291.141	705.31
291.371	696.31
291.602	710.31
291.833	676.31
292.064	728.31
292.295	696.31
292.526	685.31
292.757	718.31
292.987	690.31
293.218	685.31
293.449	700.31
293.68	704.31
293.91	688.31
294.141	687.31
294.372	692.31
294.603	677.31
294.833	673.31
295.064	687.31
295.295	710.31
295.525	694.31
295.756	746.31
295.987	743.31
296.217	775.31
296.448	807.31
296.679	739.31
296.909	742.31
297.14	724.31
297.37	772.31
297.601	741.31
297.831	728.31
298.062	746.31
298.292	752.31
298.523	774.31
298.753	749.31
298.984	757.31
299.214	749.31
299.445	765.31
299.675	738.31
299.905	760.31
300.136	758.31
300.366	727.31
300.597	744.31
300.827	775.31
301.057	792.31
301.288	835.31
301.518	809.31
301.748	780.31
301.979	788.31
302.209	796.31
302.439	803.31
302.669	806.31
302.9	800.31
303.13	773.31
303.36	798.31
303.59	782.31
303.82	823.31
304.051	825.31
304.281	801.31
304.511	821.31
304.741	769.31
304.971	776.31
305.201	793.31
305.431	775.31
305.661	780.31
305.891	781.31
306.121	776.31
306.352	774.31
306.582	766.31
306.812	768.31
307.042	785.31
307.272	782.31
307.502	760.31
307.731	778.31
307.961	785.31
308.191	756.31
308.421	784.31
308.651	788.31
308.881	794.31
309.111	791.31
309.341	787.31
309.571	797.31
309.8	827.31
310.03	851.31
310.26	881.31
310.49	869.31
310.72	890.31
310.949	920.31
311.179	953.31
311.409	879.31
311.639	863.31
311.868	876.31
312.098	878.31
312.328	889.31
312.557	940.31
312.787	993.31
313.017	972.31
313.246	925.31
313.476	885.31
313.706	876.31
313.935	873.31
314.165	963.31
314.394	986.31
314.624	934.31
314.853	948.31
315.083	903.31
315.312	866.31
315.542	892.31
315.771	876.31
316.001	886.31
316.23	874.31
316.46	874.31
316.689	856.31
316.919	861.31
317.148	905.31
317.377	922.31
317.607	916.31
317.836	881.31
318.065	860.31
318.295	860.31
318.524	835.31
318.753	852.31
318.983	837.31
319.212	884.31
319.441	878.31
319.67	880.31
319.9	860.31
320.129	844.31
320.358	860.31
320.587	862.31
320.816	878.31
321.046	905.31
321.275	918.31
321.504	905.31
321.733	866.31
321.962	886.31
322.191	946.31
322.42	952.31
322.649	988.31
322.878	1013.31
323.108	1014.31
323.337	1077.31
323.566	1122.31
323.795	1147.31
324.024	1236.31
324.253	1525.31
324.482	2250.31
324.71	3742.31
324.939	5801.31
325.168	5061.31
325.397	2088.31
325.626	1340.31
325.855	1136.31
326.084	1060.31
326.313	1059.31
326.542	1083.31
326.77	1222.31
326.999	1443.31
327.228	2080.31
327.457	3427.31
327.686	4470.31
327.914	2592.31
328.143	1532.31
328.372	1337.31
328.6	1281.31
328.829	1227.31
329.058	1306.31
329.287	1344.31
329.515	1270.31
329.744	1159.31
329.972	1051.31
330.201	1076.31
330.43	1128.31
330.658	1239.31
330.887	1446.31
331.115	1484.31
331.344	1229.31
331.572	1152.31
331.801	1167.31
332.03	1151.31
332.258	1113.31
332.486	1056.31
332.715	1084.31
332.943	1078.31
333.172	1155.31
333.4	1153.31
333.629	1186.31
333.857	1228.31
334.085	1176.31
334.314	1164.31
334.542	1144.31
334.771	1137.31
334.999	1129.31
335.227	1129.31
335.455	1104.31
335.684	1135.31
335.912	1108.31
336.14	1067.31
336.369	1061.31
336.597	1095.31
336.825	1126.31
337.053	1046.31
337.281	1010.31
337.51	1028.31
337.738	1036.31
337.966	1010.31
338.194	1038.31
338.422	1056.31
338.65	1044.31
338.878	1003.31
339.106	977.31
339.334	1033.31
339.562	981.31
339.79	979.31
340.018	964.31
340.246	967.31
340.474	1013.31
340.702	992.31
340.93	1000.31
341.158	948.31
341.386	983.31
341.614	988.31
341.842	978.31
342.07	978.31
342.298	956.31
342.526	954.31
342.754	928.31
342.981	957.31
343.209	935.31
343.437	1017.31
343.665	1008.31
343.893	1099.31
344.12	1114.31
344.348	1071.31
344.576	1027.31
344.804	1043.31
345.031	1013.31
345.259	1067.31
345.487	1031.31
345.714	965.31
345.942	945.31
346.17	901.31
346.397	902.31
346.625	907.31
346.853	942.31
347.08	901.31
347.308	950.31
347.535	950.31
347.763	975.31
347.99	973.31
348.218	982.31
348.445	949.31
348.673	983.31
348.9	972.31
349.128	938.31
349.355	884.31
349.583	890.31
349.81	869.31
350.037	858.31
350.265	900.31
350.492	911.31
350.72	884.31
350.947	897.31
351.174	923.31
351.402	964.31
351.629	918.31
351.856	952.31
352.083	924.31
352.311	956.31
352.538	951.31
352.765	974.31
352.992	954.31
353.22	925.31
353.447	891.31
353.674	903.31
353.901	900.31
354.128	889.31
354.355	869.31
354.583	870.31
354.81	899.31
355.037	872.31
355.264	862.31
355.491	860.31
355.718	825.31
355.945	855.31
356.172	836.31
356.399	856.31
356.626	848.31
356.853	846.31
357.08	867.31
357.307	830.31
357.534	844.31
357.761	855.31
357.988	873.31
358.215	854.31
358.441	862.31
358.668	827.31
358.895	876.31
359.122	879.31
359.349	872.31
359.576	906.31
359.802	952.31
360.029	1052.31
360.256	1121.31
360.483	1047.31
360.709	938.31
360.936	932.31
361.163	907.31
361.39	921.31
361.616	928.31
361.843	927.31
362.07	922.31
362.296	932.31
362.523	913.31
362.749	916.31
362.976	896.31
363.203	926.31
363.429	881.31
363.656	893.31
363.882	840.31
364.109	912.31
364.335	905.31
364.562	877.31
364.788	871.31
365.015	881.31
365.241	859.31
365.468	887.31
365.694	892.31
365.92	905.31
366.147	879.31
366.373	850.31
366.599	849.31
366.826	853.31
367.052	839.31
367.278	855.31
367.505	871.31
367.731	905.31
367.957	897.31
368.184	885.31
368.41	896.31
368.636	904.31
368.862	942.31
369.089	934.31
369.315	878.31
369.541	894.31
369.767	904.31
369.993	885.31
370.219	897.31
370.445	905.31
370.672	859.31
370.898	873.31
371.124	894.31
371.35	928.31
371.576	879.31
371.802	884.31
372.028	906.31
372.254	904.31
372.48	893.31
372.706	918.31
372.932	940.31
373.158	910.31
373.384	942.31
373.61	936.31
373.835	915.31
374.061	907.31
374.287	917.31
374.513	931.31
374.739	975.31
374.965	964.31
375.191	1001.31
375.416	957.31
375.642	940.31
375.868	983.31
376.094	958.31
376.319	938.31
376.545	914.31
376.771	934.31
376.997	919.31
377.222	929.31
377.448	913.31
377.674	902.31
377.899	904.31
378.125	894.31
378.35	909.31
378.576	900.31
378.802	897.31
379.027	927.31
379.253	955.31
379.478	903.31
379.704	938.31
379.929	932.31
380.155	911.31
380.38	918.31
380.606	931.31
380.831	931.31
381.057	965.31
381.282	954.31
381.507	937.31
381.733	936.31
381.958	938.31
382.184	924.31
382.409	964.31
382.634	978.31
382.86	969.31
383.085	1016.31
383.31	989.31
383.535	1008.31
383.761	1012.31
383.986	1048.31
384.211	1050.31
384.436	1046.31
384.662	1050.31
384.887	1076.31
385.112	1046.31
385.337	1061.31
385.562	1074.31
385.787	1078.31
386.013	1155.31
386.238	1139.31
386.463	1136.31
386.688	1114.31
386.913	1089.31
387.138	1073.31
387.363	1107.31
387.588	1097.31
387.813	1089.31
388.038	1124.31
388.263	1103.31
388.488	1070.31
388.713	1096.31
388.938	1093.31
389.163	1106.31
389.387	1074.31
389.612	1077.31
389.837	1059.31
390.062	1062.31
390.287	1111.31
390.512	1093.31
390.736	1079.31
390.961	1095.31
391.186	1101.31
391.411	1132.31
391.636	1150.31
391.86	1179.31
392.085	1257.31
392.31	1206.31
392.534	1193.31
392.759	1164.31
392.984	1142.31
393.208	1110.31
393.433	1142.31
393.658	1164.31
393.882	1129.31
394.107	1151.31
394.331	1138.31
394.556	1149.31
394.78	1150.31
395.005	1158.31
395.229	1151.31
395.454	1200.31
395.678	1195.31
395.903	1282.31
396.127	1298.31
396.352	1272.31
396.576	1198.31
396.801	1144.31
397.025	1178.31
397.249	1193.31
397.474	1259.31
397.698	1210.31
397.922	1298.31
398.147	1308.31
398.371	1341.31
398.595	1316.31
398.82	1370.31
399.044	1447.31
399.268	1486.31
399.492	1678.31
399.717	1857.31
399.941	1944.31
400.165	1900.31
400.389	1776.31
400.613	1557.31
400.837	1470.31
401.062	1438.31
401.286	1370.31
401.51	1358.31
401.734	1359.31
401.958	1419.31
402.182	1430.31
402.406	1454.31
402.63	1435.31
402.854	1471.31
403.078	1481.31
403.302	1478.31
403.526	1526.31
403.75	1532.31
403.974	1570.31
404.198	1561.31
404.422	1551.31
404.645	1577.31
404.869	1560.31
405.093	1556.31
405.317	1598.31
405.541	1662.31
405.765	1573.31
405.988	1510.31
406.212	1561.31
406.436	1598.31
406.66	1696.31
406.883	1656.31
407.107	1708.31
407.331	1817.31
407.555	2016.31
407.778	2023.31
408.002	1862.31
408.226	1686.31
408.449	1642.31
408.673	1614.31
408.896	1685.31
409.12	1805.31
409.344	1712.31
409.567	1528.31
409.791	1516.31
410.014	1536.31
410.238	1506.31
410.461	1486.31
410.685	1532.31
410.908	1518.31
411.132	1628.31
411.355	1682.31
411.578	1615.31
411.802	1482.31
412.025	1435.31
412.249	1426.31
412.472	1454.31
412.695	1458.31
412.919	1414.31
413.142	1400.31
413.365	1396.31
413.589	1413.31
413.812	1416.31
414.035	1396.31
414.258	1415.31
414.482	1389.31
414.705	1405.31
414.928	1383.31
415.151	1393.31
415.374	1406.31
415.597	1388.31
415.821	1372.31
416.044	1422.31
416.267	1451.31
416.49	1401.31
416.713	1420.31
416.936	1400.31
417.159	1407.31
417.382	1446.31
417.605	1454.31
417.828	1487.31
418.051	1524.31
418.274	1526.31
418.497	1448.31
418.72	1453.31
418.943	1501.31
419.166	1545.31
419.389	1648.31
419.611	1584.31
419.834	1585.31
420.057	1603.31
420.28	1544.31
420.503	1472.31
420.726	1461.31
420.948	1538.31
421.171	1666.31
421.394	1720.31
421.617	1568.31
421.839	1530.31
422.062	1578.31
422.285	1556.31
422.507	1704.31
422.73	1928.31
422.953	1794.31
423.175	1622.31
423.398	1609.31
423.621	1635.31
423.843	1730.31
424.066	1682.31
424.288	1636.31
424.511	1728.31
424.733	1871.31
424.956	2086.31
425.178	1923.31
425.401	1946.31
425.623	2019.31
425.846	1708.31
426.068	1574.31
426.291	1579.31
426.513	1528.31
426.735	1569.31
426.958	1677.31
427.18	1916.31
427.402	2324.31
427.625	2489.31
427.847	2115.31
428.069	1722.31
428.292	1597.31
428.514	1488.31
428.736	1447.31
428.958	1478.31
429.181	1401.31
429.403	1408.31
429.625	1464.31
429.847	1504.31
430.069	1730.31
430.292	1723.31
430.514	1441.31
430.736	1432.31
430.958	1381.31
431.18	1344.31
431.402	1354.31
431.624	1327.31
431.846	1236.31
432.068	1207.31
432.29	1262.31
432.512	1305.31
432.734	1398.31
432.956	1424.31
433.178	1465.31
433.4	1495.31
433.622	1467.31
433.844	1427.31
434.066	1333.31
434.287	1282.31
434.509	1280.31
434.731	1312.31
434.953	1432.31
435.175	1544.31
435.397	1647.31
435.618	1572.31
435.84	1646.31
436.062	2024.31
436.284	2161.31
436.505	1724.31
436.727	1595.31
436.949	1494.31
437.17	1468.31
437.392	1448.31
437.614	1417.31
437.835	1425.31
438.057	1702.31
438.278	2000.31
438.5	1989.31
438.721	2288.31
438.943	2215.31
439.165	1764.31
439.386	1652.31
439.608	1689.31
439.829	1688.31
440.05	1819.31
440.272	1993.31
440.493	1813.31
440.715	1659.31
440.936	1610.31
441.158	1603.31
441.379	1572.31
441.6	1740.31
441.822	1740.31
442.043	1844.31
442.264	2071.31
442.486	2152.31
442.707	1799.31
442.928	1789.31
443.149	1786.31
443.371	1915.31
443.592	1954.31
443.813	2225.31
444.034	2369.31
444.255	2000.31
444.476	1743.31
444.698	1844.31
444.919	1865.31
445.14	3341.31
445.361	2517.31
445.582	1964.31
445.803	2176.31
446.024	2464.31
446.245	2463.31
446.466	2201.31
446.687	1878.31
446.908	1748.31
447.129	1669.31
447.35	1577.31
447.571	1572.31
447.792	1539.31
448.013	1518.31
448.234	1568.31
448.455	1678.31
448.675	2026.31
448.896	2390.31
449.117	1895.31
449.338	1778.31
449.559	2110.31
449.779	2449.31
450	1872.31
450.221	1589.31
450.442	1466.31
450.662	1454.31
450.883	1430.31
451.104	1542.31
451.324	1440.31
451.545	1378.31
451.766	1352.31
451.986	1306.31
452.207	1241.31
452.428	1278.31
452.648	1274.31
452.869	1275.31
453.089	1300.31
453.31	1256.31
453.53	1227.31
453.751	1198.31
453.971	1152.31
454.192	1233.31
454.412	1208.31
454.633	1223.31
454.853	1177.31
455.073	1232.31
455.294	1304.31
455.514	1534.31
455.734	1439.31
455.955	1239.31
456.175	1162.31
456.395	1112.31
456.616	1094.31
456.836	1106.31
457.056	1093.31
457.276	1023.31
457.497	1093.31
457.717	1106.31
457.937	1144.31
458.157	1115.31
458.377	1152.31
458.598	1200.31
458.818	1331.31
459.038	1558.31
459.258	1592.31
459.478	1327.31
459.698	1223.31
459.918	1238.31
460.138	1284.31
460.358	1336.31
460.578	1396.31
460.798	1397.31
461.018	1431.31
461.238	1413.31
461.458	1399.31
461.678	1339.31
461.898	1388.31
462.118	1381.31
462.338	1435.31
462.558	1485.31
462.777	1482.31
462.997	1578.31
463.217	1620.31
463.437	1669.31
463.657	1564.31
463.876	1494.31
464.096	1496.31
464.316	1514.31
464.536	1541.31
464.755	1568.31
464.975	1558.31
465.195	1645.31
465.414	1809.31
465.634	1533.31
465.854	1401.31
466.073	1335.31
466.293	1316.31
466.512	1315.31
466.732	1332.31
466.951	1332.31
467.171	1343.31
467.391	1385.31
467.61	1396.31
467.829	1427.31
468.049	1394.31
468.268	1326.31
468.488	1326.31
468.707	1314.31
468.927	1317.31
469.146	1340.31
469.365	1370.31
469.585	1352.31
469.804	1388.31
470.023	1465.31
470.243	1464.31
470.462	1491.31
470.681	1521.31
470.901	1495.31
471.12	1440.31
471.339	1465.31
471.558	1462.31
471.777	1425.31
471.997	1362.31
472.216	1292.31
472.435	1186.31
472.654	1151.31
472.873	1121.31
473.092	1178.31
473.311	1256.31
473.53	1264.31
473.749	1300.31
473.968	1422.31
474.187	1716.31
474.406	1694.31
474.625	1412.31
474.844	1344.31
475.063	1261.31
475.282	1256.31
475.501	1219.31
475.72	1300.31
475.939	1292.31
476.158	1296.31
476.377	1325.31
476.596	1231.31
476.814	1254.31
477.033	1279.31
477.252	1247.31
477.471	1328.31
477.69	1408.31
477.908	1448.31
478.127	1526.31
478.346	1507.31
478.564	1521.31
478.783	1499.31
479.002	1572.31
479.22	1538.31
479.439	1568.31
479.658	1552.31
479.876	1477.31
480.095	1494.31
480.313	1653.31
480.532	1649.31
480.751	1512.31
480.969	1441.31
481.188	1391.31
481.406	1367.31
481.624	1327.31
481.843	1273.31
482.061	1325.31
482.28	1351.31
482.498	1339.31
482.717	1299.31
482.935	1378.31
483.153	1519.31
483.372	1541.31
483.59	1558.31
483.808	1481.31
484.027	1458.31
484.245	1468.31
484.463	1466.31
484.681	1591.31
484.9	1491.31
485.118	1521.31
485.336	1503.31
485.554	1434.31
485.772	1392.31
485.99	1390.31
486.209	1457.31
486.427	1473.31
486.645	1517.31
486.863	1695.31
487.081	1682.31
487.299	1590.31
487.517	1629.31
487.735	1776.31
487.953	1919.31
488.171	1864.31
488.389	1800.31
488.607	1696.31
488.825	1629.31
489.043	1528.31
489.261	1584.31
489.479	1648.31
489.696	1662.31
489.914	1669.31
490.132	1709.31
490.35	1823.31
490.568	1905.31
490.786	2044.31
491.003	2058.31
491.221	2096.31
491.439	2162.31
491.657	2252.31
491.874	2400.31
492.092	2448.31
492.31	2504.31
492.527	2449.31
492.745	2287.31
492.963	2265.31
493.18	2223.31
493.398	2241.31
493.615	2239.31
493.833	2226.31
