Data from FlinnAP5935BZINC.07152019.LAMPEdge.EN10.5scans.P1_HRD10591_15-01-41-580.txt Node
Date: Mon Jul 15 15:01:41 EDT 2019
User: cochatt
Spectrometer: HR+D1059
Trigger mode: 1
Integration Time (sec): 1.000000E-1
Scans to average: 1
Electric dark correction enabled: true
Nonlinearity correction enabled: false
Boxcar width: 0
XAxis mode: Wavelengths
Number of Pixels in Spectrum: 2048
>>>>>Begin Spectral Data<<<<<
223.165	-12.81
223.4	-12.81
223.635	-12.81
223.869	-19.81
224.104	-16.81
224.338	-19.81
224.573	-12.81
224.808	-27.81
225.042	-10.81
225.277	-11.81
225.511	7.19
225.746	10.19
225.98	22.19
226.215	5.19
226.449	14.19
226.683	16.19
226.918	26.19
227.152	31.19
227.387	39.19
227.621	31.19
227.856	35.19
228.09	36.19
228.324	44.19
228.559	50.19
228.793	85.19
229.027	125.19
229.262	122.19
229.496	144.19
229.73	144.19
229.964	154.19
230.199	153.19
230.433	154.19
230.667	144.19
230.901	179.19
231.136	175.19
231.37	183.19
231.604	171.19
231.838	184.19
232.072	183.19
232.306	186.19
232.541	180.19
232.775	174.19
233.009	199.19
233.243	190.19
233.477	188.19
233.711	182.19
233.945	200.19
234.179	193.19
234.413	208.19
234.647	204.19
234.881	188.19
235.115	191.19
235.349	197.19
235.583	193.19
235.817	191.19
236.051	186.19
236.285	214.19
236.519	201.19
236.753	208.19
236.987	210.19
237.221	220.19
237.455	219.19
237.689	226.19
237.922	229.19
238.156	233.19
238.39	222.19
238.624	214.19
238.858	237.19
239.091	246.19
239.325	240.19
239.559	244.19
239.793	240.19
240.027	243.19
240.26	253.19
240.494	244.19
240.728	245.19
240.961	266.19
241.195	228.19
241.429	258.19
241.662	240.19
241.896	249.19
242.13	278.19
242.363	283.19
242.597	276.19
242.83	268.19
243.064	273.19
243.298	278.19
243.531	291.19
243.765	298.19
243.998	300.19
244.232	302.19
244.465	299.19
244.699	310.19
244.932	308.19
245.166	314.19
245.399	320.19
245.633	316.19
245.866	301.19
246.099	341.19
246.333	323.19
246.566	335.19
246.8	337.19
247.033	337.19
247.266	345.19
247.5	344.19
247.733	364.19
247.966	353.19
248.2	358.19
248.433	381.19
248.666	381.19
248.899	374.19
249.133	383.19
249.366	409.19
249.599	420.19
249.832	424.19
250.066	477.19
250.299	544.19
250.532	662.19
250.765	723.19
250.998	643.19
251.231	559.19
251.465	559.19
251.698	515.19
251.931	499.19
252.164	493.19
252.397	451.19
252.63	479.19
252.863	487.19
253.096	466.19
253.329	448.19
253.562	476.19
253.795	466.19
254.028	503.19
254.261	498.19
254.494	508.19
254.727	484.19
254.96	525.19
255.193	546.19
255.426	586.19
255.659	639.19
255.892	843.19
256.124	1077.19
256.357	1168.19
256.59	954.19
256.823	800.19
257.056	736.19
257.289	700.19
257.521	651.19
257.754	630.19
257.987	624.19
258.22	603.19
258.452	602.19
258.685	601.19
258.918	580.19
259.151	569.19
259.383	561.19
259.616	552.19
259.849	531.19
260.081	572.19
260.314	587.19
260.547	555.19
260.779	548.19
261.012	578.19
261.244	599.19
261.477	576.19
261.71	564.19
261.942	560.19
262.175	551.19
262.407	559.19
262.64	547.19
262.872	556.19
263.105	554.19
263.337	515.19
263.57	552.19
263.802	579.19
264.035	554.19
264.267	574.19
264.499	559.19
264.732	555.19
264.964	555.19
265.197	568.19
265.429	582.19
265.661	593.19
265.894	574.19
266.126	584.19
266.358	598.19
266.591	570.19
266.823	614.19
267.055	623.19
267.287	623.19
267.52	594.19
267.752	608.19
267.984	613.19
268.216	619.19
268.448	623.19
268.681	623.19
268.913	618.19
269.145	633.19
269.377	622.19
269.609	624.19
269.841	620.19
270.073	618.19
270.306	624.19
270.538	630.19
270.77	627.19
271.002	654.19
271.234	686.19
271.466	685.19
271.698	657.19
271.93	672.19
272.162	686.19
272.394	679.19
272.626	697.19
272.858	658.19
273.09	705.19
273.322	721.19
273.553	696.19
273.785	730.19
274.017	720.19
274.249	739.19
274.481	747.19
274.713	716.19
274.945	776.19
275.176	782.19
275.408	787.19
275.64	805.19
275.872	844.19
276.104	829.19
276.335	811.19
276.567	809.19
276.799	850.19
277.031	900.19
277.262	988.19
277.494	1015.19
277.726	918.19
277.957	903.19
278.189	888.19
278.421	860.19
278.652	859.19
278.884	839.19
279.115	868.19
279.347	890.19
279.579	881.19
279.81	963.19
280.042	1019.19
280.273	1197.19
280.505	1199.19
280.736	1002.19
280.968	942.19
281.199	921.19
281.431	891.19
281.662	907.19
281.894	890.19
282.125	877.19
282.356	874.19
282.588	870.19
282.819	867.19
283.051	850.19
283.282	865.19
283.513	890.19
283.745	868.19
283.976	855.19
284.207	840.19
284.439	852.19
284.67	873.19
284.901	872.19
285.132	864.19
285.364	885.19
285.595	874.19
285.826	868.19
286.057	919.19
286.288	876.19
286.52	916.19
286.751	899.19
286.982	902.19
287.213	906.19
287.444	931.19
287.675	921.19
287.906	887.19
288.138	888.19
288.369	917.19
288.6	926.19
288.831	923.19
289.062	901.19
289.293	928.19
289.524	928.19
289.755	925.19
289.986	918.19
290.217	948.19
290.448	914.19
290.679	897.19
290.91	920.19
291.141	933.19
291.371	907.19
291.602	913.19
291.833	910.19
292.064	916.19
292.295	922.19
292.526	907.19
292.757	926.19
292.987	926.19
293.218	906.19
293.449	926.19
293.68	920.19
293.91	924.19
294.141	943.19
294.372	905.19
294.603	922.19
294.833	928.19
295.064	921.19
295.295	934.19
295.525	916.19
295.756	931.19
295.987	918.19
296.217	934.19
296.448	942.19
296.679	937.19
296.909	940.19
297.14	931.19
297.37	983.19
297.601	970.19
297.831	970.19
298.062	988.19
298.292	987.19
298.523	1023.19
298.753	986.19
298.984	982.19
299.214	985.19
299.445	978.19
299.675	978.19
299.905	991.19
300.136	978.19
300.366	989.19
300.597	1027.19
300.827	1026.19
301.057	1049.19
301.288	1032.19
301.518	1024.19
301.748	1076.19
301.979	1108.19
302.209	1078.19
302.439	1061.19
302.669	1073.19
302.9	1016.19
303.13	1070.19
303.36	1114.19
303.59	1113.19
303.82	1176.19
304.051	1162.19
304.281	1130.19
304.511	1089.19
304.741	1083.19
304.971	1097.19
305.201	1075.19
305.431	1040.19
305.661	1072.19
305.891	1061.19
306.121	1053.19
306.352	1050.19
306.582	1044.19
306.812	1086.19
307.042	1105.19
307.272	1162.19
307.502	1265.19
307.731	1267.19
307.961	1233.19
308.191	1113.19
308.421	1070.19
308.651	1048.19
308.881	1061.19
309.111	1043.19
309.341	1067.19
309.571	1080.19
309.8	1067.19
310.03	1086.19
310.26	1053.19
310.49	1078.19
310.72	1077.19
310.949	1092.19
311.179	1067.19
311.409	1068.19
311.639	1105.19
311.868	1092.19
312.098	1110.19
312.328	1116.19
312.557	1100.19
312.787	1124.19
313.017	1147.19
313.246	1159.19
313.476	1146.19
313.706	1130.19
313.935	1143.19
314.165	1163.19
314.394	1149.19
314.624	1170.19
314.853	1146.19
315.083	1133.19
315.312	1142.19
315.542	1150.19
315.771	1145.19
316.001	1167.19
316.23	1155.19
316.46	1154.19
316.689	1159.19
316.919	1155.19
317.148	1158.19
317.377	1194.19
317.607	1156.19
317.836	1170.19
318.065	1174.19
318.295	1169.19
318.524	1174.19
318.753	1163.19
318.983	1182.19
319.212	1173.19
319.441	1176.19
319.67	1224.19
319.9	1185.19
320.129	1159.19
320.358	1190.19
320.587	1177.19
320.816	1208.19
321.046	1209.19
321.275	1206.19
321.504	1248.19
321.733	1236.19
321.962	1258.19
322.191	1249.19
322.42	1260.19
322.649	1259.19
322.878	1282.19
323.108	1277.19
323.337	1308.19
323.566	1312.19
323.795	1327.19
324.024	1345.19
324.253	1360.19
324.482	1384.19
324.71	1380.19
324.939	1391.19
325.168	1393.19
325.397	1403.19
325.626	1404.19
325.855	1445.19
326.084	1526.19
326.313	1506.19
326.542	1529.19
326.77	1621.19
326.999	1584.19
327.228	1643.19
327.457	1786.19
327.686	1957.19
327.914	2268.19
328.143	2787.19
328.372	3395.19
328.6	3078.19
328.829	2315.19
329.058	2121.19
329.287	2142.19
329.515	2303.19
329.744	2666.19
329.972	3466.19
330.201	4605.19
330.43	5661.19
330.658	4679.19
330.887	2928.19
331.115	2362.19
331.344	2128.19
331.572	2018.19
331.801	1978.19
332.03	1973.19
332.258	2048.19
332.486	2021.19
332.715	2090.19
332.943	2196.19
333.172	2310.19
333.4	2447.19
333.629	2734.19
333.857	3137.19
334.085	3868.19
334.314	5076.19
334.542	6961.19
334.771	7427.19
334.999	4864.19
335.227	3229.19
335.455	2644.19
335.684	2308.19
335.912	2139.19
336.14	2040.19
336.369	1916.19
336.597	1875.19
336.825	1818.19
337.053	1785.19
337.281	1754.19
337.51	1684.19
337.738	1657.19
337.966	1610.19
338.194	1570.19
338.422	1569.19
338.65	1542.19
338.878	1504.19
339.106	1501.19
339.334	1486.19
339.562	1450.19
339.79	1423.19
340.018	1411.19
340.246	1413.19
340.474	1392.19
340.702	1394.19
340.93	1386.19
341.158	1376.19
341.386	1358.19
341.614	1380.19
341.842	1353.19
342.07	1342.19
342.298	1311.19
342.526	1294.19
342.754	1348.19
342.981	1326.19
343.209	1371.19
343.437	1406.19
343.665	1474.19
343.893	1545.19
344.12	1571.19
344.348	1527.19
344.576	1467.19
344.804	1387.19
345.031	1384.19
345.259	1343.19
345.487	1334.19
345.714	1289.19
345.942	1275.19
346.17	1288.19
346.397	1277.19
346.625	1227.19
346.853	1255.19
347.08	1249.19
347.308	1264.19
347.535	1239.19
347.763	1274.19
347.99	1272.19
348.218	1226.19
348.445	1240.19
348.673	1258.19
348.9	1241.19
349.128	1213.19
349.355	1246.19
349.583	1223.19
349.81	1214.19
350.037	1216.19
350.265	1195.19
350.492	1212.19
350.72	1211.19
350.947	1194.19
351.174	1216.19
351.402	1222.19
351.629	1202.19
351.856	1186.19
352.083	1186.19
352.311	1208.19
352.538	1169.19
352.765	1189.19
352.992	1204.19
353.22	1194.19
353.447	1144.19
353.674	1170.19
353.901	1199.19
354.128	1187.19
354.355	1187.19
354.583	1183.19
354.81	1202.19
355.037	1182.19
355.264	1205.19
355.491	1224.19
355.718	1206.19
355.945	1214.19
356.172	1209.19
356.399	1210.19
356.626	1215.19
356.853	1203.19
357.08	1176.19
357.307	1179.19
357.534	1165.19
357.761	1171.19
357.988	1192.19
358.215	1183.19
358.441	1158.19
358.668	1155.19
358.895	1170.19
359.122	1170.19
359.349	1183.19
359.576	1184.19
359.802	1168.19
360.029	1184.19
360.256	1169.19
360.483	1186.19
360.709	1189.19
360.936	1178.19
361.163	1184.19
361.39	1150.19
361.616	1154.19
361.843	1156.19
362.07	1161.19
362.296	1179.19
362.523	1174.19
362.749	1153.19
362.976	1172.19
363.203	1172.19
363.429	1130.19
363.656	1147.19
363.882	1136.19
364.109	1130.19
364.335	1139.19
364.562	1158.19
364.788	1139.19
365.015	1147.19
365.241	1152.19
365.468	1158.19
365.694	1150.19
365.92	1144.19
366.147	1139.19
366.373	1170.19
366.599	1174.19
366.826	1161.19
367.052	1132.19
367.278	1154.19
367.505	1146.19
367.731	1184.19
367.957	1146.19
368.184	1139.19
368.41	1187.19
368.636	1182.19
368.862	1187.19
369.089	1171.19
369.315	1178.19
369.541	1180.19
369.767	1171.19
369.993	1192.19
370.219	1172.19
370.445	1192.19
370.672	1187.19
370.898	1206.19
371.124	1207.19
371.35	1227.19
371.576	1255.19
371.802	1234.19
372.028	1250.19
372.254	1242.19
372.48	1249.19
372.706	1244.19
372.932	1285.19
373.158	1244.19
373.384	1213.19
373.61	1212.19
373.835	1238.19
374.061	1221.19
374.287	1272.19
374.513	1264.19
374.739	1240.19
374.965	1308.19
375.191	1336.19
375.416	1297.19
375.642	1286.19
375.868	1270.19
376.094	1257.19
376.319	1232.19
376.545	1240.19
376.771	1266.19
376.997	1242.19
377.222	1203.19
377.448	1204.19
377.674	1229.19
377.899	1197.19
378.125	1219.19
378.35	1206.19
378.576	1182.19
378.802	1194.19
379.027	1229.19
379.253	1194.19
379.478	1183.19
379.704	1194.19
379.929	1176.19
380.155	1185.19
380.38	1185.19
380.606	1192.19
380.831	1208.19
381.057	1192.19
381.282	1179.19
381.507	1180.19
381.733	1208.19
381.958	1207.19
382.184	1247.19
382.409	1226.19
382.634	1261.19
382.86	1275.19
383.085	1272.19
383.31	1289.19
383.535	1328.19
383.761	1331.19
383.986	1343.19
384.211	1372.19
384.436	1381.19
384.662	1354.19
384.887	1419.19
385.112	1412.19
385.337	1421.19
385.562	1424.19
385.787	1441.19
386.013	1441.19
386.238	1473.19
386.463	1450.19
386.688	1395.19
386.913	1430.19
387.138	1436.19
387.363	1397.19
387.588	1408.19
387.813	1408.19
388.038	1408.19
388.263	1422.19
388.488	1411.19
388.713	1445.19
388.938	1411.19
389.163	1420.19
389.387	1363.19
389.612	1392.19
389.837	1387.19
390.062	1355.19
390.287	1396.19
390.512	1362.19
390.736	1418.19
390.961	1423.19
391.186	1398.19
391.411	1511.19
391.636	1559.19
391.86	1574.19
392.085	1564.19
392.31	1592.19
392.534	1531.19
392.759	1480.19
392.984	1490.19
393.208	1496.19
393.433	1450.19
393.658	1475.19
393.882	1452.19
394.107	1482.19
394.331	1500.19
394.556	1457.19
394.78	1523.19
395.005	1533.19
395.229	1522.19
395.454	1584.19
395.678	1575.19
395.903	1590.19
396.127	1535.19
396.352	1510.19
396.576	1500.19
396.801	1478.19
397.025	1504.19
397.249	1550.19
397.474	1614.19
397.698	1585.19
397.922	1578.19
398.147	1608.19
398.371	1627.19
398.595	1692.19
398.82	1738.19
399.044	1854.19
399.268	2002.19
399.492	2339.19
399.717	2506.19
399.941	2438.19
400.165	2262.19
400.389	2068.19
400.613	1952.19
400.837	1838.19
401.062	1806.19
401.286	1764.19
401.51	1785.19
401.734	1747.19
401.958	1753.19
402.182	1772.19
402.406	1824.19
402.63	1817.19
402.854	1857.19
403.078	1863.19
403.302	1888.19
403.526	1953.19
403.75	1966.19
403.974	2003.19
404.198	2014.19
404.422	2056.19
404.645	2053.19
404.869	2131.19
405.093	2191.19
405.317	2219.19
405.541	2250.19
405.765	2136.19
405.988	2035.19
406.212	1980.19
406.436	1946.19
406.66	1974.19
406.883	1995.19
407.107	2085.19
407.331	2189.19
407.555	2204.19
407.778	2137.19
408.002	2112.19
408.226	2063.19
408.449	2002.19
408.673	1964.19
408.896	1893.19
409.12	1890.19
409.344	1917.19
409.567	1895.19
409.791	1900.19
410.014	1873.19
410.238	1870.19
410.461	1915.19
410.685	1884.19
410.908	1871.19
411.132	1871.19
411.355	1830.19
411.578	1814.19
411.802	1849.19
412.025	1867.19
412.249	1986.19
412.472	2121.19
412.695	2189.19
412.919	2107.19
413.142	2055.19
413.365	1963.19
413.589	1895.19
413.812	1887.19
414.035	1837.19
414.258	1823.19
414.482	1838.19
414.705	1833.19
414.928	1796.19
415.151	1797.19
415.374	1765.19
415.597	1766.19
415.821	1746.19
416.044	1748.19
416.267	1752.19
416.49	1704.19
416.713	1712.19
416.936	1738.19
417.159	1717.19
417.382	1780.19
417.605	1825.19
417.828	1857.19
418.051	1792.19
418.274	1760.19
418.497	1723.19
418.72	1757.19
418.943	1756.19
419.166	1856.19
419.389	1971.19
419.611	1936.19
419.834	1933.19
420.057	1927.19
420.28	2008.19
420.503	2024.19
420.726	1942.19
420.948	1859.19
421.171	1859.19
421.394	1830.19
421.617	1775.19
421.839	1745.19
422.062	1779.19
422.285	1785.19
422.507	1794.19
422.73	1763.19
422.953	1758.19
423.175	1800.19
423.398	1818.19
423.621	1819.19
423.843	1805.19
424.066	1798.19
424.288	1810.19
424.511	1750.19
424.733	1753.19
424.956	1737.19
425.178	1705.19
425.401	1729.19
425.623	1699.19
425.846	1660.19
426.068	1672.19
426.291	1659.19
426.513	1682.19
426.735	1650.19
426.958	1677.19
427.18	1634.19
427.402	1694.19
427.625	1770.19
427.847	1889.19
428.069	2019.19
428.292	1870.19
428.514	1718.19
428.736	1674.19
428.958	1630.19
429.181	1540.19
429.403	1553.19
429.625	1532.19
429.847	1536.19
430.069	1526.19
430.292	1484.19
430.514	1478.19
430.736	1520.19
430.958	1483.19
431.18	1500.19
431.402	1489.19
431.624	1504.19
431.846	1518.19
432.068	1525.19
432.29	1532.19
432.512	1456.19
432.734	1518.19
432.956	1472.19
433.178	1510.19
433.4	1506.19
433.622	1513.19
433.844	1551.19
434.066	1534.19
434.287	1525.19
434.509	1574.19
434.731	1648.19
434.953	1630.19
435.175	1635.19
435.397	1671.19
435.618	1574.19
435.84	1548.19
436.062	1539.19
436.284	1519.19
436.505	1497.19
436.727	1467.19
436.949	1483.19
437.17	1435.19
437.392	1466.19
437.614	1479.19
437.835	1388.19
438.057	1439.19
438.278	1384.19
438.5	1441.19
438.721	1430.19
438.943	1405.19
439.165	1432.19
439.386	1434.19
439.608	1490.19
439.829	1472.19
440.05	1423.19
440.272	1472.19
440.493	1468.19
440.715	1523.19
440.936	1514.19
441.158	1557.19
441.379	1568.19
441.6	1628.19
441.822	1628.19
442.043	1640.19
442.264	1616.19
442.486	1584.19
442.707	1619.19
442.928	1632.19
443.149	1644.19
443.371	1590.19
443.592	1583.19
443.813	1654.19
444.034	1666.19
444.255	1671.19
444.476	1751.19
444.698	1872.19
444.919	1922.19
445.14	2037.19
445.361	1758.19
445.582	1697.19
445.803	1582.19
446.024	1568.19
446.245	1531.19
446.466	1533.19
446.687	1452.19
446.908	1508.19
447.129	1431.19
447.35	1445.19
447.571	1450.19
447.792	1380.19
448.013	1399.19
448.234	1370.19
448.455	1385.19
448.675	1348.19
448.896	1350.19
449.117	1342.19
449.338	1352.19
449.559	1335.19
449.779	1342.19
450	1328.19
450.221	1326.19
450.442	1325.19
450.662	1363.19
450.883	1367.19
451.104	1368.19
451.324	1348.19
451.545	1332.19
451.766	1352.19
451.986	1301.19
452.207	1351.19
452.428	1386.19
452.648	1338.19
452.869	1316.19
453.089	1314.19
453.31	1309.19
453.53	1300.19
453.751	1324.19
453.971	1304.19
454.192	1298.19
454.412	1272.19
454.633	1278.19
454.853	1270.19
455.073	1269.19
455.294	1267.19
455.514	1278.19
455.734	1273.19
455.955	1245.19
456.175	1256.19
456.395	1259.19
456.616	1250.19
456.836	1243.19
457.056	1252.19
457.276	1298.19
457.497	1272.19
457.717	1275.19
457.937	1300.19
458.157	1300.19
458.377	1287.19
458.598	1331.19
458.818	1379.19
459.038	1391.19
459.258	1426.19
459.478	1496.19
459.698	1522.19
459.918	1587.19
460.138	1600.19
460.358	1686.19
460.578	1708.19
460.798	1748.19
461.018	1715.19
461.238	1704.19
461.458	1695.19
461.678	1707.19
461.898	1692.19
462.118	1755.19
462.338	1812.19
462.558	1855.19
462.777	1905.19
462.997	2088.19
463.217	2252.19
463.437	2198.19
463.657	2001.19
463.876	1930.19
464.096	1964.19
464.316	1920.19
464.536	1971.19
464.755	1902.19
464.975	1828.19
465.195	1765.19
465.414	1693.19
465.634	1613.19
465.854	1569.19
466.073	1554.19
466.293	1541.19
466.512	1456.19
466.732	1471.19
466.951	1481.19
467.171	1516.19
467.391	1532.19
467.61	1590.19
467.829	1721.19
468.049	2333.19
468.268	3386.19
468.488	2408.19
468.707	1863.19
468.927	1684.19
469.146	1593.19
469.365	1578.19
469.585	1555.19
469.804	1575.19
470.023	1599.19
470.243	1594.19
470.462	1600.19
470.681	1610.19
470.901	1627.19
471.12	1640.19
471.339	1644.19
471.558	1680.19
471.777	1772.19
471.997	2038.19
472.216	3171.19
472.435	5947.19
472.654	4414.19
472.873	2762.19
473.092	2265.19
473.311	2005.19
473.53	1858.19
473.749	1787.19
473.968	1706.19
474.187	1663.19
474.406	1608.19
474.625	1606.19
474.844	1619.19
475.063	1586.19
475.282	1577.19
475.501	1542.19
475.72	1616.19
475.939	1521.19
476.158	1571.19
476.377	1562.19
476.596	1587.19
476.814	1592.19
477.033	1571.19
477.252	1603.19
477.471	1634.19
477.69	1689.19
477.908	1726.19
478.127	1747.19
478.346	1793.19
478.564	1825.19
478.783	1807.19
479.002	1882.19
479.22	1884.19
479.439	1889.19
479.658	1884.19
479.876	1982.19
480.095	2010.19
480.313	2156.19
480.532	2363.19
480.751	2712.19
480.969	3673.19
481.188	7724.19
481.406	9038.19
481.624	4835.19
481.843	3534.19
482.061	2926.19
482.28	2626.19
482.498	2434.19
482.717	2238.19
482.935	2215.19
483.153	2124.19
483.372	2080.19
483.59	2025.19
483.808	2010.19
484.027	1973.19
484.245	1994.19
484.463	1910.19
484.681	1938.19
484.9	1924.19
485.118	1926.19
485.336	1939.19
485.554	1916.19
485.772	1938.19
485.99	1919.19
486.209	1915.19
486.427	1917.19
486.645	1903.19
486.863	1901.19
487.081	1899.19
487.299	1864.19
487.517	1858.19
487.735	1920.19
487.953	1888.19
488.171	1926.19
488.389	1898.19
488.607	1897.19
488.825	1919.19
489.043	1869.19
489.261	1932.19
489.479	1956.19
489.696	1945.19
489.914	1983.19
490.132	2024.19
490.35	2084.19
