Data from FlinnAP9092KCOPPER.07152019.LAMP.EN10.P1_HRD10591_14-45-31-668.txt Node
Date: Mon Jul 15 14:45:31 EDT 2019
User: cochatt
Spectrometer: HR+D1059
Trigger mode: 3
Integration Time (sec): 1.000000E-1
Scans to average: 1
Electric dark correction enabled: true
Nonlinearity correction enabled: false
Boxcar width: 0
XAxis mode: Wavelengths
Number of Pixels in Spectrum: 2048
>>>>>Begin Spectral Data<<<<<
223.165	-11.56
223.4	-11.56
223.635	-11.56
223.869	-16.56
224.104	-17.56
224.338	-6.56
224.573	-13.56
224.808	-8.56
225.042	-11.56
225.277	-0.56
225.511	-13.56
225.746	-8.56
225.98	4.44
226.215	23.44
226.449	15.44
226.683	12.44
226.918	25.44
227.152	27.44
227.387	40.44
227.621	32.44
227.856	51.44
228.09	46.44
228.324	45.44
228.559	46.44
228.793	101.44
229.027	153.44
229.262	191.44
229.496	206.44
229.73	252.44
229.964	309.44
230.199	235.44
230.433	184.44
230.667	189.44
230.901	178.44
231.136	175.44
231.37	171.44
231.604	166.44
231.838	172.44
232.072	183.44
232.306	196.44
232.541	187.44
232.775	181.44
233.009	191.44
233.243	191.44
233.477	184.44
233.711	183.44
233.945	179.44
234.179	163.44
234.413	203.44
234.647	175.44
234.881	194.44
235.115	192.44
235.349	193.44
235.583	213.44
235.817	210.44
236.051	215.44
236.285	220.44
236.519	213.44
236.753	230.44
236.987	244.44
237.221	341.44
237.455	516.44
237.689	374.44
237.922	241.44
238.156	239.44
238.39	225.44
238.624	221.44
238.858	217.44
239.091	224.44
239.325	216.44
239.559	228.44
239.793	239.44
240.027	231.44
240.26	283.44
240.494	325.44
240.728	313.44
240.961	301.44
241.195	272.44
241.429	260.44
241.662	236.44
241.896	253.44
242.13	258.44
242.363	239.44
242.597	252.44
242.83	271.44
243.064	254.44
243.298	256.44
243.531	241.44
243.765	251.44
243.998	273.44
244.232	270.44
244.465	256.44
244.699	275.44
244.932	265.44
245.166	296.44
245.399	286.44
245.633	254.44
245.866	284.44
246.099	277.44
246.333	278.44
246.566	265.44
246.8	292.44
247.033	296.44
247.266	295.44
247.5	321.44
247.733	347.44
247.966	338.44
248.2	325.44
248.433	316.44
248.666	356.44
248.899	374.44
249.133	400.44
249.366	421.44
249.599	409.44
249.832	379.44
250.066	358.44
250.299	344.44
250.532	362.44
250.765	385.44
250.998	471.44
251.231	478.44
251.465	441.44
251.698	389.44
251.931	385.44
252.164	380.44
252.397	399.44
252.63	399.44
252.863	411.44
253.096	447.44
253.329	492.44
253.562	489.44
253.795	425.44
254.028	434.44
254.261	431.44
254.494	459.44
254.727	533.44
254.96	635.44
255.193	583.44
255.426	499.44
255.659	465.44
255.892	417.44
256.124	424.44
256.357	410.44
256.59	431.44
256.823	398.44
257.056	411.44
257.289	398.44
257.521	404.44
257.754	429.44
257.987	419.44
258.22	427.44
258.452	418.44
258.685	415.44
258.918	428.44
259.151	434.44
259.383	455.44
259.616	471.44
259.849	442.44
260.081	483.44
260.314	565.44
260.547	561.44
260.779	508.44
261.012	472.44
261.244	469.44
261.477	461.44
261.71	457.44
261.942	468.44
262.175	506.44
262.407	472.44
262.64	422.44
262.872	431.44
263.105	462.44
263.337	436.44
263.57	431.44
263.802	451.44
264.035	435.44
264.267	449.44
264.499	442.44
264.732	461.44
264.964	440.44
265.197	461.44
265.429	457.44
265.661	460.44
265.894	457.44
266.126	461.44
266.358	457.44
266.591	472.44
266.823	472.44
267.055	495.44
267.287	484.44
267.52	482.44
267.752	482.44
267.984	499.44
268.216	479.44
268.448	509.44
268.681	499.44
268.913	544.44
269.145	583.44
269.377	617.44
269.609	633.44
269.841	616.44
270.073	611.44
270.306	639.44
270.538	732.44
270.77	721.44
271.002	653.44
271.234	631.44
271.466	657.44
271.698	697.44
271.93	727.44
272.162	729.44
272.394	727.44
272.626	667.44
272.858	644.44
273.09	592.44
273.322	586.44
273.553	570.44
273.785	585.44
274.017	559.44
274.249	595.44
274.481	563.44
274.713	565.44
274.945	569.44
275.176	584.44
275.408	586.44
275.64	617.44
275.872	579.44
276.104	572.44
276.335	571.44
276.567	607.44
276.799	626.44
277.031	683.44
277.262	778.44
277.494	765.44
277.726	693.44
277.957	638.44
278.189	629.44
278.421	590.44
278.652	603.44
278.884	606.44
279.115	584.44
279.347	612.44
279.579	605.44
279.81	584.44
280.042	581.44
280.273	569.44
280.505	580.44
280.736	597.44
280.968	605.44
281.199	599.44
281.431	603.44
281.662	598.44
281.894	629.44
282.125	620.44
282.356	637.44
282.588	716.44
282.819	713.44
283.051	645.44
283.282	639.44
283.513	635.44
283.745	656.44
283.976	652.44
284.207	655.44
284.439	644.44
284.67	661.44
284.901	667.44
285.132	650.44
285.364	659.44
285.595	634.44
285.826	631.44
286.057	662.44
286.288	637.44
286.52	621.44
286.751	647.44
286.982	658.44
287.213	633.44
287.444	665.44
287.675	664.44
287.906	695.44
288.138	715.44
288.369	708.44
288.6	690.44
288.831	690.44
289.062	699.44
289.293	711.44
289.524	693.44
289.755	672.44
289.986	657.44
290.217	697.44
290.448	679.44
290.679	673.44
290.91	652.44
291.141	666.44
291.371	671.44
291.602	657.44
291.833	666.44
292.064	700.44
292.295	675.44
292.526	669.44
292.757	672.44
292.987	655.44
293.218	684.44
293.449	673.44
293.68	669.44
293.91	675.44
294.141	663.44
294.372	665.44
294.603	676.44
294.833	676.44
295.064	681.44
295.295	673.44
295.525	671.44
295.756	714.44
295.987	711.44
296.217	755.44
296.448	763.44
296.679	703.44
296.909	698.44
297.14	681.44
297.37	699.44
297.601	698.44
297.831	696.44
298.062	734.44
298.292	711.44
298.523	730.44
298.753	731.44
298.984	719.44
299.214	743.44
299.445	721.44
299.675	714.44
299.905	714.44
300.136	719.44
300.366	745.44
300.597	707.44
300.827	732.44
301.057	762.44
301.288	781.44
301.518	805.44
301.748	756.44
301.979	780.44
302.209	767.44
302.439	778.44
302.669	779.44
302.9	789.44
303.13	761.44
303.36	768.44
303.59	769.44
303.82	768.44
304.051	767.44
304.281	734.44
304.511	741.44
304.741	742.44
304.971	753.44
305.201	748.44
305.431	775.44
305.661	743.44
305.891	733.44
306.121	729.44
306.352	734.44
306.582	735.44
306.812	742.44
307.042	757.44
307.272	741.44
307.502	745.44
307.731	737.44
307.961	736.44
308.191	730.44
308.421	748.44
308.651	766.44
308.881	744.44
309.111	782.44
309.341	743.44
309.571	784.44
309.8	798.44
310.03	834.44
310.26	860.44
310.49	836.44
310.72	824.44
310.949	890.44
311.179	893.44
311.409	851.44
311.639	836.44
311.868	859.44
312.098	868.44
312.328	899.44
312.557	916.44
312.787	957.44
313.017	947.44
313.246	869.44
313.476	819.44
313.706	839.44
313.935	869.44
314.165	889.44
314.394	920.44
314.624	900.44
314.853	879.44
315.083	869.44
315.312	848.44
315.542	843.44
315.771	823.44
316.001	784.44
316.23	833.44
316.46	861.44
316.689	824.44
316.919	828.44
317.148	876.44
317.377	839.44
317.607	857.44
317.836	848.44
318.065	852.44
318.295	821.44
318.524	823.44
318.753	839.44
318.983	817.44
319.212	841.44
319.441	833.44
319.67	840.44
319.9	825.44
320.129	832.44
320.358	825.44
320.587	837.44
320.816	827.44
321.046	866.44
321.275	871.44
321.504	860.44
321.733	846.44
321.962	856.44
322.191	888.44
322.42	938.44
322.649	953.44
322.878	983.44
323.108	980.44
323.337	1027.44
323.566	1060.44
323.795	1126.44
324.024	1197.44
324.253	1439.44
324.482	2144.44
324.71	3626.44
324.939	5657.44
325.168	4929.44
325.397	1983.44
325.626	1257.44
325.855	1067.44
326.084	1035.44
326.313	1015.44
326.542	1035.44
326.77	1175.44
326.999	1420.44
327.228	2039.44
327.457	3295.44
327.686	4341.44
327.914	2539.44
328.143	1461.44
328.372	1249.44
328.6	1245.44
328.829	1187.44
329.058	1249.44
329.287	1323.44
329.515	1230.44
329.744	1051.44
329.972	1049.44
330.201	1048.44
330.43	1098.44
330.658	1197.44
330.887	1387.44
331.115	1395.44
331.344	1178.44
331.572	1106.44
331.801	1127.44
332.03	1099.44
332.258	1083.44
332.486	1033.44
332.715	1043.44
332.943	1041.44
333.172	1093.44
333.4	1138.44
333.629	1160.44
333.857	1172.44
334.085	1150.44
334.314	1151.44
334.542	1104.44
334.771	1101.44
334.999	1114.44
335.227	1091.44
335.455	1060.44
335.684	1039.44
335.912	1061.44
336.14	1032.44
336.369	1041.44
336.597	1070.44
336.825	1078.44
337.053	1033.44
337.281	977.44
337.51	1006.44
337.738	1009.44
337.966	1021.44
338.194	1017.44
338.422	1022.44
338.65	987.44
338.878	973.44
339.106	986.44
339.334	988.44
339.562	954.44
339.79	930.44
340.018	942.44
340.246	937.44
340.474	985.44
340.702	968.44
340.93	943.44
341.158	941.44
341.386	946.44
341.614	942.44
341.842	934.44
342.07	932.44
342.298	932.44
342.526	922.44
342.754	917.44
342.981	870.44
343.209	908.44
343.437	961.44
343.665	981.44
343.893	1056.44
344.12	1064.44
344.348	1073.44
344.576	1009.44
344.804	996.44
345.031	988.44
345.259	1019.44
345.487	1009.44
345.714	974.44
345.942	909.44
346.17	909.44
346.397	887.44
346.625	887.44
346.853	907.44
347.08	892.44
347.308	926.44
347.535	939.44
347.763	952.44
347.99	939.44
348.218	939.44
348.445	933.44
348.673	950.44
348.9	895.44
349.128	869.44
349.355	855.44
349.583	872.44
349.81	871.44
350.037	888.44
350.265	820.44
350.492	841.44
350.72	866.44
350.947	868.44
351.174	884.44
351.402	911.44
351.629	916.44
351.856	892.44
352.083	913.44
352.311	959.44
352.538	936.44
352.765	952.44
352.992	898.44
353.22	887.44
353.447	897.44
353.674	852.44
353.901	865.44
354.128	854.44
354.355	828.44
354.583	848.44
354.81	831.44
355.037	849.44
355.264	822.44
355.491	818.44
355.718	827.44
355.945	830.44
356.172	842.44
356.399	805.44
356.626	804.44
356.853	849.44
357.08	796.44
357.307	811.44
357.534	816.44
357.761	842.44
357.988	840.44
358.215	780.44
358.441	812.44
358.668	830.44
358.895	843.44
359.122	833.44
359.349	857.44
359.576	849.44
359.802	924.44
360.029	1008.44
360.256	1051.44
360.483	1013.44
360.709	900.44
360.936	892.44
361.163	877.44
361.39	896.44
361.616	875.44
361.843	900.44
362.07	860.44
362.296	901.44
362.523	892.44
362.749	887.44
362.976	847.44
363.203	827.44
363.429	827.44
363.656	843.44
363.882	856.44
364.109	813.44
364.335	812.44
364.562	840.44
364.788	842.44
365.015	824.44
365.241	829.44
365.468	850.44
365.694	863.44
365.92	884.44
366.147	866.44
366.373	822.44
366.599	849.44
366.826	829.44
367.052	827.44
367.278	823.44
367.505	843.44
367.731	858.44
367.957	848.44
368.184	863.44
368.41	874.44
368.636	896.44
368.862	900.44
369.089	864.44
369.315	873.44
369.541	863.44
369.767	857.44
369.993	860.44
370.219	881.44
370.445	873.44
370.672	867.44
370.898	863.44
371.124	890.44
371.35	890.44
371.576	874.44
371.802	877.44
372.028	881.44
372.254	864.44
372.48	871.44
372.706	891.44
372.932	901.44
373.158	884.44
373.384	903.44
373.61	880.44
373.835	894.44
374.061	919.44
374.287	919.44
374.513	917.44
374.739	919.44
374.965	934.44
375.191	950.44
375.416	947.44
375.642	921.44
375.868	949.44
376.094	905.44
376.319	898.44
376.545	913.44
376.771	877.44
376.997	880.44
377.222	880.44
377.448	895.44
377.674	869.44
377.899	882.44
378.125	884.44
378.35	879.44
378.576	903.44
378.802	872.44
379.027	857.44
379.253	898.44
379.478	891.44
379.704	898.44
379.929	916.44
380.155	907.44
380.38	894.44
380.606	904.44
380.831	915.44
381.057	906.44
381.282	916.44
381.507	893.44
381.733	903.44
381.958	926.44
382.184	931.44
382.409	950.44
382.634	928.44
382.86	963.44
383.085	939.44
383.31	959.44
383.535	964.44
383.761	959.44
383.986	985.44
384.211	1000.44
384.436	999.44
384.662	1034.44
384.887	1036.44
385.112	1026.44
385.337	1057.44
385.562	1020.44
385.787	1053.44
386.013	1068.44
386.238	1111.44
386.463	1107.44
386.688	1059.44
386.913	1017.44
387.138	1073.44
387.363	1033.44
387.588	1071.44
387.813	1061.44
388.038	1072.44
388.263	1052.44
388.488	1056.44
388.713	1064.44
388.938	1085.44
389.163	1067.44
389.387	1055.44
389.612	1028.44
389.837	1057.44
390.062	1013.44
390.287	1053.44
390.512	1047.44
390.736	1045.44
390.961	1081.44
391.186	1077.44
391.411	1087.44
391.636	1120.44
391.86	1168.44
392.085	1181.44
392.31	1185.44
392.534	1136.44
392.759	1117.44
392.984	1117.44
393.208	1079.44
393.433	1096.44
393.658	1098.44
393.882	1123.44
394.107	1118.44
394.331	1081.44
394.556	1111.44
394.78	1138.44
395.005	1138.44
395.229	1106.44
395.454	1170.44
395.678	1162.44
395.903	1213.44
396.127	1216.44
396.352	1208.44
396.576	1161.44
396.801	1148.44
397.025	1144.44
397.249	1140.44
397.474	1175.44
397.698	1191.44
397.922	1229.44
398.147	1263.44
398.371	1294.44
398.595	1257.44
398.82	1299.44
399.044	1341.44
399.268	1448.44
399.492	1625.44
399.717	1843.44
399.941	1827.44
400.165	1779.44
400.389	1735.44
400.613	1518.44
400.837	1400.44
401.062	1379.44
401.286	1365.44
401.51	1341.44
401.734	1337.44
401.958	1352.44
402.182	1364.44
402.406	1369.44
402.63	1420.44
402.854	1412.44
403.078	1415.44
403.302	1466.44
403.526	1522.44
403.75	1519.44
403.974	1480.44
404.198	1474.44
404.422	1505.44
404.645	1540.44
404.869	1491.44
405.093	1510.44
405.317	1557.44
405.541	1574.44
405.765	1499.44
405.988	1485.44
406.212	1545.44
406.436	1597.44
406.66	1659.44
406.883	1582.44
407.107	1666.44
407.331	1819.44
407.555	1991.44
407.778	1929.44
408.002	1769.44
408.226	1625.44
408.449	1609.44
408.673	1586.44
408.896	1599.44
409.12	1753.44
409.344	1660.44
409.567	1534.44
409.791	1493.44
410.014	1463.44
410.238	1465.44
410.461	1438.44
410.685	1483.44
410.908	1467.44
411.132	1583.44
411.355	1684.44
411.578	1559.44
411.802	1424.44
412.025	1436.44
412.249	1455.44
412.472	1428.44
412.695	1424.44
412.919	1383.44
413.142	1361.44
413.365	1357.44
413.589	1408.44
413.812	1363.44
414.035	1347.44
414.258	1357.44
414.482	1377.44
414.705	1368.44
414.928	1388.44
415.151	1367.44
415.374	1367.44
415.597	1371.44
415.821	1377.44
416.044	1380.44
416.267	1393.44
416.49	1403.44
416.713	1370.44
416.936	1390.44
417.159	1410.44
417.382	1417.44
417.605	1405.44
417.828	1470.44
418.051	1517.44
418.274	1469.44
418.497	1418.44
418.72	1437.44
418.943	1460.44
419.166	1510.44
419.389	1596.44
419.611	1548.44
419.834	1531.44
420.057	1523.44
420.28	1505.44
420.503	1457.44
420.726	1474.44
420.948	1507.44
421.171	1611.44
421.394	1687.44
421.617	1519.44
421.839	1544.44
422.062	1534.44
422.285	1533.44
422.507	1682.44
422.73	1890.44
422.953	1775.44
423.175	1602.44
423.398	1571.44
423.621	1611.44
423.843	1719.44
424.066	1686.44
424.288	1643.44
424.511	1705.44
424.733	1833.44
424.956	2019.44
425.178	1918.44
425.401	1920.44
425.623	1968.44
425.846	1653.44
426.068	1523.44
426.291	1501.44
426.513	1480.44
426.735	1557.44
426.958	1627.44
427.18	1880.44
427.402	2259.44
427.625	2457.44
427.847	2007.44
428.069	1660.44
428.292	1499.44
428.514	1428.44
428.736	1418.44
428.958	1419.44
429.181	1384.44
429.403	1383.44
429.625	1388.44
429.847	1493.44
430.069	1689.44
430.292	1691.44
430.514	1464.44
430.736	1451.44
430.958	1365.44
431.18	1348.44
431.402	1307.44
431.624	1269.44
431.846	1250.44
432.068	1207.44
432.29	1216.44
432.512	1234.44
432.734	1341.44
432.956	1394.44
433.178	1431.44
433.4	1452.44
433.622	1410.44
433.844	1351.44
434.066	1281.44
434.287	1215.44
434.509	1241.44
434.731	1265.44
434.953	1354.44
435.175	1505.44
435.397	1577.44
435.618	1536.44
435.84	1530.44
436.062	1865.44
436.284	2086.44
436.505	1704.44
436.727	1559.44
436.949	1459.44
437.17	1427.44
437.392	1390.44
437.614	1391.44
437.835	1412.44
438.057	1664.44
438.278	1970.44
438.5	1928.44
438.721	2258.44
438.943	2113.44
439.165	1681.44
439.386	1636.44
439.608	1633.44
439.829	1631.44
440.05	1784.44
440.272	1992.44
440.493	1806.44
440.715	1645.44
440.936	1576.44
441.158	1583.44
441.379	1593.44
441.6	1656.44
441.822	1691.44
442.043	1796.44
442.264	2004.44
442.486	2099.44
442.707	1811.44
442.928	1697.44
443.149	1729.44
443.371	1866.44
443.592	1895.44
443.813	2192.44
444.034	2377.44
444.255	1930.44
444.476	1790.44
444.698	1765.44
444.919	1777.44
445.14	1899.44
445.361	1843.44
445.582	1894.44
445.803	2123.44
446.024	2416.44
446.245	2401.44
446.466	2138.44
446.687	1831.44
446.908	1701.44
447.129	1602.44
447.35	1547.44
447.571	1551.44
447.792	1490.44
448.013	1480.44
448.234	1547.44
448.455	1649.44
448.675	2026.44
448.896	2279.44
449.117	1848.44
449.338	1775.44
449.559	2167.44
449.779	2393.44
450	1823.44
450.221	1543.44
450.442	1450.44
450.662	1438.44
450.883	1461.44
451.104	1480.44
451.324	1404.44
451.545	1339.44
451.766	1322.44
451.986	1278.44
452.207	1250.44
452.428	1254.44
452.648	1254.44
452.869	1241.44
453.089	1266.44
453.31	1254.44
453.53	1188.44
453.751	1122.44
453.971	1134.44
454.192	1220.44
454.412	1185.44
454.633	1208.44
454.853	1170.44
455.073	1177.44
455.294	1249.44
455.514	1482.44
455.734	1431.44
455.955	1200.44
456.175	1129.44
456.395	1097.44
456.616	1060.44
456.836	1101.44
457.056	1048.44
457.276	1050.44
457.497	1071.44
457.717	1055.44
457.937	1074.44
458.157	1091.44
458.377	1120.44
458.598	1140.44
458.818	1265.44
459.038	1540.44
459.258	1523.44
459.478	1231.44
459.698	1195.44
459.918	1177.44
460.138	1304.44
460.358	1304.44
460.578	1328.44
460.798	1378.44
461.018	1391.44
461.238	1389.44
461.458	1364.44
461.678	1307.44
461.898	1334.44
462.118	1361.44
462.338	1443.44
462.558	1442.44
462.777	1484.44
462.997	1527.44
463.217	1642.44
463.437	1599.44
463.657	1536.44
463.876	1469.44
464.096	1499.44
464.316	1482.44
464.536	1484.44
464.755	1506.44
464.975	1543.44
465.195	1601.44
465.414	1749.44
465.634	1513.44
465.854	1376.44
466.073	1342.44
466.293	1357.44
466.512	1303.44
466.732	1288.44
466.951	1342.44
467.171	1342.44
467.391	1336.44
467.61	1373.44
467.829	1383.44
468.049	1365.44
468.268	1282.44
468.488	1291.44
468.707	1319.44
468.927	1305.44
469.146	1325.44
469.365	1357.44
469.585	1354.44
469.804	1393.44
470.023	1449.44
470.243	1460.44
470.462	1465.44
470.681	1499.44
470.901	1469.44
471.12	1409.44
471.339	1434.44
471.558	1449.44
471.777	1399.44
471.997	1312.44
472.216	1259.44
472.435	1207.44
472.654	1150.44
472.873	1108.44
473.092	1152.44
473.311	1213.44
473.53	1243.44
473.749	1279.44
473.968	1387.44
474.187	1674.44
474.406	1717.44
474.625	1368.44
474.844	1303.44
475.063	1267.44
475.282	1250.44
475.501	1220.44
475.72	1241.44
475.939	1281.44
476.158	1295.44
476.377	1307.44
476.596	1261.44
476.814	1233.44
477.033	1218.44
477.252	1255.44
477.471	1328.44
477.69	1382.44
477.908	1455.44
478.127	1481.44
478.346	1456.44
478.564	1503.44
478.783	1489.44
479.002	1572.44
479.22	1569.44
479.439	1539.44
479.658	1518.44
479.876	1473.44
480.095	1499.44
480.313	1620.44
480.532	1597.44
480.751	1510.44
480.969	1399.44
481.188	1368.44
481.406	1336.44
481.624	1266.44
481.843	1259.44
482.061	1268.44
482.28	1317.44
482.498	1347.44
482.717	1303.44
482.935	1371.44
483.153	1492.44
483.372	1548.44
483.59	1512.44
483.808	1475.44
484.027	1406.44
484.245	1403.44
484.463	1500.44
484.681	1513.44
484.9	1484.44
485.118	1522.44
485.336	1451.44
485.554	1396.44
485.772	1349.44
485.99	1354.44
486.209	1416.44
486.427	1392.44
486.645	1481.44
486.863	1643.44
487.081	1662.44
487.299	1579.44
487.517	1581.44
487.735	1748.44
487.953	1839.44
488.171	1847.44
488.389	1757.44
488.607	1698.44
488.825	1605.44
489.043	1548.44
489.261	1583.44
489.479	1553.44
489.696	1626.44
489.914	1625.44
490.132	1674.44
490.35	1757.44
490.568	1846.44
490.786	1951.44
491.003	2021.44
491.221	2136.44
491.439	2176.44
491.657	2224.44
491.874	2340.44
492.092	2465.44
492.31	2547.44
492.527	2457.44
492.745	2332.44
492.963	2236.44
493.18	2241.44
493.398	2270.44
493.615	2215.44
493.833	2194.44
494.05	2187.44
494.268	2145.44
