Data from FlinnAP9092KCOPPER.07152019.LAMP.EN7.P1_HRD10591_14-44-41-667.txt Node
Date: Mon Jul 15 14:44:41 EDT 2019
User: cochatt
Spectrometer: HR+D1059
Trigger mode: 3
Integration Time (sec): 1.000000E-1
Scans to average: 1
Electric dark correction enabled: true
Nonlinearity correction enabled: false
Boxcar width: 0
XAxis mode: Wavelengths
Number of Pixels in Spectrum: 2048
>>>>>Begin Spectral Data<<<<<
223.165	-18.44
223.4	-18.44
223.635	-18.44
223.869	-11.44
224.104	-18.44
224.338	-17.44
224.573	-19.44
224.808	-7.44
225.042	-3.44
225.277	-9.44
225.511	3.56
225.746	3.56
225.98	8.56
226.215	16.56
226.449	14.56
226.683	5.56
226.918	26.56
227.152	26.56
227.387	35.56
227.621	37.56
227.856	43.56
228.09	66.56
228.324	52.56
228.559	58.56
228.793	83.56
229.027	115.56
229.262	134.56
229.496	128.56
229.73	157.56
229.964	197.56
230.199	157.56
230.433	138.56
230.667	135.56
230.901	143.56
231.136	131.56
231.37	126.56
231.604	149.56
231.838	135.56
232.072	147.56
232.306	146.56
232.541	130.56
232.775	127.56
233.009	142.56
233.243	144.56
233.477	143.56
233.711	147.56
233.945	147.56
234.179	150.56
234.413	148.56
234.647	130.56
234.881	132.56
235.115	142.56
235.349	150.56
235.583	150.56
235.817	159.56
236.051	163.56
236.285	159.56
236.519	157.56
236.753	175.56
236.987	176.56
237.221	211.56
237.455	268.56
237.689	232.56
237.922	174.56
238.156	181.56
238.39	151.56
238.624	160.56
238.858	151.56
239.091	154.56
239.325	155.56
239.559	161.56
239.793	149.56
240.027	172.56
240.26	188.56
240.494	197.56
240.728	216.56
240.961	202.56
241.195	194.56
241.429	172.56
241.662	170.56
241.896	173.56
242.13	166.56
242.363	167.56
242.597	185.56
242.83	192.56
243.064	180.56
243.298	167.56
243.531	190.56
243.765	176.56
243.998	195.56
244.232	177.56
244.465	187.56
244.699	184.56
244.932	186.56
245.166	176.56
245.399	206.56
245.633	200.56
245.866	184.56
246.099	191.56
246.333	209.56
246.566	206.56
246.8	203.56
247.033	185.56
247.266	207.56
247.5	219.56
247.733	215.56
247.966	237.56
248.2	221.56
248.433	226.56
248.666	217.56
248.899	240.56
249.133	263.56
249.366	271.56
249.599	281.56
249.832	247.56
250.066	227.56
250.299	223.56
250.532	240.56
250.765	260.56
250.998	280.56
251.231	268.56
251.465	295.56
251.698	261.56
251.931	272.56
252.164	250.56
252.397	245.56
252.63	251.56
252.863	257.56
253.096	270.56
253.329	293.56
253.562	294.56
253.795	272.56
254.028	299.56
254.261	283.56
254.494	286.56
254.727	337.56
254.96	366.56
255.193	351.56
255.426	318.56
255.659	306.56
255.892	285.56
256.124	274.56
256.357	273.56
256.59	272.56
256.823	263.56
257.056	259.56
257.289	284.56
257.521	262.56
257.754	266.56
257.987	261.56
258.22	272.56
258.452	278.56
258.685	263.56
258.918	263.56
259.151	281.56
259.383	293.56
259.616	311.56
259.849	302.56
260.081	327.56
260.314	346.56
260.547	344.56
260.779	328.56
261.012	336.56
261.244	308.56
261.477	303.56
261.71	286.56
261.942	311.56
262.175	304.56
262.407	304.56
262.64	297.56
262.872	286.56
263.105	303.56
263.337	290.56
263.57	286.56
263.802	305.56
264.035	308.56
264.267	300.56
264.499	294.56
264.732	312.56
264.964	298.56
265.197	295.56
265.429	300.56
265.661	292.56
265.894	298.56
266.126	291.56
266.358	305.56
266.591	296.56
266.823	310.56
267.055	320.56
267.287	338.56
267.52	315.56
267.752	316.56
267.984	347.56
268.216	340.56
268.448	323.56
268.681	332.56
268.913	354.56
269.145	372.56
269.377	378.56
269.609	368.56
269.841	373.56
270.073	380.56
270.306	386.56
270.538	413.56
270.77	428.56
271.002	404.56
271.234	399.56
271.466	405.56
271.698	396.56
271.93	440.56
272.162	428.56
272.394	414.56
272.626	408.56
272.858	368.56
273.09	378.56
273.322	356.56
273.553	368.56
273.785	383.56
274.017	381.56
274.249	354.56
274.481	367.56
274.713	372.56
274.945	385.56
275.176	371.56
275.408	350.56
275.64	354.56
275.872	364.56
276.104	388.56
276.335	397.56
276.567	404.56
276.799	373.56
277.031	414.56
277.262	439.56
277.494	428.56
277.726	423.56
277.957	410.56
278.189	382.56
278.421	381.56
278.652	394.56
278.884	386.56
279.115	393.56
279.347	386.56
279.579	380.56
279.81	372.56
280.042	410.56
280.273	374.56
280.505	386.56
280.736	395.56
280.968	370.56
281.199	396.56
281.431	395.56
281.662	419.56
281.894	392.56
282.125	389.56
282.356	430.56
282.588	432.56
282.819	429.56
283.051	428.56
283.282	411.56
283.513	404.56
283.745	391.56
283.976	414.56
284.207	398.56
284.439	407.56
284.67	410.56
284.901	421.56
285.132	414.56
285.364	392.56
285.595	432.56
285.826	420.56
286.057	428.56
286.288	436.56
286.52	414.56
286.751	417.56
286.982	434.56
287.213	424.56
287.444	423.56
287.675	442.56
287.906	422.56
288.138	442.56
288.369	460.56
288.6	450.56
288.831	440.56
289.062	442.56
289.293	446.56
289.524	421.56
289.755	428.56
289.986	431.56
290.217	419.56
290.448	443.56
290.679	427.56
290.91	422.56
291.141	430.56
291.371	448.56
291.602	451.56
291.833	417.56
292.064	424.56
292.295	412.56
292.526	433.56
292.757	428.56
292.987	421.56
293.218	420.56
293.449	456.56
293.68	452.56
293.91	432.56
294.141	425.56
294.372	434.56
294.603	424.56
294.833	449.56
295.064	436.56
295.295	438.56
295.525	419.56
295.756	444.56
295.987	434.56
296.217	454.56
296.448	464.56
296.679	444.56
296.909	446.56
297.14	452.56
297.37	445.56
297.601	471.56
297.831	455.56
298.062	462.56
298.292	470.56
298.523	462.56
298.753	462.56
298.984	451.56
299.214	452.56
299.445	458.56
299.675	469.56
299.905	446.56
300.136	450.56
300.366	460.56
300.597	458.56
300.827	461.56
301.057	469.56
301.288	487.56
301.518	485.56
301.748	495.56
301.979	488.56
302.209	487.56
302.439	475.56
302.669	473.56
302.9	478.56
303.13	473.56
303.36	474.56
303.59	491.56
303.82	496.56
304.051	493.56
304.281	501.56
304.511	470.56
304.741	457.56
304.971	475.56
305.201	462.56
305.431	472.56
305.661	474.56
305.891	471.56
306.121	471.56
306.352	477.56
306.582	496.56
306.812	471.56
307.042	472.56
307.272	468.56
307.502	459.56
307.731	482.56
307.961	474.56
308.191	470.56
308.421	492.56
308.651	482.56
308.881	481.56
309.111	479.56
309.341	480.56
309.571	490.56
309.8	490.56
310.03	501.56
310.26	508.56
310.49	529.56
310.72	502.56
310.949	518.56
311.179	541.56
311.409	511.56
311.639	513.56
311.868	502.56
312.098	540.56
312.328	526.56
312.557	541.56
312.787	553.56
313.017	541.56
313.246	549.56
313.476	514.56
313.706	532.56
313.935	514.56
314.165	535.56
314.394	547.56
314.624	561.56
314.853	561.56
315.083	532.56
315.312	526.56
315.542	544.56
315.771	510.56
316.001	518.56
316.23	515.56
316.46	512.56
316.689	509.56
316.919	514.56
317.148	532.56
317.377	532.56
317.607	520.56
317.836	530.56
318.065	518.56
318.295	529.56
318.524	533.56
318.753	499.56
318.983	512.56
319.212	513.56
319.441	526.56
319.67	542.56
319.9	534.56
320.129	523.56
320.358	519.56
320.587	545.56
320.816	530.56
321.046	529.56
321.275	517.56
321.504	517.56
321.733	542.56
321.962	533.56
322.191	545.56
322.42	581.56
322.649	583.56
322.878	576.56
323.108	577.56
323.337	620.56
323.566	602.56
323.795	652.56
324.024	683.56
324.253	786.56
324.482	1010.56
324.71	1590.56
324.939	2394.56
325.168	2156.56
325.397	1035.56
325.626	727.56
325.855	641.56
326.084	618.56
326.313	610.56
326.542	638.56
326.77	671.56
326.999	776.56
327.228	993.56
327.457	1530.56
327.686	1857.56
327.914	1216.56
328.143	816.56
328.372	710.56
328.6	662.56
328.829	675.56
329.058	676.56
329.287	727.56
329.515	655.56
329.744	637.56
329.972	620.56
330.201	622.56
330.43	640.56
330.658	717.56
330.887	742.56
331.115	749.56
331.344	684.56
331.572	647.56
331.801	631.56
332.03	653.56
332.258	640.56
332.486	642.56
332.715	651.56
332.943	668.56
333.172	667.56
333.4	667.56
333.629	694.56
333.857	716.56
334.085	716.56
334.314	677.56
334.542	671.56
334.771	690.56
334.999	665.56
335.227	678.56
335.455	679.56
335.684	660.56
335.912	648.56
336.14	628.56
336.369	629.56
336.597	644.56
336.825	648.56
337.053	618.56
337.281	611.56
337.51	622.56
337.738	634.56
337.966	593.56
338.194	612.56
338.422	602.56
338.65	611.56
338.878	594.56
339.106	593.56
339.334	615.56
339.562	597.56
339.79	590.56
340.018	562.56
340.246	577.56
340.474	578.56
340.702	589.56
340.93	601.56
341.158	584.56
341.386	594.56
341.614	579.56
341.842	582.56
342.07	602.56
342.298	578.56
342.526	578.56
342.754	569.56
342.981	531.56
343.209	586.56
343.437	586.56
343.665	617.56
343.893	631.56
344.12	671.56
344.348	664.56
344.576	613.56
344.804	635.56
345.031	615.56
345.259	626.56
345.487	596.56
345.714	588.56
345.942	560.56
346.17	575.56
346.397	563.56
346.625	566.56
346.853	563.56
347.08	544.56
347.308	562.56
347.535	556.56
347.763	588.56
347.99	574.56
348.218	570.56
348.445	554.56
348.673	562.56
348.9	560.56
349.128	540.56
349.355	560.56
349.583	543.56
349.81	548.56
350.037	559.56
350.265	529.56
350.492	531.56
350.72	561.56
350.947	561.56
351.174	552.56
351.402	567.56
351.629	549.56
351.856	554.56
352.083	565.56
352.311	564.56
352.538	533.56
352.765	564.56
352.992	561.56
353.22	559.56
353.447	536.56
353.674	547.56
353.901	548.56
354.128	512.56
354.355	497.56
354.583	516.56
354.81	548.56
355.037	544.56
355.264	517.56
355.491	521.56
355.718	527.56
355.945	515.56
356.172	515.56
356.399	519.56
356.626	540.56
356.853	530.56
357.08	517.56
357.307	518.56
357.534	537.56
357.761	500.56
357.988	531.56
358.215	540.56
358.441	525.56
358.668	529.56
358.895	527.56
359.122	528.56
359.349	563.56
359.576	549.56
359.802	562.56
360.029	583.56
360.256	606.56
360.483	608.56
360.709	547.56
360.936	548.56
361.163	548.56
361.39	567.56
361.616	545.56
361.843	545.56
362.07	533.56
362.296	549.56
362.523	540.56
362.749	534.56
362.976	552.56
363.203	539.56
363.429	526.56
363.656	536.56
363.882	534.56
364.109	506.56
364.335	510.56
364.562	531.56
364.788	532.56
365.015	511.56
365.241	544.56
365.468	557.56
365.694	534.56
365.92	532.56
366.147	518.56
366.373	546.56
366.599	505.56
366.826	534.56
367.052	532.56
367.278	551.56
367.505	548.56
367.731	528.56
367.957	519.56
368.184	532.56
368.41	544.56
368.636	571.56
368.862	557.56
369.089	556.56
369.315	561.56
369.541	552.56
369.767	543.56
369.993	538.56
370.219	524.56
370.445	543.56
370.672	558.56
370.898	544.56
371.124	563.56
371.35	564.56
371.576	555.56
371.802	569.56
372.028	578.56
372.254	552.56
372.48	563.56
372.706	596.56
372.932	591.56
373.158	588.56
373.384	573.56
373.61	570.56
373.835	566.56
374.061	569.56
374.287	590.56
374.513	570.56
374.739	584.56
374.965	605.56
375.191	616.56
375.416	597.56
375.642	596.56
375.868	586.56
376.094	580.56
376.319	554.56
376.545	598.56
376.771	592.56
376.997	564.56
377.222	550.56
377.448	570.56
377.674	559.56
377.899	595.56
378.125	550.56
378.35	562.56
378.576	571.56
378.802	566.56
379.027	572.56
379.253	588.56
379.478	574.56
379.704	572.56
379.929	566.56
380.155	563.56
380.38	602.56
380.606	592.56
380.831	567.56
381.057	578.56
381.282	597.56
381.507	594.56
381.733	573.56
381.958	602.56
382.184	627.56
382.409	630.56
382.634	610.56
382.86	620.56
383.085	616.56
383.31	639.56
383.535	637.56
383.761	625.56
383.986	637.56
384.211	647.56
384.436	672.56
384.662	674.56
384.887	696.56
385.112	657.56
385.337	681.56
385.562	662.56
385.787	676.56
386.013	710.56
386.238	680.56
386.463	692.56
386.688	700.56
386.913	674.56
387.138	670.56
387.363	711.56
387.588	709.56
387.813	680.56
388.038	675.56
388.263	683.56
388.488	695.56
388.713	679.56
388.938	661.56
389.163	699.56
389.387	686.56
389.612	685.56
389.837	671.56
390.062	677.56
390.287	669.56
390.512	689.56
390.736	670.56
390.961	698.56
391.186	717.56
391.411	744.56
391.636	746.56
391.86	734.56
392.085	744.56
392.31	771.56
392.534	726.56
392.759	731.56
392.984	719.56
393.208	735.56
393.433	719.56
393.658	699.56
393.882	703.56
394.107	720.56
394.331	739.56
394.556	735.56
394.78	753.56
395.005	749.56
395.229	740.56
395.454	755.56
395.678	786.56
395.903	776.56
396.127	768.56
396.352	787.56
396.576	731.56
396.801	742.56
397.025	739.56
397.249	756.56
397.474	785.56
397.698	800.56
397.922	794.56
398.147	808.56
398.371	819.56
398.595	816.56
398.82	830.56
399.044	856.56
399.268	910.56
399.492	1023.56
399.717	1121.56
399.941	1180.56
400.165	1108.56
400.389	1072.56
400.613	971.56
400.837	913.56
401.062	894.56
401.286	846.56
401.51	879.56
401.734	867.56
401.958	877.56
402.182	883.56
402.406	915.56
402.63	908.56
402.854	900.56
403.078	918.56
403.302	922.56
403.526	923.56
403.75	966.56
403.974	972.56
404.198	951.56
404.422	967.56
404.645	966.56
404.869	991.56
405.093	987.56
405.317	957.56
405.541	1037.56
405.765	978.56
405.988	976.56
406.212	985.56
406.436	1012.56
406.66	1019.56
406.883	1039.56
407.107	1042.56
407.331	1114.56
407.555	1226.56
407.778	1212.56
408.002	1118.56
408.226	1030.56
408.449	1045.56
408.673	1000.56
408.896	1045.56
409.12	1125.56
409.344	1039.56
409.567	982.56
409.791	932.56
410.014	960.56
410.238	947.56
410.461	956.56
410.685	962.56
410.908	972.56
411.132	1021.56
411.355	1070.56
411.578	991.56
411.802	918.56
412.025	959.56
412.249	944.56
412.472	950.56
412.695	935.56
412.919	887.56
413.142	918.56
413.365	908.56
413.589	931.56
413.812	893.56
414.035	908.56
414.258	912.56
414.482	892.56
414.705	908.56
414.928	944.56
415.151	931.56
415.374	938.56
415.597	924.56
415.821	901.56
416.044	942.56
416.267	905.56
416.49	928.56
416.713	904.56
416.936	907.56
417.159	934.56
417.382	938.56
417.605	936.56
417.828	959.56
418.051	982.56
418.274	954.56
418.497	965.56
418.72	972.56
418.943	956.56
419.166	1006.56
419.389	1062.56
419.611	1037.56
419.834	1010.56
420.057	1037.56
420.28	1014.56
420.503	966.56
420.726	967.56
420.948	1002.56
421.171	991.56
421.394	1110.56
421.617	1027.56
421.839	1026.56
422.062	1024.56
422.285	1011.56
422.507	1064.56
422.73	1165.56
422.953	1144.56
423.175	1038.56
423.398	1012.56
423.621	1055.56
423.843	1080.56
424.066	1086.56
424.288	1090.56
424.511	1101.56
424.733	1174.56
424.956	1246.56
425.178	1195.56
425.401	1198.56
425.623	1227.56
425.846	1100.56
426.068	1014.56
426.291	994.56
426.513	994.56
426.735	1004.56
426.958	1073.56
427.18	1151.56
427.402	1324.56
427.625	1406.56
427.847	1185.56
428.069	1070.56
428.292	1016.56
428.514	980.56
428.736	927.56
428.958	909.56
429.181	931.56
429.403	910.56
429.625	919.56
429.847	967.56
430.069	1056.56
430.292	1043.56
430.514	972.56
430.736	914.56
430.958	914.56
431.18	867.56
431.402	874.56
431.624	843.56
431.846	828.56
432.068	744.56
432.29	784.56
432.512	812.56
432.734	899.56
432.956	915.56
433.178	956.56
433.4	950.56
433.622	960.56
433.844	914.56
434.066	844.56
434.287	794.56
434.509	791.56
434.731	822.56
434.953	884.56
435.175	974.56
435.397	1022.56
435.618	970.56
435.84	973.56
436.062	1094.56
436.284	1207.56
436.505	1065.56
436.727	996.56
436.949	956.56
437.17	943.56
437.392	899.56
437.614	910.56
437.835	884.56
438.057	950.56
438.278	1120.56
438.5	1164.56
438.721	1292.56
438.943	1275.56
439.165	1093.56
439.386	1032.56
439.608	1079.56
439.829	1086.56
440.05	1122.56
440.272	1182.56
440.493	1093.56
440.715	1062.56
440.936	1080.56
441.158	1048.56
441.379	1091.56
441.6	1093.56
441.822	1128.56
442.043	1138.56
442.264	1250.56
442.486	1279.56
442.707	1157.56
442.928	1118.56
443.149	1126.56
443.371	1182.56
443.592	1216.56
443.813	1293.56
444.034	1390.56
444.255	1236.56
444.476	1166.56
444.698	1203.56
444.919	1223.56
445.14	1347.56
445.361	1252.56
445.582	1232.56
445.803	1284.56
446.024	1399.56
446.245	1417.56
446.466	1339.56
446.687	1221.56
446.908	1147.56
447.129	1097.56
447.35	1069.56
447.571	1071.56
447.792	1019.56
448.013	982.56
448.234	1029.56
448.455	1072.56
448.675	1215.56
448.896	1353.56
449.117	1178.56
449.338	1127.56
449.559	1254.56
449.779	1393.56
450	1162.56
450.221	1035.56
450.442	986.56
450.662	972.56
450.883	930.56
451.104	933.56
451.324	927.56
451.545	909.56
451.766	888.56
451.986	864.56
452.207	859.56
452.428	855.56
452.648	834.56
452.869	796.56
453.089	791.56
453.31	809.56
453.53	786.56
453.751	718.56
453.971	729.56
454.192	739.56
454.412	744.56
454.633	754.56
454.853	774.56
455.073	805.56
455.294	820.56
455.514	926.56
455.734	860.56
455.955	802.56
456.175	751.56
456.395	724.56
456.616	713.56
456.836	721.56
457.056	730.56
457.276	680.56
457.497	695.56
457.717	692.56
457.937	694.56
458.157	724.56
458.377	734.56
458.598	718.56
458.818	754.56
459.038	860.56
459.258	880.56
459.478	759.56
459.698	745.56
459.918	775.56
460.138	802.56
460.358	850.56
460.578	886.56
460.798	904.56
461.018	928.56
461.238	894.56
461.458	906.56
461.678	868.56
461.898	882.56
462.118	877.56
462.338	935.56
462.558	940.56
462.777	950.56
462.997	996.56
463.217	1039.56
463.437	1052.56
463.657	1012.56
463.876	966.56
464.096	944.56
464.316	962.56
464.536	979.56
464.755	989.56
464.975	989.56
465.195	1027.56
465.414	1037.56
465.634	925.56
465.854	914.56
466.073	894.56
466.293	877.56
466.512	898.56
466.732	912.56
466.951	890.56
467.171	909.56
467.391	936.56
467.61	929.56
467.829	956.56
468.049	926.56
468.268	922.56
468.488	905.56
468.707	929.56
468.927	899.56
469.146	944.56
469.365	933.56
469.585	936.56
469.804	969.56
470.023	997.56
470.243	994.56
470.462	1018.56
470.681	1004.56
470.901	1007.56
471.12	969.56
471.339	988.56
471.558	1006.56
471.777	961.56
471.997	906.56
472.216	890.56
472.435	775.56
472.654	724.56
472.873	751.56
473.092	783.56
473.311	830.56
473.53	829.56
473.749	863.56
473.968	890.56
474.187	1012.56
474.406	1011.56
474.625	887.56
474.844	891.56
475.063	883.56
475.282	809.56
475.501	791.56
475.72	815.56
475.939	849.56
476.158	862.56
476.377	884.56
476.596	842.56
476.814	797.56
477.033	759.56
477.252	812.56
477.471	869.56
477.69	984.56
477.908	998.56
478.127	1012.56
478.346	1014.56
478.564	1017.56
478.783	1036.56
479.002	1060.56
479.22	1045.56
479.439	1028.56
479.658	996.56
479.876	950.56
480.095	931.56
480.313	1010.56
480.532	1028.56
480.751	942.56
480.969	870.56
481.188	858.56
481.406	818.56
481.624	767.56
481.843	776.56
482.061	816.56
482.28	842.56
482.498	883.56
482.717	852.56
482.935	902.56
483.153	1042.56
483.372	1077.56
483.59	1078.56
483.808	1006.56
484.027	944.56
484.245	953.56
484.463	988.56
484.681	1039.56
484.9	995.56
485.118	1013.56
485.336	957.56
485.554	889.56
485.772	838.56
485.99	865.56
486.209	907.56
486.427	927.56
486.645	966.56
486.863	1051.56
487.081	1102.56
487.299	1027.56
487.517	1056.56
487.735	1253.56
487.953	1335.56
488.171	1337.56
488.389	1246.56
488.607	1152.56
488.825	1069.56
489.043	1005.56
489.261	1031.56
489.479	1093.56
489.696	1094.56
489.914	1122.56
490.132	1157.56
490.35	1188.56
490.568	1290.56
490.786	1344.56
491.003	1390.56
491.221	1501.56
491.439	1501.56
491.657	1568.56
491.874	1659.56
492.092	1736.56
492.31	1890.56
492.527	1793.56
492.745	1672.56
492.963	1586.56
493.18	1551.56
493.398	1564.56
493.615	1502.56
493.833	1515.56
494.05	1502.56
494.268	1467.56
494.485	1461.56
494.703	1506.56
494.92	1459.56
495.138	1483.56
495.355	1453.56
495.573	1486.56
495.79	1427.56
496.008	1440.56
496.225	1464.56
496.442	1456.56
496.66	1418.56
496.877	1415.56
497.094	1406.56
497.312	1427.56
497.529	1397.56
497.746	1370.56
497.963	1286.56
498.181	1289.56
498.398	1287.56
498.615	1270.56
498.832	1302.56
499.049	1342.56
499.267	1460.56
