Data from FlinnAP9092KCOPPER.07152019.QSWITCHSynchronous.EN10.20scans.P1_HRD10591_14-49-30-574.txt Node
Date: Mon Jul 15 14:49:30 EDT 2019
User: cochatt
Spectrometer: HR+D1059
Trigger mode: 5
Integration Time (sec): 1.000000E-1
Scans to average: 1
Electric dark correction enabled: true
Nonlinearity correction enabled: false
Boxcar width: 0
XAxis mode: Wavelengths
Number of Pixels in Spectrum: 2048
>>>>>Begin Spectral Data<<<<<
223.165	-33.88
223.4	-33.88
223.635	-33.88
223.869	-38.88
224.104	-40.88
224.338	5.12
224.573	-13.88
224.808	-11.88
225.042	1.12
225.277	-11.88
225.511	0.12
225.746	31.12
225.98	8.12
226.215	3.12
226.449	35.12
226.683	19.12
226.918	14.12
227.152	34.12
227.387	39.12
227.621	18.12
227.856	67.12
228.09	28.12
228.324	40.12
228.559	75.12
228.793	92.12
229.027	203.12
229.262	220.12
229.496	221.12
229.73	272.12
229.964	363.12
230.199	269.12
230.433	218.12
230.667	213.12
230.901	217.12
231.136	202.12
231.37	208.12
231.604	215.12
231.838	203.12
232.072	192.12
232.306	208.12
232.541	200.12
232.775	203.12
233.009	205.12
233.243	197.12
233.477	213.12
233.711	214.12
233.945	220.12
234.179	186.12
234.413	213.12
234.647	217.12
234.881	211.12
235.115	206.12
235.349	218.12
235.583	235.12
235.817	207.12
236.051	232.12
236.285	243.12
236.519	227.12
236.753	255.12
236.987	285.12
237.221	359.12
237.455	529.12
237.689	403.12
237.922	300.12
238.156	275.12
238.39	263.12
238.624	234.12
238.858	245.12
239.091	252.12
239.325	226.12
239.559	247.12
239.793	257.12
240.027	289.12
240.26	317.12
240.494	377.12
240.728	331.12
240.961	334.12
241.195	331.12
241.429	290.12
241.662	277.12
241.896	268.12
242.13	263.12
242.363	264.12
242.597	283.12
242.83	291.12
243.064	283.12
243.298	292.12
243.531	273.12
243.765	283.12
243.998	285.12
244.232	292.12
244.465	325.12
244.699	308.12
244.932	293.12
245.166	295.12
245.399	312.12
245.633	328.12
245.866	302.12
246.099	312.12
246.333	312.12
246.566	301.12
246.8	303.12
247.033	312.12
247.266	323.12
247.5	361.12
247.733	368.12
247.966	363.12
248.2	360.12
248.433	380.12
248.666	357.12
248.899	407.12
249.133	434.12
249.366	484.12
249.599	445.12
249.832	391.12
250.066	390.12
250.299	373.12
250.532	387.12
250.765	400.12
250.998	477.12
251.231	511.12
251.465	479.12
251.698	433.12
251.931	417.12
252.164	401.12
252.397	407.12
252.63	441.12
252.863	425.12
253.096	482.12
253.329	522.12
253.562	513.12
253.795	477.12
254.028	477.12
254.261	472.12
254.494	471.12
254.727	598.12
254.96	683.12
255.193	623.12
255.426	540.12
255.659	471.12
255.892	473.12
256.124	447.12
256.357	436.12
256.59	437.12
256.823	423.12
257.056	438.12
257.289	420.12
257.521	441.12
257.754	432.12
257.987	440.12
258.22	464.12
258.452	423.12
258.685	424.12
258.918	448.12
259.151	440.12
259.383	481.12
259.616	498.12
259.849	505.12
260.081	547.12
260.314	595.12
260.547	587.12
260.779	548.12
261.012	499.12
261.244	486.12
261.477	516.12
261.71	497.12
261.942	487.12
262.175	540.12
262.407	507.12
262.64	471.12
262.872	481.12
263.105	470.12
263.337	488.12
263.57	489.12
263.802	458.12
264.035	475.12
264.267	455.12
264.499	467.12
264.732	477.12
264.964	483.12
265.197	456.12
265.429	467.12
265.661	477.12
265.894	464.12
266.126	494.12
266.358	501.12
266.591	492.12
266.823	526.12
267.055	511.12
267.287	517.12
267.52	487.12
267.752	532.12
267.984	530.12
268.216	514.12
268.448	551.12
268.681	533.12
268.913	538.12
269.145	609.12
269.377	676.12
269.609	635.12
269.841	607.12
270.073	629.12
270.306	701.12
270.538	785.12
270.77	743.12
271.002	706.12
271.234	682.12
271.466	686.12
271.698	747.12
271.93	753.12
272.162	752.12
272.394	771.12
272.626	711.12
272.858	669.12
273.09	620.12
273.322	605.12
273.553	584.12
273.785	620.12
274.017	587.12
274.249	601.12
274.481	614.12
274.713	592.12
274.945	609.12
275.176	619.12
275.408	633.12
275.64	632.12
275.872	601.12
276.104	633.12
276.335	661.12
276.567	623.12
276.799	669.12
277.031	719.12
277.262	801.12
277.494	791.12
277.726	729.12
277.957	646.12
278.189	646.12
278.421	637.12
278.652	629.12
278.884	642.12
279.115	607.12
279.347	645.12
279.579	625.12
279.81	592.12
280.042	612.12
280.273	596.12
280.505	615.12
280.736	629.12
280.968	603.12
281.199	633.12
281.431	635.12
281.662	624.12
281.894	632.12
282.125	629.12
282.356	690.12
282.588	743.12
282.819	731.12
283.051	674.12
283.282	636.12
283.513	657.12
283.745	653.12
283.976	654.12
284.207	677.12
284.439	679.12
284.67	681.12
284.901	674.12
285.132	647.12
285.364	660.12
285.595	693.12
285.826	645.12
286.057	682.12
286.288	677.12
286.52	679.12
286.751	651.12
286.982	665.12
287.213	656.12
287.444	684.12
287.675	692.12
287.906	743.12
288.138	744.12
288.369	744.12
288.6	707.12
288.831	707.12
289.062	720.12
289.293	692.12
289.524	704.12
289.755	673.12
289.986	697.12
290.217	689.12
290.448	678.12
290.679	709.12
290.91	723.12
291.141	707.12
291.371	707.12
291.602	700.12
291.833	717.12
292.064	689.12
292.295	693.12
292.526	718.12
292.757	693.12
292.987	683.12
293.218	696.12
293.449	705.12
293.68	703.12
293.91	658.12
294.141	703.12
294.372	680.12
294.603	706.12
294.833	683.12
295.064	677.12
295.295	720.12
295.525	696.12
295.756	738.12
295.987	711.12
296.217	778.12
296.448	817.12
296.679	777.12
296.909	713.12
297.14	697.12
297.37	729.12
297.601	746.12
297.831	699.12
298.062	740.12
298.292	753.12
298.523	768.12
298.753	762.12
298.984	738.12
299.214	725.12
299.445	758.12
299.675	753.12
299.905	771.12
300.136	767.12
300.366	738.12
300.597	745.12
300.827	753.12
301.057	757.12
301.288	810.12
301.518	811.12
301.748	780.12
301.979	795.12
302.209	792.12
302.439	789.12
302.669	795.12
302.9	811.12
303.13	778.12
303.36	784.12
303.59	789.12
303.82	824.12
304.051	821.12
304.281	841.12
304.511	810.12
304.741	777.12
304.971	755.12
305.201	793.12
305.431	803.12
305.661	787.12
305.891	791.12
306.121	776.12
306.352	795.12
306.582	799.12
306.812	767.12
307.042	770.12
307.272	776.12
307.502	782.12
307.731	749.12
307.961	767.12
308.191	729.12
308.421	773.12
308.651	779.12
308.881	778.12
309.111	784.12
309.341	771.12
309.571	806.12
309.8	816.12
310.03	863.12
310.26	849.12
310.49	853.12
310.72	867.12
310.949	925.12
311.179	950.12
311.409	836.12
311.639	871.12
311.868	886.12
312.098	859.12
312.328	901.12
312.557	931.12
312.787	955.12
313.017	980.12
313.246	899.12
313.476	879.12
313.706	885.12
313.935	875.12
314.165	933.12
314.394	956.12
314.624	931.12
314.853	921.12
315.083	899.12
315.312	890.12
315.542	868.12
315.771	867.12
316.001	843.12
316.23	844.12
316.46	864.12
316.689	859.12
316.919	871.12
317.148	923.12
317.377	933.12
317.607	908.12
317.836	876.12
318.065	854.12
318.295	828.12
318.524	823.12
318.753	844.12
318.983	843.12
319.212	856.12
319.441	889.12
319.67	891.12
319.9	857.12
320.129	818.12
320.358	859.12
320.587	852.12
320.816	852.12
321.046	873.12
321.275	900.12
321.504	855.12
321.733	877.12
321.962	904.12
322.191	923.12
322.42	959.12
322.649	998.12
322.878	1036.12
323.108	1003.12
323.337	1077.12
323.566	1090.12
323.795	1150.12
324.024	1244.12
324.253	1481.12
324.482	2223.12
324.71	3732.12
324.939	5931.12
325.168	5075.12
325.397	2071.12
325.626	1341.12
325.855	1126.12
326.084	1070.12
326.313	1048.12
326.542	1062.12
326.77	1194.12
326.999	1446.12
327.228	2051.12
327.457	3441.12
327.686	4626.12
327.914	2627.12
328.143	1527.12
328.372	1330.12
328.6	1291.12
328.829	1220.12
329.058	1296.12
329.287	1369.12
329.515	1252.12
329.744	1148.12
329.972	1073.12
330.201	1070.12
330.43	1146.12
330.658	1253.12
330.887	1448.12
331.115	1509.12
331.344	1211.12
331.572	1149.12
331.801	1126.12
332.03	1165.12
332.258	1129.12
332.486	1080.12
332.715	1096.12
332.943	1084.12
333.172	1127.12
333.4	1118.12
333.629	1148.12
333.857	1169.12
334.085	1147.12
334.314	1163.12
334.542	1107.12
334.771	1139.12
334.999	1140.12
335.227	1101.12
335.455	1100.12
335.684	1104.12
335.912	1101.12
336.14	1042.12
336.369	1077.12
336.597	1086.12
336.825	1097.12
337.053	1032.12
337.281	985.12
337.51	986.12
337.738	1035.12
337.966	988.12
338.194	1002.12
338.422	1063.12
338.65	1014.12
338.878	1015.12
339.106	980.12
339.334	1031.12
339.562	954.12
339.79	951.12
340.018	983.12
340.246	988.12
340.474	1004.12
340.702	1005.12
340.93	984.12
341.158	931.12
341.386	963.12
341.614	1015.12
341.842	969.12
342.07	941.12
342.298	964.12
342.526	960.12
342.754	943.12
342.981	937.12
343.209	957.12
343.437	1004.12
343.665	982.12
343.893	1080.12
344.12	1097.12
344.348	1037.12
344.576	1038.12
344.804	1012.12
345.031	1008.12
345.259	1073.12
345.487	993.12
345.714	987.12
345.942	959.12
346.17	930.12
346.397	932.12
346.625	933.12
346.853	929.12
347.08	902.12
347.308	903.12
347.535	944.12
347.763	979.12
347.99	1000.12
348.218	962.12
348.445	966.12
348.673	977.12
348.9	961.12
349.128	935.12
349.355	870.12
349.583	868.12
349.81	871.12
350.037	869.12
350.265	884.12
350.492	873.12
350.72	890.12
350.947	902.12
351.174	939.12
351.402	925.12
351.629	918.12
351.856	931.12
352.083	955.12
352.311	990.12
352.538	975.12
352.765	974.12
352.992	960.12
353.22	901.12
353.447	905.12
353.674	926.12
353.901	889.12
354.128	859.12
354.355	849.12
354.583	870.12
354.81	868.12
355.037	868.12
355.264	885.12
355.491	849.12
355.718	858.12
355.945	852.12
356.172	873.12
356.399	829.12
356.626	830.12
356.853	844.12
357.08	881.12
357.307	837.12
357.534	802.12
357.761	867.12
357.988	892.12
358.215	838.12
358.441	843.12
358.668	848.12
358.895	841.12
359.122	867.12
359.349	870.12
359.576	911.12
359.802	951.12
360.029	1062.12
360.256	1118.12
360.483	1060.12
360.709	946.12
360.936	960.12
361.163	933.12
361.39	937.12
361.616	939.12
361.843	901.12
362.07	934.12
362.296	930.12
362.523	901.12
362.749	915.12
362.976	905.12
363.203	937.12
363.429	874.12
363.656	901.12
363.882	854.12
364.109	920.12
364.335	874.12
364.562	856.12
364.788	871.12
365.015	859.12
365.241	873.12
365.468	919.12
365.694	884.12
365.92	910.12
366.147	871.12
366.373	839.12
366.599	843.12
366.826	850.12
367.052	866.12
367.278	854.12
367.505	860.12
367.731	924.12
367.957	887.12
368.184	876.12
368.41	872.12
368.636	928.12
368.862	953.12
369.089	887.12
369.315	876.12
369.541	921.12
369.767	891.12
369.993	904.12
370.219	883.12
370.445	901.12
370.672	864.12
370.898	867.12
371.124	860.12
371.35	926.12
371.576	937.12
371.802	877.12
372.028	896.12
372.254	891.12
372.48	882.12
372.706	908.12
372.932	945.12
373.158	909.12
373.384	973.12
373.61	905.12
373.835	918.12
374.061	907.12
374.287	924.12
374.513	936.12
374.739	957.12
374.965	964.12
375.191	970.12
375.416	964.12
375.642	962.12
375.868	970.12
376.094	917.12
376.319	919.12
376.545	936.12
376.771	934.12
376.997	906.12
377.222	900.12
377.448	913.12
377.674	908.12
377.899	902.12
378.125	913.12
378.35	897.12
378.576	877.12
378.802	897.12
379.027	923.12
379.253	938.12
379.478	917.12
379.704	915.12
379.929	914.12
380.155	905.12
380.38	927.12
380.606	905.12
380.831	945.12
381.057	985.12
381.282	922.12
381.507	931.12
381.733	956.12
381.958	940.12
382.184	948.12
382.409	959.12
382.634	973.12
382.86	987.12
383.085	1008.12
383.31	964.12
383.535	1017.12
383.761	980.12
383.986	1031.12
384.211	991.12
384.436	1045.12
384.662	1048.12
384.887	1052.12
385.112	1035.12
385.337	1074.12
385.562	1087.12
385.787	1037.12
386.013	1179.12
386.238	1144.12
386.463	1147.12
386.688	1119.12
386.913	1065.12
387.138	1079.12
387.363	1063.12
387.588	1103.12
387.813	1082.12
388.038	1067.12
388.263	1080.12
388.488	1055.12
388.713	1076.12
388.938	1096.12
389.163	1059.12
389.387	1069.12
389.612	1073.12
389.837	1083.12
390.062	1083.12
390.287	1095.12
390.512	1089.12
390.736	1077.12
390.961	1097.12
391.186	1097.12
391.411	1133.12
391.636	1125.12
391.86	1170.12
392.085	1204.12
392.31	1224.12
392.534	1156.12
392.759	1131.12
392.984	1149.12
393.208	1125.12
393.433	1125.12
393.658	1107.12
393.882	1124.12
394.107	1116.12
394.331	1131.12
394.556	1153.12
394.78	1171.12
395.005	1165.12
395.229	1156.12
395.454	1208.12
395.678	1224.12
395.903	1227.12
396.127	1250.12
396.352	1237.12
396.576	1172.12
396.801	1158.12
397.025	1137.12
397.249	1204.12
397.474	1236.12
397.698	1242.12
397.922	1276.12
398.147	1287.12
398.371	1293.12
398.595	1307.12
398.82	1315.12
399.044	1426.12
399.268	1472.12
399.492	1658.12
399.717	1850.12
399.941	1888.12
400.165	1828.12
400.389	1751.12
400.613	1574.12
400.837	1468.12
401.062	1446.12
401.286	1388.12
401.51	1365.12
401.734	1353.12
401.958	1391.12
402.182	1417.12
402.406	1466.12
402.63	1448.12
402.854	1488.12
403.078	1488.12
403.302	1451.12
403.526	1551.12
403.75	1527.12
403.974	1524.12
404.198	1516.12
404.422	1563.12
404.645	1521.12
404.869	1549.12
405.093	1570.12
405.317	1589.12
405.541	1667.12
405.765	1511.12
405.988	1504.12
406.212	1592.12
406.436	1624.12
406.66	1695.12
406.883	1644.12
407.107	1708.12
407.331	1838.12
407.555	2078.12
407.778	2003.12
408.002	1841.12
408.226	1669.12
408.449	1628.12
408.673	1599.12
408.896	1687.12
409.12	1808.12
409.344	1664.12
409.567	1539.12
409.791	1567.12
410.014	1523.12
410.238	1503.12
410.461	1493.12
410.685	1509.12
410.908	1545.12
411.132	1633.12
411.355	1687.12
411.578	1612.12
411.802	1461.12
412.025	1453.12
412.249	1443.12
412.472	1467.12
412.695	1398.12
412.919	1411.12
413.142	1413.12
413.365	1402.12
413.589	1419.12
413.812	1357.12
414.035	1399.12
414.258	1382.12
414.482	1384.12
414.705	1384.12
414.928	1385.12
415.151	1405.12
415.374	1392.12
415.597	1387.12
415.821	1413.12
416.044	1408.12
416.267	1421.12
416.49	1394.12
416.713	1357.12
416.936	1413.12
417.159	1400.12
417.382	1422.12
417.605	1441.12
417.828	1482.12
418.051	1505.12
418.274	1521.12
418.497	1460.12
418.72	1457.12
418.943	1502.12
419.166	1555.12
419.389	1611.12
419.611	1592.12
419.834	1520.12
420.057	1586.12
420.28	1503.12
420.503	1443.12
420.726	1448.12
420.948	1484.12
421.171	1665.12
421.394	1699.12
421.617	1602.12
421.839	1535.12
422.062	1553.12
422.285	1547.12
422.507	1707.12
422.73	1889.12
422.953	1798.12
423.175	1605.12
423.398	1569.12
423.621	1619.12
423.843	1695.12
424.066	1717.12
424.288	1663.12
424.511	1700.12
424.733	1866.12
424.956	2078.12
425.178	1959.12
425.401	1909.12
425.623	2026.12
425.846	1683.12
426.068	1557.12
426.291	1537.12
426.513	1536.12
426.735	1577.12
426.958	1659.12
427.18	1867.12
427.402	2299.12
427.625	2484.12
427.847	2055.12
428.069	1713.12
428.292	1553.12
428.514	1449.12
428.736	1428.12
428.958	1423.12
429.181	1405.12
429.403	1395.12
429.625	1410.12
429.847	1524.12
430.069	1741.12
430.292	1696.12
430.514	1493.12
430.736	1436.12
430.958	1400.12
431.18	1356.12
431.402	1353.12
431.624	1307.12
431.846	1239.12
432.068	1217.12
432.29	1247.12
432.512	1307.12
432.734	1376.12
432.956	1394.12
433.178	1459.12
433.4	1475.12
433.622	1411.12
433.844	1392.12
434.066	1312.12
434.287	1291.12
434.509	1259.12
434.731	1319.12
434.953	1407.12
435.175	1527.12
435.397	1612.12
435.618	1541.12
435.84	1623.12
436.062	2011.12
436.284	2147.12
436.505	1702.12
436.727	1573.12
436.949	1525.12
437.17	1452.12
437.392	1382.12
437.614	1421.12
437.835	1435.12
438.057	1689.12
438.278	1981.12
438.5	2002.12
438.721	2295.12
438.943	2189.12
439.165	1746.12
439.386	1705.12
439.608	1683.12
439.829	1659.12
440.05	1800.12
440.272	2009.12
440.493	1795.12
440.715	1633.12
440.936	1573.12
441.158	1609.12
441.379	1601.12
441.6	1673.12
441.822	1733.12
442.043	1824.12
442.264	2065.12
442.486	2118.12
442.707	1802.12
442.928	1747.12
443.149	1788.12
443.371	1895.12
443.592	1897.12
443.813	2178.12
444.034	2359.12
444.255	1993.12
444.476	1821.12
444.698	1799.12
444.919	1827.12
445.14	3347.12
445.361	2467.12
445.582	1985.12
445.803	2112.12
446.024	2455.12
446.245	2429.12
446.466	2188.12
446.687	1794.12
446.908	1698.12
447.129	1627.12
447.35	1578.12
447.571	1544.12
447.792	1504.12
448.013	1526.12
448.234	1549.12
448.455	1640.12
448.675	1983.12
448.896	2306.12
449.117	1890.12
449.338	1798.12
449.559	2124.12
449.779	2452.12
450	1880.12
450.221	1637.12
450.442	1507.12
450.662	1440.12
450.883	1481.12
451.104	1494.12
451.324	1448.12
451.545	1379.12
451.766	1360.12
451.986	1293.12
452.207	1274.12
452.428	1272.12
452.648	1304.12
452.869	1265.12
453.089	1258.12
453.31	1274.12
453.53	1208.12
453.751	1148.12
453.971	1161.12
454.192	1228.12
454.412	1184.12
454.633	1192.12
454.853	1220.12
455.073	1208.12
455.294	1340.12
455.514	1551.12
455.734	1435.12
455.955	1205.12
456.175	1151.12
456.395	1098.12
456.616	1127.12
456.836	1086.12
457.056	1085.12
457.276	1066.12
457.497	1051.12
457.717	1106.12
457.937	1124.12
458.157	1143.12
458.377	1096.12
458.598	1180.12
458.818	1311.12
459.038	1581.12
459.258	1611.12
459.478	1298.12
459.698	1194.12
459.918	1247.12
460.138	1262.12
460.358	1358.12
460.578	1369.12
460.798	1386.12
461.018	1434.12
461.238	1355.12
461.458	1365.12
461.678	1357.12
461.898	1399.12
462.118	1399.12
462.338	1417.12
462.558	1458.12
462.777	1491.12
462.997	1550.12
463.217	1625.12
463.437	1653.12
463.657	1559.12
463.876	1492.12
464.096	1524.12
464.316	1481.12
464.536	1539.12
464.755	1556.12
464.975	1559.12
465.195	1659.12
465.414	1799.12
465.634	1517.12
465.854	1365.12
466.073	1373.12
466.293	1317.12
466.512	1319.12
466.732	1291.12
466.951	1314.12
467.171	1350.12
467.391	1386.12
467.61	1371.12
467.829	1406.12
468.049	1376.12
468.268	1298.12
468.488	1295.12
468.707	1299.12
468.927	1313.12
469.146	1302.12
469.365	1368.12
469.585	1353.12
469.804	1402.12
470.023	1455.12
470.243	1433.12
470.462	1506.12
470.681	1519.12
470.901	1495.12
471.12	1418.12
471.339	1421.12
471.558	1438.12
471.777	1401.12
471.997	1352.12
472.216	1244.12
472.435	1170.12
472.654	1111.12
472.873	1130.12
473.092	1149.12
473.311	1209.12
473.53	1234.12
473.749	1267.12
473.968	1403.12
474.187	1671.12
474.406	1690.12
474.625	1380.12
474.844	1328.12
475.063	1287.12
475.282	1240.12
475.501	1237.12
475.72	1274.12
475.939	1253.12
476.158	1299.12
476.377	1290.12
476.596	1237.12
476.814	1281.12
477.033	1251.12
477.252	1288.12
477.471	1292.12
477.69	1398.12
477.908	1491.12
478.127	1499.12
478.346	1468.12
478.564	1473.12
478.783	1481.12
479.002	1592.12
479.22	1593.12
479.439	1577.12
479.658	1547.12
479.876	1473.12
480.095	1477.12
480.313	1618.12
480.532	1593.12
480.751	1513.12
480.969	1441.12
481.188	1397.12
481.406	1354.12
481.624	1295.12
481.843	1289.12
482.061	1322.12
482.28	1346.12
482.498	1343.12
482.717	1307.12
482.935	1414.12
483.153	1495.12
483.372	1548.12
483.59	1579.12
483.808	1501.12
484.027	1442.12
484.245	1463.12
484.463	1469.12
484.681	1598.12
484.9	1526.12
485.118	1512.12
485.336	1445.12
485.554	1415.12
485.772	1395.12
485.99	1385.12
486.209	1427.12
486.427	1455.12
486.645	1554.12
486.863	1667.12
487.081	1659.12
487.299	1597.12
487.517	1657.12
487.735	1789.12
487.953	1881.12
488.171	1876.12
488.389	1803.12
488.607	1693.12
488.825	1611.12
489.043	1553.12
489.261	1558.12
489.479	1616.12
489.696	1648.12
489.914	1634.12
490.132	1740.12
490.35	1800.12
490.568	1851.12
490.786	1916.12
491.003	2051.12
491.221	2133.12
491.439	2156.12
491.657	2207.12
491.874	2342.12
492.092	2393.12
492.31	2521.12
492.527	2435.12
492.745	2328.12
492.963	2239.12
493.18	2230.12
493.398	2245.12
493.615	2228.12
493.833	2202.12
