Data from FlinnAP9092KCOPPER.07152019.QSWITCHSynchronous.EN10.20scans.P1_HRD10591_14-49-25-574.txt Node
Date: Mon Jul 15 14:49:25 EDT 2019
User: cochatt
Spectrometer: HR+D1059
Trigger mode: 5
Integration Time (sec): 1.000000E-1
Scans to average: 1
Electric dark correction enabled: true
Nonlinearity correction enabled: false
Boxcar width: 0
XAxis mode: Wavelengths
Number of Pixels in Spectrum: 2048
>>>>>Begin Spectral Data<<<<<
223.165	-41.75
223.4	-41.75
223.635	-41.75
223.869	-40.75
224.104	-48.75
224.338	2.25
224.573	-14.75
224.808	-23.75
225.042	27.25
225.277	1.25
225.511	-2.75
225.746	30.25
225.98	12.25
226.215	29.25
226.449	22.25
226.683	-2.75
226.918	19.25
227.152	31.25
227.387	50.25
227.621	43.25
227.856	73.25
228.09	52.25
228.324	37.25
228.559	57.25
228.793	81.25
229.027	180.25
229.262	225.25
229.496	201.25
229.73	262.25
229.964	343.25
230.199	275.25
230.433	218.25
230.667	217.25
230.901	197.25
231.136	191.25
231.37	183.25
231.604	190.25
231.838	195.25
232.072	193.25
232.306	204.25
232.541	214.25
232.775	200.25
233.009	219.25
233.243	199.25
233.477	187.25
233.711	200.25
233.945	221.25
234.179	218.25
234.413	231.25
234.647	228.25
234.881	225.25
235.115	228.25
235.349	222.25
235.583	260.25
235.817	230.25
236.051	238.25
236.285	259.25
236.519	238.25
236.753	269.25
236.987	291.25
237.221	374.25
237.455	535.25
237.689	414.25
237.922	285.25
238.156	277.25
238.39	274.25
238.624	243.25
238.858	279.25
239.091	229.25
239.325	247.25
239.559	268.25
239.793	269.25
240.027	282.25
240.26	291.25
240.494	354.25
240.728	339.25
240.961	332.25
241.195	313.25
241.429	295.25
241.662	275.25
241.896	252.25
242.13	278.25
242.363	269.25
242.597	265.25
242.83	302.25
243.064	281.25
243.298	280.25
243.531	266.25
243.765	277.25
243.998	291.25
244.232	309.25
244.465	297.25
244.699	311.25
244.932	293.25
245.166	278.25
245.399	305.25
245.633	306.25
245.866	303.25
246.099	277.25
246.333	297.25
246.566	305.25
246.8	296.25
247.033	319.25
247.266	311.25
247.5	321.25
247.733	348.25
247.966	353.25
248.2	366.25
248.433	349.25
248.666	351.25
248.899	405.25
249.133	448.25
249.366	468.25
249.599	433.25
249.832	391.25
250.066	398.25
250.299	369.25
250.532	414.25
250.765	441.25
250.998	486.25
251.231	511.25
251.465	450.25
251.698	417.25
251.931	403.25
252.164	413.25
252.397	411.25
252.63	421.25
252.863	425.25
253.096	457.25
253.329	539.25
253.562	491.25
253.795	483.25
254.028	497.25
254.261	474.25
254.494	486.25
254.727	595.25
254.96	676.25
255.193	630.25
255.426	509.25
255.659	475.25
255.892	484.25
256.124	440.25
256.357	457.25
256.59	457.25
256.823	438.25
257.056	441.25
257.289	430.25
257.521	437.25
257.754	430.25
257.987	423.25
258.22	476.25
258.452	437.25
258.685	439.25
258.918	429.25
259.151	467.25
259.383	494.25
259.616	481.25
259.849	507.25
260.081	531.25
260.314	585.25
260.547	608.25
260.779	579.25
261.012	522.25
261.244	493.25
261.477	502.25
261.71	479.25
261.942	475.25
262.175	545.25
262.407	511.25
262.64	470.25
262.872	464.25
263.105	460.25
263.337	516.25
263.57	478.25
263.802	477.25
264.035	478.25
264.267	474.25
264.499	461.25
264.732	500.25
264.964	476.25
265.197	471.25
265.429	487.25
265.661	476.25
265.894	494.25
266.126	467.25
266.358	473.25
266.591	502.25
266.823	517.25
267.055	523.25
267.287	525.25
267.52	482.25
267.752	469.25
267.984	519.25
268.216	526.25
268.448	532.25
268.681	560.25
268.913	585.25
269.145	608.25
269.377	688.25
269.609	627.25
269.841	621.25
270.073	615.25
270.306	687.25
270.538	784.25
270.77	755.25
271.002	730.25
271.234	658.25
271.466	709.25
271.698	741.25
271.93	767.25
272.162	753.25
272.394	766.25
272.626	726.25
272.858	671.25
273.09	638.25
273.322	646.25
273.553	597.25
273.785	602.25
274.017	610.25
274.249	602.25
274.481	611.25
274.713	593.25
274.945	643.25
275.176	628.25
275.408	629.25
275.64	625.25
275.872	616.25
276.104	626.25
276.335	622.25
276.567	665.25
276.799	683.25
277.031	749.25
277.262	803.25
277.494	794.25
277.726	716.25
277.957	656.25
278.189	648.25
278.421	613.25
278.652	625.25
278.884	621.25
279.115	627.25
279.347	629.25
279.579	644.25
279.81	608.25
280.042	611.25
280.273	614.25
280.505	614.25
280.736	615.25
280.968	621.25
281.199	590.25
281.431	645.25
281.662	649.25
281.894	616.25
282.125	621.25
282.356	690.25
282.588	737.25
282.819	747.25
283.051	682.25
283.282	651.25
283.513	700.25
283.745	684.25
283.976	682.25
284.207	684.25
284.439	691.25
284.67	683.25
284.901	655.25
285.132	658.25
285.364	644.25
285.595	671.25
285.826	681.25
286.057	717.25
286.288	676.25
286.52	675.25
286.751	660.25
286.982	669.25
287.213	658.25
287.444	690.25
287.675	725.25
287.906	729.25
288.138	747.25
288.369	753.25
288.6	732.25
288.831	719.25
289.062	711.25
289.293	695.25
289.524	712.25
289.755	699.25
289.986	698.25
290.217	691.25
290.448	707.25
290.679	713.25
290.91	700.25
291.141	675.25
291.371	703.25
291.602	692.25
291.833	692.25
292.064	713.25
292.295	685.25
292.526	707.25
292.757	693.25
292.987	692.25
293.218	671.25
293.449	708.25
293.68	709.25
293.91	676.25
294.141	694.25
294.372	685.25
294.603	708.25
294.833	696.25
295.064	693.25
295.295	703.25
295.525	698.25
295.756	727.25
295.987	740.25
296.217	787.25
296.448	835.25
296.679	726.25
296.909	709.25
297.14	759.25
297.37	735.25
297.601	726.25
297.831	716.25
298.062	742.25
298.292	746.25
298.523	738.25
298.753	791.25
298.984	752.25
299.214	755.25
299.445	770.25
299.675	733.25
299.905	753.25
300.136	779.25
300.366	781.25
300.597	739.25
300.827	788.25
301.057	759.25
301.288	805.25
301.518	807.25
301.748	771.25
301.979	775.25
302.209	802.25
302.439	802.25
302.669	785.25
302.9	787.25
303.13	800.25
303.36	796.25
303.59	797.25
303.82	842.25
304.051	789.25
304.281	786.25
304.511	797.25
304.741	751.25
304.971	754.25
305.201	797.25
305.431	791.25
305.661	776.25
305.891	753.25
306.121	771.25
306.352	773.25
306.582	798.25
306.812	775.25
307.042	761.25
307.272	777.25
307.502	773.25
307.731	794.25
307.961	790.25
308.191	772.25
308.421	759.25
308.651	773.25
308.881	791.25
309.111	794.25
309.341	778.25
309.571	812.25
309.8	831.25
310.03	874.25
310.26	882.25
310.49	835.25
310.72	851.25
310.949	914.25
311.179	940.25
311.409	899.25
311.639	875.25
311.868	873.25
312.098	868.25
312.328	916.25
312.557	933.25
312.787	961.25
313.017	973.25
313.246	888.25
313.476	887.25
313.706	870.25
313.935	896.25
314.165	935.25
314.394	986.25
314.624	959.25
314.853	933.25
315.083	887.25
315.312	889.25
315.542	845.25
315.771	858.25
316.001	838.25
316.23	872.25
316.46	837.25
316.689	856.25
316.919	879.25
317.148	913.25
317.377	939.25
317.607	904.25
317.836	880.25
318.065	859.25
318.295	856.25
318.524	857.25
318.753	841.25
318.983	849.25
319.212	847.25
319.441	874.25
319.67	885.25
319.9	844.25
320.129	870.25
320.358	855.25
320.587	874.25
320.816	861.25
321.046	922.25
321.275	908.25
321.504	866.25
321.733	905.25
321.962	885.25
322.191	934.25
322.42	955.25
322.649	986.25
322.878	1011.25
323.108	1009.25
323.337	1086.25
323.566	1116.25
323.795	1218.25
324.024	1303.25
324.253	1527.25
324.482	2241.25
324.71	3686.25
324.939	5825.25
325.168	5069.25
325.397	2090.25
325.626	1343.25
325.855	1116.25
326.084	1053.25
326.313	1085.25
326.542	1099.25
326.77	1225.25
326.999	1448.25
327.228	2077.25
327.457	3397.25
327.686	4489.25
327.914	2652.25
328.143	1557.25
328.372	1334.25
328.6	1290.25
328.829	1292.25
329.058	1299.25
329.287	1376.25
329.515	1277.25
329.744	1127.25
329.972	1093.25
330.201	1094.25
330.43	1161.25
330.658	1243.25
330.887	1461.25
331.115	1498.25
331.344	1189.25
331.572	1147.25
331.801	1142.25
332.03	1147.25
332.258	1151.25
332.486	1094.25
332.715	1040.25
332.943	1102.25
333.172	1153.25
333.4	1140.25
333.629	1181.25
333.857	1194.25
334.085	1178.25
334.314	1154.25
334.542	1144.25
334.771	1160.25
334.999	1112.25
335.227	1137.25
335.455	1104.25
335.684	1119.25
335.912	1111.25
336.14	1060.25
336.369	1085.25
336.597	1081.25
336.825	1094.25
337.053	1051.25
337.281	1037.25
337.51	1005.25
337.738	1068.25
337.966	1015.25
338.194	1031.25
338.422	1045.25
338.65	1037.25
338.878	1022.25
339.106	981.25
339.334	1007.25
339.562	971.25
339.79	975.25
340.018	958.25
340.246	982.25
340.474	1001.25
340.702	986.25
340.93	969.25
341.158	948.25
341.386	1003.25
341.614	1034.25
341.842	987.25
342.07	955.25
342.298	954.25
342.526	940.25
342.754	925.25
342.981	912.25
343.209	961.25
343.437	975.25
343.665	984.25
343.893	1049.25
344.12	1113.25
344.348	1067.25
344.576	1035.25
344.804	1020.25
345.031	1022.25
345.259	1046.25
345.487	1025.25
345.714	951.25
345.942	945.25
346.17	962.25
346.397	955.25
346.625	932.25
346.853	940.25
347.08	911.25
347.308	923.25
347.535	943.25
347.763	957.25
347.99	991.25
348.218	963.25
348.445	957.25
348.673	1012.25
348.9	949.25
349.128	919.25
349.355	882.25
349.583	890.25
349.81	895.25
350.037	878.25
350.265	910.25
350.492	873.25
350.72	846.25
350.947	907.25
351.174	932.25
351.402	982.25
351.629	943.25
351.856	932.25
352.083	951.25
352.311	996.25
352.538	941.25
352.765	998.25
352.992	975.25
353.22	898.25
353.447	899.25
353.674	900.25
353.901	882.25
354.128	875.25
354.355	858.25
354.583	859.25
354.81	847.25
355.037	863.25
355.264	881.25
355.491	852.25
355.718	830.25
355.945	864.25
356.172	834.25
356.399	824.25
356.626	835.25
356.853	842.25
357.08	860.25
357.307	851.25
357.534	835.25
357.761	866.25
357.988	875.25
358.215	846.25
358.441	845.25
358.668	850.25
358.895	835.25
359.122	899.25
359.349	912.25
359.576	930.25
359.802	950.25
360.029	1047.25
360.256	1098.25
360.483	1071.25
360.709	929.25
360.936	965.25
361.163	919.25
361.39	924.25
361.616	945.25
361.843	919.25
362.07	926.25
362.296	929.25
362.523	906.25
362.749	901.25
362.976	913.25
363.203	948.25
363.429	846.25
363.656	876.25
363.882	877.25
364.109	887.25
364.335	865.25
364.562	882.25
364.788	862.25
365.015	871.25
365.241	862.25
365.468	877.25
365.694	890.25
365.92	907.25
366.147	886.25
366.373	851.25
366.599	855.25
366.826	877.25
367.052	844.25
367.278	856.25
367.505	885.25
367.731	899.25
367.957	891.25
368.184	883.25
368.41	901.25
368.636	918.25
368.862	922.25
369.089	927.25
369.315	886.25
369.541	877.25
369.767	894.25
369.993	880.25
370.219	899.25
370.445	877.25
370.672	896.25
370.898	881.25
371.124	903.25
371.35	869.25
371.576	894.25
371.802	910.25
372.028	886.25
372.254	919.25
372.48	905.25
372.706	930.25
372.932	911.25
373.158	932.25
373.384	932.25
373.61	937.25
373.835	902.25
374.061	938.25
374.287	935.25
374.513	941.25
374.739	941.25
374.965	968.25
375.191	973.25
375.416	965.25
375.642	960.25
375.868	974.25
376.094	938.25
376.319	911.25
376.545	889.25
376.771	923.25
376.997	918.25
377.222	913.25
377.448	907.25
377.674	899.25
377.899	906.25
378.125	903.25
378.35	893.25
378.576	900.25
378.802	903.25
379.027	885.25
379.253	907.25
379.478	904.25
379.704	906.25
379.929	921.25
380.155	943.25
380.38	946.25
380.606	933.25
380.831	933.25
381.057	996.25
381.282	922.25
381.507	952.25
381.733	948.25
381.958	941.25
382.184	951.25
382.409	957.25
382.634	973.25
382.86	952.25
383.085	1015.25
383.31	984.25
383.535	1048.25
383.761	1003.25
383.986	1002.25
384.211	1030.25
384.436	1028.25
384.662	1025.25
384.887	1038.25
385.112	1055.25
385.337	1072.25
385.562	1107.25
385.787	1093.25
386.013	1169.25
386.238	1137.25
386.463	1124.25
386.688	1119.25
386.913	1062.25
387.138	1091.25
387.363	1118.25
387.588	1110.25
387.813	1089.25
388.038	1103.25
388.263	1068.25
388.488	1053.25
388.713	1098.25
388.938	1103.25
389.163	1096.25
389.387	1117.25
389.612	1082.25
389.837	1067.25
390.062	1089.25
390.287	1085.25
390.512	1074.25
390.736	1078.25
390.961	1083.25
391.186	1103.25
391.411	1138.25
391.636	1182.25
391.86	1173.25
392.085	1225.25
392.31	1204.25
392.534	1185.25
392.759	1179.25
392.984	1122.25
393.208	1149.25
393.433	1111.25
393.658	1122.25
393.882	1147.25
394.107	1123.25
394.331	1135.25
394.556	1152.25
394.78	1161.25
395.005	1157.25
395.229	1139.25
395.454	1260.25
395.678	1241.25
395.903	1260.25
396.127	1315.25
396.352	1245.25
396.576	1195.25
396.801	1190.25
397.025	1188.25
397.249	1175.25
397.474	1250.25
397.698	1223.25
397.922	1267.25
398.147	1276.25
398.371	1297.25
398.595	1319.25
398.82	1304.25
399.044	1364.25
399.268	1440.25
399.492	1661.25
399.717	1882.25
399.941	1906.25
400.165	1861.25
400.389	1742.25
400.613	1571.25
400.837	1457.25
401.062	1407.25
401.286	1417.25
401.51	1357.25
401.734	1376.25
401.958	1395.25
402.182	1397.25
402.406	1419.25
402.63	1443.25
402.854	1457.25
403.078	1498.25
403.302	1508.25
403.526	1556.25
403.75	1535.25
403.974	1548.25
404.198	1528.25
404.422	1582.25
404.645	1566.25
404.869	1538.25
405.093	1542.25
405.317	1610.25
405.541	1638.25
405.765	1565.25
405.988	1515.25
406.212	1593.25
406.436	1602.25
406.66	1662.25
406.883	1647.25
407.107	1688.25
407.331	1806.25
407.555	2015.25
407.778	2033.25
408.002	1795.25
408.226	1689.25
408.449	1635.25
408.673	1600.25
408.896	1692.25
409.12	1763.25
409.344	1660.25
409.567	1523.25
409.791	1522.25
410.014	1546.25
410.238	1517.25
410.461	1500.25
410.685	1484.25
410.908	1539.25
411.132	1653.25
411.355	1708.25
411.578	1639.25
411.802	1523.25
412.025	1429.25
412.249	1447.25
412.472	1425.25
412.695	1450.25
412.919	1389.25
413.142	1419.25
413.365	1411.25
413.589	1412.25
413.812	1373.25
414.035	1405.25
414.258	1402.25
414.482	1402.25
414.705	1416.25
414.928	1428.25
415.151	1406.25
415.374	1382.25
415.597	1399.25
415.821	1407.25
416.044	1419.25
416.267	1430.25
416.49	1400.25
416.713	1400.25
416.936	1387.25
417.159	1394.25
417.382	1475.25
417.605	1441.25
417.828	1507.25
418.051	1509.25
418.274	1517.25
418.497	1433.25
418.72	1481.25
418.943	1484.25
419.166	1538.25
419.389	1619.25
419.611	1601.25
419.834	1533.25
420.057	1567.25
420.28	1516.25
420.503	1502.25
420.726	1497.25
420.948	1504.25
421.171	1647.25
421.394	1710.25
421.617	1571.25
421.839	1526.25
422.062	1564.25
422.285	1523.25
422.507	1718.25
422.73	1889.25
422.953	1779.25
423.175	1619.25
423.398	1599.25
423.621	1621.25
423.843	1692.25
424.066	1703.25
424.288	1689.25
424.511	1739.25
424.733	1878.25
424.956	2129.25
425.178	1953.25
425.401	1953.25
425.623	2006.25
425.846	1690.25
426.068	1599.25
426.291	1547.25
426.513	1589.25
426.735	1596.25
426.958	1705.25
427.18	1909.25
427.402	2272.25
427.625	2476.25
427.847	2042.25
428.069	1717.25
428.292	1564.25
428.514	1487.25
428.736	1458.25
428.958	1452.25
429.181	1421.25
429.403	1405.25
429.625	1451.25
429.847	1531.25
430.069	1716.25
430.292	1746.25
430.514	1487.25
430.736	1413.25
430.958	1432.25
431.18	1401.25
431.402	1348.25
431.624	1333.25
431.846	1283.25
432.068	1210.25
432.29	1247.25
432.512	1327.25
432.734	1391.25
432.956	1443.25
433.178	1441.25
433.4	1465.25
433.622	1421.25
433.844	1401.25
434.066	1318.25
434.287	1249.25
434.509	1266.25
434.731	1341.25
434.953	1418.25
435.175	1491.25
435.397	1634.25
435.618	1572.25
435.84	1665.25
436.062	1945.25
436.284	2172.25
436.505	1734.25
436.727	1594.25
436.949	1487.25
437.17	1478.25
437.392	1409.25
437.614	1406.25
437.835	1491.25
438.057	1713.25
438.278	2005.25
438.5	1998.25
438.721	2344.25
438.943	2236.25
439.165	1745.25
439.386	1677.25
439.608	1662.25
439.829	1653.25
440.05	1767.25
440.272	1985.25
440.493	1829.25
440.715	1653.25
440.936	1581.25
441.158	1603.25
441.379	1598.25
441.6	1639.25
441.822	1743.25
442.043	1866.25
442.264	2109.25
442.486	2164.25
442.707	1786.25
442.928	1701.25
443.149	1753.25
443.371	1919.25
443.592	1959.25
443.813	2221.25
444.034	2390.25
444.255	1985.25
444.476	1827.25
444.698	1841.25
444.919	1780.25
445.14	3370.25
445.361	2473.25
445.582	1946.25
445.803	2172.25
446.024	2445.25
446.245	2474.25
446.466	2189.25
446.687	1807.25
446.908	1738.25
447.129	1630.25
447.35	1572.25
447.571	1591.25
447.792	1486.25
448.013	1549.25
448.234	1621.25
448.455	1669.25
448.675	2033.25
448.896	2311.25
449.117	1869.25
449.338	1755.25
449.559	2139.25
449.779	2446.25
450	1865.25
450.221	1586.25
450.442	1483.25
450.662	1425.25
450.883	1471.25
451.104	1530.25
451.324	1417.25
451.545	1441.25
451.766	1350.25
451.986	1322.25
452.207	1290.25
452.428	1297.25
452.648	1287.25
452.869	1295.25
453.089	1302.25
453.31	1274.25
453.53	1223.25
453.751	1164.25
453.971	1168.25
454.192	1212.25
454.412	1217.25
454.633	1216.25
454.853	1236.25
455.073	1227.25
455.294	1312.25
455.514	1549.25
455.734	1455.25
455.955	1259.25
456.175	1188.25
456.395	1109.25
456.616	1085.25
456.836	1113.25
457.056	1094.25
457.276	1078.25
457.497	1095.25
457.717	1117.25
457.937	1114.25
458.157	1139.25
458.377	1125.25
458.598	1204.25
458.818	1332.25
459.038	1534.25
459.258	1635.25
459.478	1330.25
459.698	1237.25
459.918	1238.25
460.138	1285.25
460.358	1346.25
460.578	1371.25
460.798	1386.25
461.018	1396.25
461.238	1367.25
461.458	1384.25
461.678	1377.25
461.898	1370.25
462.118	1387.25
462.338	1455.25
462.558	1479.25
462.777	1503.25
462.997	1592.25
463.217	1667.25
463.437	1695.25
463.657	1534.25
463.876	1476.25
464.096	1516.25
464.316	1481.25
464.536	1545.25
464.755	1566.25
464.975	1521.25
465.195	1615.25
465.414	1803.25
465.634	1545.25
465.854	1382.25
466.073	1335.25
466.293	1325.25
466.512	1324.25
466.732	1329.25
466.951	1318.25
467.171	1315.25
467.391	1376.25
467.61	1401.25
467.829	1390.25
468.049	1397.25
468.268	1316.25
468.488	1287.25
468.707	1308.25
468.927	1329.25
469.146	1326.25
469.365	1357.25
469.585	1355.25
469.804	1411.25
470.023	1445.25
470.243	1449.25
470.462	1474.25
470.681	1511.25
470.901	1477.25
471.12	1411.25
471.339	1467.25
471.558	1438.25
471.777	1405.25
471.997	1336.25
472.216	1264.25
472.435	1193.25
472.654	1142.25
472.873	1174.25
473.092	1181.25
473.311	1206.25
473.53	1266.25
473.749	1311.25
473.968	1409.25
474.187	1674.25
474.406	1727.25
474.625	1400.25
474.844	1323.25
475.063	1277.25
475.282	1260.25
475.501	1239.25
475.72	1265.25
475.939	1303.25
476.158	1331.25
476.377	1350.25
476.596	1283.25
476.814	1262.25
477.033	1218.25
477.252	1305.25
477.471	1373.25
477.69	1403.25
477.908	1477.25
478.127	1499.25
478.346	1495.25
478.564	1466.25
478.783	1553.25
479.002	1591.25
479.22	1579.25
479.439	1614.25
479.658	1538.25
479.876	1467.25
480.095	1508.25
480.313	1653.25
480.532	1617.25
480.751	1559.25
480.969	1459.25
481.188	1409.25
481.406	1378.25
481.624	1325.25
481.843	1293.25
482.061	1319.25
482.28	1329.25
482.498	1341.25
482.717	1327.25
482.935	1404.25
483.153	1480.25
483.372	1593.25
483.59	1554.25
483.808	1477.25
484.027	1439.25
484.245	1465.25
484.463	1517.25
484.681	1571.25
484.9	1549.25
485.118	1554.25
485.336	1476.25
485.554	1430.25
485.772	1409.25
485.99	1415.25
486.209	1444.25
486.427	1439.25
486.645	1542.25
486.863	1701.25
487.081	1693.25
487.299	1589.25
487.517	1626.25
487.735	1777.25
487.953	1925.25
488.171	1900.25
488.389	1784.25
488.607	1704.25
488.825	1592.25
489.043	1564.25
489.261	1601.25
489.479	1641.25
489.696	1678.25
489.914	1659.25
490.132	1690.25
490.35	1828.25
490.568	1884.25
490.786	1964.25
491.003	2023.25
491.221	2138.25
491.439	2200.25
491.657	2259.25
491.874	2339.25
492.092	2453.25
492.31	2492.25
492.527	2415.25
492.745	2337.25
492.963	2278.25
493.18	2255.25
493.398	2218.25
493.615	2236.25
493.833	2223.25
