Data from FlinnAP9092KCOPPER.07152019.QSWITCH.EN10.P1_HRD10591_14-47-54-673.txt Node
Date: Mon Jul 15 14:47:54 EDT 2019
User: cochatt
Spectrometer: HR+D1059
Trigger mode: 3
Integration Time (sec): 1.000000E-1
Scans to average: 1
Electric dark correction enabled: true
Nonlinearity correction enabled: false
Boxcar width: 0
XAxis mode: Wavelengths
Number of Pixels in Spectrum: 2048
>>>>>Begin Spectral Data<<<<<
223.165	-7.69
223.4	-7.69
223.635	-7.69
223.869	-13.69
224.104	-21.69
224.338	-19.69
224.573	-4.69
224.808	-16.69
225.042	-8.69
225.277	-16.69
225.511	-2.69
225.746	25.31
225.98	7.31
226.215	5.31
226.449	12.31
226.683	8.31
226.918	20.31
227.152	33.31
227.387	38.31
227.621	33.31
227.856	49.31
228.09	45.31
228.324	63.31
228.559	60.31
228.793	60.31
229.027	69.31
229.262	72.31
229.496	75.31
229.73	78.31
229.964	89.31
230.199	97.31
230.433	87.31
230.667	99.31
230.901	86.31
231.136	83.31
231.37	87.31
231.604	88.31
231.838	109.31
232.072	75.31
232.306	70.31
232.541	79.31
232.775	103.31
233.009	91.31
233.243	94.31
233.477	85.31
233.711	88.31
233.945	77.31
234.179	81.31
234.413	100.31
234.647	83.31
234.881	91.31
235.115	95.31
235.349	91.31
235.583	88.31
235.817	65.31
236.051	83.31
236.285	91.31
236.519	84.31
236.753	97.31
236.987	95.31
237.221	87.31
237.455	104.31
237.689	89.31
237.922	84.31
238.156	73.31
238.39	75.31
238.624	90.31
238.858	72.31
239.091	79.31
239.325	77.31
239.559	80.31
239.793	98.31
240.027	81.31
240.26	87.31
240.494	77.31
240.728	78.31
240.961	81.31
241.195	83.31
241.429	75.31
241.662	86.31
241.896	86.31
242.13	77.31
242.363	80.31
242.597	72.31
242.83	76.31
243.064	83.31
243.298	66.31
243.531	83.31
243.765	78.31
243.998	79.31
244.232	79.31
244.465	90.31
244.699	96.31
244.932	86.31
245.166	87.31
245.399	79.31
245.633	85.31
245.866	65.31
246.099	93.31
246.333	92.31
246.566	77.31
246.8	96.31
247.033	78.31
247.266	91.31
247.5	89.31
247.733	92.31
247.966	91.31
248.2	76.31
248.433	91.31
248.666	82.31
248.899	69.31
249.133	95.31
249.366	106.31
249.599	97.31
249.832	75.31
250.066	82.31
250.299	78.31
250.532	96.31
250.765	84.31
250.998	80.31
251.231	79.31
251.465	75.31
251.698	103.31
251.931	86.31
252.164	77.31
252.397	95.31
252.63	84.31
252.863	75.31
253.096	81.31
253.329	84.31
253.562	76.31
253.795	86.31
254.028	90.31
254.261	80.31
254.494	78.31
254.727	83.31
254.96	89.31
255.193	87.31
255.426	77.31
255.659	75.31
255.892	94.31
256.124	73.31
256.357	83.31
256.59	87.31
256.823	89.31
257.056	96.31
257.289	84.31
257.521	68.31
257.754	88.31
257.987	78.31
258.22	80.31
258.452	88.31
258.685	100.31
258.918	81.31
259.151	90.31
259.383	89.31
259.616	89.31
259.849	99.31
260.081	95.31
260.314	92.31
260.547	91.31
260.779	70.31
261.012	83.31
261.244	86.31
261.477	78.31
261.71	104.31
261.942	95.31
262.175	113.31
262.407	103.31
262.64	82.31
262.872	82.31
263.105	78.31
263.337	97.31
263.57	97.31
263.802	80.31
264.035	95.31
264.267	85.31
264.499	77.31
264.732	83.31
264.964	82.31
265.197	82.31
265.429	82.31
265.661	81.31
265.894	84.31
266.126	92.31
266.358	83.31
266.591	92.31
266.823	93.31
267.055	80.31
267.287	79.31
267.52	77.31
267.752	69.31
267.984	75.31
268.216	92.31
268.448	94.31
268.681	95.31
268.913	82.31
269.145	80.31
269.377	93.31
269.609	86.31
269.841	87.31
270.073	71.31
270.306	85.31
270.538	88.31
270.77	99.31
271.002	71.31
271.234	89.31
271.466	90.31
271.698	78.31
271.93	72.31
272.162	84.31
272.394	86.31
272.626	84.31
272.858	91.31
273.09	89.31
273.322	99.31
273.553	95.31
273.785	75.31
274.017	98.31
274.249	103.31
274.481	79.31
274.713	77.31
274.945	91.31
275.176	87.31
275.408	89.31
275.64	88.31
275.872	77.31
276.104	79.31
276.335	93.31
276.567	97.31
276.799	100.31
277.031	98.31
277.262	89.31
277.494	91.31
277.726	76.31
277.957	81.31
278.189	95.31
278.421	91.31
278.652	89.31
278.884	97.31
279.115	88.31
279.347	87.31
279.579	87.31
279.81	77.31
280.042	106.31
280.273	98.31
280.505	87.31
280.736	99.31
280.968	87.31
281.199	88.31
281.431	83.31
281.662	84.31
281.894	98.31
282.125	83.31
282.356	106.31
282.588	106.31
282.819	128.31
283.051	97.31
283.282	77.31
283.513	93.31
283.745	76.31
283.976	81.31
284.207	93.31
284.439	90.31
284.67	96.31
284.901	95.31
285.132	91.31
285.364	94.31
285.595	89.31
285.826	84.31
286.057	76.31
286.288	94.31
286.52	81.31
286.751	96.31
286.982	83.31
287.213	75.31
287.444	104.31
287.675	94.31
287.906	83.31
288.138	96.31
288.369	98.31
288.6	111.31
288.831	95.31
289.062	95.31
289.293	88.31
289.524	83.31
289.755	89.31
289.986	92.31
290.217	87.31
290.448	93.31
290.679	96.31
290.91	92.31
291.141	91.31
291.371	92.31
291.602	88.31
291.833	83.31
292.064	83.31
292.295	83.31
292.526	87.31
292.757	88.31
292.987	88.31
293.218	74.31
293.449	82.31
293.68	97.31
293.91	80.31
294.141	102.31
294.372	83.31
294.603	85.31
294.833	96.31
295.064	91.31
295.295	100.31
295.525	90.31
295.756	90.31
295.987	113.31
296.217	108.31
296.448	104.31
296.679	105.31
296.909	92.31
297.14	88.31
297.37	99.31
297.601	88.31
297.831	87.31
298.062	91.31
298.292	105.31
298.523	89.31
298.753	79.31
298.984	95.31
299.214	104.31
299.445	91.31
299.675	98.31
299.905	102.31
300.136	103.31
300.366	91.31
300.597	92.31
300.827	87.31
301.057	82.31
301.288	92.31
301.518	103.31
301.748	100.31
301.979	96.31
302.209	83.31
302.439	98.31
302.669	96.31
302.9	87.31
303.13	88.31
303.36	95.31
303.59	83.31
303.82	97.31
304.051	71.31
304.281	94.31
304.511	110.31
304.741	83.31
304.971	92.31
305.201	93.31
305.431	82.31
305.661	87.31
305.891	88.31
306.121	97.31
306.352	99.31
306.582	100.31
306.812	91.31
307.042	107.31
307.272	95.31
307.502	91.31
307.731	102.31
307.961	85.31
308.191	79.31
308.421	90.31
308.651	95.31
308.881	90.31
309.111	87.31
309.341	102.31
309.571	96.31
309.8	104.31
310.03	109.31
310.26	103.31
310.49	106.31
310.72	99.31
310.949	102.31
311.179	115.31
311.409	106.31
311.639	105.31
311.868	94.31
312.098	95.31
312.328	93.31
312.557	105.31
312.787	94.31
313.017	101.31
313.246	90.31
313.476	85.31
313.706	78.31
313.935	87.31
314.165	100.31
314.394	112.31
314.624	113.31
314.853	94.31
315.083	95.31
315.312	96.31
315.542	89.31
315.771	80.31
316.001	91.31
316.23	89.31
316.46	85.31
316.689	89.31
316.919	85.31
317.148	100.31
317.377	98.31
317.607	97.31
317.836	100.31
318.065	94.31
318.295	88.31
318.524	93.31
318.753	97.31
318.983	94.31
319.212	103.31
319.441	106.31
319.67	87.31
319.9	89.31
320.129	90.31
320.358	79.31
320.587	99.31
320.816	88.31
321.046	87.31
321.275	99.31
321.504	93.31
321.733	99.31
321.962	87.31
322.191	93.31
322.42	103.31
322.649	111.31
322.878	117.31
323.108	111.31
323.337	121.31
323.566	113.31
323.795	115.31
324.024	125.31
324.253	153.31
324.482	281.31
324.71	510.31
324.939	808.31
325.168	628.31
325.397	195.31
325.626	119.31
325.855	108.31
326.084	99.31
326.313	109.31
326.542	103.31
326.77	139.31
326.999	159.31
327.228	286.31
327.457	512.31
327.686	621.31
327.914	335.31
328.143	162.31
328.372	125.31
328.6	128.31
328.829	115.31
329.058	116.31
329.287	133.31
329.515	126.31
329.744	104.31
329.972	89.31
330.201	109.31
330.43	88.31
330.658	124.31
330.887	135.31
331.115	133.31
331.344	112.31
331.572	103.31
331.801	115.31
332.03	101.31
332.258	95.31
332.486	92.31
332.715	77.31
332.943	94.31
333.172	97.31
333.4	89.31
333.629	103.31
333.857	101.31
334.085	101.31
334.314	97.31
334.542	96.31
334.771	89.31
334.999	70.31
335.227	99.31
335.455	99.31
335.684	104.31
335.912	99.31
336.14	84.31
336.369	107.31
336.597	95.31
336.825	104.31
337.053	82.31
337.281	82.31
337.51	89.31
337.738	92.31
337.966	91.31
338.194	97.31
338.422	89.31
338.65	97.31
338.878	98.31
339.106	86.31
339.334	97.31
339.562	96.31
339.79	103.31
340.018	101.31
340.246	94.31
340.474	93.31
340.702	91.31
340.93	82.31
341.158	85.31
341.386	99.31
341.614	101.31
341.842	99.31
342.07	93.31
342.298	104.31
342.526	99.31
342.754	87.31
342.981	98.31
343.209	82.31
343.437	99.31
343.665	87.31
343.893	78.31
344.12	97.31
344.348	104.31
344.576	99.31
344.804	95.31
345.031	95.31
345.259	110.31
345.487	99.31
345.714	81.31
345.942	79.31
346.17	93.31
346.397	83.31
346.625	99.31
346.853	110.31
347.08	95.31
347.308	79.31
347.535	96.31
347.763	92.31
347.99	91.31
348.218	93.31
348.445	101.31
348.673	96.31
348.9	111.31
349.128	101.31
349.355	97.31
349.583	82.31
349.81	103.31
350.037	104.31
350.265	106.31
350.492	84.31
350.72	101.31
350.947	105.31
351.174	84.31
351.402	114.31
351.629	115.31
351.856	104.31
352.083	100.31
352.311	91.31
352.538	97.31
352.765	100.31
352.992	99.31
353.22	117.31
353.447	106.31
353.674	87.31
353.901	85.31
354.128	82.31
354.355	98.31
354.583	98.31
354.81	88.31
355.037	104.31
355.264	86.31
355.491	88.31
355.718	81.31
355.945	100.31
356.172	86.31
356.399	83.31
356.626	82.31
356.853	79.31
357.08	96.31
357.307	96.31
357.534	78.31
357.761	96.31
357.988	96.31
358.215	86.31
358.441	89.31
358.668	102.31
358.895	107.31
359.122	92.31
359.349	85.31
359.576	100.31
359.802	106.31
360.029	99.31
360.256	111.31
360.483	99.31
360.709	95.31
360.936	99.31
361.163	96.31
361.39	89.31
361.616	92.31
361.843	82.31
362.07	101.31
362.296	96.31
362.523	95.31
362.749	93.31
362.976	74.31
363.203	92.31
363.429	84.31
363.656	92.31
363.882	93.31
364.109	104.31
364.335	102.31
364.562	98.31
364.788	88.31
365.015	92.31
365.241	102.31
365.468	87.31
365.694	90.31
365.92	93.31
366.147	79.31
366.373	88.31
366.599	102.31
366.826	102.31
367.052	90.31
367.278	95.31
367.505	96.31
367.731	81.31
367.957	87.31
368.184	91.31
368.41	96.31
368.636	103.31
368.862	89.31
369.089	100.31
369.315	115.31
369.541	99.31
369.767	102.31
369.993	93.31
370.219	84.31
370.445	82.31
370.672	90.31
370.898	92.31
371.124	72.31
371.35	102.31
371.576	102.31
371.802	103.31
372.028	105.31
372.254	89.31
372.48	92.31
372.706	95.31
372.932	104.31
373.158	90.31
373.384	97.31
373.61	75.31
373.835	95.31
374.061	79.31
374.287	113.31
374.513	101.31
374.739	80.31
374.965	93.31
375.191	104.31
375.416	87.31
375.642	85.31
375.868	101.31
376.094	89.31
376.319	83.31
376.545	93.31
376.771	92.31
376.997	82.31
377.222	83.31
377.448	93.31
377.674	87.31
377.899	86.31
378.125	87.31
378.35	90.31
378.576	94.31
378.802	95.31
379.027	88.31
379.253	97.31
379.478	99.31
379.704	84.31
379.929	86.31
380.155	88.31
380.38	99.31
380.606	93.31
380.831	103.31
381.057	102.31
381.282	114.31
381.507	98.31
381.733	99.31
381.958	83.31
382.184	93.31
382.409	97.31
382.634	104.31
382.86	100.31
383.085	86.31
383.31	88.31
383.535	94.31
383.761	85.31
383.986	97.31
384.211	90.31
384.436	93.31
384.662	107.31
384.887	93.31
385.112	108.31
385.337	90.31
385.562	93.31
385.787	85.31
386.013	93.31
386.238	116.31
386.463	96.31
386.688	102.31
386.913	97.31
387.138	84.31
387.363	95.31
387.588	100.31
387.813	93.31
388.038	100.31
388.263	88.31
388.488	87.31
388.713	80.31
388.938	110.31
389.163	101.31
389.387	85.31
389.612	103.31
389.837	87.31
390.062	93.31
390.287	93.31
390.512	92.31
390.736	91.31
390.961	86.31
391.186	95.31
391.411	83.31
391.636	84.31
391.86	79.31
392.085	85.31
392.31	97.31
392.534	91.31
392.759	91.31
392.984	92.31
393.208	115.31
393.433	87.31
393.658	100.31
393.882	93.31
394.107	91.31
394.331	100.31
394.556	86.31
394.78	99.31
395.005	95.31
395.229	103.31
395.454	96.31
395.678	99.31
395.903	108.31
396.127	88.31
396.352	96.31
396.576	84.31
396.801	100.31
397.025	97.31
397.249	108.31
397.474	101.31
397.698	96.31
397.922	96.31
398.147	87.31
398.371	97.31
398.595	88.31
398.82	96.31
399.044	84.31
399.268	94.31
399.492	97.31
399.717	93.31
399.941	93.31
400.165	105.31
400.389	106.31
400.613	89.31
400.837	83.31
401.062	92.31
401.286	93.31
401.51	109.31
401.734	106.31
401.958	100.31
402.182	106.31
402.406	122.31
402.63	126.31
402.854	103.31
403.078	93.31
403.302	113.31
403.526	96.31
403.75	100.31
403.974	89.31
404.198	96.31
404.422	93.31
404.645	102.31
404.869	106.31
405.093	99.31
405.317	111.31
405.541	113.31
405.765	110.31
405.988	84.31
406.212	133.31
406.436	168.31
406.66	168.31
406.883	120.31
407.107	113.31
407.331	104.31
407.555	106.31
407.778	99.31
408.002	96.31
408.226	100.31
408.449	95.31
408.673	103.31
408.896	107.31
409.12	93.31
409.344	90.31
409.567	106.31
409.791	96.31
410.014	102.31
410.238	101.31
410.461	92.31
410.685	91.31
410.908	103.31
411.132	102.31
411.355	102.31
411.578	100.31
411.802	106.31
412.025	92.31
412.249	104.31
412.472	99.31
412.695	98.31
412.919	90.31
413.142	99.31
413.365	103.31
413.589	107.31
413.812	101.31
414.035	114.31
414.258	109.31
414.482	104.31
414.705	113.31
414.928	109.31
415.151	95.31
415.374	98.31
415.597	100.31
415.821	110.31
416.044	105.31
416.267	83.31
416.49	102.31
416.713	114.31
416.936	115.31
417.159	94.31
417.382	110.31
417.605	88.31
417.828	104.31
418.051	100.31
418.274	113.31
418.497	116.31
418.72	113.31
418.943	92.31
419.166	98.31
419.389	87.31
419.611	96.31
419.834	98.31
420.057	99.31
420.28	103.31
420.503	98.31
420.726	99.31
420.948	94.31
421.171	104.31
421.394	94.31
421.617	101.31
421.839	85.31
422.062	90.31
422.285	95.31
422.507	99.31
422.73	95.31
422.953	87.31
423.175	92.31
423.398	102.31
423.621	103.31
423.843	104.31
424.066	103.31
424.288	100.31
424.511	112.31
424.733	108.31
424.956	109.31
425.178	121.31
425.401	105.31
425.623	103.31
425.846	102.31
426.068	106.31
426.291	104.31
426.513	107.31
426.735	103.31
426.958	98.31
427.18	122.31
427.402	134.31
427.625	149.31
427.847	136.31
428.069	121.31
428.292	117.31
428.514	108.31
428.736	112.31
428.958	95.31
429.181	103.31
429.403	109.31
429.625	105.31
429.847	99.31
430.069	108.31
430.292	114.31
430.514	113.31
430.736	107.31
430.958	115.31
431.18	101.31
431.402	105.31
431.624	104.31
431.846	93.31
432.068	90.31
432.29	96.31
432.512	111.31
432.734	103.31
432.956	104.31
433.178	100.31
433.4	108.31
433.622	110.31
433.844	97.31
434.066	86.31
434.287	94.31
434.509	85.31
434.731	103.31
434.953	108.31
435.175	93.31
435.397	118.31
435.618	101.31
435.84	116.31
436.062	129.31
436.284	135.31
436.505	116.31
436.727	107.31
436.949	113.31
437.17	110.31
437.392	122.31
437.614	98.31
437.835	112.31
438.057	106.31
438.278	115.31
438.5	101.31
438.721	134.31
438.943	124.31
439.165	108.31
439.386	110.31
439.608	95.31
439.829	108.31
440.05	136.31
440.272	158.31
440.493	133.31
440.715	106.31
440.936	127.31
441.158	110.31
441.379	116.31
441.6	108.31
441.822	119.31
442.043	121.31
442.264	132.31
442.486	132.31
442.707	125.31
442.928	111.31
443.149	130.31
443.371	142.31
443.592	134.31
443.813	136.31
444.034	142.31
444.255	118.31
444.476	111.31
444.698	108.31
444.919	115.31
445.14	260.31
445.361	176.31
445.582	139.31
445.803	130.31
446.024	151.31
446.245	129.31
446.466	124.31
446.687	110.31
446.908	110.31
447.129	104.31
447.35	108.31
447.571	117.31
447.792	120.31
448.013	121.31
448.234	117.31
448.455	113.31
448.675	136.31
448.896	129.31
449.117	115.31
449.338	114.31
449.559	108.31
449.779	142.31
450	96.31
450.221	114.31
450.442	124.31
450.662	120.31
450.883	117.31
451.104	128.31
451.324	111.31
451.545	112.31
451.766	102.31
451.986	107.31
452.207	89.31
452.428	111.31
452.648	98.31
452.869	124.31
453.089	123.31
453.31	109.31
453.53	101.31
453.751	99.31
453.971	99.31
454.192	98.31
454.412	105.31
454.633	89.31
454.853	83.31
455.073	86.31
455.294	106.31
455.514	116.31
455.734	105.31
455.955	99.31
456.175	110.31
456.395	107.31
456.616	100.31
456.836	95.31
457.056	96.31
457.276	90.31
457.497	96.31
457.717	81.31
457.937	100.31
458.157	97.31
458.377	103.31
458.598	103.31
458.818	120.31
459.038	139.31
459.258	116.31
459.478	99.31
459.698	90.31
459.918	83.31
460.138	97.31
460.358	81.31
460.578	89.31
460.798	89.31
461.018	90.31
461.238	86.31
461.458	99.31
461.678	94.31
461.898	90.31
462.118	97.31
462.338	88.31
462.558	99.31
462.777	84.31
462.997	96.31
463.217	96.31
463.437	110.31
463.657	87.31
463.876	89.31
464.096	109.31
464.316	102.31
464.536	109.31
464.755	105.31
464.975	96.31
465.195	139.31
465.414	169.31
465.634	111.31
465.854	100.31
466.073	105.31
466.293	86.31
466.512	103.31
466.732	102.31
466.951	104.31
467.171	118.31
467.391	125.31
467.61	130.31
467.829	138.31
468.049	125.31
468.268	121.31
468.488	121.31
468.707	111.31
468.927	104.31
469.146	134.31
469.365	116.31
469.585	125.31
469.804	128.31
470.023	128.31
470.243	116.31
470.462	125.31
470.681	139.31
470.901	123.31
471.12	109.31
471.339	117.31
471.558	112.31
471.777	120.31
471.997	106.31
472.216	105.31
472.435	111.31
472.654	108.31
472.873	100.31
473.092	108.31
473.311	99.31
473.53	111.31
473.749	109.31
473.968	112.31
474.187	116.31
474.406	110.31
474.625	92.31
474.844	123.31
475.063	105.31
475.282	119.31
475.501	99.31
475.72	97.31
475.939	97.31
476.158	94.31
476.377	108.31
476.596	101.31
476.814	100.31
477.033	102.31
477.252	96.31
477.471	99.31
477.69	117.31
477.908	118.31
478.127	115.31
478.346	98.31
478.564	107.31
478.783	113.31
479.002	123.31
479.22	102.31
479.439	109.31
479.658	106.31
479.876	106.31
480.095	116.31
480.313	102.31
480.532	103.31
480.751	102.31
480.969	89.31
481.188	98.31
481.406	96.31
481.624	87.31
481.843	112.31
482.061	103.31
482.28	84.31
482.498	89.31
482.717	101.31
482.935	105.31
483.153	116.31
483.372	112.31
483.59	114.31
483.808	102.31
484.027	102.31
484.245	114.31
484.463	97.31
484.681	114.31
484.9	100.31
485.118	111.31
485.336	114.31
485.554	103.31
485.772	99.31
485.99	114.31
486.209	120.31
486.427	105.31
486.645	110.31
486.863	103.31
487.081	128.31
487.299	119.31
487.517	102.31
487.735	127.31
487.953	129.31
488.171	124.31
488.389	120.31
488.607	119.31
488.825	113.31
489.043	109.31
489.261	115.31
489.479	116.31
489.696	120.31
489.914	113.31
490.132	116.31
490.35	127.31
490.568	114.31
490.786	148.31
491.003	141.31
491.221	138.31
491.439	149.31
491.657	137.31
491.874	153.31
492.092	152.31
492.31	151.31
492.527	151.31
492.745	159.31
492.963	148.31
493.18	157.31
493.398	140.31
493.615	144.31
493.833	149.31
494.05	143.31
494.268	124.31
494.485	140.31
494.703	133.31
494.92	124.31
495.138	132.31
495.355	141.31
495.573	131.31
495.79	143.31
496.008	143.31
496.225	134.31
496.442	145.31
496.66	134.31
496.877	128.31
497.094	117.31
497.312	114.31
497.529	120.31
497.746	131.31
497.963	118.31
498.181	106.31
498.398	105.31
498.615	127.31
498.832	112.31
499.049	95.31
499.267	99.31
499.484	90.31
499.701	111.31
499.918	98.31
500.135	109.31
500.352	121.31
500.569	115.31
500.786	104.31
501.003	116.31
501.22	109.31
501.437	119.31
501.654	110.31
501.871	125.31
502.088	122.31
502.305	117.31
502.522	111.31
502.739	105.31
502.956	109.31
503.172	100.31
503.389	91.31
503.606	104.31
503.823	117.31
504.04	116.31
504.256	100.31
504.473	116.31
504.69	103.31
504.907	108.31
505.123	118.31
505.34	110.31
505.557	103.31
505.773	99.31
505.99	111.31
506.207	111.31
506.423	109.31
506.64	112.31
506.856	112.31
507.073	88.31
507.289	102.31
507.506	102.31
507.722	99.31
507.939	119.31
508.155	117.31
508.372	109.31
508.588	87.31
508.805	104.31
509.021	109.31
509.238	102.31
509.454	112.31
509.67	99.31
509.887	100.31
510.103	105.31
510.319	146.31
510.536	258.31
510.752	899.31
510.968	451.31
511.184	123.31
511.401	103.31
511.617	104.31
