Data from FlinnAP5935BZINC.07152019.LAMPEdge.EN7.5scans.P1_HRD10591_15-01-03-579.txt Node
Date: Mon Jul 15 15:01:03 EDT 2019
User: cochatt
Spectrometer: HR+D1059
Trigger mode: 1
Integration Time (sec): 1.000000E-1
Scans to average: 1
Electric dark correction enabled: true
Nonlinearity correction enabled: false
Boxcar width: 0
XAxis mode: Wavelengths
Number of Pixels in Spectrum: 2048
>>>>>Begin Spectral Data<<<<<
223.165	-9.31
223.4	-9.31
223.635	-9.31
223.869	-19.31
224.104	-18.31
224.338	-10.31
224.573	-3.31
224.808	-10.31
225.042	-10.31
225.277	-0.31
225.511	-4.31
225.746	0.69
225.98	9.69
226.215	3.69
226.449	0.69
226.683	15.69
226.918	22.69
227.152	32.69
227.387	33.69
227.621	46.69
227.856	34.69
228.09	44.69
228.324	44.69
228.559	47.69
228.793	76.69
229.027	118.69
229.262	136.69
229.496	133.69
229.73	144.69
229.964	125.69
230.199	138.69
230.433	140.69
230.667	149.69
230.901	145.69
231.136	141.69
231.37	157.69
231.604	149.69
231.838	157.69
232.072	164.69
232.306	160.69
232.541	178.69
232.775	167.69
233.009	163.69
233.243	192.69
233.477	172.69
233.711	170.69
233.945	175.69
234.179	162.69
234.413	166.69
234.647	174.69
234.881	173.69
235.115	169.69
235.349	172.69
235.583	179.69
235.817	164.69
236.051	185.69
236.285	167.69
236.519	165.69
236.753	199.69
236.987	182.69
237.221	180.69
237.455	188.69
237.689	176.69
237.922	189.69
238.156	191.69
238.39	204.69
238.624	186.69
238.858	194.69
239.091	195.69
239.325	210.69
239.559	193.69
239.793	217.69
240.027	197.69
240.26	208.69
240.494	206.69
240.728	223.69
240.961	223.69
241.195	222.69
241.429	225.69
241.662	226.69
241.896	233.69
242.13	235.69
242.363	233.69
242.597	235.69
242.83	249.69
243.064	245.69
243.298	244.69
243.531	250.69
243.765	245.69
243.998	265.69
244.232	255.69
244.465	250.69
244.699	256.69
244.932	277.69
245.166	254.69
245.399	273.69
245.633	272.69
245.866	280.69
246.099	281.69
246.333	270.69
246.566	264.69
246.8	275.69
247.033	323.69
247.266	285.69
247.5	310.69
247.733	304.69
247.966	304.69
248.2	293.69
248.433	311.69
248.666	328.69
248.899	321.69
249.133	317.69
249.366	353.69
249.599	358.69
249.832	369.69
250.066	406.69
250.299	462.69
250.532	639.69
250.765	718.69
250.998	602.69
251.231	530.69
251.465	470.69
251.698	428.69
251.931	404.69
252.164	409.69
252.397	412.69
252.63	388.69
252.863	405.69
253.096	403.69
253.329	414.69
253.562	403.69
253.795	396.69
254.028	398.69
254.261	414.69
254.494	405.69
254.727	415.69
254.96	449.69
255.193	452.69
255.426	498.69
255.659	612.69
255.892	780.69
256.124	1080.69
256.357	1212.69
256.59	954.69
256.823	773.69
257.056	653.69
257.289	596.69
257.521	561.69
257.754	533.69
257.987	487.69
258.22	494.69
258.452	486.69
258.685	481.69
258.918	477.69
259.151	493.69
259.383	464.69
259.616	467.69
259.849	461.69
260.081	463.69
260.314	473.69
260.547	472.69
260.779	476.69
261.012	469.69
261.244	485.69
261.477	474.69
261.71	450.69
261.942	457.69
262.175	452.69
262.407	446.69
262.64	448.69
262.872	453.69
263.105	460.69
263.337	459.69
263.57	458.69
263.802	484.69
264.035	459.69
264.267	471.69
264.499	444.69
264.732	477.69
264.964	475.69
265.197	484.69
265.429	470.69
265.661	484.69
265.894	476.69
266.126	493.69
266.358	489.69
266.591	491.69
266.823	495.69
267.055	485.69
267.287	497.69
267.52	506.69
267.752	495.69
267.984	510.69
268.216	477.69
268.448	501.69
268.681	515.69
268.913	508.69
269.145	494.69
269.377	494.69
269.609	522.69
269.841	509.69
270.073	530.69
270.306	530.69
270.538	517.69
270.77	511.69
271.002	542.69
271.234	533.69
271.466	545.69
271.698	520.69
271.93	528.69
272.162	540.69
272.394	556.69
272.626	544.69
272.858	564.69
273.09	576.69
273.322	579.69
273.553	576.69
273.785	569.69
274.017	582.69
274.249	590.69
274.481	618.69
274.713	592.69
274.945	628.69
275.176	623.69
275.408	660.69
275.64	677.69
275.872	693.69
276.104	678.69
276.335	707.69
276.567	683.69
276.799	707.69
277.031	783.69
277.262	797.69
277.494	858.69
277.726	782.69
277.957	766.69
278.189	737.69
278.421	734.69
278.652	688.69
278.884	710.69
279.115	719.69
279.347	738.69
279.579	741.69
279.81	793.69
280.042	835.69
280.273	973.69
280.505	948.69
280.736	851.69
280.968	790.69
281.199	739.69
281.431	744.69
281.662	733.69
281.894	738.69
282.125	700.69
282.356	699.69
282.588	714.69
282.819	672.69
283.051	688.69
283.282	723.69
283.513	679.69
283.745	700.69
283.976	709.69
284.207	700.69
284.439	675.69
284.67	718.69
284.901	707.69
285.132	724.69
285.364	693.69
285.595	715.69
285.826	707.69
286.057	702.69
286.288	704.69
286.52	716.69
286.751	713.69
286.982	742.69
287.213	726.69
287.444	702.69
287.675	730.69
287.906	731.69
288.138	729.69
288.369	709.69
288.6	718.69
288.831	712.69
289.062	741.69
289.293	732.69
289.524	733.69
289.755	711.69
289.986	733.69
290.217	723.69
290.448	719.69
290.679	741.69
290.91	712.69
291.141	735.69
291.371	736.69
291.602	749.69
291.833	709.69
292.064	736.69
292.295	738.69
292.526	715.69
292.757	729.69
292.987	727.69
293.218	714.69
293.449	731.69
293.68	740.69
293.91	748.69
294.141	732.69
294.372	723.69
294.603	730.69
294.833	754.69
295.064	718.69
295.295	732.69
295.525	744.69
295.756	729.69
295.987	724.69
296.217	746.69
296.448	744.69
296.679	744.69
296.909	757.69
297.14	740.69
297.37	765.69
297.601	771.69
297.831	767.69
298.062	751.69
298.292	780.69
298.523	797.69
298.753	754.69
298.984	779.69
299.214	759.69
299.445	772.69
299.675	773.69
299.905	770.69
300.136	773.69
300.366	756.69
300.597	779.69
300.827	824.69
301.057	815.69
301.288	801.69
301.518	786.69
301.748	841.69
301.979	844.69
302.209	849.69
302.439	840.69
302.669	842.69
302.9	840.69
303.13	827.69
303.36	824.69
303.59	866.69
303.82	881.69
304.051	918.69
304.281	893.69
304.511	832.69
304.741	846.69
304.971	820.69
305.201	816.69
305.431	820.69
305.661	826.69
305.891	814.69
306.121	829.69
306.352	821.69
306.582	842.69
306.812	846.69
307.042	863.69
307.272	928.69
307.502	960.69
307.731	1024.69
307.961	974.69
308.191	875.69
308.421	814.69
308.651	851.69
308.881	843.69
309.111	850.69
309.341	843.69
309.571	836.69
309.8	834.69
310.03	866.69
310.26	821.69
310.49	868.69
310.72	866.69
310.949	849.69
311.179	866.69
311.409	863.69
311.639	854.69
311.868	876.69
312.098	874.69
312.328	864.69
312.557	850.69
312.787	849.69
313.017	874.69
313.246	898.69
313.476	901.69
313.706	917.69
313.935	906.69
314.165	900.69
314.394	876.69
314.624	881.69
314.853	879.69
315.083	886.69
315.312	899.69
315.542	882.69
315.771	887.69
316.001	905.69
316.23	894.69
316.46	886.69
316.689	902.69
316.919	880.69
317.148	914.69
317.377	886.69
317.607	890.69
317.836	909.69
318.065	909.69
318.295	908.69
318.524	912.69
318.753	880.69
318.983	921.69
319.212	882.69
319.441	917.69
319.67	909.69
319.9	900.69
320.129	899.69
320.358	941.69
320.587	935.69
320.816	917.69
321.046	942.69
321.275	956.69
321.504	952.69
321.733	974.69
321.962	975.69
322.191	968.69
322.42	968.69
322.649	984.69
322.878	996.69
323.108	998.69
323.337	1038.69
323.566	1027.69
323.795	1050.69
324.024	1067.69
324.253	1076.69
324.482	1078.69
324.71	1061.69
324.939	1082.69
325.168	1100.69
325.397	1136.69
325.626	1152.69
325.855	1171.69
326.084	1200.69
326.313	1212.69
326.542	1243.69
326.77	1285.69
326.999	1281.69
327.228	1332.69
327.457	1473.69
327.686	1638.69
327.914	1941.69
328.143	2466.69
328.372	2993.69
328.6	2730.69
328.829	1991.69
329.058	1795.69
329.287	1836.69
329.515	1993.69
329.744	2377.69
329.972	3217.69
330.201	4444.69
330.43	5324.69
330.658	4375.69
330.887	2669.69
331.115	2029.69
331.344	1820.69
331.572	1635.69
331.801	1613.69
332.03	1669.69
332.258	1632.69
332.486	1694.69
332.715	1740.69
332.943	1790.69
333.172	1957.69
333.4	2073.69
333.629	2344.69
333.857	2830.69
334.085	3628.69
334.314	4972.69
334.542	6714.69
334.771	7150.69
334.999	4600.69
335.227	2941.69
335.455	2310.69
335.684	2009.69
335.912	1793.69
336.14	1641.69
336.369	1541.69
336.597	1498.69
336.825	1423.69
337.053	1418.69
337.281	1343.69
337.51	1304.69
337.738	1288.69
337.966	1234.69
338.194	1229.69
338.422	1199.69
338.65	1169.69
338.878	1177.69
339.106	1156.69
339.334	1134.69
339.562	1127.69
339.79	1086.69
340.018	1071.69
340.246	1071.69
340.474	1094.69
340.702	1080.69
340.93	1092.69
341.158	1054.69
341.386	1069.69
341.614	1065.69
341.842	1032.69
342.07	1055.69
342.298	1055.69
342.526	1018.69
342.754	1019.69
342.981	1030.69
343.209	1062.69
343.437	1053.69
343.665	1145.69
343.893	1153.69
344.12	1216.69
344.348	1166.69
344.576	1112.69
344.804	1092.69
345.031	1030.69
345.259	1026.69
345.487	1011.69
345.714	1000.69
345.942	961.69
346.17	968.69
346.397	982.69
346.625	981.69
346.853	945.69
347.08	954.69
347.308	969.69
347.535	970.69
347.763	979.69
347.99	961.69
348.218	956.69
348.445	949.69
348.673	941.69
348.9	944.69
349.128	944.69
349.355	934.69
349.583	946.69
349.81	945.69
350.037	963.69
350.265	916.69
350.492	960.69
350.72	940.69
350.947	914.69
351.174	933.69
351.402	928.69
351.629	932.69
351.856	936.69
352.083	936.69
352.311	920.69
352.538	916.69
352.765	916.69
352.992	921.69
353.22	910.69
353.447	891.69
353.674	906.69
353.901	915.69
354.128	923.69
354.355	944.69
354.583	951.69
354.81	921.69
355.037	909.69
355.264	924.69
355.491	937.69
355.718	932.69
355.945	912.69
356.172	902.69
356.399	932.69
356.626	883.69
356.853	916.69
357.08	940.69
357.307	961.69
357.534	920.69
357.761	930.69
357.988	910.69
358.215	882.69
358.441	899.69
358.668	876.69
358.895	906.69
359.122	932.69
359.349	898.69
359.576	894.69
359.802	912.69
360.029	903.69
360.256	927.69
360.483	900.69
360.709	937.69
360.936	890.69
361.163	885.69
361.39	894.69
361.616	894.69
361.843	917.69
362.07	928.69
362.296	901.69
362.523	905.69
362.749	900.69
362.976	924.69
363.203	898.69
363.429	919.69
363.656	892.69
363.882	906.69
364.109	900.69
364.335	901.69
364.562	886.69
364.788	910.69
365.015	899.69
365.241	910.69
365.468	883.69
365.694	874.69
365.92	904.69
366.147	876.69
366.373	884.69
366.599	913.69
366.826	910.69
367.052	890.69
367.278	894.69
367.505	883.69
367.731	888.69
367.957	891.69
368.184	888.69
368.41	926.69
368.636	925.69
368.862	916.69
369.089	902.69
369.315	919.69
369.541	911.69
369.767	941.69
369.993	900.69
370.219	912.69
370.445	913.69
370.672	938.69
370.898	902.69
371.124	951.69
371.35	950.69
371.576	924.69
371.802	939.69
372.028	947.69
372.254	975.69
372.48	981.69
372.706	954.69
372.932	975.69
373.158	946.69
373.384	986.69
373.61	934.69
373.835	932.69
374.061	961.69
374.287	962.69
374.513	968.69
374.739	992.69
374.965	1018.69
375.191	1038.69
375.416	1020.69
375.642	990.69
375.868	993.69
376.094	968.69
376.319	988.69
376.545	960.69
376.771	956.69
376.997	934.69
377.222	973.69
377.448	932.69
377.674	941.69
377.899	944.69
378.125	950.69
378.35	922.69
378.576	922.69
378.802	924.69
379.027	934.69
379.253	959.69
379.478	935.69
379.704	933.69
379.929	963.69
380.155	945.69
380.38	909.69
380.606	911.69
380.831	917.69
381.057	917.69
381.282	941.69
381.507	938.69
381.733	972.69
381.958	956.69
382.184	941.69
382.409	981.69
382.634	970.69
382.86	959.69
383.085	992.69
383.31	1007.69
383.535	1019.69
383.761	1011.69
383.986	1036.69
384.211	1047.69
384.436	1063.69
384.662	1090.69
384.887	1098.69
385.112	1112.69
385.337	1054.69
385.562	1104.69
385.787	1095.69
386.013	1116.69
386.238	1113.69
386.463	1093.69
386.688	1120.69
386.913	1076.69
387.138	1089.69
387.363	1087.69
387.588	1107.69
387.813	1109.69
388.038	1071.69
388.263	1086.69
388.488	1095.69
388.713	1068.69
388.938	1074.69
389.163	1093.69
389.387	1094.69
389.612	1075.69
389.837	1060.69
390.062	1084.69
390.287	1098.69
390.512	1070.69
390.736	1075.69
390.961	1081.69
391.186	1100.69
391.411	1160.69
391.636	1136.69
391.86	1151.69
392.085	1220.69
392.31	1184.69
392.534	1156.69
392.759	1155.69
392.984	1096.69
393.208	1136.69
393.433	1110.69
393.658	1109.69
393.882	1121.69
394.107	1138.69
394.331	1159.69
394.556	1165.69
394.78	1176.69
395.005	1154.69
395.229	1150.69
395.454	1174.69
395.678	1184.69
395.903	1182.69
396.127	1185.69
396.352	1136.69
396.576	1132.69
396.801	1164.69
397.025	1163.69
397.249	1174.69
397.474	1185.69
397.698	1200.69
397.922	1236.69
398.147	1208.69
398.371	1254.69
398.595	1260.69
398.82	1337.69
399.044	1366.69
399.268	1537.69
399.492	1724.69
399.717	1870.69
399.941	1849.69
400.165	1734.69
400.389	1586.69
400.613	1514.69
400.837	1373.69
401.062	1390.69
401.286	1365.69
401.51	1333.69
401.734	1342.69
401.958	1366.69
402.182	1333.69
402.406	1368.69
402.63	1397.69
402.854	1439.69
403.078	1438.69
403.302	1467.69
403.526	1509.69
403.75	1503.69
403.974	1541.69
404.198	1548.69
404.422	1580.69
404.645	1621.69
404.869	1690.69
405.093	1772.69
405.317	1881.69
405.541	1913.69
405.765	1757.69
405.988	1668.69
406.212	1573.69
406.436	1524.69
406.66	1544.69
406.883	1535.69
407.107	1635.69
407.331	1666.69
407.555	1682.69
407.778	1643.69
408.002	1628.69
408.226	1580.69
408.449	1573.69
408.673	1548.69
408.896	1472.69
409.12	1470.69
409.344	1492.69
409.567	1452.69
409.791	1469.69
410.014	1476.69
410.238	1456.69
410.461	1477.69
410.685	1436.69
410.908	1424.69
411.132	1445.69
411.355	1394.69
411.578	1456.69
411.802	1492.69
412.025	1491.69
412.249	1599.69
412.472	1704.69
412.695	1870.69
412.919	1847.69
413.142	1717.69
413.365	1622.69
413.589	1566.69
413.812	1510.69
414.035	1456.69
414.258	1448.69
414.482	1473.69
414.705	1461.69
414.928	1426.69
415.151	1394.69
415.374	1374.69
415.597	1363.69
415.821	1385.69
416.044	1343.69
416.267	1358.69
416.49	1334.69
416.713	1341.69
416.936	1381.69
417.159	1326.69
417.382	1393.69
417.605	1461.69
417.828	1480.69
418.051	1406.69
418.274	1408.69
418.497	1366.69
418.72	1367.69
418.943	1387.69
419.166	1447.69
419.389	1557.69
419.611	1553.69
419.834	1529.69
420.057	1596.69
420.28	1670.69
420.503	1708.69
420.726	1628.69
420.948	1532.69
421.171	1513.69
421.394	1513.69
421.617	1405.69
421.839	1404.69
422.062	1437.69
422.285	1338.69
422.507	1379.69
422.73	1390.69
422.953	1390.69
423.175	1393.69
423.398	1394.69
423.621	1385.69
423.843	1412.69
424.066	1392.69
424.288	1386.69
424.511	1352.69
424.733	1340.69
424.956	1389.69
425.178	1321.69
425.401	1337.69
425.623	1321.69
425.846	1279.69
426.068	1276.69
426.291	1324.69
426.513	1288.69
426.735	1320.69
426.958	1320.69
427.18	1280.69
427.402	1363.69
427.625	1488.69
427.847	1624.69
428.069	1773.69
428.292	1670.69
428.514	1426.69
428.736	1332.69
428.958	1323.69
429.181	1243.69
429.403	1228.69
429.625	1220.69
429.847	1172.69
430.069	1184.69
430.292	1167.69
430.514	1140.69
430.736	1199.69
430.958	1177.69
431.18	1172.69
431.402	1165.69
431.624	1157.69
431.846	1167.69
432.068	1200.69
432.29	1210.69
432.512	1139.69
432.734	1155.69
432.956	1185.69
433.178	1162.69
433.4	1178.69
433.622	1189.69
433.844	1218.69
434.066	1146.69
434.287	1180.69
434.509	1206.69
434.731	1248.69
434.953	1275.69
435.175	1294.69
435.397	1261.69
435.618	1240.69
435.84	1184.69
436.062	1177.69
436.284	1184.69
436.505	1149.69
436.727	1165.69
436.949	1161.69
437.17	1149.69
437.392	1121.69
437.614	1125.69
437.835	1121.69
438.057	1129.69
438.278	1082.69
438.5	1081.69
438.721	1137.69
438.943	1131.69
439.165	1085.69
439.386	1117.69
439.608	1131.69
439.829	1131.69
440.05	1130.69
440.272	1156.69
440.493	1182.69
440.715	1192.69
440.936	1172.69
441.158	1203.69
441.379	1191.69
441.6	1264.69
441.822	1277.69
442.043	1289.69
442.264	1248.69
442.486	1226.69
442.707	1238.69
442.928	1229.69
443.149	1230.69
443.371	1203.69
443.592	1250.69
443.813	1286.69
444.034	1263.69
444.255	1313.69
444.476	1382.69
444.698	1418.69
444.919	1447.69
445.14	1562.69
445.361	1412.69
445.582	1285.69
445.803	1232.69
446.024	1203.69
446.245	1226.69
446.466	1210.69
446.687	1152.69
446.908	1155.69
447.129	1131.69
447.35	1106.69
447.571	1120.69
447.792	1070.69
448.013	1085.69
448.234	1054.69
448.455	1068.69
448.675	1027.69
448.896	1070.69
449.117	1018.69
449.338	1035.69
449.559	1044.69
449.779	1040.69
450	1043.69
450.221	1051.69
450.442	1023.69
450.662	1027.69
450.883	1025.69
451.104	1061.69
451.324	1059.69
451.545	1042.69
451.766	1045.69
451.986	1040.69
452.207	1032.69
452.428	1029.69
452.648	1014.69
452.869	990.69
453.089	1010.69
453.31	1042.69
453.53	956.69
453.751	1001.69
453.971	1008.69
454.192	1024.69
454.412	979.69
454.633	964.69
454.853	986.69
455.073	1014.69
455.294	988.69
455.514	1005.69
455.734	995.69
455.955	981.69
456.175	974.69
456.395	992.69
456.616	990.69
456.836	987.69
457.056	1002.69
457.276	957.69
457.497	1001.69
457.717	981.69
457.937	1026.69
458.157	1015.69
458.377	1015.69
458.598	1032.69
458.818	1076.69
459.038	1062.69
459.258	1109.69
459.478	1118.69
459.698	1154.69
459.918	1210.69
460.138	1202.69
460.358	1241.69
460.578	1306.69
460.798	1345.69
461.018	1308.69
461.238	1296.69
461.458	1283.69
461.678	1308.69
461.898	1303.69
462.118	1325.69
462.338	1375.69
462.558	1416.69
462.777	1500.69
462.997	1543.69
463.217	1680.69
463.437	1654.69
463.657	1542.69
463.876	1522.69
464.096	1487.69
464.316	1486.69
464.536	1499.69
464.755	1413.69
464.975	1391.69
465.195	1361.69
465.414	1297.69
465.634	1205.69
465.854	1182.69
466.073	1181.69
466.293	1173.69
466.512	1190.69
466.732	1135.69
466.951	1154.69
467.171	1188.69
467.391	1198.69
467.61	1264.69
467.829	1330.69
468.049	1846.69
468.268	2724.69
468.488	2064.69
468.707	1562.69
468.927	1374.69
469.146	1307.69
469.365	1248.69
469.585	1232.69
469.804	1252.69
470.023	1294.69
470.243	1236.69
470.462	1253.69
470.681	1290.69
470.901	1269.69
471.12	1278.69
471.339	1273.69
471.558	1292.69
471.777	1409.69
471.997	1708.69
472.216	2657.69
472.435	5114.69
472.654	4066.69
472.873	2495.69
473.092	1968.69
473.311	1706.69
473.53	1568.69
473.749	1456.69
473.968	1405.69
474.187	1320.69
474.406	1260.69
474.625	1283.69
474.844	1251.69
475.063	1256.69
475.282	1208.69
475.501	1217.69
475.72	1226.69
475.939	1233.69
476.158	1240.69
476.377	1230.69
476.596	1220.69
476.814	1235.69
477.033	1238.69
477.252	1222.69
477.471	1267.69
477.69	1312.69
477.908	1290.69
478.127	1396.69
478.346	1374.69
478.564	1384.69
478.783	1361.69
479.002	1478.69
479.22	1447.69
479.439	1491.69
479.658	1498.69
479.876	1550.69
480.095	1614.69
480.313	1717.69
480.532	1907.69
480.751	2166.69
480.969	3146.69
481.188	6780.69
481.406	8566.69
481.624	4700.69
481.843	3258.69
482.061	2633.69
482.28	2296.69
482.498	2032.69
482.717	1910.69
482.935	1833.69
483.153	1735.69
483.372	1657.69
483.59	1612.69
483.808	1590.69
484.027	1541.69
484.245	1532.69
484.463	1546.69
484.681	1494.69
484.9	1506.69
485.118	1515.69
485.336	1485.69
485.554	1477.69
485.772	1511.69
485.99	1468.69
486.209	1503.69
486.427	1529.69
486.645	1508.69
486.863	1491.69
487.081	1504.69
487.299	1452.69
487.517	1489.69
487.735	1476.69
487.953	1514.69
488.171	1531.69
488.389	1509.69
488.607	1497.69
488.825	1519.69
489.043	1510.69
489.261	1525.69
489.479	1548.69
489.696	1576.69
489.914	1576.69
490.132	1616.69
490.35	1632.69
490.568	1699.69
490.786	1724.69
491.003	1778.69
491.221	1842.69
491.439	1928.69
491.657	1988.69
491.874	2032.69
492.092	2054.69
492.31	2106.69
492.527	2099.69
492.745	2220.69
492.963	2132.69
493.18	2189.69
493.398	2095.69
493.615	2096.69
493.833	2057.69
494.05	2028.69
