Data from FlinnAP9092KCOPPER.07152019.QSWITCHSynchronous.EN10.20scans.P1_HRD10591_14-49-20-574.txt Node
Date: Mon Jul 15 14:49:20 EDT 2019
User: cochatt
Spectrometer: HR+D1059
Trigger mode: 5
Integration Time (sec): 1.000000E-1
Scans to average: 1
Electric dark correction enabled: true
Nonlinearity correction enabled: false
Boxcar width: 0
XAxis mode: Wavelengths
Number of Pixels in Spectrum: 2048
>>>>>Begin Spectral Data<<<<<
223.165	-30.81
223.4	-30.81
223.635	-30.81
223.869	-34.81
224.104	-42.81
224.338	-3.81
224.573	-8.81
224.808	-11.81
225.042	15.19
225.277	11.19
225.511	1.19
225.746	8.19
225.98	8.19
226.215	16.19
226.449	18.19
226.683	3.19
226.918	32.19
227.152	19.19
227.387	38.19
227.621	50.19
227.856	51.19
228.09	42.19
228.324	54.19
228.559	89.19
228.793	107.19
229.027	192.19
229.262	219.19
229.496	229.19
229.73	275.19
229.964	367.19
230.199	273.19
230.433	212.19
230.667	210.19
230.901	206.19
231.136	209.19
231.37	221.19
231.604	206.19
231.838	200.19
232.072	192.19
232.306	212.19
232.541	228.19
232.775	205.19
233.009	212.19
233.243	205.19
233.477	215.19
233.711	225.19
233.945	195.19
234.179	215.19
234.413	237.19
234.647	220.19
234.881	216.19
235.115	217.19
235.349	221.19
235.583	220.19
235.817	242.19
236.051	261.19
236.285	245.19
236.519	233.19
236.753	270.19
236.987	288.19
237.221	367.19
237.455	540.19
237.689	401.19
237.922	302.19
238.156	260.19
238.39	247.19
238.624	248.19
238.858	271.19
239.091	240.19
239.325	249.19
239.559	281.19
239.793	285.19
240.027	297.19
240.26	316.19
240.494	366.19
240.728	336.19
240.961	339.19
241.195	329.19
241.429	312.19
241.662	267.19
241.896	247.19
242.13	273.19
242.363	253.19
242.597	272.19
242.83	278.19
243.064	277.19
243.298	296.19
243.531	279.19
243.765	304.19
243.998	306.19
244.232	302.19
244.465	299.19
244.699	296.19
244.932	309.19
245.166	310.19
245.399	289.19
245.633	322.19
245.866	290.19
246.099	319.19
246.333	299.19
246.566	313.19
246.8	308.19
247.033	317.19
247.266	323.19
247.5	344.19
247.733	345.19
247.966	350.19
248.2	367.19
248.433	361.19
248.666	359.19
248.899	410.19
249.133	438.19
249.366	483.19
249.599	443.19
249.832	380.19
250.066	400.19
250.299	365.19
250.532	399.19
250.765	436.19
250.998	491.19
251.231	533.19
251.465	474.19
251.698	417.19
251.931	424.19
252.164	397.19
252.397	417.19
252.63	432.19
252.863	447.19
253.096	461.19
253.329	528.19
253.562	499.19
253.795	479.19
254.028	459.19
254.261	458.19
254.494	498.19
254.727	589.19
254.96	695.19
255.193	632.19
255.426	508.19
255.659	455.19
255.892	521.19
256.124	441.19
256.357	465.19
256.59	450.19
256.823	443.19
257.056	440.19
257.289	443.19
257.521	451.19
257.754	447.19
257.987	446.19
258.22	476.19
258.452	441.19
258.685	441.19
258.918	443.19
259.151	457.19
259.383	492.19
259.616	473.19
259.849	493.19
260.081	526.19
260.314	597.19
260.547	607.19
260.779	568.19
261.012	519.19
261.244	481.19
261.477	521.19
261.71	489.19
261.942	491.19
262.175	546.19
262.407	519.19
262.64	465.19
262.872	477.19
263.105	479.19
263.337	471.19
263.57	460.19
263.802	471.19
264.035	465.19
264.267	467.19
264.499	487.19
264.732	475.19
264.964	487.19
265.197	484.19
265.429	478.19
265.661	484.19
265.894	484.19
266.126	518.19
266.358	492.19
266.591	482.19
266.823	519.19
267.055	497.19
267.287	552.19
267.52	507.19
267.752	534.19
267.984	513.19
268.216	531.19
268.448	551.19
268.681	549.19
268.913	582.19
269.145	614.19
269.377	683.19
269.609	641.19
269.841	635.19
270.073	604.19
270.306	677.19
270.538	773.19
270.77	733.19
271.002	696.19
271.234	658.19
271.466	697.19
271.698	722.19
271.93	755.19
272.162	767.19
272.394	772.19
272.626	709.19
272.858	678.19
273.09	639.19
273.322	642.19
273.553	609.19
273.785	599.19
274.017	620.19
274.249	633.19
274.481	616.19
274.713	614.19
274.945	647.19
275.176	618.19
275.408	620.19
275.64	603.19
275.872	592.19
276.104	616.19
276.335	617.19
276.567	620.19
276.799	680.19
277.031	746.19
277.262	813.19
277.494	807.19
277.726	719.19
277.957	657.19
278.189	644.19
278.421	616.19
278.652	618.19
278.884	645.19
279.115	627.19
279.347	617.19
279.579	614.19
279.81	607.19
280.042	611.19
280.273	639.19
280.505	608.19
280.736	644.19
280.968	628.19
281.199	610.19
281.431	632.19
281.662	633.19
281.894	634.19
282.125	646.19
282.356	699.19
282.588	720.19
282.819	792.19
283.051	686.19
283.282	654.19
283.513	671.19
283.745	679.19
283.976	693.19
284.207	702.19
284.439	687.19
284.67	686.19
284.901	669.19
285.132	656.19
285.364	669.19
285.595	669.19
285.826	680.19
286.057	704.19
286.288	678.19
286.52	689.19
286.751	688.19
286.982	675.19
287.213	684.19
287.444	714.19
287.675	703.19
287.906	764.19
288.138	750.19
288.369	732.19
288.6	757.19
288.831	712.19
289.062	748.19
289.293	713.19
289.524	695.19
289.755	697.19
289.986	718.19
290.217	701.19
290.448	683.19
290.679	711.19
290.91	708.19
291.141	684.19
291.371	700.19
291.602	717.19
291.833	691.19
292.064	705.19
292.295	706.19
292.526	701.19
292.757	699.19
292.987	714.19
293.218	703.19
293.449	698.19
293.68	719.19
293.91	693.19
294.141	676.19
294.372	712.19
294.603	716.19
294.833	718.19
295.064	703.19
295.295	702.19
295.525	701.19
295.756	726.19
295.987	734.19
296.217	802.19
296.448	829.19
296.679	758.19
296.909	752.19
297.14	711.19
297.37	759.19
297.601	734.19
297.831	745.19
298.062	731.19
298.292	751.19
298.523	758.19
298.753	764.19
298.984	731.19
299.214	732.19
299.445	756.19
299.675	766.19
299.905	781.19
300.136	753.19
300.366	740.19
300.597	783.19
300.827	749.19
301.057	773.19
301.288	801.19
301.518	830.19
301.748	757.19
301.979	791.19
302.209	776.19
302.439	811.19
302.669	799.19
302.9	769.19
303.13	823.19
303.36	785.19
303.59	791.19
303.82	809.19
304.051	844.19
304.281	807.19
304.511	792.19
304.741	781.19
304.971	784.19
305.201	815.19
305.431	771.19
305.661	779.19
305.891	759.19
306.121	789.19
306.352	790.19
306.582	781.19
306.812	750.19
307.042	778.19
307.272	782.19
307.502	780.19
307.731	785.19
307.961	781.19
308.191	762.19
308.421	796.19
308.651	800.19
308.881	819.19
309.111	800.19
309.341	797.19
309.571	812.19
309.8	814.19
310.03	840.19
310.26	871.19
310.49	884.19
310.72	877.19
310.949	921.19
311.179	970.19
311.409	874.19
311.639	851.19
311.868	880.19
312.098	900.19
312.328	881.19
312.557	913.19
312.787	987.19
313.017	990.19
313.246	927.19
313.476	900.19
313.706	875.19
313.935	896.19
314.165	949.19
314.394	948.19
314.624	965.19
314.853	941.19
315.083	931.19
315.312	889.19
315.542	856.19
315.771	860.19
316.001	832.19
316.23	853.19
316.46	843.19
316.689	873.19
316.919	875.19
317.148	899.19
317.377	928.19
317.607	901.19
317.836	881.19
318.065	859.19
318.295	857.19
318.524	848.19
318.753	845.19
318.983	840.19
319.212	862.19
319.441	888.19
319.67	877.19
319.9	862.19
320.129	849.19
320.358	847.19
320.587	865.19
320.816	889.19
321.046	889.19
321.275	918.19
321.504	893.19
321.733	884.19
321.962	900.19
322.191	937.19
322.42	954.19
322.649	980.19
322.878	1008.19
323.108	1013.19
323.337	1070.19
323.566	1121.19
323.795	1146.19
324.024	1254.19
324.253	1486.19
324.482	2259.19
324.71	3753.19
324.939	5918.19
325.168	5211.19
325.397	2080.19
325.626	1347.19
325.855	1107.19
326.084	1067.19
326.313	1059.19
326.542	1092.19
326.77	1225.19
326.999	1415.19
327.228	2039.19
327.457	3422.19
327.686	4525.19
327.914	2657.19
328.143	1525.19
328.372	1311.19
328.6	1283.19
328.829	1239.19
329.058	1319.19
329.287	1415.19
329.515	1249.19
329.744	1139.19
329.972	1084.19
330.201	1087.19
330.43	1128.19
330.658	1245.19
330.887	1462.19
331.115	1501.19
331.344	1237.19
331.572	1170.19
331.801	1135.19
332.03	1165.19
332.258	1092.19
332.486	1054.19
332.715	1052.19
332.943	1129.19
333.172	1123.19
333.4	1149.19
333.629	1167.19
333.857	1165.19
334.085	1188.19
334.314	1181.19
334.542	1158.19
334.771	1182.19
334.999	1147.19
335.227	1138.19
335.455	1129.19
335.684	1136.19
335.912	1118.19
336.14	1092.19
336.369	1093.19
336.597	1104.19
336.825	1118.19
337.053	1071.19
337.281	1035.19
337.51	1051.19
337.738	1056.19
337.966	1030.19
338.194	1047.19
338.422	1029.19
338.65	1032.19
338.878	1051.19
339.106	978.19
339.334	1001.19
339.562	977.19
339.79	960.19
340.018	981.19
340.246	960.19
340.474	1000.19
340.702	1002.19
340.93	959.19
341.158	988.19
341.386	977.19
341.614	1029.19
341.842	990.19
342.07	962.19
342.298	967.19
342.526	936.19
342.754	921.19
342.981	926.19
343.209	934.19
343.437	993.19
343.665	1015.19
343.893	1109.19
344.12	1115.19
344.348	1060.19
344.576	1011.19
344.804	1036.19
345.031	1000.19
345.259	1057.19
345.487	1031.19
345.714	974.19
345.942	931.19
346.17	932.19
346.397	907.19
346.625	929.19
346.853	918.19
347.08	902.19
347.308	963.19
347.535	968.19
347.763	983.19
347.99	983.19
348.218	967.19
348.445	978.19
348.673	990.19
348.9	967.19
349.128	932.19
349.355	891.19
349.583	883.19
349.81	876.19
350.037	879.19
350.265	883.19
350.492	905.19
350.72	901.19
350.947	892.19
351.174	965.19
351.402	988.19
351.629	911.19
351.856	917.19
352.083	959.19
352.311	963.19
352.538	951.19
352.765	999.19
352.992	968.19
353.22	949.19
353.447	928.19
353.674	916.19
353.901	890.19
354.128	866.19
354.355	842.19
354.583	845.19
354.81	873.19
355.037	880.19
355.264	839.19
355.491	857.19
355.718	832.19
355.945	864.19
356.172	836.19
356.399	869.19
356.626	846.19
356.853	847.19
357.08	832.19
357.307	872.19
357.534	837.19
357.761	848.19
357.988	873.19
358.215	851.19
358.441	819.19
358.668	858.19
358.895	853.19
359.122	868.19
359.349	869.19
359.576	901.19
359.802	977.19
360.029	1066.19
360.256	1111.19
360.483	1063.19
360.709	915.19
360.936	944.19
361.163	929.19
361.39	952.19
361.616	955.19
361.843	918.19
362.07	911.19
362.296	928.19
362.523	913.19
362.749	913.19
362.976	903.19
363.203	921.19
363.429	853.19
363.656	864.19
363.882	864.19
364.109	881.19
364.335	868.19
364.562	856.19
364.788	856.19
365.015	893.19
365.241	871.19
365.468	918.19
365.694	899.19
365.92	915.19
366.147	880.19
366.373	847.19
366.599	885.19
366.826	855.19
367.052	859.19
367.278	869.19
367.505	871.19
367.731	903.19
367.957	881.19
368.184	876.19
368.41	897.19
368.636	899.19
368.862	966.19
369.089	922.19
369.315	913.19
369.541	895.19
369.767	884.19
369.993	898.19
370.219	926.19
370.445	909.19
370.672	907.19
370.898	883.19
371.124	884.19
371.35	918.19
371.576	895.19
371.802	896.19
372.028	876.19
372.254	894.19
372.48	919.19
372.706	896.19
372.932	958.19
373.158	926.19
373.384	953.19
373.61	943.19
373.835	926.19
374.061	912.19
374.287	961.19
374.513	953.19
374.739	957.19
374.965	954.19
375.191	979.19
375.416	965.19
375.642	984.19
375.868	965.19
376.094	936.19
376.319	908.19
376.545	912.19
376.771	906.19
376.997	891.19
377.222	889.19
377.448	907.19
377.674	891.19
377.899	923.19
378.125	884.19
378.35	901.19
378.576	878.19
378.802	908.19
379.027	917.19
379.253	947.19
379.478	929.19
379.704	893.19
379.929	909.19
380.155	917.19
380.38	903.19
380.606	903.19
380.831	939.19
381.057	993.19
381.282	934.19
381.507	968.19
381.733	938.19
381.958	934.19
382.184	916.19
382.409	960.19
382.634	997.19
382.86	951.19
383.085	985.19
383.31	987.19
383.535	997.19
383.761	1015.19
383.986	1012.19
384.211	1039.19
384.436	1067.19
384.662	1047.19
384.887	1075.19
385.112	1063.19
385.337	1065.19
385.562	1067.19
385.787	1077.19
386.013	1156.19
386.238	1119.19
386.463	1113.19
386.688	1093.19
386.913	1073.19
387.138	1088.19
387.363	1087.19
387.588	1106.19
387.813	1125.19
388.038	1086.19
388.263	1076.19
388.488	1075.19
388.713	1075.19
388.938	1059.19
389.163	1095.19
389.387	1119.19
389.612	1094.19
389.837	1060.19
390.062	1101.19
390.287	1078.19
390.512	1050.19
390.736	1078.19
390.961	1113.19
391.186	1119.19
391.411	1128.19
391.636	1155.19
391.86	1206.19
392.085	1221.19
392.31	1175.19
392.534	1182.19
392.759	1181.19
392.984	1145.19
393.208	1118.19
393.433	1132.19
393.658	1146.19
393.882	1167.19
394.107	1153.19
394.331	1136.19
394.556	1129.19
394.78	1171.19
395.005	1155.19
395.229	1164.19
395.454	1172.19
395.678	1219.19
395.903	1244.19
396.127	1309.19
396.352	1260.19
396.576	1170.19
396.801	1137.19
397.025	1157.19
397.249	1191.19
397.474	1239.19
397.698	1226.19
397.922	1261.19
398.147	1303.19
398.371	1311.19
398.595	1329.19
398.82	1313.19
399.044	1385.19
399.268	1478.19
399.492	1662.19
399.717	1814.19
399.941	1904.19
400.165	1864.19
400.389	1758.19
400.613	1565.19
400.837	1468.19
401.062	1428.19
401.286	1381.19
401.51	1374.19
401.734	1340.19
401.958	1397.19
402.182	1405.19
402.406	1462.19
402.63	1457.19
402.854	1437.19
403.078	1487.19
403.302	1504.19
403.526	1537.19
403.75	1553.19
403.974	1519.19
404.198	1531.19
404.422	1553.19
404.645	1575.19
404.869	1563.19
405.093	1580.19
405.317	1627.19
405.541	1624.19
405.765	1550.19
405.988	1519.19
406.212	1600.19
406.436	1665.19
406.66	1708.19
406.883	1619.19
407.107	1680.19
407.331	1835.19
407.555	2047.19
407.778	1974.19
408.002	1808.19
408.226	1696.19
408.449	1675.19
408.673	1621.19
408.896	1658.19
409.12	1814.19
409.344	1712.19
409.567	1545.19
409.791	1535.19
410.014	1549.19
410.238	1503.19
410.461	1489.19
410.685	1513.19
410.908	1544.19
411.132	1640.19
411.355	1707.19
411.578	1625.19
411.802	1485.19
412.025	1433.19
412.249	1465.19
412.472	1456.19
412.695	1412.19
412.919	1413.19
413.142	1388.19
413.365	1353.19
413.589	1452.19
413.812	1405.19
414.035	1411.19
414.258	1398.19
414.482	1399.19
414.705	1401.19
414.928	1446.19
415.151	1412.19
415.374	1404.19
415.597	1405.19
415.821	1393.19
416.044	1438.19
416.267	1433.19
416.49	1368.19
416.713	1372.19
416.936	1437.19
417.159	1441.19
417.382	1453.19
417.605	1443.19
417.828	1493.19
418.051	1552.19
418.274	1495.19
418.497	1488.19
418.72	1470.19
418.943	1495.19
419.166	1580.19
419.389	1619.19
419.611	1583.19
419.834	1560.19
420.057	1574.19
420.28	1507.19
420.503	1473.19
420.726	1467.19
420.948	1512.19
421.171	1634.19
421.394	1780.19
421.617	1539.19
421.839	1580.19
422.062	1553.19
422.285	1537.19
422.507	1705.19
422.73	1926.19
422.953	1779.19
423.175	1628.19
423.398	1598.19
423.621	1591.19
423.843	1708.19
424.066	1764.19
424.288	1682.19
424.511	1737.19
424.733	1841.19
424.956	2077.19
425.178	1947.19
425.401	1920.19
425.623	2013.19
425.846	1689.19
426.068	1591.19
426.291	1571.19
426.513	1535.19
426.735	1563.19
426.958	1696.19
427.18	1868.19
427.402	2297.19
427.625	2463.19
427.847	2079.19
428.069	1709.19
428.292	1535.19
428.514	1468.19
428.736	1463.19
428.958	1456.19
429.181	1433.19
429.403	1440.19
429.625	1463.19
429.847	1565.19
430.069	1734.19
430.292	1723.19
430.514	1472.19
430.736	1430.19
430.958	1407.19
431.18	1367.19
431.402	1347.19
431.624	1313.19
431.846	1227.19
432.068	1247.19
432.29	1253.19
432.512	1313.19
432.734	1383.19
432.956	1414.19
433.178	1463.19
433.4	1498.19
433.622	1457.19
433.844	1400.19
434.066	1354.19
434.287	1254.19
434.509	1249.19
434.731	1328.19
434.953	1400.19
435.175	1546.19
435.397	1605.19
435.618	1547.19
435.84	1650.19
436.062	1989.19
436.284	2159.19
436.505	1766.19
436.727	1592.19
436.949	1525.19
437.17	1437.19
437.392	1399.19
437.614	1440.19
437.835	1455.19
438.057	1676.19
438.278	2046.19
438.5	1991.19
438.721	2301.19
438.943	2175.19
439.165	1725.19
439.386	1637.19
439.608	1717.19
439.829	1696.19
440.05	1797.19
440.272	1999.19
440.493	1813.19
440.715	1619.19
440.936	1608.19
441.158	1587.19
441.379	1581.19
441.6	1655.19
441.822	1750.19
442.043	1801.19
442.264	2032.19
442.486	2109.19
442.707	1815.19
442.928	1735.19
443.149	1797.19
443.371	1933.19
443.592	1905.19
443.813	2175.19
444.034	2379.19
444.255	1976.19
444.476	1838.19
444.698	1811.19
444.919	1835.19
445.14	3388.19
445.361	2513.19
445.582	1937.19
445.803	2153.19
446.024	2471.19
446.245	2414.19
446.466	2193.19
446.687	1844.19
446.908	1731.19
447.129	1643.19
447.35	1573.19
447.571	1564.19
447.792	1493.19
448.013	1494.19
448.234	1558.19
448.455	1671.19
448.675	1997.19
448.896	2331.19
449.117	1881.19
449.338	1776.19
449.559	2129.19
449.779	2417.19
450	1831.19
450.221	1569.19
450.442	1488.19
450.662	1431.19
450.883	1464.19
451.104	1545.19
451.324	1468.19
451.545	1376.19
451.766	1349.19
451.986	1300.19
452.207	1284.19
452.428	1259.19
452.648	1287.19
452.869	1240.19
453.089	1289.19
453.31	1291.19
453.53	1191.19
453.751	1166.19
453.971	1175.19
454.192	1256.19
454.412	1213.19
454.633	1196.19
454.853	1212.19
455.073	1207.19
455.294	1307.19
455.514	1529.19
455.734	1459.19
455.955	1222.19
456.175	1161.19
456.395	1106.19
456.616	1109.19
456.836	1080.19
457.056	1072.19
457.276	1068.19
457.497	1085.19
457.717	1095.19
457.937	1137.19
458.157	1139.19
458.377	1157.19
458.598	1183.19
458.818	1303.19
459.038	1554.19
459.258	1643.19
459.478	1344.19
459.698	1216.19
459.918	1241.19
460.138	1293.19
460.358	1376.19
460.578	1370.19
460.798	1383.19
461.018	1413.19
461.238	1408.19
461.458	1415.19
461.678	1381.19
461.898	1381.19
462.118	1410.19
462.338	1453.19
462.558	1479.19
462.777	1498.19
462.997	1587.19
463.217	1648.19
463.437	1689.19
463.657	1561.19
463.876	1513.19
464.096	1499.19
464.316	1502.19
464.536	1567.19
464.755	1543.19
464.975	1539.19
465.195	1633.19
465.414	1829.19
465.634	1499.19
465.854	1389.19
466.073	1354.19
466.293	1311.19
466.512	1318.19
466.732	1301.19
466.951	1339.19
467.171	1337.19
467.391	1339.19
467.61	1408.19
467.829	1421.19
468.049	1360.19
468.268	1297.19
468.488	1303.19
468.707	1314.19
468.927	1310.19
469.146	1326.19
469.365	1391.19
469.585	1368.19
469.804	1426.19
470.023	1431.19
470.243	1439.19
470.462	1484.19
470.681	1507.19
470.901	1488.19
471.12	1411.19
471.339	1440.19
471.558	1405.19
471.777	1411.19
471.997	1354.19
472.216	1269.19
472.435	1191.19
472.654	1161.19
472.873	1144.19
473.092	1152.19
473.311	1241.19
473.53	1255.19
473.749	1310.19
473.968	1399.19
474.187	1689.19
474.406	1665.19
474.625	1419.19
474.844	1364.19
475.063	1249.19
475.282	1269.19
475.501	1246.19
475.72	1277.19
475.939	1251.19
476.158	1289.19
476.377	1341.19
476.596	1261.19
476.814	1249.19
477.033	1286.19
477.252	1264.19
477.471	1309.19
477.69	1423.19
477.908	1471.19
478.127	1495.19
478.346	1459.19
478.564	1502.19
478.783	1520.19
479.002	1565.19
479.22	1573.19
479.439	1589.19
479.658	1532.19
479.876	1482.19
480.095	1479.19
480.313	1671.19
480.532	1649.19
480.751	1512.19
480.969	1478.19
481.188	1408.19
481.406	1372.19
481.624	1313.19
481.843	1284.19
482.061	1315.19
482.28	1369.19
482.498	1317.19
482.717	1325.19
482.935	1408.19
483.153	1527.19
483.372	1557.19
483.59	1564.19
483.808	1479.19
484.027	1432.19
484.245	1452.19
484.463	1479.19
484.681	1606.19
484.9	1524.19
485.118	1535.19
485.336	1454.19
485.554	1442.19
485.772	1405.19
485.99	1409.19
486.209	1429.19
486.427	1466.19
486.645	1525.19
486.863	1659.19
487.081	1677.19
487.299	1607.19
487.517	1645.19
487.735	1782.19
487.953	1932.19
488.171	1893.19
488.389	1823.19
488.607	1706.19
488.825	1607.19
489.043	1554.19
489.261	1577.19
489.479	1626.19
489.696	1665.19
489.914	1705.19
490.132	1728.19
490.35	1785.19
490.568	1894.19
490.786	1996.19
491.003	2055.19
491.221	2101.19
491.439	2148.19
491.657	2242.19
491.874	2347.19
492.092	2428.19
492.31	2530.19
492.527	2431.19
492.745	2337.19
492.963	2243.19
493.18	2214.19
493.398	2218.19
493.615	2216.19
493.833	2219.19
