Data from FlinnAP5935BZINC.07152019.LAMPEdge.EN5.5scans.P1_HRD10591_15-00-00-579.txt Node
Date: Mon Jul 15 15:00:00 EDT 2019
User: cochatt
Spectrometer: HR+D1059
Trigger mode: 1
Integration Time (sec): 1.000000E-1
Scans to average: 1
Electric dark correction enabled: true
Nonlinearity correction enabled: false
Boxcar width: 0
XAxis mode: Wavelengths
Number of Pixels in Spectrum: 2048
>>>>>Begin Spectral Data<<<<<
223.165	-13.12
223.4	-13.12
223.635	-13.12
223.869	-13.12
224.104	-7.12
224.338	-14.12
224.573	-22.12
224.808	-8.12
225.042	-11.12
225.277	0.88
225.511	-5.12
225.746	4.88
225.98	4.88
226.215	4.88
226.449	16.88
226.683	8.88
226.918	24.88
227.152	27.88
227.387	35.88
227.621	33.88
227.856	50.88
228.09	45.88
228.324	58.88
228.559	59.88
228.793	73.88
229.027	120.88
229.262	107.88
229.496	110.88
229.73	115.88
229.964	130.88
230.199	136.88
230.433	133.88
230.667	133.88
230.901	127.88
231.136	136.88
231.37	129.88
231.604	140.88
231.838	149.88
232.072	139.88
232.306	148.88
232.541	141.88
232.775	149.88
233.009	139.88
233.243	134.88
233.477	154.88
233.711	141.88
233.945	152.88
234.179	144.88
234.413	143.88
234.647	138.88
234.881	147.88
235.115	141.88
235.349	133.88
235.583	139.88
235.817	157.88
236.051	149.88
236.285	151.88
236.519	143.88
236.753	134.88
236.987	154.88
237.221	161.88
237.455	151.88
237.689	158.88
237.922	159.88
238.156	161.88
238.39	149.88
238.624	161.88
238.858	174.88
239.091	164.88
239.325	160.88
239.559	159.88
239.793	170.88
240.027	180.88
240.26	173.88
240.494	169.88
240.728	183.88
240.961	180.88
241.195	175.88
241.429	178.88
241.662	180.88
241.896	175.88
242.13	200.88
242.363	180.88
242.597	194.88
242.83	192.88
243.064	194.88
243.298	194.88
243.531	207.88
243.765	196.88
243.998	195.88
244.232	206.88
244.465	206.88
244.699	209.88
244.932	217.88
245.166	215.88
245.399	209.88
245.633	212.88
245.866	207.88
246.099	220.88
246.333	219.88
246.566	215.88
246.8	225.88
247.033	214.88
247.266	212.88
247.5	214.88
247.733	225.88
247.966	247.88
248.2	241.88
248.433	241.88
248.666	237.88
248.899	237.88
249.133	246.88
249.366	259.88
249.599	272.88
249.832	263.88
250.066	321.88
250.299	365.88
250.532	446.88
250.765	512.88
250.998	459.88
251.231	389.88
251.465	337.88
251.698	353.88
251.931	312.88
252.164	305.88
252.397	302.88
252.63	337.88
252.863	289.88
253.096	307.88
253.329	285.88
253.562	294.88
253.795	295.88
254.028	311.88
254.261	316.88
254.494	280.88
254.727	319.88
254.96	341.88
255.193	340.88
255.426	375.88
255.659	425.88
255.892	561.88
256.124	784.88
256.357	838.88
256.59	710.88
256.823	567.88
257.056	467.88
257.289	448.88
257.521	409.88
257.754	389.88
257.987	391.88
258.22	388.88
258.452	353.88
258.685	346.88
258.918	355.88
259.151	350.88
259.383	341.88
259.616	353.88
259.849	348.88
260.081	326.88
260.314	358.88
260.547	356.88
260.779	361.88
261.012	361.88
261.244	361.88
261.477	344.88
261.71	349.88
261.942	345.88
262.175	331.88
262.407	349.88
262.64	332.88
262.872	342.88
263.105	355.88
263.337	369.88
263.57	356.88
263.802	352.88
264.035	352.88
264.267	352.88
264.499	345.88
264.732	357.88
264.964	347.88
265.197	355.88
265.429	354.88
265.661	370.88
265.894	372.88
266.126	354.88
266.358	360.88
266.591	380.88
266.823	369.88
267.055	353.88
267.287	359.88
267.52	380.88
267.752	371.88
267.984	379.88
268.216	388.88
268.448	380.88
268.681	387.88
268.913	390.88
269.145	374.88
269.377	375.88
269.609	383.88
269.841	398.88
270.073	387.88
270.306	409.88
270.538	399.88
270.77	392.88
271.002	363.88
271.234	403.88
271.466	386.88
271.698	395.88
271.93	409.88
272.162	416.88
272.394	410.88
272.626	411.88
272.858	430.88
273.09	437.88
273.322	426.88
273.553	425.88
273.785	425.88
274.017	417.88
274.249	433.88
274.481	444.88
274.713	454.88
274.945	461.88
275.176	470.88
275.408	480.88
275.64	482.88
275.872	488.88
276.104	499.88
276.335	504.88
276.567	467.88
276.799	520.88
277.031	565.88
277.262	614.88
277.494	618.88
277.726	581.88
277.957	538.88
278.189	570.88
278.421	542.88
278.652	529.88
278.884	513.88
279.115	529.88
279.347	524.88
279.579	558.88
279.81	561.88
280.042	617.88
280.273	722.88
280.505	715.88
280.736	624.88
280.968	582.88
281.199	555.88
281.431	543.88
281.662	534.88
281.894	539.88
282.125	532.88
282.356	512.88
282.588	512.88
282.819	521.88
283.051	522.88
283.282	520.88
283.513	523.88
283.745	509.88
283.976	524.88
284.207	492.88
284.439	509.88
284.67	501.88
284.901	525.88
285.132	508.88
285.364	513.88
285.595	508.88
285.826	508.88
286.057	532.88
286.288	516.88
286.52	539.88
286.751	530.88
286.982	520.88
287.213	527.88
287.444	527.88
287.675	546.88
287.906	538.88
288.138	528.88
288.369	521.88
288.6	525.88
288.831	549.88
289.062	543.88
289.293	529.88
289.524	550.88
289.755	559.88
289.986	539.88
290.217	536.88
290.448	551.88
290.679	552.88
290.91	562.88
291.141	539.88
291.371	526.88
291.602	524.88
291.833	537.88
292.064	559.88
292.295	542.88
292.526	548.88
292.757	511.88
292.987	526.88
293.218	525.88
293.449	553.88
293.68	524.88
293.91	519.88
294.141	544.88
294.372	524.88
294.603	540.88
294.833	507.88
295.064	544.88
295.295	530.88
295.525	541.88
295.756	550.88
295.987	544.88
296.217	553.88
296.448	518.88
296.679	556.88
296.909	543.88
297.14	531.88
297.37	553.88
297.601	565.88
297.831	558.88
298.062	557.88
298.292	547.88
298.523	551.88
298.753	578.88
298.984	562.88
299.214	572.88
299.445	580.88
299.675	600.88
299.905	577.88
300.136	582.88
300.366	574.88
300.597	577.88
300.827	587.88
301.057	591.88
301.288	613.88
301.518	610.88
301.748	607.88
301.979	624.88
302.209	628.88
302.439	604.88
302.669	605.88
302.9	615.88
303.13	627.88
303.36	599.88
303.59	611.88
303.82	660.88
304.051	653.88
304.281	664.88
304.511	633.88
304.741	639.88
304.971	642.88
305.201	628.88
305.431	617.88
305.661	601.88
305.891	582.88
306.121	600.88
306.352	622.88
306.582	611.88
306.812	609.88
307.042	618.88
307.272	690.88
307.502	725.88
307.731	752.88
307.961	689.88
308.191	657.88
308.421	620.88
308.651	595.88
308.881	644.88
309.111	617.88
309.341	600.88
309.571	625.88
309.8	613.88
310.03	608.88
310.26	616.88
310.49	624.88
310.72	615.88
310.949	633.88
311.179	662.88
311.409	632.88
311.639	621.88
311.868	622.88
312.098	629.88
312.328	637.88
312.557	643.88
312.787	623.88
313.017	645.88
313.246	654.88
313.476	659.88
313.706	657.88
313.935	654.88
314.165	664.88
314.394	638.88
314.624	646.88
314.853	652.88
315.083	668.88
315.312	659.88
315.542	658.88
315.771	653.88
316.001	675.88
316.23	645.88
316.46	636.88
316.689	652.88
316.919	661.88
317.148	665.88
317.377	657.88
317.607	672.88
317.836	677.88
318.065	649.88
318.295	661.88
318.524	669.88
318.753	662.88
318.983	644.88
319.212	675.88
319.441	675.88
319.67	655.88
319.9	666.88
320.129	675.88
320.358	668.88
320.587	667.88
320.816	669.88
321.046	696.88
321.275	681.88
321.504	707.88
321.733	689.88
321.962	689.88
322.191	686.88
322.42	709.88
322.649	721.88
322.878	712.88
323.108	711.88
323.337	749.88
323.566	757.88
323.795	758.88
324.024	761.88
324.253	765.88
324.482	797.88
324.71	804.88
324.939	841.88
325.168	801.88
325.397	808.88
325.626	804.88
325.855	835.88
326.084	884.88
326.313	874.88
326.542	889.88
326.77	939.88
326.999	931.88
327.228	986.88
327.457	1056.88
327.686	1134.88
327.914	1372.88
328.143	1755.88
328.372	2091.88
328.6	1947.88
328.829	1409.88
329.058	1280.88
329.287	1295.88
329.515	1412.88
329.744	1703.88
329.972	2224.88
330.201	3064.88
330.43	3857.88
330.658	3137.88
330.887	1912.88
331.115	1460.88
331.344	1271.88
331.572	1198.88
331.801	1176.88
332.03	1158.88
332.258	1172.88
332.486	1181.88
332.715	1201.88
332.943	1297.88
333.172	1365.88
333.4	1495.88
333.629	1675.88
333.857	1981.88
334.085	2459.88
334.314	3460.88
334.542	4771.88
334.771	5103.88
334.999	3248.88
335.227	2089.88
335.455	1617.88
335.684	1395.88
335.912	1257.88
336.14	1188.88
336.369	1094.88
336.597	1096.88
336.825	1048.88
337.053	1016.88
337.281	978.88
337.51	977.88
337.738	947.88
337.966	909.88
338.194	896.88
338.422	873.88
338.65	866.88
338.878	857.88
339.106	820.88
339.334	834.88
339.562	807.88
339.79	801.88
340.018	798.88
340.246	797.88
340.474	779.88
340.702	782.88
340.93	792.88
341.158	779.88
341.386	763.88
341.614	767.88
341.842	774.88
342.07	749.88
342.298	760.88
342.526	741.88
342.754	733.88
342.981	746.88
343.209	759.88
343.437	788.88
343.665	837.88
343.893	840.88
344.12	865.88
344.348	822.88
344.576	789.88
344.804	795.88
345.031	721.88
345.259	751.88
345.487	723.88
345.714	750.88
345.942	719.88
346.17	742.88
346.397	716.88
346.625	710.88
346.853	706.88
347.08	691.88
347.308	709.88
347.535	723.88
347.763	728.88
347.99	698.88
348.218	715.88
348.445	694.88
348.673	682.88
348.9	701.88
349.128	712.88
349.355	671.88
349.583	702.88
349.81	706.88
350.037	693.88
350.265	681.88
350.492	682.88
350.72	711.88
350.947	671.88
351.174	674.88
351.402	708.88
351.629	693.88
351.856	680.88
352.083	657.88
352.311	692.88
352.538	694.88
352.765	672.88
352.992	652.88
353.22	679.88
353.447	667.88
353.674	677.88
353.901	678.88
354.128	660.88
354.355	659.88
354.583	689.88
354.81	667.88
355.037	687.88
355.264	691.88
355.491	657.88
355.718	665.88
355.945	696.88
356.172	677.88
356.399	664.88
356.626	695.88
356.853	664.88
357.08	665.88
357.307	667.88
357.534	648.88
357.761	679.88
357.988	697.88
358.215	672.88
358.441	677.88
358.668	695.88
358.895	672.88
359.122	662.88
359.349	690.88
359.576	658.88
359.802	644.88
360.029	659.88
360.256	661.88
360.483	652.88
360.709	652.88
360.936	662.88
361.163	668.88
361.39	664.88
361.616	651.88
361.843	668.88
362.07	677.88
362.296	662.88
362.523	645.88
362.749	684.88
362.976	672.88
363.203	670.88
363.429	647.88
363.656	651.88
363.882	666.88
364.109	658.88
364.335	678.88
364.562	655.88
364.788	661.88
365.015	671.88
365.241	670.88
365.468	677.88
365.694	659.88
365.92	652.88
366.147	620.88
366.373	667.88
366.599	671.88
366.826	637.88
367.052	658.88
367.278	641.88
367.505	653.88
367.731	654.88
367.957	654.88
368.184	661.88
368.41	665.88
368.636	677.88
368.862	685.88
369.089	671.88
369.315	662.88
369.541	657.88
369.767	665.88
369.993	675.88
370.219	688.88
370.445	680.88
370.672	698.88
370.898	695.88
371.124	687.88
371.35	688.88
371.576	702.88
371.802	711.88
372.028	677.88
372.254	699.88
372.48	699.88
372.706	705.88
372.932	731.88
373.158	725.88
373.384	721.88
373.61	681.88
373.835	703.88
374.061	706.88
374.287	723.88
374.513	679.88
374.739	719.88
374.965	755.88
375.191	737.88
375.416	739.88
375.642	742.88
375.868	711.88
376.094	710.88
376.319	707.88
376.545	690.88
376.771	708.88
376.997	689.88
377.222	692.88
377.448	688.88
377.674	691.88
377.899	666.88
378.125	705.88
378.35	703.88
378.576	694.88
378.802	719.88
379.027	686.88
379.253	686.88
379.478	673.88
379.704	679.88
379.929	686.88
380.155	685.88
380.38	679.88
380.606	687.88
380.831	690.88
381.057	675.88
381.282	698.88
381.507	707.88
381.733	724.88
381.958	713.88
382.184	705.88
382.409	704.88
382.634	737.88
382.86	733.88
383.085	725.88
383.31	733.88
383.535	743.88
383.761	744.88
383.986	742.88
384.211	763.88
384.436	787.88
384.662	808.88
384.887	811.88
385.112	803.88
385.337	786.88
385.562	787.88
385.787	822.88
386.013	809.88
386.238	831.88
386.463	820.88
386.688	806.88
386.913	804.88
387.138	791.88
387.363	809.88
387.588	787.88
387.813	797.88
388.038	768.88
388.263	813.88
388.488	816.88
388.713	775.88
388.938	789.88
389.163	807.88
389.387	791.88
389.612	780.88
389.837	775.88
390.062	746.88
390.287	756.88
390.512	788.88
390.736	807.88
390.961	809.88
391.186	836.88
391.411	827.88
391.636	851.88
391.86	893.88
392.085	869.88
392.31	864.88
392.534	848.88
392.759	852.88
392.984	836.88
393.208	834.88
393.433	853.88
393.658	839.88
393.882	845.88
394.107	849.88
394.331	856.88
394.556	840.88
394.78	835.88
395.005	822.88
395.229	829.88
395.454	875.88
395.678	865.88
395.903	893.88
396.127	866.88
396.352	839.88
396.576	836.88
396.801	834.88
397.025	852.88
397.249	863.88
397.474	888.88
397.698	867.88
397.922	901.88
398.147	880.88
398.371	904.88
398.595	917.88
398.82	969.88
399.044	1013.88
399.268	1132.88
399.492	1224.88
399.717	1363.88
399.941	1361.88
400.165	1227.88
400.389	1152.88
400.613	1083.88
400.837	1037.88
401.062	1011.88
401.286	984.88
401.51	973.88
401.734	966.88
401.958	998.88
402.182	1002.88
402.406	990.88
402.63	1014.88
402.854	1053.88
403.078	1074.88
403.302	1072.88
403.526	1084.88
403.75	1082.88
403.974	1133.88
404.198	1163.88
404.422	1160.88
404.645	1155.88
404.869	1241.88
405.093	1288.88
405.317	1355.88
405.541	1383.88
405.765	1309.88
405.988	1200.88
406.212	1175.88
406.436	1123.88
406.66	1130.88
406.883	1127.88
407.107	1166.88
407.331	1207.88
407.555	1224.88
407.778	1224.88
408.002	1211.88
408.226	1168.88
408.449	1175.88
408.673	1121.88
408.896	1105.88
409.12	1070.88
409.344	1090.88
409.567	1062.88
409.791	1057.88
410.014	1062.88
410.238	1061.88
410.461	1077.88
410.685	1051.88
410.908	1046.88
411.132	1035.88
411.355	1019.88
411.578	1081.88
411.802	1065.88
412.025	1108.88
412.249	1172.88
412.472	1257.88
412.695	1367.88
412.919	1343.88
413.142	1243.88
413.365	1211.88
413.589	1130.88
413.812	1064.88
414.035	1079.88
414.258	1071.88
414.482	1054.88
414.705	1052.88
414.928	1032.88
415.151	1005.88
415.374	1010.88
415.597	1008.88
415.821	986.88
416.044	999.88
416.267	1002.88
416.49	993.88
416.713	963.88
416.936	991.88
417.159	993.88
417.382	1005.88
417.605	1053.88
417.828	1095.88
418.051	1046.88
418.274	1025.88
418.497	1000.88
418.72	998.88
418.943	1016.88
419.166	1041.88
419.389	1165.88
419.611	1140.88
419.834	1167.88
420.057	1157.88
420.28	1237.88
420.503	1257.88
420.726	1165.88
420.948	1127.88
421.171	1109.88
421.394	1082.88
421.617	1027.88
421.839	1036.88
422.062	1011.88
422.285	999.88
422.507	1016.88
422.73	1012.88
422.953	1016.88
423.175	992.88
423.398	1015.88
423.621	1019.88
423.843	1036.88
424.066	1011.88
424.288	995.88
424.511	1013.88
424.733	996.88
424.956	992.88
425.178	968.88
425.401	967.88
425.623	988.88
425.846	964.88
426.068	944.88
426.291	947.88
426.513	941.88
426.735	944.88
426.958	928.88
427.18	949.88
427.402	1008.88
427.625	1049.88
427.847	1199.88
428.069	1272.88
428.292	1227.88
428.514	1077.88
428.736	989.88
428.958	935.88
429.181	908.88
429.403	910.88
429.625	862.88
429.847	903.88
430.069	904.88
430.292	872.88
430.514	874.88
430.736	863.88
430.958	845.88
431.18	867.88
431.402	871.88
431.624	857.88
431.846	884.88
432.068	867.88
432.29	886.88
432.512	890.88
432.734	873.88
432.956	879.88
433.178	855.88
433.4	851.88
433.622	856.88
433.844	855.88
434.066	863.88
434.287	864.88
434.509	901.88
434.731	918.88
434.953	968.88
435.175	952.88
435.397	932.88
435.618	893.88
435.84	907.88
436.062	893.88
436.284	841.88
436.505	844.88
436.727	840.88
436.949	840.88
437.17	850.88
437.392	845.88
437.614	821.88
437.835	822.88
438.057	795.88
438.278	782.88
438.5	804.88
438.721	784.88
438.943	849.88
439.165	799.88
439.386	803.88
439.608	848.88
439.829	839.88
440.05	840.88
440.272	827.88
440.493	851.88
440.715	873.88
440.936	855.88
441.158	868.88
441.379	893.88
441.6	941.88
441.822	950.88
442.043	918.88
442.264	920.88
442.486	927.88
442.707	924.88
442.928	887.88
443.149	916.88
443.371	919.88
443.592	918.88
443.813	921.88
444.034	951.88
444.255	956.88
444.476	993.88
444.698	1061.88
444.919	1077.88
445.14	1180.88
445.361	1053.88
445.582	964.88
445.803	911.88
446.024	889.88
446.245	876.88
446.466	911.88
446.687	853.88
446.908	872.88
447.129	836.88
447.35	823.88
447.571	847.88
447.792	815.88
448.013	812.88
448.234	796.88
448.455	779.88
448.675	745.88
448.896	779.88
449.117	787.88
449.338	764.88
449.559	787.88
449.779	783.88
450	777.88
450.221	769.88
450.442	779.88
450.662	784.88
450.883	787.88
451.104	768.88
451.324	791.88
451.545	754.88
451.766	769.88
451.986	776.88
452.207	787.88
452.428	791.88
452.648	795.88
452.869	745.88
453.089	734.88
453.31	756.88
453.53	763.88
453.751	760.88
453.971	745.88
454.192	739.88
454.412	736.88
454.633	739.88
454.853	773.88
455.073	741.88
455.294	745.88
455.514	725.88
455.734	731.88
455.955	720.88
456.175	729.88
456.395	713.88
456.616	734.88
456.836	715.88
457.056	736.88
457.276	715.88
457.497	765.88
457.717	749.88
457.937	759.88
458.157	749.88
458.377	746.88
458.598	780.88
458.818	784.88
459.038	827.88
459.258	834.88
459.478	837.88
459.698	848.88
459.918	873.88
460.138	897.88
460.358	944.88
460.578	927.88
460.798	953.88
461.018	963.88
461.238	915.88
461.458	955.88
461.678	928.88
461.898	974.88
462.118	961.88
462.338	1023.88
462.558	1012.88
462.777	1089.88
462.997	1152.88
463.217	1203.88
463.437	1209.88
463.657	1126.88
463.876	1107.88
464.096	1116.88
464.316	1088.88
464.536	1124.88
464.755	1063.88
464.975	996.88
465.195	1020.88
465.414	987.88
465.634	917.88
465.854	881.88
466.073	887.88
466.293	883.88
466.512	858.88
466.732	872.88
466.951	838.88
467.171	845.88
467.391	849.88
467.61	920.88
467.829	1029.88
468.049	1355.88
468.268	1983.88
468.488	1553.88
468.707	1169.88
468.927	1057.88
469.146	964.88
469.365	933.88
469.585	886.88
469.804	911.88
470.023	913.88
470.243	918.88
470.462	915.88
470.681	922.88
470.901	920.88
471.12	929.88
471.339	961.88
471.558	950.88
471.777	1044.88
471.997	1212.88
472.216	1909.88
472.435	3803.88
472.654	2980.88
472.873	1829.88
473.092	1429.88
473.311	1249.88
473.53	1104.88
473.749	1013.88
473.968	987.88
474.187	947.88
474.406	939.88
474.625	952.88
474.844	911.88
475.063	913.88
475.282	877.88
475.501	904.88
475.72	879.88
475.939	869.88
476.158	890.88
476.377	893.88
476.596	892.88
476.814	888.88
477.033	902.88
477.252	915.88
477.471	917.88
477.69	944.88
477.908	934.88
478.127	996.88
478.346	992.88
478.564	1024.88
478.783	1005.88
479.002	1038.88
479.22	1053.88
479.439	1086.88
479.658	1093.88
479.876	1103.88
480.095	1165.88
480.313	1272.88
480.532	1367.88
480.751	1565.88
480.969	2265.88
481.188	4881.88
481.406	6219.88
481.624	3429.88
481.843	2317.88
482.061	1902.88
482.28	1604.88
482.498	1459.88
482.717	1376.88
482.935	1278.88
483.153	1235.88
483.372	1176.88
483.59	1183.88
483.808	1139.88
484.027	1105.88
484.245	1093.88
484.463	1081.88
484.681	1106.88
484.9	1093.88
485.118	1113.88
485.336	1075.88
485.554	1077.88
485.772	1085.88
485.99	1093.88
486.209	1074.88
486.427	1058.88
486.645	1053.88
486.863	1083.88
487.081	1066.88
487.299	1088.88
487.517	1084.88
487.735	1091.88
487.953	1071.88
488.171	1086.88
488.389	1085.88
488.607	1096.88
488.825	1093.88
489.043	1075.88
489.261	1099.88
489.479	1071.88
489.696	1163.88
489.914	1135.88
490.132	1178.88
490.35	1196.88
490.568	1248.88
490.786	1256.88
491.003	1259.88
491.221	1331.88
491.439	1371.88
491.657	1380.88
491.874	1415.88
492.092	1439.88
492.31	1459.88
492.527	1516.88
492.745	1503.88
492.963	1522.88
493.18	1527.88
493.398	1517.88
493.615	1481.88
493.833	1439.88
494.05	1443.88
494.268	1399.88
494.485	1361.88
494.703	1360.88
494.92	1319.88
495.138	1304.88
495.355	1327.88
495.573	1272.88
495.79	1256.88
496.008	1286.88
496.225	1246.88
496.442	1228.88
496.66	1268.88
496.877	1264.88
497.094	1235.88
497.312	1248.88
497.529	1262.88
497.746	1276.88
497.963	1288.88
498.181	1335.88
498.398	1341.88
