Data from FlinnAP5935BZINC.07152019.LAMPEdge.EN10.5scans.P1_HRD10591_15-01-53-580.txt Node
Date: Mon Jul 15 15:01:53 EDT 2019
User: cochatt
Spectrometer: HR+D1059
Trigger mode: 1
Integration Time (sec): 1.000000E-1
Scans to average: 1
Electric dark correction enabled: true
Nonlinearity correction enabled: false
Boxcar width: 0
XAxis mode: Wavelengths
Number of Pixels in Spectrum: 2048
>>>>>Begin Spectral Data<<<<<
223.165	-6.81
223.4	-6.81
223.635	-6.81
223.869	-13.81
224.104	-16.81
224.338	-17.81
224.573	-17.81
224.808	-24.81
225.042	3.19
225.277	-16.81
225.511	-8.81
225.746	3.19
225.98	7.19
226.215	10.19
226.449	13.19
226.683	20.19
226.918	32.19
227.152	34.19
227.387	24.19
227.621	36.19
227.856	45.19
228.09	42.19
228.324	57.19
228.559	59.19
228.793	68.19
229.027	140.19
229.262	142.19
229.496	150.19
229.73	165.19
229.964	173.19
230.199	161.19
230.433	158.19
230.667	152.19
230.901	186.19
231.136	175.19
231.37	166.19
231.604	182.19
231.838	189.19
232.072	177.19
232.306	192.19
232.541	184.19
232.775	189.19
233.009	181.19
233.243	190.19
233.477	179.19
233.711	188.19
233.945	186.19
234.179	198.19
234.413	198.19
234.647	197.19
234.881	199.19
235.115	194.19
235.349	198.19
235.583	201.19
235.817	170.19
236.051	189.19
236.285	198.19
236.519	216.19
236.753	224.19
236.987	205.19
237.221	214.19
237.455	232.19
237.689	208.19
237.922	210.19
238.156	216.19
238.39	231.19
238.624	220.19
238.858	232.19
239.091	224.19
239.325	223.19
239.559	223.19
239.793	225.19
240.027	225.19
240.26	242.19
240.494	241.19
240.728	254.19
240.961	252.19
241.195	247.19
241.429	283.19
241.662	284.19
241.896	271.19
242.13	257.19
242.363	267.19
242.597	268.19
242.83	294.19
243.064	274.19
243.298	268.19
243.531	276.19
243.765	307.19
243.998	303.19
244.232	307.19
244.465	300.19
244.699	297.19
244.932	322.19
245.166	323.19
245.399	300.19
245.633	324.19
245.866	336.19
246.099	321.19
246.333	333.19
246.566	329.19
246.8	340.19
247.033	340.19
247.266	327.19
247.5	352.19
247.733	342.19
247.966	367.19
248.2	353.19
248.433	391.19
248.666	369.19
248.899	356.19
249.133	388.19
249.366	415.19
249.599	400.19
249.832	433.19
250.066	460.19
250.299	517.19
250.532	648.19
250.765	693.19
250.998	639.19
251.231	570.19
251.465	518.19
251.698	500.19
251.931	483.19
252.164	494.19
252.397	470.19
252.63	470.19
252.863	468.19
253.096	466.19
253.329	452.19
253.562	473.19
253.795	478.19
254.028	478.19
254.261	495.19
254.494	494.19
254.727	494.19
254.96	507.19
255.193	540.19
255.426	574.19
255.659	648.19
255.892	795.19
256.124	1036.19
256.357	1132.19
256.59	939.19
256.823	775.19
257.056	696.19
257.289	679.19
257.521	646.19
257.754	650.19
257.987	624.19
258.22	605.19
258.452	599.19
258.685	576.19
258.918	583.19
259.151	557.19
259.383	571.19
259.616	565.19
259.849	561.19
260.081	571.19
260.314	554.19
260.547	572.19
260.779	586.19
261.012	588.19
261.244	578.19
261.477	588.19
261.71	573.19
261.942	547.19
262.175	566.19
262.407	560.19
262.64	554.19
262.872	562.19
263.105	558.19
263.337	584.19
263.57	577.19
263.802	574.19
264.035	554.19
264.267	590.19
264.499	584.19
264.732	578.19
264.964	583.19
265.197	600.19
265.429	567.19
265.661	590.19
265.894	570.19
266.126	583.19
266.358	569.19
266.591	606.19
266.823	611.19
267.055	593.19
267.287	599.19
267.52	577.19
267.752	622.19
267.984	604.19
268.216	630.19
268.448	634.19
268.681	630.19
268.913	623.19
269.145	626.19
269.377	618.19
269.609	651.19
269.841	670.19
270.073	622.19
270.306	657.19
270.538	641.19
270.77	637.19
271.002	637.19
271.234	672.19
271.466	674.19
271.698	690.19
271.93	671.19
272.162	674.19
272.394	700.19
272.626	683.19
272.858	694.19
273.09	690.19
273.322	690.19
273.553	739.19
273.785	716.19
274.017	730.19
274.249	730.19
274.481	722.19
274.713	761.19
274.945	764.19
275.176	758.19
275.408	772.19
275.64	809.19
275.872	840.19
276.104	838.19
276.335	818.19
276.567	811.19
276.799	862.19
277.031	897.19
277.262	985.19
277.494	976.19
277.726	934.19
277.957	902.19
278.189	868.19
278.421	831.19
278.652	851.19
278.884	862.19
279.115	869.19
279.347	854.19
279.579	905.19
279.81	933.19
280.042	1008.19
280.273	1132.19
280.505	1164.19
280.736	995.19
280.968	970.19
281.199	932.19
281.431	916.19
281.662	906.19
281.894	894.19
282.125	873.19
282.356	888.19
282.588	858.19
282.819	857.19
283.051	886.19
283.282	840.19
283.513	874.19
283.745	884.19
283.976	865.19
284.207	883.19
284.439	890.19
284.67	899.19
284.901	895.19
285.132	911.19
285.364	920.19
285.595	887.19
285.826	886.19
286.057	905.19
286.288	902.19
286.52	916.19
286.751	902.19
286.982	926.19
287.213	929.19
287.444	933.19
287.675	931.19
287.906	918.19
288.138	943.19
288.369	902.19
288.6	938.19
288.831	927.19
289.062	942.19
289.293	950.19
289.524	947.19
289.755	936.19
289.986	938.19
290.217	915.19
290.448	940.19
290.679	948.19
290.91	923.19
291.141	924.19
291.371	929.19
291.602	916.19
291.833	909.19
292.064	934.19
292.295	955.19
292.526	936.19
292.757	941.19
292.987	915.19
293.218	936.19
293.449	951.19
293.68	939.19
293.91	944.19
294.141	942.19
294.372	918.19
294.603	924.19
294.833	959.19
295.064	970.19
295.295	959.19
295.525	934.19
295.756	963.19
295.987	956.19
296.217	951.19
296.448	993.19
296.679	969.19
296.909	958.19
297.14	950.19
297.37	1018.19
297.601	967.19
297.831	987.19
298.062	945.19
298.292	997.19
298.523	1006.19
298.753	1033.19
298.984	978.19
299.214	988.19
299.445	986.19
299.675	1010.19
299.905	1007.19
300.136	1024.19
300.366	1025.19
300.597	1016.19
300.827	1054.19
301.057	1054.19
301.288	1053.19
301.518	1077.19
301.748	1098.19
301.979	1114.19
302.209	1136.19
302.439	1086.19
302.669	1087.19
302.9	1088.19
303.13	1047.19
303.36	1103.19
303.59	1148.19
303.82	1150.19
304.051	1130.19
304.281	1130.19
304.511	1104.19
304.741	1104.19
304.971	1091.19
305.201	1087.19
305.431	1080.19
305.661	1106.19
305.891	1059.19
306.121	1044.19
306.352	1078.19
306.582	1076.19
306.812	1095.19
307.042	1126.19
307.272	1206.19
307.502	1247.19
307.731	1246.19
307.961	1220.19
308.191	1137.19
308.421	1066.19
308.651	1091.19
308.881	1084.19
309.111	1087.19
309.341	1065.19
309.571	1098.19
309.8	1089.19
310.03	1080.19
310.26	1095.19
310.49	1094.19
310.72	1089.19
310.949	1110.19
311.179	1101.19
311.409	1119.19
311.639	1112.19
311.868	1144.19
312.098	1126.19
312.328	1117.19
312.557	1138.19
312.787	1134.19
313.017	1168.19
313.246	1134.19
313.476	1144.19
313.706	1150.19
313.935	1169.19
314.165	1158.19
314.394	1143.19
314.624	1168.19
314.853	1175.19
315.083	1139.19
315.312	1175.19
315.542	1188.19
315.771	1183.19
316.001	1197.19
316.23	1218.19
316.46	1161.19
316.689	1139.19
316.919	1154.19
317.148	1154.19
317.377	1145.19
317.607	1202.19
317.836	1196.19
318.065	1172.19
318.295	1172.19
318.524	1177.19
318.753	1175.19
318.983	1194.19
319.212	1166.19
319.441	1184.19
319.67	1204.19
319.9	1194.19
320.129	1203.19
320.358	1203.19
320.587	1245.19
320.816	1226.19
321.046	1211.19
321.275	1222.19
321.504	1230.19
321.733	1223.19
321.962	1261.19
322.191	1255.19
322.42	1258.19
322.649	1256.19
322.878	1280.19
323.108	1304.19
323.337	1304.19
323.566	1326.19
323.795	1323.19
324.024	1380.19
324.253	1369.19
324.482	1363.19
324.71	1357.19
324.939	1401.19
325.168	1419.19
325.397	1440.19
325.626	1452.19
325.855	1459.19
326.084	1520.19
326.313	1533.19
326.542	1526.19
326.77	1565.19
326.999	1574.19
327.228	1638.19
327.457	1712.19
327.686	1875.19
327.914	2163.19
328.143	2643.19
328.372	3147.19
328.6	2909.19
328.829	2231.19
329.058	2028.19
329.287	2075.19
329.515	2232.19
329.744	2530.19
329.972	3250.19
330.201	4343.19
330.43	5207.19
330.658	4370.19
330.887	2752.19
331.115	2270.19
331.344	2031.19
331.572	1978.19
331.801	1968.19
332.03	1906.19
332.258	1956.19
332.486	2008.19
332.715	2078.19
332.943	2118.19
333.172	2285.19
333.4	2422.19
333.629	2622.19
333.857	2994.19
334.085	3662.19
334.314	4847.19
334.542	6380.19
334.771	6728.19
334.999	4534.19
335.227	3128.19
335.455	2602.19
335.684	2260.19
335.912	2083.19
336.14	2007.19
336.369	1876.19
336.597	1868.19
336.825	1769.19
337.053	1771.19
337.281	1728.19
337.51	1688.19
337.738	1636.19
337.966	1601.19
338.194	1587.19
338.422	1536.19
338.65	1549.19
338.878	1524.19
339.106	1510.19
339.334	1473.19
339.562	1451.19
339.79	1416.19
340.018	1421.19
340.246	1393.19
340.474	1377.19
340.702	1384.19
340.93	1410.19
341.158	1414.19
341.386	1394.19
341.614	1384.19
341.842	1376.19
342.07	1364.19
342.298	1357.19
342.526	1364.19
342.754	1344.19
342.981	1340.19
343.209	1372.19
343.437	1424.19
343.665	1490.19
343.893	1575.19
344.12	1610.19
344.348	1578.19
344.576	1483.19
344.804	1448.19
345.031	1355.19
345.259	1369.19
345.487	1340.19
345.714	1322.19
345.942	1291.19
346.17	1287.19
346.397	1286.19
346.625	1280.19
346.853	1260.19
347.08	1224.19
347.308	1266.19
347.535	1260.19
347.763	1271.19
347.99	1253.19
348.218	1285.19
348.445	1276.19
348.673	1270.19
348.9	1279.19
349.128	1275.19
349.355	1250.19
349.583	1232.19
349.81	1230.19
350.037	1215.19
350.265	1201.19
350.492	1232.19
350.72	1244.19
350.947	1230.19
351.174	1248.19
351.402	1219.19
351.629	1226.19
351.856	1235.19
352.083	1217.19
352.311	1207.19
352.538	1217.19
352.765	1220.19
352.992	1199.19
353.22	1177.19
353.447	1190.19
353.674	1218.19
353.901	1204.19
354.128	1223.19
354.355	1177.19
354.583	1220.19
354.81	1203.19
355.037	1211.19
355.264	1213.19
355.491	1188.19
355.718	1200.19
355.945	1224.19
356.172	1175.19
356.399	1214.19
356.626	1196.19
356.853	1219.19
357.08	1185.19
357.307	1196.19
357.534	1206.19
357.761	1201.19
357.988	1189.19
358.215	1208.19
358.441	1188.19
358.668	1192.19
358.895	1206.19
359.122	1201.19
359.349	1185.19
359.576	1210.19
359.802	1170.19
360.029	1177.19
360.256	1185.19
360.483	1207.19
360.709	1179.19
360.936	1190.19
361.163	1201.19
361.39	1195.19
361.616	1179.19
361.843	1172.19
362.07	1176.19
362.296	1164.19
362.523	1166.19
362.749	1187.19
362.976	1159.19
363.203	1170.19
363.429	1192.19
363.656	1185.19
363.882	1174.19
364.109	1186.19
364.335	1171.19
364.562	1169.19
364.788	1191.19
365.015	1174.19
365.241	1160.19
365.468	1184.19
365.694	1142.19
365.92	1164.19
366.147	1172.19
366.373	1169.19
366.599	1149.19
366.826	1160.19
367.052	1168.19
367.278	1210.19
367.505	1189.19
367.731	1198.19
367.957	1158.19
368.184	1183.19
368.41	1201.19
368.636	1209.19
368.862	1178.19
369.089	1143.19
369.315	1197.19
369.541	1166.19
369.767	1198.19
369.993	1208.19
370.219	1226.19
370.445	1219.19
370.672	1208.19
370.898	1194.19
371.124	1242.19
371.35	1228.19
371.576	1223.19
371.802	1252.19
372.028	1256.19
372.254	1252.19
372.48	1288.19
372.706	1299.19
372.932	1297.19
373.158	1311.19
373.384	1275.19
373.61	1232.19
373.835	1279.19
374.061	1243.19
374.287	1250.19
374.513	1287.19
374.739	1326.19
374.965	1345.19
375.191	1350.19
375.416	1337.19
375.642	1330.19
375.868	1291.19
376.094	1265.19
376.319	1252.19
376.545	1243.19
376.771	1239.19
376.997	1248.19
377.222	1229.19
377.448	1229.19
377.674	1238.19
377.899	1226.19
378.125	1226.19
378.35	1242.19
378.576	1227.19
378.802	1229.19
379.027	1216.19
379.253	1250.19
379.478	1167.19
379.704	1171.19
379.929	1230.19
380.155	1229.19
380.38	1227.19
380.606	1210.19
380.831	1183.19
381.057	1240.19
381.282	1234.19
381.507	1244.19
381.733	1258.19
381.958	1264.19
382.184	1270.19
382.409	1241.19
382.634	1281.19
382.86	1290.19
383.085	1276.19
383.31	1312.19
383.535	1316.19
383.761	1344.19
383.986	1384.19
384.211	1363.19
384.436	1383.19
384.662	1459.19
384.887	1427.19
385.112	1431.19
385.337	1465.19
385.562	1464.19
385.787	1443.19
386.013	1475.19
386.238	1452.19
386.463	1478.19
386.688	1510.19
386.913	1463.19
387.138	1433.19
387.363	1429.19
387.588	1398.19
387.813	1430.19
388.038	1416.19
388.263	1466.19
388.488	1433.19
388.713	1435.19
388.938	1451.19
389.163	1440.19
389.387	1402.19
389.612	1393.19
389.837	1420.19
390.062	1404.19
390.287	1445.19
390.512	1407.19
390.736	1419.19
390.961	1464.19
391.186	1481.19
391.411	1496.19
391.636	1567.19
391.86	1578.19
392.085	1641.19
392.31	1602.19
392.534	1548.19
392.759	1568.19
392.984	1517.19
393.208	1537.19
393.433	1517.19
393.658	1495.19
393.882	1513.19
394.107	1524.19
394.331	1496.19
394.556	1489.19
394.78	1532.19
395.005	1550.19
395.229	1516.19
395.454	1602.19
395.678	1568.19
395.903	1626.19
396.127	1575.19
396.352	1513.19
396.576	1546.19
396.801	1518.19
397.025	1534.19
397.249	1560.19
397.474	1646.19
397.698	1619.19
397.922	1607.19
398.147	1606.19
398.371	1656.19
398.595	1686.19
398.82	1759.19
399.044	1891.19
399.268	2047.19
399.492	2361.19
399.717	2550.19
399.941	2590.19
400.165	2268.19
400.389	2107.19
400.613	1946.19
400.837	1837.19
401.062	1826.19
401.286	1772.19
401.51	1809.19
401.734	1723.19
401.958	1790.19
402.182	1841.19
402.406	1822.19
402.63	1852.19
402.854	1903.19
403.078	1939.19
403.302	1966.19
403.526	2010.19
403.75	2009.19
403.974	2083.19
404.198	2055.19
404.422	2094.19
404.645	2100.19
404.869	2111.19
405.093	2194.19
405.317	2241.19
405.541	2284.19
405.765	2115.19
405.988	2065.19
406.212	2034.19
406.436	2002.19
406.66	2030.19
406.883	2002.19
407.107	2151.19
407.331	2214.19
407.555	2209.19
407.778	2206.19
408.002	2174.19
408.226	2098.19
408.449	2077.19
408.673	2004.19
408.896	1974.19
409.12	1964.19
409.344	1938.19
409.567	1912.19
409.791	1921.19
410.014	1941.19
410.238	1895.19
410.461	1969.19
410.685	1884.19
410.908	1899.19
411.132	1859.19
411.355	1864.19
411.578	1834.19
411.802	1856.19
412.025	1934.19
412.249	2014.19
412.472	2095.19
412.695	2170.19
412.919	2107.19
413.142	2081.19
413.365	1987.19
413.589	1955.19
413.812	1883.19
414.035	1889.19
414.258	1834.19
414.482	1888.19
414.705	1846.19
414.928	1862.19
415.151	1779.19
415.374	1806.19
415.597	1777.19
415.821	1747.19
416.044	1768.19
416.267	1772.19
416.49	1718.19
416.713	1715.19
416.936	1714.19
417.159	1770.19
417.382	1800.19
417.605	1858.19
417.828	1826.19
418.051	1792.19
418.274	1755.19
418.497	1765.19
418.72	1815.19
418.943	1807.19
419.166	1911.19
419.389	2018.19
419.611	2019.19
419.834	1968.19
420.057	1932.19
420.28	2017.19
420.503	1981.19
420.726	1945.19
420.948	1926.19
421.171	1898.19
421.394	1853.19
421.617	1791.19
421.839	1827.19
422.062	1802.19
422.285	1758.19
422.507	1810.19
422.73	1820.19
422.953	1801.19
423.175	1803.19
423.398	1817.19
423.621	1831.19
423.843	1846.19
424.066	1852.19
424.288	1841.19
424.511	1832.19
424.733	1787.19
424.956	1798.19
425.178	1756.19
425.401	1748.19
425.623	1755.19
425.846	1682.19
426.068	1686.19
426.291	1678.19
426.513	1695.19
426.735	1688.19
426.958	1687.19
427.18	1680.19
427.402	1716.19
427.625	1774.19
427.847	1886.19
428.069	1943.19
428.292	1886.19
428.514	1715.19
428.736	1642.19
428.958	1635.19
429.181	1594.19
429.403	1531.19
429.625	1566.19
429.847	1558.19
430.069	1528.19
430.292	1543.19
430.514	1508.19
430.736	1505.19
430.958	1536.19
431.18	1537.19
431.402	1545.19
431.624	1536.19
431.846	1524.19
432.068	1523.19
432.29	1557.19
432.512	1494.19
432.734	1547.19
432.956	1541.19
433.178	1530.19
433.4	1511.19
433.622	1561.19
433.844	1572.19
434.066	1526.19
434.287	1552.19
434.509	1630.19
434.731	1648.19
434.953	1653.19
435.175	1724.19
435.397	1671.19
435.618	1549.19
435.84	1567.19
436.062	1538.19
436.284	1490.19
436.505	1489.19
436.727	1521.19
436.949	1543.19
437.17	1500.19
437.392	1464.19
437.614	1428.19
437.835	1449.19
438.057	1465.19
438.278	1390.19
438.5	1422.19
438.721	1446.19
438.943	1448.19
439.165	1460.19
439.386	1464.19
439.608	1494.19
439.829	1482.19
440.05	1480.19
440.272	1509.19
440.493	1551.19
440.715	1521.19
440.936	1537.19
441.158	1570.19
441.379	1627.19
441.6	1668.19
441.822	1677.19
442.043	1694.19
442.264	1634.19
442.486	1666.19
442.707	1663.19
442.928	1632.19
443.149	1665.19
443.371	1633.19
443.592	1683.19
443.813	1705.19
444.034	1691.19
444.255	1734.19
444.476	1838.19
444.698	1906.19
444.919	1973.19
445.14	2064.19
445.361	1822.19
445.582	1696.19
445.803	1641.19
446.024	1588.19
446.245	1591.19
446.466	1526.19
446.687	1512.19
446.908	1512.19
447.129	1490.19
447.35	1472.19
447.571	1439.19
447.792	1432.19
448.013	1402.19
448.234	1426.19
448.455	1418.19
448.675	1411.19
448.896	1407.19
449.117	1331.19
449.338	1387.19
449.559	1356.19
449.779	1326.19
450	1342.19
450.221	1370.19
450.442	1354.19
450.662	1382.19
450.883	1398.19
451.104	1423.19
451.324	1374.19
451.545	1365.19
451.766	1381.19
451.986	1358.19
452.207	1354.19
452.428	1335.19
452.648	1367.19
452.869	1320.19
453.089	1334.19
453.31	1311.19
453.53	1323.19
453.751	1272.19
453.971	1323.19
454.192	1278.19
454.412	1294.19
454.633	1293.19
454.853	1321.19
455.073	1280.19
455.294	1299.19
455.514	1310.19
455.734	1274.19
455.955	1279.19
456.175	1280.19
456.395	1240.19
456.616	1265.19
456.836	1258.19
457.056	1262.19
457.276	1273.19
457.497	1316.19
457.717	1296.19
457.937	1368.19
458.157	1330.19
458.377	1333.19
458.598	1327.19
458.818	1386.19
459.038	1414.19
459.258	1444.19
459.478	1511.19
459.698	1565.19
459.918	1583.19
460.138	1629.19
460.358	1754.19
460.578	1768.19
460.798	1758.19
461.018	1788.19
461.238	1776.19
461.458	1743.19
461.678	1746.19
461.898	1790.19
462.118	1791.19
462.338	1897.19
462.558	1911.19
462.777	2023.19
462.997	2103.19
463.217	2279.19
463.437	2250.19
463.657	2081.19
463.876	2026.19
464.096	2010.19
464.316	1969.19
464.536	2005.19
464.755	1958.19
464.975	1875.19
465.195	1789.19
465.414	1710.19
465.634	1635.19
465.854	1582.19
466.073	1536.19
466.293	1555.19
466.512	1514.19
466.732	1502.19
466.951	1505.19
467.171	1496.19
467.391	1555.19
467.61	1562.19
467.829	1736.19
468.049	2218.19
468.268	3130.19
468.488	2341.19
468.707	1842.19
468.927	1662.19
469.146	1610.19
469.365	1568.19
469.585	1593.19
469.804	1618.19
470.023	1616.19
470.243	1586.19
470.462	1610.19
470.681	1606.19
470.901	1653.19
471.12	1620.19
471.339	1676.19
471.558	1658.19
471.777	1773.19
471.997	1984.19
472.216	2973.19
472.435	5311.19
472.654	4098.19
472.873	2668.19
473.092	2217.19
473.311	1931.19
473.53	1826.19
473.749	1762.19
473.968	1711.19
474.187	1663.19
474.406	1656.19
474.625	1598.19
474.844	1568.19
475.063	1586.19
475.282	1551.19
475.501	1555.19
475.72	1572.19
475.939	1582.19
476.158	1592.19
476.377	1608.19
476.596	1577.19
476.814	1615.19
477.033	1595.19
477.252	1631.19
477.471	1629.19
477.69	1701.19
477.908	1758.19
478.127	1721.19
478.346	1807.19
478.564	1838.19
478.783	1878.19
479.002	1917.19
479.22	1882.19
479.439	1880.19
479.658	1926.19
479.876	1936.19
480.095	1967.19
480.313	2160.19
480.532	2289.19
480.751	2634.19
480.969	3549.19
481.188	6902.19
481.406	8281.19
481.624	4596.19
481.843	3323.19
482.061	2802.19
482.28	2568.19
482.498	2303.19
482.717	2196.19
482.935	2175.19
483.153	2051.19
483.372	2052.19
483.59	1998.19
483.808	1961.19
484.027	1942.19
484.245	1939.19
484.463	1928.19
484.681	1917.19
484.9	1923.19
485.118	1927.19
485.336	1896.19
485.554	1906.19
485.772	1906.19
485.99	1875.19
486.209	1943.19
486.427	1903.19
486.645	1901.19
486.863	1916.19
487.081	1897.19
487.299	1933.19
487.517	1910.19
487.735	1874.19
487.953	1930.19
488.171	1944.19
488.389	1917.19
488.607	1902.19
488.825	1871.19
489.043	1906.19
489.261	1920.19
489.479	1937.19
489.696	1980.19
489.914	1973.19
490.132	2011.19
490.35	2021.19
