Data from FlinnAP5935BZINC.07152019.LAMPEdge.EN10.5scans.P1_HRD10591_15-01-44-580.txt Node
Date: Mon Jul 15 15:01:44 EDT 2019
User: cochatt
Spectrometer: HR+D1059
Trigger mode: 1
Integration Time (sec): 1.000000E-1
Scans to average: 1
Electric dark correction enabled: true
Nonlinearity correction enabled: false
Boxcar width: 0
XAxis mode: Wavelengths
Number of Pixels in Spectrum: 2048
>>>>>Begin Spectral Data<<<<<
223.165	-26.81
223.4	-26.81
223.635	-26.81
223.869	-2.81
224.104	-9.81
224.338	5.19
224.573	-23.81
224.808	-11.81
225.042	-7.81
225.277	-9.81
225.511	11.19
225.746	7.19
225.98	2.19
226.215	-2.81
226.449	6.19
226.683	15.19
226.918	18.19
227.152	30.19
227.387	35.19
227.621	33.19
227.856	44.19
228.09	54.19
228.324	67.19
228.559	61.19
228.793	69.19
229.027	127.19
229.262	141.19
229.496	149.19
229.73	156.19
229.964	160.19
230.199	165.19
230.433	159.19
230.667	163.19
230.901	163.19
231.136	151.19
231.37	172.19
231.604	181.19
231.838	160.19
232.072	178.19
232.306	184.19
232.541	186.19
232.775	183.19
233.009	179.19
233.243	175.19
233.477	194.19
233.711	189.19
233.945	197.19
234.179	189.19
234.413	194.19
234.647	187.19
234.881	188.19
235.115	202.19
235.349	195.19
235.583	204.19
235.817	195.19
236.051	190.19
236.285	207.19
236.519	209.19
236.753	197.19
236.987	217.19
237.221	201.19
237.455	207.19
237.689	204.19
237.922	209.19
238.156	216.19
238.39	243.19
238.624	207.19
238.858	223.19
239.091	225.19
239.325	220.19
239.559	229.19
239.793	209.19
240.027	244.19
240.26	245.19
240.494	260.19
240.728	236.19
240.961	240.19
241.195	251.19
241.429	262.19
241.662	230.19
241.896	282.19
242.13	251.19
242.363	274.19
242.597	244.19
242.83	267.19
243.064	275.19
243.298	290.19
243.531	296.19
243.765	291.19
243.998	285.19
244.232	293.19
244.465	304.19
244.699	289.19
244.932	311.19
245.166	305.19
245.399	309.19
245.633	315.19
245.866	332.19
246.099	314.19
246.333	328.19
246.566	323.19
246.8	331.19
247.033	341.19
247.266	341.19
247.5	354.19
247.733	338.19
247.966	357.19
248.2	355.19
248.433	351.19
248.666	360.19
248.899	387.19
249.133	386.19
249.366	404.19
249.599	421.19
249.832	427.19
250.066	496.19
250.299	580.19
250.532	775.19
250.765	895.19
250.998	753.19
251.231	633.19
251.465	529.19
251.698	527.19
251.931	512.19
252.164	497.19
252.397	474.19
252.63	469.19
252.863	486.19
253.096	450.19
253.329	481.19
253.562	463.19
253.795	471.19
254.028	474.19
254.261	495.19
254.494	528.19
254.727	528.19
254.96	531.19
255.193	559.19
255.426	614.19
255.659	735.19
255.892	971.19
256.124	1328.19
256.357	1491.19
256.59	1211.19
256.823	941.19
257.056	811.19
257.289	733.19
257.521	701.19
257.754	647.19
257.987	659.19
258.22	597.19
258.452	603.19
258.685	589.19
258.918	596.19
259.151	548.19
259.383	566.19
259.616	547.19
259.849	539.19
260.081	543.19
260.314	566.19
260.547	553.19
260.779	571.19
261.012	605.19
261.244	594.19
261.477	560.19
261.71	549.19
261.942	548.19
262.175	537.19
262.407	530.19
262.64	536.19
262.872	530.19
263.105	534.19
263.337	526.19
263.57	560.19
263.802	543.19
264.035	557.19
264.267	558.19
264.499	562.19
264.732	532.19
264.964	563.19
265.197	541.19
265.429	580.19
265.661	534.19
265.894	555.19
266.126	567.19
266.358	581.19
266.591	560.19
266.823	567.19
267.055	581.19
267.287	590.19
267.52	571.19
267.752	585.19
267.984	601.19
268.216	586.19
268.448	609.19
268.681	602.19
268.913	590.19
269.145	603.19
269.377	602.19
269.609	612.19
269.841	615.19
270.073	587.19
270.306	609.19
270.538	630.19
270.77	603.19
271.002	624.19
271.234	656.19
271.466	623.19
271.698	652.19
271.93	655.19
272.162	662.19
272.394	666.19
272.626	667.19
272.858	658.19
273.09	697.19
273.322	660.19
273.553	682.19
273.785	690.19
274.017	722.19
274.249	725.19
274.481	713.19
274.713	710.19
274.945	737.19
275.176	742.19
275.408	769.19
275.64	785.19
275.872	829.19
276.104	852.19
276.335	803.19
276.567	826.19
276.799	878.19
277.031	912.19
277.262	982.19
277.494	1014.19
277.726	949.19
277.957	922.19
278.189	883.19
278.421	867.19
278.652	865.19
278.884	839.19
279.115	844.19
279.347	876.19
279.579	887.19
279.81	981.19
280.042	1038.19
280.273	1172.19
280.505	1187.19
280.736	1053.19
280.968	974.19
281.199	925.19
281.431	877.19
281.662	876.19
281.894	867.19
282.125	879.19
282.356	842.19
282.588	837.19
282.819	844.19
283.051	833.19
283.282	817.19
283.513	825.19
283.745	861.19
283.976	821.19
284.207	827.19
284.439	811.19
284.67	822.19
284.901	815.19
285.132	850.19
285.364	853.19
285.595	866.19
285.826	857.19
286.057	857.19
286.288	853.19
286.52	853.19
286.751	873.19
286.982	874.19
287.213	857.19
287.444	863.19
287.675	884.19
287.906	833.19
288.138	868.19
288.369	899.19
288.6	878.19
288.831	866.19
289.062	887.19
289.293	865.19
289.524	881.19
289.755	858.19
289.986	892.19
290.217	873.19
290.448	881.19
290.679	888.19
290.91	875.19
291.141	865.19
291.371	879.19
291.602	850.19
291.833	841.19
292.064	849.19
292.295	858.19
292.526	831.19
292.757	852.19
292.987	830.19
293.218	799.19
293.449	868.19
293.68	849.19
293.91	852.19
294.141	857.19
294.372	856.19
294.603	844.19
294.833	867.19
295.064	871.19
295.295	870.19
295.525	864.19
295.756	859.19
295.987	837.19
296.217	875.19
296.448	851.19
296.679	865.19
296.909	869.19
297.14	887.19
297.37	893.19
297.601	909.19
297.831	883.19
298.062	868.19
298.292	902.19
298.523	887.19
298.753	896.19
298.984	909.19
299.214	916.19
299.445	924.19
299.675	933.19
299.905	926.19
300.136	913.19
300.366	927.19
300.597	922.19
300.827	953.19
301.057	962.19
301.288	940.19
301.518	948.19
301.748	983.19
301.979	989.19
302.209	1018.19
302.439	970.19
302.669	962.19
302.9	966.19
303.13	956.19
303.36	974.19
303.59	1028.19
303.82	1086.19
304.051	1088.19
304.281	1046.19
304.511	1000.19
304.741	1020.19
304.971	979.19
305.201	981.19
305.431	967.19
305.661	981.19
305.891	940.19
306.121	971.19
306.352	955.19
306.582	973.19
306.812	971.19
307.042	1023.19
307.272	1100.19
307.502	1190.19
307.731	1179.19
307.961	1114.19
308.191	1036.19
308.421	1005.19
308.651	1004.19
308.881	986.19
309.111	981.19
309.341	957.19
309.571	942.19
309.8	1000.19
310.03	989.19
310.26	981.19
310.49	983.19
310.72	993.19
310.949	986.19
311.179	1016.19
311.409	1016.19
311.639	1009.19
311.868	1012.19
312.098	1010.19
312.328	1012.19
312.557	1028.19
312.787	1011.19
313.017	1034.19
313.246	1020.19
313.476	1037.19
313.706	1058.19
313.935	1081.19
314.165	1058.19
314.394	1041.19
314.624	1054.19
314.853	1046.19
315.083	1049.19
315.312	1043.19
315.542	1053.19
315.771	1068.19
316.001	1039.19
316.23	1039.19
316.46	1040.19
316.689	1079.19
316.919	1071.19
317.148	1055.19
317.377	1083.19
317.607	1051.19
317.836	1067.19
318.065	1059.19
318.295	1086.19
318.524	1083.19
318.753	1077.19
318.983	1073.19
319.212	1087.19
319.441	1056.19
319.67	1062.19
319.9	1094.19
320.129	1099.19
320.358	1097.19
320.587	1094.19
320.816	1118.19
321.046	1104.19
321.275	1115.19
321.504	1145.19
321.733	1154.19
321.962	1125.19
322.191	1140.19
322.42	1152.19
322.649	1175.19
322.878	1195.19
323.108	1170.19
323.337	1213.19
323.566	1294.19
323.795	1278.19
324.024	1280.19
324.253	1284.19
324.482	1314.19
324.71	1332.19
324.939	1393.19
325.168	1382.19
325.397	1385.19
325.626	1431.19
325.855	1483.19
326.084	1490.19
326.313	1552.19
326.542	1558.19
326.77	1620.19
326.999	1644.19
327.228	1696.19
327.457	1835.19
327.686	2099.19
327.914	2472.19
328.143	3091.19
328.372	3750.19
328.6	3449.19
328.829	2571.19
329.058	2315.19
329.287	2383.19
329.515	2567.19
329.744	3037.19
329.972	3947.19
330.201	5291.19
330.43	6357.19
330.658	5250.19
330.887	3365.19
331.115	2585.19
331.344	2340.19
331.572	2159.19
331.801	2089.19
332.03	2057.19
332.258	2114.19
332.486	2145.19
332.715	2144.19
332.943	2311.19
333.172	2401.19
333.4	2677.19
333.629	2965.19
333.857	3522.19
334.085	4417.19
334.314	5987.19
334.542	7809.19
334.771	8193.19
334.999	5535.19
335.227	3685.19
335.455	2944.19
335.684	2523.19
335.912	2253.19
336.14	2066.19
336.369	1950.19
336.597	1854.19
336.825	1802.19
337.053	1750.19
337.281	1662.19
337.51	1611.19
337.738	1571.19
337.966	1540.19
338.194	1486.19
338.422	1441.19
338.65	1431.19
338.878	1408.19
339.106	1392.19
339.334	1359.19
339.562	1345.19
339.79	1307.19
340.018	1308.19
340.246	1309.19
340.474	1284.19
340.702	1270.19
340.93	1277.19
341.158	1266.19
341.386	1243.19
341.614	1251.19
341.842	1243.19
342.07	1230.19
342.298	1205.19
342.526	1219.19
342.754	1208.19
342.981	1220.19
343.209	1237.19
343.437	1282.19
343.665	1341.19
343.893	1382.19
344.12	1412.19
344.348	1331.19
344.576	1289.19
344.804	1262.19
345.031	1202.19
345.259	1195.19
345.487	1175.19
345.714	1168.19
345.942	1169.19
346.17	1139.19
346.397	1130.19
346.625	1133.19
346.853	1106.19
347.08	1139.19
347.308	1130.19
347.535	1123.19
347.763	1166.19
347.99	1141.19
348.218	1119.19
348.445	1141.19
348.673	1135.19
348.9	1137.19
349.128	1130.19
349.355	1121.19
349.583	1114.19
349.81	1127.19
350.037	1098.19
350.265	1118.19
350.492	1111.19
350.72	1087.19
350.947	1090.19
351.174	1063.19
351.402	1099.19
351.629	1092.19
351.856	1087.19
352.083	1095.19
352.311	1050.19
352.538	1075.19
352.765	1095.19
352.992	1076.19
353.22	1051.19
353.447	1085.19
353.674	1107.19
353.901	1084.19
354.128	1071.19
354.355	1093.19
354.583	1097.19
354.81	1088.19
355.037	1079.19
355.264	1073.19
355.491	1043.19
355.718	1094.19
355.945	1107.19
356.172	1087.19
356.399	1089.19
356.626	1075.19
356.853	1063.19
357.08	1059.19
357.307	1063.19
357.534	1060.19
357.761	1079.19
357.988	1079.19
358.215	1050.19
358.441	1056.19
358.668	1037.19
358.895	1093.19
359.122	1033.19
359.349	1052.19
359.576	1059.19
359.802	1048.19
360.029	1057.19
360.256	1053.19
360.483	1089.19
360.709	1051.19
360.936	1077.19
361.163	1049.19
361.39	1052.19
361.616	1052.19
361.843	1023.19
362.07	1021.19
362.296	1033.19
362.523	1047.19
362.749	1060.19
362.976	1040.19
363.203	1051.19
363.429	1048.19
363.656	1044.19
363.882	1083.19
364.109	1045.19
364.335	1017.19
364.562	1045.19
364.788	1031.19
365.015	1062.19
365.241	1053.19
365.468	1026.19
365.694	1040.19
365.92	1049.19
366.147	1028.19
366.373	1022.19
366.599	1034.19
366.826	1027.19
367.052	1061.19
367.278	1004.19
367.505	1045.19
367.731	1041.19
367.957	1037.19
368.184	1055.19
368.41	1057.19
368.636	1073.19
368.862	1052.19
369.089	1044.19
369.315	1063.19
369.541	1061.19
369.767	1067.19
369.993	1045.19
370.219	1059.19
370.445	1071.19
370.672	1063.19
370.898	1095.19
371.124	1065.19
371.35	1121.19
371.576	1115.19
371.802	1080.19
372.028	1106.19
372.254	1099.19
372.48	1116.19
372.706	1093.19
372.932	1129.19
373.158	1124.19
373.384	1139.19
373.61	1106.19
373.835	1103.19
374.061	1089.19
374.287	1100.19
374.513	1117.19
374.739	1124.19
374.965	1174.19
375.191	1165.19
375.416	1164.19
375.642	1123.19
375.868	1145.19
376.094	1103.19
376.319	1102.19
376.545	1085.19
376.771	1076.19
376.997	1060.19
377.222	1060.19
377.448	1085.19
377.674	1099.19
377.899	1071.19
378.125	1070.19
378.35	1083.19
378.576	1072.19
378.802	1030.19
379.027	1077.19
379.253	1040.19
379.478	1059.19
379.704	1104.19
379.929	1097.19
380.155	1078.19
380.38	1048.19
380.606	1070.19
380.831	1086.19
381.057	1100.19
381.282	1079.19
381.507	1067.19
381.733	1071.19
381.958	1097.19
382.184	1130.19
382.409	1133.19
382.634	1135.19
382.86	1151.19
383.085	1134.19
383.31	1136.19
383.535	1167.19
383.761	1172.19
383.986	1183.19
384.211	1204.19
384.436	1179.19
384.662	1237.19
384.887	1254.19
385.112	1229.19
385.337	1255.19
385.562	1296.19
385.787	1246.19
386.013	1261.19
386.238	1257.19
386.463	1246.19
386.688	1263.19
386.913	1235.19
387.138	1269.19
387.363	1233.19
387.588	1244.19
387.813	1248.19
388.038	1247.19
388.263	1289.19
388.488	1273.19
388.713	1230.19
388.938	1217.19
389.163	1200.19
389.387	1226.19
389.612	1200.19
389.837	1239.19
390.062	1211.19
390.287	1241.19
390.512	1223.19
390.736	1233.19
390.961	1243.19
391.186	1262.19
391.411	1343.19
391.636	1317.19
391.86	1347.19
392.085	1369.19
392.31	1368.19
392.534	1324.19
392.759	1321.19
392.984	1318.19
393.208	1266.19
393.433	1278.19
393.658	1282.19
393.882	1266.19
394.107	1299.19
394.331	1315.19
394.556	1303.19
394.78	1313.19
395.005	1325.19
395.229	1308.19
395.454	1341.19
395.678	1397.19
395.903	1374.19
396.127	1357.19
396.352	1313.19
396.576	1322.19
396.801	1303.19
397.025	1302.19
397.249	1355.19
397.474	1348.19
397.698	1365.19
397.922	1417.19
398.147	1405.19
398.371	1405.19
398.595	1447.19
398.82	1533.19
399.044	1611.19
399.268	1754.19
399.492	1964.19
399.717	2143.19
399.941	2142.19
400.165	1936.19
400.389	1757.19
400.613	1701.19
400.837	1593.19
401.062	1565.19
401.286	1524.19
401.51	1545.19
401.734	1560.19
401.958	1547.19
402.182	1575.19
402.406	1559.19
402.63	1585.19
402.854	1629.19
403.078	1661.19
403.302	1682.19
403.526	1675.19
403.75	1747.19
403.974	1780.19
404.198	1762.19
404.422	1851.19
404.645	1863.19
404.869	1908.19
405.093	1950.19
405.317	2069.19
405.541	2108.19
405.765	1981.19
405.988	1863.19
406.212	1835.19
406.436	1788.19
406.66	1791.19
406.883	1783.19
407.107	1870.19
407.331	1904.19
407.555	1918.19
407.778	1891.19
408.002	1896.19
408.226	1815.19
408.449	1785.19
408.673	1721.19
408.896	1660.19
409.12	1681.19
409.344	1689.19
409.567	1645.19
409.791	1611.19
410.014	1679.19
410.238	1631.19
410.461	1651.19
410.685	1635.19
410.908	1613.19
411.132	1607.19
411.355	1621.19
411.578	1602.19
411.802	1659.19
412.025	1728.19
412.249	1830.19
412.472	1959.19
412.695	2061.19
412.919	2002.19
413.142	1931.19
413.365	1833.19
413.589	1757.19
413.812	1681.19
414.035	1663.19
414.258	1679.19
414.482	1635.19
414.705	1681.19
414.928	1616.19
415.151	1619.19
415.374	1595.19
415.597	1575.19
415.821	1594.19
416.044	1569.19
416.267	1527.19
416.49	1518.19
416.713	1527.19
416.936	1550.19
417.159	1579.19
417.382	1623.19
417.605	1698.19
417.828	1713.19
418.051	1661.19
418.274	1580.19
418.497	1563.19
418.72	1578.19
418.943	1598.19
419.166	1712.19
419.389	1739.19
419.611	1796.19
419.834	1787.19
420.057	1821.19
420.28	1897.19
420.503	1941.19
420.726	1837.19
420.948	1772.19
421.171	1721.19
421.394	1692.19
421.617	1621.19
421.839	1602.19
422.062	1550.19
422.285	1569.19
422.507	1587.19
422.73	1539.19
422.953	1561.19
423.175	1565.19
423.398	1590.19
423.621	1576.19
423.843	1607.19
424.066	1623.19
424.288	1601.19
424.511	1575.19
424.733	1567.19
424.956	1526.19
425.178	1561.19
425.401	1543.19
425.623	1519.19
425.846	1501.19
426.068	1531.19
426.291	1526.19
426.513	1444.19
426.735	1462.19
426.958	1470.19
427.18	1486.19
427.402	1540.19
427.625	1586.19
427.847	1805.19
428.069	1933.19
428.292	1825.19
428.514	1644.19
428.736	1541.19
428.958	1502.19
429.181	1441.19
429.403	1370.19
429.625	1425.19
429.847	1389.19
430.069	1357.19
430.292	1384.19
430.514	1371.19
430.736	1342.19
430.958	1348.19
431.18	1316.19
431.402	1338.19
431.624	1339.19
431.846	1345.19
432.068	1323.19
432.29	1374.19
432.512	1321.19
432.734	1352.19
432.956	1345.19
433.178	1329.19
433.4	1320.19
433.622	1349.19
433.844	1351.19
434.066	1364.19
434.287	1365.19
434.509	1382.19
434.731	1441.19
434.953	1431.19
435.175	1461.19
435.397	1442.19
435.618	1388.19
435.84	1366.19
436.062	1331.19
436.284	1337.19
436.505	1310.19
436.727	1328.19
436.949	1311.19
437.17	1315.19
437.392	1313.19
437.614	1283.19
437.835	1270.19
438.057	1262.19
438.278	1280.19
438.5	1245.19
438.721	1268.19
438.943	1272.19
439.165	1265.19
439.386	1262.19
439.608	1287.19
439.829	1266.19
440.05	1304.19
440.272	1340.19
440.493	1314.19
440.715	1326.19
440.936	1357.19
441.158	1373.19
441.379	1369.19
441.6	1449.19
441.822	1443.19
442.043	1460.19
442.264	1405.19
442.486	1417.19
442.707	1403.19
442.928	1411.19
443.149	1396.19
443.371	1408.19
443.592	1413.19
443.813	1435.19
444.034	1401.19
444.255	1460.19
444.476	1519.19
444.698	1624.19
444.919	1631.19
445.14	1761.19
445.361	1589.19
445.582	1469.19
445.803	1405.19
446.024	1391.19
446.245	1379.19
446.466	1353.19
446.687	1316.19
446.908	1275.19
447.129	1260.19
447.35	1306.19
447.571	1278.19
447.792	1222.19
448.013	1259.19
448.234	1187.19
448.455	1191.19
448.675	1210.19
448.896	1230.19
449.117	1182.19
449.338	1192.19
449.559	1195.19
449.779	1211.19
450	1186.19
450.221	1190.19
450.442	1197.19
450.662	1184.19
450.883	1166.19
451.104	1217.19
451.324	1199.19
451.545	1191.19
451.766	1179.19
451.986	1187.19
452.207	1166.19
452.428	1154.19
452.648	1152.19
452.869	1164.19
453.089	1145.19
453.31	1165.19
453.53	1156.19
453.751	1187.19
453.971	1142.19
454.192	1125.19
454.412	1141.19
454.633	1122.19
454.853	1139.19
455.073	1133.19
455.294	1126.19
455.514	1119.19
455.734	1180.19
455.955	1134.19
456.175	1121.19
456.395	1127.19
456.616	1115.19
456.836	1135.19
457.056	1115.19
457.276	1102.19
457.497	1161.19
457.717	1148.19
457.937	1157.19
458.157	1195.19
458.377	1213.19
458.598	1156.19
458.818	1239.19
459.038	1245.19
459.258	1247.19
459.478	1312.19
459.698	1325.19
459.918	1393.19
460.138	1435.19
460.358	1485.19
460.578	1465.19
460.798	1507.19
461.018	1502.19
461.238	1533.19
461.458	1486.19
461.678	1512.19
461.898	1510.19
462.118	1502.19
462.338	1605.19
462.558	1625.19
462.777	1666.19
462.997	1801.19
463.217	1886.19
463.437	1909.19
463.657	1792.19
463.876	1768.19
464.096	1740.19
464.316	1695.19
464.536	1715.19
464.755	1635.19
464.975	1597.19
465.195	1566.19
465.414	1477.19
465.634	1421.19
465.854	1402.19
466.073	1371.19
466.293	1363.19
466.512	1359.19
466.732	1347.19
466.951	1318.19
467.171	1375.19
467.391	1389.19
467.61	1420.19
467.829	1612.19
468.049	2180.19
468.268	3205.19
468.488	2485.19
468.707	1911.19
468.927	1727.19
469.146	1585.19
469.365	1543.19
469.585	1471.19
469.804	1502.19
470.023	1489.19
470.243	1478.19
470.462	1515.19
470.681	1521.19
470.901	1517.19
471.12	1509.19
471.339	1518.19
471.558	1578.19
471.777	1693.19
471.997	1987.19
472.216	3063.19
472.435	5677.19
472.654	4635.19
472.873	3071.19
473.092	2540.19
473.311	2169.19
473.53	1990.19
473.749	1827.19
473.968	1719.19
474.187	1657.19
474.406	1614.19
474.625	1575.19
474.844	1536.19
475.063	1518.19
475.282	1499.19
475.501	1453.19
475.72	1458.19
475.939	1458.19
476.158	1482.19
476.377	1469.19
476.596	1445.19
476.814	1483.19
477.033	1475.19
477.252	1505.19
477.471	1518.19
477.69	1549.19
477.908	1578.19
478.127	1601.19
478.346	1619.19
478.564	1675.19
478.783	1690.19
479.002	1739.19
479.22	1771.19
479.439	1777.19
479.658	1777.19
479.876	1862.19
480.095	1919.19
480.313	2054.19
480.532	2263.19
480.751	2655.19
480.969	3682.19
481.188	7347.19
481.406	9415.19
481.624	5556.19
481.843	4043.19
482.061	3310.19
482.28	2958.19
482.498	2626.19
482.717	2417.19
482.935	2285.19
483.153	2122.19
483.372	2073.19
483.59	1979.19
483.808	1944.19
484.027	1908.19
484.245	1885.19
484.463	1837.19
484.681	1830.19
484.9	1799.19
485.118	1823.19
485.336	1803.19
485.554	1801.19
485.772	1779.19
485.99	1778.19
486.209	1758.19
486.427	1781.19
486.645	1744.19
486.863	1768.19
487.081	1763.19
487.299	1759.19
487.517	1798.19
487.735	1753.19
487.953	1794.19
488.171	1763.19
488.389	1801.19
488.607	1800.19
488.825	1836.19
489.043	1840.19
489.261	1837.19
489.479	1867.19
489.696	1900.19
489.914	1937.19
490.132	1956.19
490.35	2010.19
490.568	2030.19
490.786	2121.19
