Data from FlinnAP9092KCOPPER.07152019.QSWITCHSynchronous.EN10.20scans.P1_HRD10591_14-49-13-574.txt Node
Date: Mon Jul 15 14:49:13 EDT 2019
User: cochatt
Spectrometer: HR+D1059
Trigger mode: 5
Integration Time (sec): 1.000000E-1
Scans to average: 1
Electric dark correction enabled: true
Nonlinearity correction enabled: false
Boxcar width: 0
XAxis mode: Wavelengths
Number of Pixels in Spectrum: 2048
>>>>>Begin Spectral Data<<<<<
223.165	-32.62
223.4	-32.62
223.635	-32.62
223.869	-41.62
224.104	-39.62
224.338	11.38
224.573	-9.62
224.808	-23.62
225.042	4.38
225.277	-14.62
225.511	-17.62
225.746	37.38
225.98	20.38
226.215	2.38
226.449	3.38
226.683	38.38
226.918	28.38
227.152	33.38
227.387	48.38
227.621	45.38
227.856	50.38
228.09	28.38
228.324	39.38
228.559	78.38
228.793	102.38
229.027	188.38
229.262	234.38
229.496	232.38
229.73	279.38
229.964	362.38
230.199	278.38
230.433	222.38
230.667	217.38
230.901	196.38
231.136	194.38
231.37	190.38
231.604	186.38
231.838	203.38
232.072	203.38
232.306	204.38
232.541	198.38
232.775	202.38
233.009	209.38
233.243	216.38
233.477	224.38
233.711	215.38
233.945	221.38
234.179	215.38
234.413	233.38
234.647	217.38
234.881	227.38
235.115	210.38
235.349	205.38
235.583	239.38
235.817	225.38
236.051	219.38
236.285	236.38
236.519	234.38
236.753	250.38
236.987	300.38
237.221	380.38
237.455	507.38
237.689	406.38
237.922	293.38
238.156	254.38
238.39	266.38
238.624	240.38
238.858	251.38
239.091	248.38
239.325	232.38
239.559	275.38
239.793	254.38
240.027	299.38
240.26	301.38
240.494	355.38
240.728	330.38
240.961	343.38
241.195	316.38
241.429	279.38
241.662	274.38
241.896	256.38
242.13	262.38
242.363	270.38
242.597	283.38
242.83	299.38
243.064	267.38
243.298	271.38
243.531	252.38
243.765	285.38
243.998	291.38
244.232	278.38
244.465	300.38
244.699	310.38
244.932	297.38
245.166	312.38
245.399	308.38
245.633	304.38
245.866	320.38
246.099	307.38
246.333	312.38
246.566	316.38
246.8	295.38
247.033	304.38
247.266	324.38
247.5	336.38
247.733	360.38
247.966	376.38
248.2	338.38
248.433	360.38
248.666	365.38
248.899	414.38
249.133	454.38
249.366	494.38
249.599	451.38
249.832	390.38
250.066	418.38
250.299	374.38
250.532	412.38
250.765	421.38
250.998	464.38
251.231	513.38
251.465	458.38
251.698	433.38
251.931	411.38
252.164	401.38
252.397	388.38
252.63	416.38
252.863	399.38
253.096	481.38
253.329	530.38
253.562	500.38
253.795	468.38
254.028	464.38
254.261	466.38
254.494	466.38
254.727	598.38
254.96	658.38
255.193	601.38
255.426	510.38
255.659	471.38
255.892	496.38
256.124	436.38
256.357	443.38
256.59	412.38
256.823	411.38
257.056	452.38
257.289	445.38
257.521	446.38
257.754	443.38
257.987	433.38
258.22	438.38
258.452	436.38
258.685	447.38
258.918	444.38
259.151	450.38
259.383	487.38
259.616	503.38
259.849	482.38
260.081	540.38
260.314	570.38
260.547	601.38
260.779	568.38
261.012	524.38
261.244	497.38
261.477	516.38
261.71	465.38
261.942	484.38
262.175	521.38
262.407	512.38
262.64	497.38
262.872	473.38
263.105	464.38
263.337	489.38
263.57	467.38
263.802	477.38
264.035	453.38
264.267	456.38
264.499	476.38
264.732	466.38
264.964	466.38
265.197	450.38
265.429	477.38
265.661	463.38
265.894	475.38
266.126	502.38
266.358	488.38
266.591	476.38
266.823	521.38
267.055	487.38
267.287	503.38
267.52	501.38
267.752	502.38
267.984	504.38
268.216	503.38
268.448	551.38
268.681	536.38
268.913	570.38
269.145	617.38
269.377	648.38
269.609	639.38
269.841	621.38
270.073	626.38
270.306	679.38
270.538	739.38
270.77	716.38
271.002	701.38
271.234	655.38
271.466	689.38
271.698	735.38
271.93	743.38
272.162	736.38
272.394	745.38
272.626	675.38
272.858	640.38
273.09	623.38
273.322	605.38
273.553	606.38
273.785	598.38
274.017	575.38
274.249	601.38
274.481	602.38
274.713	587.38
274.945	639.38
275.176	602.38
275.408	610.38
275.64	620.38
275.872	577.38
276.104	619.38
276.335	613.38
276.567	663.38
276.799	659.38
277.031	719.38
277.262	798.38
277.494	778.38
277.726	728.38
277.957	665.38
278.189	621.38
278.421	606.38
278.652	613.38
278.884	621.38
279.115	608.38
279.347	612.38
279.579	605.38
279.81	579.38
280.042	596.38
280.273	605.38
280.505	586.38
280.736	621.38
280.968	633.38
281.199	633.38
281.431	624.38
281.662	640.38
281.894	640.38
282.125	640.38
282.356	701.38
282.588	714.38
282.819	739.38
283.051	662.38
283.282	634.38
283.513	658.38
283.745	672.38
283.976	672.38
284.207	679.38
284.439	656.38
284.67	664.38
284.901	652.38
285.132	651.38
285.364	646.38
285.595	678.38
285.826	647.38
286.057	696.38
286.288	673.38
286.52	661.38
286.751	656.38
286.982	676.38
287.213	680.38
287.444	724.38
287.675	729.38
287.906	744.38
288.138	749.38
288.369	757.38
288.6	728.38
288.831	710.38
289.062	713.38
289.293	701.38
289.524	718.38
289.755	700.38
289.986	676.38
290.217	665.38
290.448	672.38
290.679	689.38
290.91	696.38
291.141	660.38
291.371	716.38
291.602	694.38
291.833	704.38
292.064	716.38
292.295	700.38
292.526	708.38
292.757	713.38
292.987	692.38
293.218	663.38
293.449	698.38
293.68	683.38
293.91	692.38
294.141	684.38
294.372	687.38
294.603	693.38
294.833	730.38
295.064	692.38
295.295	705.38
295.525	690.38
295.756	695.38
295.987	724.38
296.217	756.38
296.448	786.38
296.679	746.38
296.909	716.38
297.14	702.38
297.37	735.38
297.601	712.38
297.831	730.38
298.062	760.38
298.292	730.38
298.523	764.38
298.753	745.38
298.984	734.38
299.214	748.38
299.445	734.38
299.675	721.38
299.905	750.38
300.136	763.38
300.366	742.38
300.597	753.38
300.827	782.38
301.057	781.38
301.288	818.38
301.518	804.38
301.748	780.38
301.979	800.38
302.209	799.38
302.439	804.38
302.669	795.38
302.9	786.38
303.13	782.38
303.36	781.38
303.59	772.38
303.82	811.38
304.051	806.38
304.281	781.38
304.511	799.38
304.741	779.38
304.971	798.38
305.201	773.38
305.431	753.38
305.661	798.38
305.891	745.38
306.121	779.38
306.352	803.38
306.582	795.38
306.812	780.38
307.042	780.38
307.272	757.38
307.502	751.38
307.731	784.38
307.961	797.38
308.191	761.38
308.421	756.38
308.651	784.38
308.881	790.38
309.111	794.38
309.341	780.38
309.571	785.38
309.8	801.38
310.03	852.38
310.26	852.38
310.49	848.38
310.72	869.38
310.949	907.38
311.179	922.38
311.409	892.38
311.639	857.38
311.868	859.38
312.098	885.38
312.328	909.38
312.557	968.38
312.787	971.38
313.017	989.38
313.246	917.38
313.476	852.38
313.706	872.38
313.935	876.38
314.165	914.38
314.394	942.38
314.624	924.38
314.853	915.38
315.083	898.38
315.312	887.38
315.542	856.38
315.771	838.38
316.001	817.38
316.23	833.38
316.46	855.38
316.689	849.38
316.919	866.38
317.148	907.38
317.377	916.38
317.607	918.38
317.836	863.38
318.065	850.38
318.295	849.38
318.524	858.38
318.753	831.38
318.983	839.38
319.212	846.38
319.441	860.38
319.67	888.38
319.9	861.38
320.129	828.38
320.358	841.38
320.587	836.38
320.816	849.38
321.046	871.38
321.275	927.38
321.504	872.38
321.733	884.38
321.962	875.38
322.191	904.38
322.42	932.38
322.649	986.38
322.878	966.38
323.108	1012.38
323.337	1076.38
323.566	1087.38
323.795	1176.38
324.024	1214.38
324.253	1425.38
324.482	2220.38
324.71	3707.38
324.939	5871.38
325.168	5117.38
325.397	2076.38
325.626	1302.38
325.855	1115.38
326.084	1048.38
326.313	1083.38
326.542	1054.38
326.77	1214.38
326.999	1416.38
327.228	2019.38
327.457	3328.38
327.686	4585.38
327.914	2601.38
328.143	1545.38
328.372	1305.38
328.6	1261.38
328.829	1231.38
329.058	1257.38
329.287	1376.38
329.515	1243.38
329.744	1113.38
329.972	1078.38
330.201	1071.38
330.43	1111.38
330.658	1217.38
330.887	1433.38
331.115	1454.38
331.344	1222.38
331.572	1156.38
331.801	1101.38
332.03	1096.38
332.258	1097.38
332.486	1066.38
332.715	1018.38
332.943	1086.38
333.172	1098.38
333.4	1121.38
333.629	1152.38
333.857	1196.38
334.085	1171.38
334.314	1166.38
334.542	1161.38
334.771	1122.38
334.999	1107.38
335.227	1114.38
335.455	1100.38
335.684	1065.38
335.912	1082.38
336.14	1053.38
336.369	1046.38
336.597	1066.38
336.825	1096.38
337.053	1045.38
337.281	1060.38
337.51	997.38
337.738	1009.38
337.966	995.38
338.194	1040.38
338.422	1037.38
338.65	1049.38
338.878	1018.38
339.106	994.38
339.334	1006.38
339.562	953.38
339.79	948.38
340.018	962.38
340.246	953.38
340.474	987.38
340.702	962.38
340.93	956.38
341.158	972.38
341.386	966.38
341.614	965.38
341.842	953.38
342.07	923.38
342.298	948.38
342.526	930.38
342.754	925.38
342.981	940.38
343.209	911.38
343.437	961.38
343.665	989.38
343.893	1027.38
344.12	1101.38
344.348	1066.38
344.576	1047.38
344.804	1018.38
345.031	1032.38
345.259	1047.38
345.487	1027.38
345.714	973.38
345.942	956.38
346.17	908.38
346.397	902.38
346.625	896.38
346.853	923.38
347.08	932.38
347.308	906.38
347.535	948.38
347.763	930.38
347.99	972.38
348.218	930.38
348.445	953.38
348.673	963.38
348.9	945.38
349.128	926.38
349.355	876.38
349.583	860.38
349.81	897.38
350.037	881.38
350.265	903.38
350.492	857.38
350.72	870.38
350.947	900.38
351.174	918.38
351.402	956.38
351.629	924.38
351.856	925.38
352.083	943.38
352.311	952.38
352.538	974.38
352.765	965.38
352.992	960.38
353.22	896.38
353.447	924.38
353.674	896.38
353.901	877.38
354.128	892.38
354.355	858.38
354.583	828.38
354.81	854.38
355.037	878.38
355.264	866.38
355.491	846.38
355.718	814.38
355.945	854.38
356.172	845.38
356.399	823.38
356.626	819.38
356.853	856.38
357.08	861.38
357.307	856.38
357.534	806.38
357.761	846.38
357.988	878.38
358.215	855.38
358.441	842.38
358.668	816.38
358.895	850.38
359.122	865.38
359.349	863.38
359.576	908.38
359.802	950.38
360.029	1012.38
360.256	1103.38
360.483	1070.38
360.709	941.38
360.936	964.38
361.163	908.38
361.39	950.38
361.616	919.38
361.843	928.38
362.07	918.38
362.296	920.38
362.523	869.38
362.749	876.38
362.976	871.38
363.203	908.38
363.429	839.38
363.656	899.38
363.882	889.38
364.109	877.38
364.335	900.38
364.562	857.38
364.788	856.38
365.015	863.38
365.241	859.38
365.468	877.38
365.694	867.38
365.92	889.38
366.147	884.38
366.373	854.38
366.599	847.38
366.826	856.38
367.052	855.38
367.278	893.38
367.505	873.38
367.731	885.38
367.957	862.38
368.184	876.38
368.41	892.38
368.636	924.38
368.862	936.38
369.089	903.38
369.315	861.38
369.541	922.38
369.767	880.38
369.993	895.38
370.219	900.38
370.445	851.38
370.672	852.38
370.898	870.38
371.124	903.38
371.35	903.38
371.576	874.38
371.802	868.38
372.028	889.38
372.254	877.38
372.48	876.38
372.706	893.38
372.932	916.38
373.158	911.38
373.384	922.38
373.61	926.38
373.835	932.38
374.061	911.38
374.287	924.38
374.513	903.38
374.739	968.38
374.965	981.38
375.191	960.38
375.416	953.38
375.642	954.38
375.868	944.38
376.094	924.38
376.319	935.38
376.545	923.38
376.771	900.38
376.997	884.38
377.222	886.38
377.448	902.38
377.674	914.38
377.899	878.38
378.125	906.38
378.35	924.38
378.576	881.38
378.802	857.38
379.027	922.38
379.253	913.38
379.478	883.38
379.704	895.38
379.929	903.38
380.155	914.38
380.38	895.38
380.606	896.38
380.831	928.38
381.057	976.38
381.282	902.38
381.507	942.38
381.733	976.38
381.958	950.38
382.184	950.38
382.409	924.38
382.634	964.38
382.86	950.38
383.085	976.38
383.31	975.38
383.535	1019.38
383.761	997.38
383.986	1020.38
384.211	1012.38
384.436	1034.38
384.662	1022.38
384.887	1051.38
385.112	1040.38
385.337	1054.38
385.562	1080.38
385.787	1090.38
386.013	1159.38
386.238	1114.38
386.463	1117.38
386.688	1062.38
386.913	1050.38
387.138	1050.38
387.363	1039.38
387.588	1100.38
387.813	1103.38
388.038	1056.38
388.263	1088.38
388.488	1080.38
388.713	1095.38
388.938	1086.38
389.163	1076.38
389.387	1081.38
389.612	1053.38
389.837	1044.38
390.062	1077.38
390.287	1069.38
390.512	1039.38
390.736	1085.38
390.961	1053.38
391.186	1079.38
391.411	1072.38
391.636	1131.38
391.86	1196.38
392.085	1179.38
392.31	1166.38
392.534	1172.38
392.759	1170.38
392.984	1152.38
393.208	1110.38
393.433	1105.38
393.658	1119.38
393.882	1132.38
394.107	1121.38
394.331	1101.38
394.556	1125.38
394.78	1125.38
395.005	1159.38
395.229	1128.38
395.454	1191.38
395.678	1224.38
395.903	1218.38
396.127	1271.38
396.352	1238.38
396.576	1160.38
396.801	1160.38
397.025	1140.38
397.249	1202.38
397.474	1206.38
397.698	1179.38
397.922	1258.38
398.147	1268.38
398.371	1310.38
398.595	1294.38
398.82	1296.38
399.044	1359.38
399.268	1479.38
399.492	1655.38
399.717	1819.38
399.941	1897.38
400.165	1852.38
400.389	1743.38
400.613	1544.38
400.837	1465.38
401.062	1380.38
401.286	1388.38
401.51	1336.38
401.734	1367.38
401.958	1389.38
402.182	1362.38
402.406	1451.38
402.63	1447.38
402.854	1452.38
403.078	1474.38
403.302	1479.38
403.526	1517.38
403.75	1576.38
403.974	1494.38
404.198	1494.38
404.422	1543.38
404.645	1536.38
404.869	1531.38
405.093	1567.38
405.317	1584.38
405.541	1643.38
405.765	1533.38
405.988	1524.38
406.212	1566.38
406.436	1604.38
406.66	1696.38
406.883	1627.38
407.107	1663.38
407.331	1842.38
407.555	2002.38
407.778	1995.38
408.002	1802.38
408.226	1637.38
408.449	1628.38
408.673	1616.38
408.896	1670.38
409.12	1773.38
409.344	1659.38
409.567	1488.38
409.791	1522.38
410.014	1507.38
410.238	1454.38
410.461	1453.38
410.685	1511.38
410.908	1524.38
411.132	1658.38
411.355	1687.38
411.578	1585.38
411.802	1447.38
412.025	1426.38
412.249	1463.38
412.472	1440.38
412.695	1409.38
412.919	1418.38
413.142	1448.38
413.365	1370.38
413.589	1392.38
413.812	1356.38
414.035	1398.38
414.258	1405.38
414.482	1389.38
414.705	1408.38
414.928	1406.38
415.151	1406.38
415.374	1391.38
415.597	1396.38
415.821	1379.38
416.044	1367.38
416.267	1397.38
416.49	1392.38
416.713	1390.38
416.936	1420.38
417.159	1387.38
417.382	1399.38
417.605	1400.38
417.828	1468.38
418.051	1540.38
418.274	1515.38
418.497	1469.38
418.72	1472.38
418.943	1477.38
419.166	1512.38
419.389	1618.38
419.611	1571.38
419.834	1502.38
420.057	1519.38
420.28	1501.38
420.503	1484.38
420.726	1465.38
420.948	1496.38
421.171	1616.38
421.394	1694.38
421.617	1542.38
421.839	1508.38
422.062	1542.38
422.285	1518.38
422.507	1664.38
422.73	1880.38
422.953	1795.38
423.175	1606.38
423.398	1564.38
423.621	1611.38
423.843	1696.38
424.066	1669.38
424.288	1644.38
424.511	1700.38
424.733	1845.38
424.956	2065.38
425.178	1896.38
425.401	1902.38
425.623	1979.38
425.846	1659.38
426.068	1574.38
426.291	1501.38
426.513	1546.38
426.735	1564.38
426.958	1649.38
427.18	1840.38
427.402	2258.38
427.625	2431.38
427.847	2008.38
428.069	1682.38
428.292	1534.38
428.514	1457.38
428.736	1434.38
428.958	1425.38
429.181	1445.38
429.403	1370.38
429.625	1440.38
429.847	1500.38
430.069	1730.38
430.292	1714.38
430.514	1448.38
430.736	1420.38
430.958	1403.38
431.18	1358.38
431.402	1338.38
431.624	1282.38
431.846	1209.38
432.068	1201.38
432.29	1200.38
432.512	1286.38
432.734	1384.38
432.956	1418.38
433.178	1464.38
433.4	1467.38
433.622	1440.38
433.844	1372.38
434.066	1327.38
434.287	1254.38
434.509	1232.38
434.731	1305.38
434.953	1430.38
435.175	1474.38
435.397	1624.38
435.618	1527.38
435.84	1590.38
436.062	1994.38
436.284	2139.38
436.505	1708.38
436.727	1583.38
436.949	1496.38
437.17	1458.38
437.392	1416.38
437.614	1394.38
437.835	1396.38
438.057	1666.38
438.278	1991.38
438.5	1953.38
438.721	2269.38
438.943	2174.38
439.165	1741.38
439.386	1616.38
439.608	1687.38
439.829	1680.38
440.05	1803.38
440.272	1966.38
440.493	1747.38
440.715	1638.38
440.936	1594.38
441.158	1545.38
441.379	1545.38
441.6	1672.38
441.822	1697.38
442.043	1791.38
442.264	2020.38
442.486	2108.38
442.707	1789.38
442.928	1695.38
443.149	1803.38
443.371	1881.38
443.592	1910.38
443.813	2172.38
444.034	2330.38
444.255	1949.38
444.476	1746.38
444.698	1754.38
444.919	1807.38
445.14	3509.38
445.361	2564.38
445.582	1939.38
445.803	2136.38
446.024	2382.38
446.245	2419.38
446.466	2193.38
446.687	1818.38
446.908	1700.38
447.129	1602.38
447.35	1568.38
447.571	1572.38
447.792	1458.38
448.013	1500.38
448.234	1573.38
448.455	1666.38
448.675	2011.38
448.896	2282.38
449.117	1854.38
449.338	1737.38
449.559	2124.38
449.779	2384.38
450	1819.38
450.221	1544.38
450.442	1450.38
450.662	1407.38
450.883	1431.38
451.104	1485.38
451.324	1430.38
451.545	1397.38
451.766	1308.38
451.986	1283.38
452.207	1294.38
452.428	1274.38
452.648	1279.38
452.869	1257.38
453.089	1284.38
453.31	1274.38
453.53	1204.38
453.751	1152.38
453.971	1170.38
454.192	1227.38
454.412	1190.38
454.633	1187.38
454.853	1200.38
455.073	1206.38
455.294	1302.38
455.514	1517.38
455.734	1430.38
455.955	1210.38
456.175	1155.38
456.395	1104.38
456.616	1082.38
456.836	1102.38
457.056	1096.38
457.276	1048.38
457.497	1055.38
457.717	1069.38
457.937	1104.38
458.157	1100.38
458.377	1109.38
458.598	1180.38
458.818	1329.38
459.038	1568.38
459.258	1598.38
459.478	1302.38
459.698	1197.38
459.918	1223.38
460.138	1288.38
460.358	1352.38
460.578	1411.38
460.798	1368.38
461.018	1401.38
461.238	1381.38
461.458	1369.38
461.678	1360.38
461.898	1354.38
462.118	1360.38
462.338	1410.38
462.558	1436.38
462.777	1453.38
462.997	1573.38
463.217	1609.38
463.437	1637.38
463.657	1541.38
463.876	1505.38
464.096	1489.38
464.316	1476.38
464.536	1536.38
464.755	1532.38
464.975	1489.38
465.195	1619.38
465.414	1800.38
465.634	1509.38
465.854	1362.38
466.073	1318.38
466.293	1304.38
466.512	1322.38
466.732	1332.38
466.951	1318.38
467.171	1305.38
467.391	1351.38
467.61	1366.38
467.829	1396.38
468.049	1370.38
468.268	1317.38
468.488	1268.38
468.707	1316.38
468.927	1293.38
469.146	1292.38
469.365	1328.38
469.585	1394.38
469.804	1393.38
470.023	1430.38
470.243	1470.38
470.462	1478.38
470.681	1495.38
470.901	1473.38
471.12	1422.38
471.339	1430.38
471.558	1457.38
471.777	1441.38
471.997	1310.38
472.216	1288.38
472.435	1177.38
472.654	1140.38
472.873	1174.38
473.092	1176.38
473.311	1189.38
473.53	1240.38
473.749	1298.38
473.968	1360.38
474.187	1658.38
474.406	1670.38
474.625	1392.38
474.844	1293.38
475.063	1307.38
475.282	1225.38
475.501	1213.38
475.72	1297.38
475.939	1277.38
476.158	1284.38
476.377	1302.38
476.596	1256.38
476.814	1231.38
477.033	1210.38
477.252	1276.38
477.471	1321.38
477.69	1375.38
477.908	1434.38
478.127	1498.38
478.346	1474.38
478.564	1461.38
478.783	1514.38
479.002	1528.38
479.22	1528.38
479.439	1589.38
479.658	1550.38
479.876	1461.38
480.095	1432.38
480.313	1676.38
480.532	1615.38
480.751	1496.38
480.969	1410.38
481.188	1411.38
481.406	1355.38
481.624	1277.38
481.843	1260.38
482.061	1299.38
482.28	1330.38
482.498	1336.38
482.717	1295.38
482.935	1369.38
483.153	1489.38
483.372	1577.38
483.59	1516.38
483.808	1499.38
484.027	1416.38
484.245	1450.38
484.463	1465.38
484.681	1573.38
484.9	1501.38
485.118	1518.38
485.336	1468.38
485.554	1411.38
485.772	1395.38
485.99	1399.38
486.209	1411.38
486.427	1432.38
486.645	1493.38
486.863	1654.38
487.081	1668.38
487.299	1553.38
487.517	1603.38
487.735	1756.38
487.953	1863.38
488.171	1880.38
488.389	1779.38
488.607	1678.38
488.825	1600.38
489.043	1541.38
489.261	1555.38
489.479	1586.38
489.696	1632.38
489.914	1645.38
490.132	1718.38
490.35	1802.38
490.568	1871.38
490.786	1936.38
491.003	1974.38
491.221	2116.38
491.439	2132.38
491.657	2173.38
491.874	2316.38
492.092	2423.38
492.31	2526.38
492.527	2420.38
492.745	2302.38
492.963	2196.38
493.18	2200.38
493.398	2260.38
493.615	2183.38
493.833	2192.38
