Data from FlinnAP9092KCOPPER.07152019.LAMP.EN7.P1_HRD10591_14-44-44-667.txt Node
Date: Mon Jul 15 14:44:44 EDT 2019
User: cochatt
Spectrometer: HR+D1059
Trigger mode: 3
Integration Time (sec): 1.000000E-1
Scans to average: 1
Electric dark correction enabled: true
Nonlinearity correction enabled: false
Boxcar width: 0
XAxis mode: Wavelengths
Number of Pixels in Spectrum: 2048
>>>>>Begin Spectral Data<<<<<
223.165	-25.12
223.4	-25.12
223.635	-25.12
223.869	-7.12
224.104	-4.12
224.338	-17.12
224.573	-4.12
224.808	-15.12
225.042	-1.12
225.277	-9.12
225.511	-12.12
225.746	-14.12
225.98	7.88
226.215	11.88
226.449	19.88
226.683	27.88
226.918	19.88
227.152	21.88
227.387	40.88
227.621	49.88
227.856	40.88
228.09	43.88
228.324	43.88
228.559	58.88
228.793	71.88
229.027	116.88
229.262	117.88
229.496	144.88
229.73	167.88
229.964	190.88
230.199	163.88
230.433	146.88
230.667	136.88
230.901	127.88
231.136	129.88
231.37	128.88
231.604	127.88
231.838	138.88
232.072	129.88
232.306	135.88
232.541	136.88
232.775	160.88
233.009	141.88
233.243	143.88
233.477	140.88
233.711	135.88
233.945	125.88
234.179	131.88
234.413	146.88
234.647	137.88
234.881	126.88
235.115	149.88
235.349	139.88
235.583	140.88
235.817	139.88
236.051	139.88
236.285	152.88
236.519	158.88
236.753	154.88
236.987	160.88
237.221	204.88
237.455	306.88
237.689	212.88
237.922	162.88
238.156	171.88
238.39	155.88
238.624	147.88
238.858	158.88
239.091	144.88
239.325	166.88
239.559	161.88
239.793	157.88
240.027	166.88
240.26	182.88
240.494	188.88
240.728	169.88
240.961	199.88
241.195	181.88
241.429	164.88
241.662	179.88
241.896	169.88
242.13	174.88
242.363	165.88
242.597	180.88
242.83	169.88
243.064	173.88
243.298	179.88
243.531	173.88
243.765	186.88
243.998	167.88
244.232	183.88
244.465	195.88
244.699	167.88
244.932	179.88
245.166	178.88
245.399	213.88
245.633	211.88
245.866	202.88
246.099	195.88
246.333	199.88
246.566	178.88
246.8	190.88
247.033	199.88
247.266	194.88
247.5	212.88
247.733	212.88
247.966	222.88
248.2	254.88
248.433	225.88
248.666	228.88
248.899	224.88
249.133	245.88
249.366	265.88
249.599	265.88
249.832	249.88
250.066	236.88
250.299	225.88
250.532	229.88
250.765	239.88
250.998	276.88
251.231	281.88
251.465	281.88
251.698	253.88
251.931	250.88
252.164	259.88
252.397	258.88
252.63	250.88
252.863	255.88
253.096	265.88
253.329	318.88
253.562	305.88
253.795	285.88
254.028	297.88
254.261	284.88
254.494	305.88
254.727	322.88
254.96	365.88
255.193	346.88
255.426	314.88
255.659	297.88
255.892	272.88
256.124	264.88
256.357	279.88
256.59	270.88
256.823	274.88
257.056	282.88
257.289	258.88
257.521	281.88
257.754	268.88
257.987	266.88
258.22	265.88
258.452	283.88
258.685	258.88
258.918	282.88
259.151	279.88
259.383	300.88
259.616	297.88
259.849	293.88
260.081	303.88
260.314	341.88
260.547	347.88
260.779	322.88
261.012	307.88
261.244	302.88
261.477	306.88
261.71	298.88
261.942	321.88
262.175	304.88
262.407	307.88
262.64	288.88
262.872	302.88
263.105	283.88
263.337	271.88
263.57	298.88
263.802	291.88
264.035	295.88
264.267	296.88
264.499	295.88
264.732	299.88
264.964	290.88
265.197	287.88
265.429	294.88
265.661	296.88
265.894	302.88
266.126	296.88
266.358	290.88
266.591	294.88
266.823	293.88
267.055	311.88
267.287	308.88
267.52	296.88
267.752	316.88
267.984	311.88
268.216	318.88
268.448	318.88
268.681	335.88
268.913	343.88
269.145	353.88
269.377	387.88
269.609	385.88
269.841	354.88
270.073	374.88
270.306	371.88
270.538	404.88
270.77	423.88
271.002	423.88
271.234	377.88
271.466	380.88
271.698	429.88
271.93	434.88
272.162	428.88
272.394	422.88
272.626	396.88
272.858	388.88
273.09	375.88
273.322	369.88
273.553	337.88
273.785	374.88
274.017	339.88
274.249	367.88
274.481	372.88
274.713	361.88
274.945	371.88
275.176	361.88
275.408	353.88
275.64	367.88
275.872	364.88
276.104	376.88
276.335	347.88
276.567	379.88
276.799	387.88
277.031	404.88
277.262	433.88
277.494	436.88
277.726	426.88
277.957	411.88
278.189	403.88
278.421	397.88
278.652	402.88
278.884	401.88
279.115	397.88
279.347	394.88
279.579	364.88
279.81	359.88
280.042	355.88
280.273	376.88
280.505	383.88
280.736	380.88
280.968	386.88
281.199	380.88
281.431	412.88
281.662	399.88
281.894	383.88
282.125	383.88
282.356	404.88
282.588	417.88
282.819	433.88
283.051	406.88
283.282	410.88
283.513	393.88
283.745	399.88
283.976	421.88
284.207	417.88
284.439	419.88
284.67	401.88
284.901	408.88
285.132	403.88
285.364	387.88
285.595	409.88
285.826	405.88
286.057	427.88
286.288	406.88
286.52	413.88
286.751	413.88
286.982	402.88
287.213	407.88
287.444	420.88
287.675	434.88
287.906	432.88
288.138	455.88
288.369	417.88
288.6	421.88
288.831	431.88
289.062	422.88
289.293	425.88
289.524	418.88
289.755	427.88
289.986	429.88
290.217	409.88
290.448	422.88
290.679	435.88
290.91	449.88
291.141	422.88
291.371	415.88
291.602	432.88
291.833	423.88
292.064	434.88
292.295	435.88
292.526	419.88
292.757	437.88
292.987	438.88
293.218	433.88
293.449	412.88
293.68	419.88
293.91	433.88
294.141	410.88
294.372	403.88
294.603	431.88
294.833	433.88
295.064	444.88
295.295	422.88
295.525	451.88
295.756	421.88
295.987	422.88
296.217	459.88
296.448	469.88
296.679	449.88
296.909	435.88
297.14	437.88
297.37	457.88
297.601	442.88
297.831	452.88
298.062	442.88
298.292	439.88
298.523	445.88
298.753	457.88
298.984	459.88
299.214	432.88
299.445	486.88
299.675	459.88
299.905	478.88
300.136	478.88
300.366	462.88
300.597	459.88
300.827	487.88
301.057	481.88
301.288	499.88
301.518	479.88
301.748	482.88
301.979	484.88
302.209	508.88
302.439	495.88
302.669	485.88
302.9	487.88
303.13	475.88
303.36	495.88
303.59	480.88
303.82	486.88
304.051	499.88
304.281	503.88
304.511	476.88
304.741	479.88
304.971	491.88
305.201	482.88
305.431	468.88
305.661	467.88
305.891	487.88
306.121	448.88
306.352	463.88
306.582	478.88
306.812	455.88
307.042	489.88
307.272	474.88
307.502	483.88
307.731	490.88
307.961	483.88
308.191	470.88
308.421	472.88
308.651	459.88
308.881	482.88
309.111	498.88
309.341	474.88
309.571	477.88
309.8	500.88
310.03	493.88
310.26	517.88
310.49	494.88
310.72	508.88
310.949	526.88
311.179	535.88
311.409	508.88
311.639	501.88
311.868	490.88
312.098	537.88
312.328	539.88
312.557	537.88
312.787	533.88
313.017	537.88
313.246	545.88
313.476	520.88
313.706	500.88
313.935	531.88
314.165	540.88
314.394	569.88
314.624	563.88
314.853	547.88
315.083	527.88
315.312	522.88
315.542	536.88
315.771	532.88
316.001	513.88
316.23	508.88
316.46	521.88
316.689	525.88
316.919	539.88
317.148	543.88
317.377	537.88
317.607	508.88
317.836	521.88
318.065	527.88
318.295	518.88
318.524	520.88
318.753	521.88
318.983	503.88
319.212	481.88
319.441	514.88
319.67	511.88
319.9	486.88
320.129	512.88
320.358	499.88
320.587	534.88
320.816	513.88
321.046	535.88
321.275	533.88
321.504	524.88
321.733	546.88
321.962	549.88
322.191	545.88
322.42	522.88
322.649	544.88
322.878	592.88
323.108	594.88
323.337	584.88
323.566	599.88
323.795	636.88
324.024	633.88
324.253	768.88
324.482	1037.88
324.71	1561.88
324.939	2360.88
325.168	2114.88
325.397	1018.88
325.626	712.88
325.855	659.88
326.084	621.88
326.313	601.88
326.542	614.88
326.77	679.88
326.999	747.88
327.228	969.88
327.457	1475.88
327.686	1888.88
327.914	1209.88
328.143	768.88
328.372	688.88
328.6	649.88
328.829	683.88
329.058	672.88
329.287	697.88
329.515	685.88
329.744	630.88
329.972	612.88
330.201	609.88
330.43	622.88
330.658	667.88
330.887	717.88
331.115	720.88
331.344	665.88
331.572	637.88
331.801	625.88
332.03	660.88
332.258	622.88
332.486	640.88
332.715	633.88
332.943	648.88
333.172	661.88
333.4	669.88
333.629	691.88
333.857	710.88
334.085	709.88
334.314	709.88
334.542	687.88
334.771	673.88
334.999	643.88
335.227	672.88
335.455	665.88
335.684	642.88
335.912	669.88
336.14	659.88
336.369	649.88
336.597	654.88
336.825	647.88
337.053	645.88
337.281	643.88
337.51	626.88
337.738	622.88
337.966	606.88
338.194	616.88
338.422	627.88
338.65	605.88
338.878	600.88
339.106	588.88
339.334	590.88
339.562	568.88
339.79	595.88
340.018	585.88
340.246	591.88
340.474	578.88
340.702	594.88
340.93	585.88
341.158	564.88
341.386	586.88
341.614	597.88
341.842	545.88
342.07	569.88
342.298	574.88
342.526	585.88
342.754	579.88
342.981	588.88
343.209	569.88
343.437	602.88
343.665	604.88
343.893	657.88
344.12	668.88
344.348	673.88
344.576	636.88
344.804	623.88
345.031	603.88
345.259	594.88
345.487	586.88
345.714	569.88
345.942	561.88
346.17	554.88
346.397	563.88
346.625	572.88
346.853	551.88
347.08	548.88
347.308	541.88
347.535	557.88
347.763	581.88
347.99	579.88
348.218	557.88
348.445	563.88
348.673	555.88
348.9	547.88
349.128	543.88
349.355	533.88
349.583	551.88
349.81	517.88
350.037	529.88
350.265	532.88
350.492	531.88
350.72	536.88
350.947	544.88
351.174	554.88
351.402	553.88
351.629	546.88
351.856	547.88
352.083	561.88
352.311	545.88
352.538	541.88
352.765	565.88
352.992	538.88
353.22	562.88
353.447	532.88
353.674	522.88
353.901	528.88
354.128	520.88
354.355	525.88
354.583	504.88
354.81	513.88
355.037	528.88
355.264	521.88
355.491	519.88
355.718	513.88
355.945	513.88
356.172	524.88
356.399	517.88
356.626	514.88
356.853	513.88
357.08	514.88
357.307	516.88
357.534	511.88
357.761	507.88
357.988	540.88
358.215	517.88
358.441	504.88
358.668	527.88
358.895	527.88
359.122	509.88
359.349	539.88
359.576	537.88
359.802	557.88
360.029	588.88
360.256	587.88
360.483	583.88
360.709	553.88
360.936	547.88
361.163	537.88
361.39	509.88
361.616	559.88
361.843	563.88
362.07	540.88
362.296	537.88
362.523	571.88
362.749	556.88
362.976	526.88
363.203	527.88
363.429	530.88
363.656	533.88
363.882	513.88
364.109	525.88
364.335	530.88
364.562	536.88
364.788	516.88
365.015	505.88
365.241	517.88
365.468	513.88
365.694	533.88
365.92	534.88
366.147	514.88
366.373	508.88
366.599	521.88
366.826	511.88
367.052	526.88
367.278	527.88
367.505	505.88
367.731	515.88
367.957	529.88
368.184	545.88
368.41	544.88
368.636	557.88
368.862	560.88
369.089	557.88
369.315	528.88
369.541	533.88
369.767	546.88
369.993	526.88
370.219	545.88
370.445	571.88
370.672	556.88
370.898	539.88
371.124	549.88
371.35	570.88
371.576	551.88
371.802	548.88
372.028	553.88
372.254	573.88
372.48	556.88
372.706	574.88
372.932	597.88
373.158	581.88
373.384	567.88
373.61	557.88
373.835	535.88
374.061	540.88
374.287	555.88
374.513	573.88
374.739	597.88
374.965	620.88
375.191	609.88
375.416	593.88
375.642	579.88
375.868	589.88
376.094	573.88
376.319	585.88
376.545	551.88
376.771	553.88
376.997	557.88
377.222	569.88
377.448	574.88
377.674	573.88
377.899	553.88
378.125	571.88
378.35	535.88
378.576	552.88
378.802	545.88
379.027	576.88
379.253	566.88
379.478	563.88
379.704	576.88
379.929	601.88
380.155	586.88
380.38	568.88
380.606	566.88
380.831	575.88
381.057	579.88
381.282	579.88
381.507	578.88
381.733	578.88
381.958	572.88
382.184	606.88
382.409	616.88
382.634	612.88
382.86	598.88
383.085	614.88
383.31	631.88
383.535	624.88
383.761	631.88
383.986	655.88
384.211	661.88
384.436	630.88
384.662	653.88
384.887	662.88
385.112	633.88
385.337	677.88
385.562	657.88
385.787	676.88
386.013	658.88
386.238	665.88
386.463	688.88
386.688	694.88
386.913	675.88
387.138	667.88
387.363	685.88
387.588	674.88
387.813	676.88
388.038	685.88
388.263	687.88
388.488	662.88
388.713	689.88
388.938	666.88
389.163	657.88
389.387	686.88
389.612	657.88
389.837	675.88
390.062	659.88
390.287	681.88
390.512	645.88
390.736	698.88
390.961	687.88
391.186	702.88
391.411	677.88
391.636	722.88
391.86	746.88
392.085	764.88
392.31	747.88
392.534	701.88
392.759	716.88
392.984	707.88
393.208	728.88
393.433	721.88
393.658	695.88
393.882	693.88
394.107	728.88
394.331	729.88
394.556	730.88
394.78	726.88
395.005	721.88
395.229	711.88
395.454	735.88
395.678	751.88
395.903	756.88
396.127	771.88
396.352	803.88
396.576	740.88
396.801	736.88
397.025	746.88
397.249	730.88
397.474	751.88
397.698	785.88
397.922	803.88
398.147	804.88
398.371	797.88
398.595	829.88
398.82	840.88
399.044	876.88
399.268	952.88
399.492	1041.88
399.717	1141.88
399.941	1158.88
400.165	1141.88
400.389	1079.88
400.613	982.88
400.837	941.88
401.062	888.88
401.286	857.88
401.51	861.88
401.734	867.88
401.958	869.88
402.182	898.88
402.406	880.88
402.63	886.88
402.854	871.88
403.078	911.88
403.302	952.88
403.526	942.88
403.75	948.88
403.974	968.88
404.198	957.88
404.422	973.88
404.645	958.88
404.869	961.88
405.093	952.88
405.317	964.88
405.541	1013.88
405.765	972.88
405.988	970.88
406.212	990.88
406.436	1015.88
406.66	1032.88
406.883	1028.88
407.107	1061.88
407.331	1109.88
407.555	1201.88
407.778	1216.88
408.002	1120.88
408.226	1057.88
408.449	1063.88
408.673	1013.88
408.896	1023.88
409.12	1107.88
409.344	1011.88
409.567	972.88
409.791	1005.88
410.014	955.88
410.238	933.88
410.461	974.88
410.685	950.88
410.908	952.88
411.132	1010.88
411.355	1035.88
411.578	979.88
411.802	961.88
412.025	952.88
412.249	940.88
412.472	913.88
412.695	918.88
412.919	914.88
413.142	911.88
413.365	891.88
413.589	898.88
413.812	920.88
414.035	941.88
414.258	908.88
414.482	901.88
414.705	899.88
414.928	925.88
415.151	917.88
415.374	905.88
415.597	903.88
415.821	897.88
416.044	923.88
416.267	921.88
416.49	919.88
416.713	908.88
416.936	919.88
417.159	924.88
417.382	911.88
417.605	891.88
417.828	933.88
418.051	951.88
418.274	953.88
418.497	970.88
418.72	940.88
418.943	957.88
419.166	1011.88
419.389	1043.88
419.611	1037.88
419.834	1008.88
420.057	979.88
420.28	963.88
420.503	968.88
420.726	978.88
420.948	973.88
421.171	1038.88
421.394	1111.88
421.617	1034.88
421.839	1018.88
422.062	1010.88
422.285	1011.88
422.507	1057.88
422.73	1172.88
422.953	1095.88
423.175	1019.88
423.398	1033.88
423.621	1035.88
423.843	1054.88
424.066	1108.88
424.288	1074.88
424.511	1059.88
424.733	1173.88
424.956	1255.88
425.178	1204.88
425.401	1178.88
425.623	1206.88
425.846	1053.88
426.068	1011.88
426.291	999.88
426.513	981.88
426.735	973.88
426.958	1033.88
427.18	1144.88
427.402	1280.88
427.625	1394.88
427.847	1173.88
428.069	1027.88
428.292	994.88
428.514	941.88
428.736	951.88
428.958	950.88
429.181	900.88
429.403	918.88
429.625	927.88
429.847	977.88
430.069	1041.88
430.292	1045.88
430.514	904.88
430.736	891.88
430.958	921.88
431.18	933.88
431.402	881.88
431.624	850.88
431.846	816.88
432.068	744.88
432.29	784.88
432.512	814.88
432.734	904.88
432.956	901.88
433.178	928.88
433.4	947.88
433.622	928.88
433.844	916.88
434.066	873.88
434.287	816.88
434.509	784.88
434.731	815.88
434.953	877.88
435.175	963.88
435.397	987.88
435.618	937.88
435.84	967.88
436.062	1100.88
436.284	1211.88
436.505	1053.88
436.727	1010.88
436.949	947.88
437.17	936.88
437.392	916.88
437.614	879.88
437.835	924.88
438.057	945.88
438.278	1137.88
438.5	1179.88
438.721	1363.88
438.943	1273.88
439.165	1088.88
439.386	1019.88
439.608	1088.88
439.829	1074.88
440.05	1121.88
440.272	1178.88
440.493	1103.88
440.715	1054.88
440.936	1051.88
441.158	1050.88
441.379	1049.88
441.6	1095.88
441.822	1140.88
442.043	1185.88
442.264	1241.88
442.486	1287.88
442.707	1137.88
442.928	1090.88
443.149	1132.88
443.371	1170.88
443.592	1193.88
443.813	1305.88
444.034	1386.88
444.255	1215.88
444.476	1197.88
444.698	1162.88
444.919	1193.88
445.14	1349.88
445.361	1238.88
445.582	1205.88
445.803	1275.88
446.024	1394.88
446.245	1412.88
446.466	1297.88
446.687	1178.88
446.908	1169.88
447.129	1104.88
447.35	1069.88
447.571	1056.88
447.792	1009.88
448.013	1011.88
448.234	1011.88
448.455	1080.88
448.675	1234.88
448.896	1319.88
449.117	1151.88
449.338	1130.88
449.559	1274.88
449.779	1393.88
450	1164.88
450.221	1057.88
450.442	989.88
450.662	937.88
450.883	972.88
451.104	925.88
451.324	901.88
451.545	938.88
451.766	910.88
451.986	832.88
452.207	847.88
452.428	845.88
452.648	815.88
452.869	821.88
453.089	775.88
453.31	792.88
453.53	760.88
453.751	746.88
453.971	696.88
454.192	770.88
454.412	757.88
454.633	753.88
454.853	788.88
455.073	794.88
455.294	866.88
455.514	957.88
455.734	867.88
455.955	777.88
456.175	775.88
456.395	693.88
456.616	703.88
456.836	717.88
457.056	711.88
457.276	698.88
457.497	679.88
457.717	695.88
457.937	684.88
458.157	705.88
458.377	683.88
458.598	720.88
458.818	727.88
459.038	826.88
459.258	883.88
459.478	778.88
459.698	724.88
459.918	754.88
460.138	797.88
460.358	866.88
460.578	878.88
460.798	895.88
461.018	877.88
461.238	927.88
461.458	878.88
461.678	863.88
461.898	892.88
462.118	873.88
462.338	935.88
462.558	947.88
462.777	949.88
462.997	976.88
463.217	1039.88
463.437	1026.88
463.657	985.88
463.876	955.88
464.096	936.88
464.316	934.88
464.536	963.88
464.755	999.88
464.975	967.88
465.195	1009.88
465.414	1032.88
465.634	905.88
465.854	880.88
466.073	875.88
466.293	882.88
466.512	876.88
466.732	888.88
466.951	914.88
467.171	913.88
467.391	919.88
467.61	932.88
467.829	921.88
468.049	909.88
468.268	898.88
468.488	914.88
468.707	905.88
468.927	920.88
469.146	903.88
469.365	923.88
469.585	946.88
469.804	972.88
470.023	962.88
470.243	992.88
470.462	991.88
470.681	1030.88
470.901	991.88
471.12	987.88
471.339	978.88
471.558	955.88
471.777	956.88
471.997	916.88
472.216	831.88
472.435	771.88
472.654	727.88
472.873	746.88
473.092	794.88
473.311	830.88
473.53	813.88
473.749	877.88
473.968	893.88
474.187	982.88
474.406	1023.88
474.625	885.88
474.844	882.88
475.063	882.88
475.282	839.88
475.501	813.88
475.72	812.88
475.939	844.88
476.158	875.88
476.377	891.88
476.596	854.88
476.814	802.88
477.033	763.88
477.252	800.88
477.471	883.88
477.69	947.88
477.908	968.88
478.127	1006.88
478.346	997.88
478.564	1003.88
478.783	1017.88
479.002	1050.88
479.22	1045.88
479.439	1011.88
479.658	948.88
479.876	891.88
480.095	926.88
480.313	1013.88
480.532	1023.88
480.751	962.88
480.969	879.88
481.188	835.88
481.406	833.88
481.624	801.88
481.843	801.88
482.061	793.88
482.28	852.88
482.498	850.88
482.717	859.88
482.935	946.88
483.153	1030.88
483.372	1059.88
483.59	1077.88
483.808	975.88
484.027	921.88
484.245	945.88
484.463	1011.88
484.681	1022.88
484.9	1002.88
485.118	1010.88
485.336	922.88
485.554	864.88
485.772	866.88
485.99	865.88
486.209	895.88
486.427	917.88
486.645	963.88
486.863	1056.88
487.081	1081.88
487.299	1053.88
487.517	1074.88
487.735	1237.88
487.953	1369.88
488.171	1333.88
488.389	1209.88
488.607	1142.88
488.825	1061.88
489.043	1003.88
489.261	1017.88
489.479	1071.88
489.696	1085.88
489.914	1099.88
490.132	1134.88
490.35	1201.88
490.568	1292.88
490.786	1353.88
491.003	1403.88
491.221	1421.88
491.439	1487.88
491.657	1573.88
491.874	1642.88
492.092	1757.88
492.31	1886.88
492.527	1785.88
492.745	1674.88
492.963	1577.88
493.18	1540.88
493.398	1521.88
493.615	1505.88
493.833	1515.88
494.05	1499.88
494.268	1485.88
494.485	1479.88
494.703	1468.88
494.92	1419.88
495.138	1464.88
495.355	1470.88
495.573	1469.88
495.79	1448.88
496.008	1463.88
496.225	1417.88
496.442	1396.88
496.66	1422.88
496.877	1437.88
497.094	1431.88
497.312	1403.88
497.529	1375.88
497.746	1330.88
497.963	1292.88
498.181	1304.88
498.398	1289.88
498.615	1261.88
498.832	1286.88
499.049	1367.88
499.267	1427.88
