Data from Ni(NO3)2@0.5M.TitratingCurve.Agarose3%dH2O.NegLispCup.LampEnergy10.LIBS07252019_HRD10591_17-58-41-565.txt Node
Date: Thu Jul 25 17:58:41 EDT 2019
User: cochatt
Spectrometer: HR+D1059
Trigger mode: 1
Integration Time (sec): 1.000000E-1
Scans to average: 1
Electric dark correction enabled: true
Nonlinearity correction enabled: false
Boxcar width: 0
XAxis mode: Wavelengths
Number of Pixels in Spectrum: 2048
>>>>>Begin Spectral Data<<<<<
223.165	-22.88
223.4	-22.88
223.635	-22.88
223.869	-23.88
224.104	-19.88
224.338	-10.88
224.573	-20.88
224.808	-2.88
225.042	-3.88
225.277	-5.88
225.511	-9.88
225.746	0.12
225.98	12.12
226.215	20.12
226.449	14.12
226.683	17.12
226.918	26.12
227.152	31.12
227.387	43.12
227.621	19.12
227.856	40.12
228.09	44.12
228.324	54.12
228.559	54.12
228.793	90.12
229.027	131.12
229.262	160.12
229.496	147.12
229.73	166.12
229.964	194.12
230.199	230.12
230.433	220.12
230.667	215.12
230.901	214.12
231.136	200.12
231.37	195.12
231.604	199.12
231.838	230.12
232.072	236.12
232.306	222.12
232.541	207.12
232.775	201.12
233.009	187.12
233.243	186.12
233.477	170.12
233.711	189.12
233.945	185.12
234.179	186.12
234.413	193.12
234.647	197.12
234.881	199.12
235.115	187.12
235.349	175.12
235.583	175.12
235.817	180.12
236.051	168.12
236.285	189.12
236.519	183.12
236.753	180.12
236.987	193.12
237.221	188.12
237.455	183.12
237.689	180.12
237.922	188.12
238.156	185.12
238.39	190.12
238.624	192.12
238.858	201.12
239.091	206.12
239.325	223.12
239.559	221.12
239.793	278.12
240.027	260.12
240.26	224.12
240.494	212.12
240.728	198.12
240.961	204.12
241.195	200.12
241.429	230.12
241.662	238.12
241.896	242.12
242.13	259.12
242.363	262.12
242.597	240.12
242.83	219.12
243.064	233.12
243.298	209.12
243.531	230.12
243.765	249.12
243.998	261.12
244.232	271.12
244.465	267.12
244.699	251.12
244.932	235.12
245.166	247.12
245.399	243.12
245.633	264.12
245.866	250.12
246.099	265.12
246.333	268.12
246.566	250.12
246.8	256.12
247.033	248.12
247.266	252.12
247.5	254.12
247.733	267.12
247.966	287.12
248.2	276.12
248.433	272.12
248.666	272.12
248.899	286.12
249.133	271.12
249.366	280.12
249.599	284.12
249.832	291.12
250.066	284.12
250.299	307.12
250.532	293.12
250.765	298.12
250.998	299.12
251.231	346.12
251.465	375.12
251.698	345.12
251.931	344.12
252.164	332.12
252.397	327.12
252.63	325.12
252.863	326.12
253.096	344.12
253.329	332.12
253.562	327.12
253.795	349.12
254.028	327.12
254.261	336.12
254.494	319.12
254.727	334.12
254.96	356.12
255.193	363.12
255.426	350.12
255.659	366.12
255.892	361.12
256.124	372.12
256.357	349.12
256.59	373.12
256.823	368.12
257.056	395.12
257.289	368.12
257.521	365.12
257.754	379.12
257.987	368.12
258.22	364.12
258.452	378.12
258.685	381.12
258.918	381.12
259.151	391.12
259.383	414.12
259.616	415.12
259.849	401.12
260.081	393.12
260.314	381.12
260.547	387.12
260.779	403.12
261.012	421.12
261.244	424.12
261.477	428.12
261.71	411.12
261.942	425.12
262.175	397.12
262.407	411.12
262.64	404.12
262.872	428.12
263.105	433.12
263.337	441.12
263.57	423.12
263.802	412.12
264.035	413.12
264.267	436.12
264.499	439.12
264.732	443.12
264.964	448.12
265.197	442.12
265.429	446.12
265.661	447.12
265.894	440.12
266.126	428.12
266.358	457.12
266.591	451.12
266.823	452.12
267.055	450.12
267.287	457.12
267.52	461.12
267.752	463.12
267.984	469.12
268.216	484.12
268.448	482.12
268.681	479.12
268.913	483.12
269.145	502.12
269.377	483.12
269.609	460.12
269.841	464.12
270.073	468.12
270.306	485.12
270.538	509.12
270.77	502.12
271.002	511.12
271.234	485.12
271.466	488.12
271.698	485.12
271.93	488.12
272.162	485.12
272.394	513.12
272.626	519.12
272.858	504.12
273.09	510.12
273.322	525.12
273.553	493.12
273.785	503.12
274.017	529.12
274.249	530.12
274.481	526.12
274.713	526.12
274.945	538.12
275.176	526.12
275.408	527.12
275.64	503.12
275.872	536.12
276.104	547.12
276.335	521.12
276.567	528.12
276.799	558.12
277.031	567.12
277.262	548.12
277.494	550.12
277.726	559.12
277.957	574.12
278.189	583.12
278.421	540.12
278.652	565.12
278.884	563.12
279.115	548.12
279.347	556.12
279.579	574.12
279.81	577.12
280.042	544.12
280.273	557.12
280.505	583.12
280.736	565.12
280.968	571.12
281.199	576.12
281.431	591.12
281.662	595.12
281.894	616.12
282.125	573.12
282.356	582.12
282.588	597.12
282.819	591.12
283.051	591.12
283.282	599.12
283.513	595.12
283.745	597.12
283.976	602.12
284.207	613.12
284.439	612.12
284.67	585.12
284.901	598.12
285.132	618.12
285.364	614.12
285.595	613.12
285.826	622.12
286.057	613.12
286.288	604.12
286.52	637.12
286.751	644.12
286.982	634.12
287.213	652.12
287.444	628.12
287.675	657.12
287.906	647.12
288.138	635.12
288.369	619.12
288.6	647.12
288.831	641.12
289.062	641.12
289.293	638.12
289.524	618.12
289.755	635.12
289.986	641.12
290.217	647.12
290.448	664.12
290.679	662.12
290.91	639.12
291.141	658.12
291.371	657.12
291.602	652.12
291.833	645.12
292.064	636.12
292.295	629.12
292.526	655.12
292.757	640.12
292.987	669.12
293.218	650.12
293.449	657.12
293.68	651.12
293.91	640.12
294.141	659.12
294.372	635.12
294.603	687.12
294.833	670.12
295.064	663.12
295.295	679.12
295.525	672.12
295.756	664.12
295.987	667.12
296.217	672.12
296.448	638.12
296.679	661.12
296.909	650.12
297.14	664.12
297.37	697.12
297.601	688.12
297.831	678.12
298.062	694.12
298.292	681.12
298.523	707.12
298.753	735.12
298.984	708.12
299.214	707.12
299.445	683.12
299.675	710.12
299.905	741.12
300.136	716.12
300.366	765.12
300.597	786.12
300.827	768.12
301.057	736.12
301.288	736.12
301.518	771.12
301.748	761.12
301.979	733.12
302.209	729.12
302.439	757.12
302.669	760.12
302.9	759.12
303.13	748.12
303.36	740.12
303.59	750.12
303.82	769.12
304.051	797.12
304.281	783.12
304.511	755.12
304.741	771.12
304.971	806.12
305.201	796.12
305.431	778.12
305.661	787.12
305.891	809.12
306.121	777.12
306.352	761.12
306.582	751.12
306.812	753.12
307.042	742.12
307.272	765.12
307.502	745.12
307.731	766.12
307.961	739.12
308.191	742.12
308.421	759.12
308.651	738.12
308.881	750.12
309.111	762.12
309.341	783.12
309.571	760.12
309.8	801.12
310.03	812.12
310.26	862.12
310.49	847.12
310.72	800.12
310.949	799.12
311.179	797.12
311.409	803.12
311.639	807.12
311.868	807.12
312.098	797.12
312.328	819.12
312.557	809.12
312.787	765.12
313.017	842.12
313.246	823.12
313.476	845.12
313.706	859.12
313.935	839.12
314.165	844.12
314.394	847.12
314.624	852.12
314.853	831.12
315.083	844.12
315.312	820.12
315.542	856.12
315.771	860.12
316.001	842.12
316.23	844.12
316.46	837.12
316.689	863.12
316.919	852.12
317.148	844.12
317.377	856.12
317.607	833.12
317.836	839.12
318.065	867.12
318.295	879.12
318.524	864.12
318.753	849.12
318.983	859.12
319.212	877.12
319.441	855.12
319.67	893.12
319.9	855.12
320.129	887.12
320.358	853.12
320.587	878.12
320.816	899.12
321.046	908.12
321.275	918.12
321.504	892.12
321.733	912.12
321.962	921.12
322.191	915.12
322.42	927.12
322.649	897.12
322.878	919.12
323.108	911.12
323.337	934.12
323.566	942.12
323.795	930.12
324.024	955.12
324.253	933.12
324.482	947.12
324.71	923.12
324.939	936.12
325.168	941.12
325.397	956.12
325.626	947.12
325.855	973.12
326.084	967.12
326.313	965.12
326.542	973.12
326.77	969.12
326.999	948.12
327.228	937.12
327.457	985.12
327.686	958.12
327.914	997.12
328.143	939.12
328.372	967.12
328.6	997.12
328.829	978.12
329.058	947.12
329.287	968.12
329.515	981.12
329.744	981.12
329.972	972.12
330.201	983.12
330.43	995.12
330.658	999.12
330.887	1006.12
331.115	996.12
331.344	1021.12
331.572	1018.12
331.801	1024.12
332.03	1036.12
332.258	1066.12
332.486	1052.12
332.715	1085.12
332.943	1068.12
333.172	1055.12
333.4	1074.12
333.629	1108.12
333.857	1110.12
334.085	1073.12
334.314	1116.12
334.542	1120.12
334.771	1145.12
334.999	1112.12
335.227	1139.12
335.455	1109.12
335.684	1131.12
335.912	1142.12
336.14	1127.12
336.369	1148.12
336.597	1152.12
336.825	1164.12
337.053	1185.12
337.281	1170.12
337.51	1161.12
337.738	1151.12
337.966	1162.12
338.194	1193.12
338.422	1167.12
338.65	1125.12
338.878	1120.12
339.106	1117.12
339.334	1143.12
339.562	1131.12
339.79	1100.12
340.018	1068.12
340.246	1096.12
340.474	1087.12
340.702	1107.12
340.93	1118.12
341.158	1126.12
341.386	1155.12
341.614	1183.12
341.842	1145.12
342.07	1091.12
342.298	1085.12
342.526	1081.12
342.754	1110.12
342.981	1098.12
343.209	1100.12
343.437	1141.12
343.665	1137.12
343.893	1144.12
344.12	1129.12
344.348	1121.12
344.576	1168.12
344.804	1183.12
345.031	1114.12
345.259	1143.12
345.487	1155.12
345.714	1148.12
345.942	1124.12
346.17	1141.12
346.397	1140.12
346.625	1088.12
346.853	1063.12
347.08	1055.12
347.308	1080.12
347.535	1086.12
347.763	1062.12
347.99	1050.12
348.218	1051.12
348.445	1049.12
348.673	1055.12
348.9	1055.12
349.128	1042.12
349.355	1085.12
349.583	1120.12
349.81	1070.12
350.037	1060.12
350.265	1045.12
350.492	1055.12
350.72	997.12
350.947	1059.12
351.174	1071.12
351.402	1105.12
351.629	1143.12
351.856	1131.12
352.083	1069.12
352.311	1084.12
352.538	1104.12
352.765	1131.12
352.992	1030.12
353.22	1014.12
353.447	1019.12
353.674	1025.12
353.901	1009.12
354.128	1006.12
354.355	1003.12
354.583	986.12
354.81	989.12
355.037	1038.12
355.264	1025.12
355.491	990.12
355.718	1023.12
355.945	1020.12
356.172	1034.12
356.399	1028.12
356.626	1069.12
356.853	1086.12
357.08	1030.12
357.307	1025.12
357.534	1050.12
357.761	1002.12
357.988	1006.12
358.215	1012.12
358.441	1040.12
358.668	1002.12
358.895	1006.12
359.122	1048.12
359.349	982.12
359.576	1001.12
359.802	1031.12
360.029	1053.12
360.256	1038.12
360.483	1000.12
360.709	1032.12
360.936	1043.12
361.163	1059.12
361.39	1036.12
361.616	1016.12
361.843	1075.12
362.07	1098.12
362.296	1107.12
362.523	1016.12
362.749	1064.12
362.976	1027.12
363.203	1008.12
363.429	993.12
363.656	1026.12
363.882	1031.12
364.109	1045.12
364.335	1012.12
364.562	1029.12
364.788	1020.12
365.015	1041.12
365.241	1068.12
365.468	1033.12
365.694	1048.12
365.92	1017.12
366.147	1019.12
366.373	1039.12
366.599	1039.12
366.826	1037.12
367.052	1044.12
367.278	1028.12
367.505	1065.12
367.731	1045.12
367.957	1062.12
368.184	1025.12
368.41	1077.12
368.636	1019.12
368.862	1092.12
369.089	1060.12
369.315	1055.12
369.541	1066.12
369.767	1085.12
369.993	1038.12
370.219	1081.12
370.445	1066.12
370.672	1066.12
370.898	1099.12
371.124	1075.12
371.35	1095.12
371.576	1091.12
371.802	1095.12
372.028	1106.12
372.254	1083.12
372.48	1125.12
372.706	1136.12
372.932	1102.12
373.158	1109.12
373.384	1091.12
373.61	1074.12
373.835	1104.12
374.061	1086.12
374.287	1066.12
374.513	1111.12
374.739	1098.12
374.965	1111.12
375.191	1113.12
375.416	1109.12
375.642	1089.12
375.868	1104.12
376.094	1108.12
376.319	1117.12
376.545	1102.12
376.771	1096.12
376.997	1069.12
377.222	1065.12
377.448	1072.12
377.674	1085.12
377.899	1095.12
378.125	1063.12
378.35	1083.12
378.576	1105.12
378.802	1087.12
379.027	1114.12
379.253	1096.12
379.478	1072.12
379.704	1047.12
379.929	1087.12
380.155	1066.12
380.38	1085.12
380.606	1088.12
380.831	1097.12
381.057	1098.12
381.282	1099.12
381.507	1088.12
381.733	1099.12
381.958	1085.12
382.184	1127.12
382.409	1130.12
382.634	1103.12
382.86	1097.12
383.085	1130.12
383.31	1152.12
383.535	1131.12
383.761	1115.12
383.986	1151.12
384.211	1152.12
384.436	1141.12
384.662	1143.12
384.887	1148.12
385.112	1164.12
385.337	1179.12
385.562	1191.12
385.787	1182.12
386.013	1223.12
386.238	1209.12
386.463	1231.12
386.688	1199.12
386.913	1157.12
387.138	1227.12
387.363	1236.12
387.588	1213.12
387.813	1191.12
388.038	1229.12
388.263	1249.12
388.488	1251.12
388.713	1227.12
388.938	1194.12
389.163	1195.12
389.387	1225.12
389.612	1208.12
389.837	1239.12
390.062	1207.12
390.287	1251.12
390.512	1228.12
390.736	1203.12
390.961	1262.12
391.186	1248.12
391.411	1253.12
391.636	1244.12
391.86	1269.12
392.085	1281.12
392.31	1271.12
392.534	1268.12
392.759	1305.12
392.984	1280.12
393.208	1294.12
393.433	1275.12
393.658	1254.12
393.882	1273.12
394.107	1266.12
394.331	1270.12
394.556	1288.12
394.78	1287.12
395.005	1264.12
395.229	1247.12
395.454	1288.12
395.678	1304.12
395.903	1290.12
396.127	1319.12
396.352	1301.12
396.576	1310.12
396.801	1328.12
397.025	1319.12
397.249	1328.12
397.474	1342.12
397.698	1349.12
397.922	1388.12
398.147	1364.12
398.371	1401.12
398.595	1411.12
398.82	1428.12
399.044	1464.12
399.268	1457.12
399.492	1547.12
399.717	1573.12
399.941	1587.12
400.165	1567.12
400.389	1557.12
400.613	1525.12
400.837	1486.12
401.062	1495.12
401.286	1459.12
401.51	1444.12
401.734	1420.12
401.958	1444.12
402.182	1422.12
402.406	1411.12
402.63	1425.12
402.854	1417.12
403.078	1405.12
403.302	1482.12
403.526	1440.12
403.75	1420.12
403.974	1467.12
404.198	1411.12
404.422	1430.12
404.645	1424.12
404.869	1449.12
405.093	1450.12
405.317	1451.12
405.541	1450.12
405.765	1518.12
405.988	1454.12
406.212	1507.12
406.436	1513.12
406.66	1527.12
406.883	1526.12
407.107	1579.12
407.331	1580.12
407.555	1632.12
407.778	1583.12
408.002	1570.12
408.226	1581.12
408.449	1635.12
408.673	1597.12
408.896	1541.12
409.12	1551.12
409.344	1588.12
409.567	1529.12
409.791	1526.12
410.014	1518.12
410.238	1516.12
410.461	1485.12
410.685	1513.12
410.908	1502.12
411.132	1520.12
411.355	1486.12
411.578	1475.12
411.802	1471.12
412.025	1457.12
412.249	1516.12
412.472	1467.12
412.695	1447.12
412.919	1451.12
413.142	1436.12
413.365	1444.12
413.589	1455.12
413.812	1429.12
414.035	1449.12
414.258	1454.12
414.482	1442.12
414.705	1466.12
414.928	1402.12
415.151	1414.12
415.374	1433.12
415.597	1457.12
415.821	1396.12
416.044	1412.12
416.267	1411.12
416.49	1378.12
416.713	1358.12
416.936	1398.12
417.159	1365.12
417.382	1395.12
417.605	1390.12
417.828	1332.12
418.051	1361.12
418.274	1384.12
418.497	1333.12
418.72	1386.12
418.943	1372.12
419.166	1443.12
419.389	1516.12
419.611	1476.12
419.834	1460.12
420.057	1431.12
420.28	1407.12
420.503	1377.12
420.726	1335.12
420.948	1360.12
421.171	1350.12
421.394	1347.12
421.617	1363.12
421.839	1390.12
422.062	1360.12
422.285	1349.12
422.507	1359.12
422.73	1335.12
422.953	1356.12
423.175	1349.12
423.398	1353.12
423.621	1386.12
423.843	1358.12
424.066	1351.12
424.288	1374.12
424.511	1342.12
424.733	1376.12
424.956	1361.12
425.178	1371.12
425.401	1360.12
425.623	1366.12
425.846	1308.12
426.068	1378.12
426.291	1360.12
426.513	1366.12
426.735	1353.12
426.958	1342.12
427.18	1329.12
427.402	1341.12
427.625	1324.12
427.847	1346.12
428.069	1346.12
428.292	1344.12
428.514	1336.12
428.736	1315.12
428.958	1344.12
429.181	1315.12
429.403	1315.12
429.625	1314.12
429.847	1323.12
430.069	1294.12
430.292	1315.12
430.514	1315.12
430.736	1364.12
430.958	1342.12
431.18	1330.12
431.402	1308.12
431.624	1327.12
431.846	1318.12
432.068	1308.12
432.29	1345.12
432.512	1308.12
432.734	1314.12
432.956	1349.12
433.178	1368.12
433.4	1388.12
433.622	1387.12
433.844	1408.12
434.066	1366.12
434.287	1370.12
434.509	1383.12
434.731	1381.12
434.953	1377.12
435.175	1426.12
435.397	1424.12
435.618	1402.12
435.84	1369.12
436.062	1342.12
436.284	1384.12
436.505	1339.12
436.727	1362.12
436.949	1316.12
437.17	1363.12
437.392	1352.12
437.614	1324.12
437.835	1334.12
438.057	1264.12
438.278	1276.12
438.5	1288.12
438.721	1321.12
438.943	1285.12
439.165	1288.12
439.386	1302.12
439.608	1309.12
439.829	1332.12
440.05	1289.12
440.272	1347.12
440.493	1376.12
440.715	1331.12
440.936	1358.12
441.158	1376.12
441.379	1335.12
441.6	1400.12
441.822	1399.12
442.043	1384.12
442.264	1384.12
442.486	1379.12
442.707	1351.12
442.928	1405.12
443.149	1419.12
443.371	1421.12
443.592	1488.12
443.813	1470.12
444.034	1416.12
444.255	1429.12
444.476	1446.12
444.698	1469.12
444.919	1498.12
445.14	1556.12
445.361	1523.12
445.582	1422.12
445.803	1388.12
446.024	1367.12
446.245	1348.12
446.466	1342.12
446.687	1290.12
446.908	1336.12
447.129	1325.12
447.35	1287.12
447.571	1264.12
447.792	1275.12
448.013	1263.12
448.234	1251.12
448.455	1256.12
448.675	1254.12
448.896	1219.12
449.117	1257.12
449.338	1235.12
449.559	1217.12
449.779	1210.12
450	1251.12
450.221	1214.12
450.442	1205.12
450.662	1226.12
450.883	1269.12
451.104	1289.12
451.324	1241.12
451.545	1249.12
451.766	1225.12
451.986	1215.12
452.207	1216.12
452.428	1183.12
452.648	1213.12
452.869	1204.12
453.089	1222.12
453.31	1259.12
453.53	1225.12
453.751	1199.12
453.971	1181.12
454.192	1217.12
454.412	1227.12
454.633	1204.12
454.853	1200.12
455.073	1209.12
455.294	1239.12
455.514	1233.12
455.734	1249.12
455.955	1219.12
456.175	1261.12
456.395	1233.12
456.616	1219.12
456.836	1165.12
457.056	1211.12
457.276	1216.12
457.497	1204.12
457.717	1263.12
457.937	1263.12
458.157	1252.12
458.377	1242.12
458.598	1264.12
458.818	1244.12
459.038	1258.12
459.258	1317.12
459.478	1390.12
459.698	1459.12
459.918	1469.12
460.138	1430.12
460.358	1452.12
460.578	1453.12
460.798	1542.12
461.018	1499.12
461.238	1419.12
461.458	1425.12
461.678	1404.12
461.898	1443.12
462.118	1455.12
462.338	1488.12
462.558	1555.12
462.777	1543.12
462.997	1583.12
463.217	1640.12
463.437	1699.12
463.657	1618.12
463.876	1557.12
464.096	1592.12
464.316	1563.12
464.536	1513.12
464.755	1535.12
464.975	1468.12
465.195	1423.12
465.414	1425.12
465.634	1395.12
465.854	1349.12
466.073	1374.12
466.293	1307.12
466.512	1309.12
466.732	1311.12
466.951	1332.12
467.171	1333.12
467.391	1311.12
467.61	1285.12
467.829	1284.12
468.049	1265.12
468.268	1267.12
468.488	1283.12
468.707	1274.12
468.927	1259.12
469.146	1302.12
469.365	1333.12
469.585	1288.12
469.804	1282.12
470.023	1329.12
470.243	1290.12
470.462	1285.12
470.681	1320.12
470.901	1295.12
471.12	1280.12
471.339	1324.12
471.558	1327.12
471.777	1332.12
471.997	1307.12
472.216	1257.12
472.435	1261.12
472.654	1252.12
472.873	1292.12
473.092	1291.12
473.311	1283.12
473.53	1263.12
473.749	1300.12
473.968	1290.12
474.187	1318.12
474.406	1260.12
474.625	1294.12
474.844	1319.12
475.063	1304.12
475.282	1347.12
475.501	1339.12
475.72	1324.12
475.939	1329.12
476.158	1322.12
476.377	1371.12
476.596	1361.12
476.814	1359.12
477.033	1352.12
477.252	1390.12
477.471	1414.12
477.69	1407.12
477.908	1447.12
478.127	1456.12
478.346	1461.12
478.564	1470.12
478.783	1492.12
479.002	1549.12
479.22	1568.12
479.439	1539.12
479.658	1518.12
479.876	1502.12
480.095	1500.12
480.313	1520.12
480.532	1588.12
480.751	1509.12
480.969	1520.12
481.188	1490.12
481.406	1484.12
481.624	1499.12
481.843	1478.12
482.061	1475.12
482.28	1500.12
482.498	1490.12
482.717	1485.12
482.935	1515.12
483.153	1523.12
483.372	1551.12
483.59	1617.12
483.808	1558.12
484.027	1517.12
484.245	1519.12
484.463	1543.12
484.681	1530.12
484.9	1543.12
485.118	1567.12
485.336	1499.12
485.554	1523.12
485.772	1541.12
485.99	1548.12
486.209	1501.12
486.427	1546.12
486.645	1556.12
486.863	1562.12
487.081	1545.12
487.299	1527.12
487.517	1540.12
487.735	1578.12
487.953	1622.12
488.171	1589.12
488.389	1591.12
488.607	1520.12
488.825	1565.12
489.043	1531.12
489.261	1497.12
489.479	1553.12
489.696	1535.12
489.914	1507.12
490.132	1562.12
490.35	1577.12
490.568	1551.12
490.786	1562.12
491.003	1570.12
491.221	1586.12
491.439	1580.12
491.657	1573.12
491.874	1591.12
