Data from Ni(NO3)2@0.0625M.TitratingCurve.Agarose3%dH2O.NegLispCup.LampEnergy10.LIBS07252019_HRD10591_18-14-45-574.txt Node
Date: Thu Jul 25 18:14:45 EDT 2019
User: cochatt
Spectrometer: HR+D1059
Trigger mode: 1
Integration Time (sec): 1.000000E-1
Scans to average: 1
Electric dark correction enabled: true
Nonlinearity correction enabled: false
Boxcar width: 0
XAxis mode: Wavelengths
Number of Pixels in Spectrum: 2048
>>>>>Begin Spectral Data<<<<<
223.165	-23.38
223.4	-23.38
223.635	-23.38
223.869	-19.38
224.104	-24.38
224.338	-22.38
224.573	-15.38
224.808	-15.38
225.042	-2.38
225.277	-14.38
225.511	-9.38
225.746	14.62
225.98	23.62
226.215	4.62
226.449	22.62
226.683	6.62
226.918	31.62
227.152	42.62
227.387	31.62
227.621	26.62
227.856	43.62
228.09	43.62
228.324	45.62
228.559	56.62
228.793	67.62
229.027	97.62
229.262	84.62
229.496	97.62
229.73	107.62
229.964	115.62
230.199	103.62
230.433	124.62
230.667	107.62
230.901	107.62
231.136	119.62
231.37	126.62
231.604	130.62
231.838	124.62
232.072	138.62
232.306	121.62
232.541	118.62
232.775	124.62
233.009	128.62
233.243	136.62
233.477	132.62
233.711	143.62
233.945	118.62
234.179	127.62
234.413	124.62
234.647	125.62
234.881	122.62
235.115	127.62
235.349	131.62
235.583	141.62
235.817	126.62
236.051	118.62
236.285	126.62
236.519	130.62
236.753	131.62
236.987	130.62
237.221	127.62
237.455	129.62
237.689	138.62
237.922	129.62
238.156	130.62
238.39	132.62
238.624	133.62
238.858	119.62
239.091	129.62
239.325	138.62
239.559	143.62
239.793	144.62
240.027	143.62
240.26	136.62
240.494	141.62
240.728	143.62
240.961	121.62
241.195	151.62
241.429	154.62
241.662	144.62
241.896	138.62
242.13	148.62
242.363	155.62
242.597	150.62
242.83	154.62
243.064	127.62
243.298	156.62
243.531	156.62
243.765	158.62
243.998	163.62
244.232	156.62
244.465	146.62
244.699	163.62
244.932	159.62
245.166	157.62
245.399	153.62
245.633	172.62
245.866	169.62
246.099	156.62
246.333	167.62
246.566	167.62
246.8	173.62
247.033	178.62
247.266	165.62
247.5	163.62
247.733	174.62
247.966	178.62
248.2	187.62
248.433	179.62
248.666	185.62
248.899	164.62
249.133	191.62
249.366	186.62
249.599	189.62
249.832	201.62
250.066	185.62
250.299	188.62
250.532	176.62
250.765	211.62
250.998	187.62
251.231	185.62
251.465	203.62
251.698	197.62
251.931	212.62
252.164	203.62
252.397	186.62
252.63	198.62
252.863	197.62
253.096	214.62
253.329	204.62
253.562	204.62
253.795	198.62
254.028	222.62
254.261	216.62
254.494	223.62
254.727	217.62
254.96	217.62
255.193	223.62
255.426	227.62
255.659	211.62
255.892	224.62
256.124	218.62
256.357	222.62
256.59	216.62
256.823	225.62
257.056	203.62
257.289	224.62
257.521	221.62
257.754	228.62
257.987	208.62
258.22	233.62
258.452	236.62
258.685	228.62
258.918	222.62
259.151	224.62
259.383	226.62
259.616	234.62
259.849	230.62
260.081	226.62
260.314	216.62
260.547	235.62
260.779	206.62
261.012	242.62
261.244	228.62
261.477	219.62
261.71	255.62
261.942	235.62
262.175	254.62
262.407	264.62
262.64	232.62
262.872	244.62
263.105	227.62
263.337	243.62
263.57	251.62
263.802	257.62
264.035	248.62
264.267	256.62
264.499	256.62
264.732	260.62
264.964	251.62
265.197	252.62
265.429	259.62
265.661	251.62
265.894	248.62
266.126	254.62
266.358	276.62
266.591	245.62
266.823	279.62
267.055	267.62
267.287	264.62
267.52	271.62
267.752	269.62
267.984	254.62
268.216	277.62
268.448	276.62
268.681	272.62
268.913	265.62
269.145	271.62
269.377	276.62
269.609	276.62
269.841	266.62
270.073	268.62
270.306	269.62
270.538	287.62
270.77	279.62
271.002	291.62
271.234	263.62
271.466	290.62
271.698	272.62
271.93	284.62
272.162	301.62
272.394	275.62
272.626	289.62
272.858	284.62
273.09	286.62
273.322	293.62
273.553	305.62
273.785	302.62
274.017	287.62
274.249	290.62
274.481	289.62
274.713	281.62
274.945	298.62
275.176	293.62
275.408	308.62
275.64	305.62
275.872	323.62
276.104	294.62
276.335	301.62
276.567	296.62
276.799	286.62
277.031	312.62
277.262	292.62
277.494	302.62
277.726	296.62
277.957	314.62
278.189	314.62
278.421	311.62
278.652	306.62
278.884	327.62
279.115	330.62
279.347	305.62
279.579	326.62
279.81	306.62
280.042	316.62
280.273	342.62
280.505	339.62
280.736	320.62
280.968	318.62
281.199	314.62
281.431	332.62
281.662	295.62
281.894	323.62
282.125	343.62
282.356	343.62
282.588	336.62
282.819	332.62
283.051	337.62
283.282	350.62
283.513	323.62
283.745	338.62
283.976	318.62
284.207	328.62
284.439	338.62
284.67	343.62
284.901	320.62
285.132	326.62
285.364	346.62
285.595	348.62
285.826	350.62
286.057	372.62
286.288	356.62
286.52	360.62
286.751	362.62
286.982	364.62
287.213	368.62
287.444	340.62
287.675	360.62
287.906	363.62
288.138	376.62
288.369	366.62
288.6	378.62
288.831	361.62
289.062	370.62
289.293	368.62
289.524	356.62
289.755	358.62
289.986	370.62
290.217	359.62
290.448	370.62
290.679	363.62
290.91	368.62
291.141	360.62
291.371	374.62
291.602	386.62
291.833	378.62
292.064	396.62
292.295	386.62
292.526	387.62
292.757	373.62
292.987	378.62
293.218	401.62
293.449	386.62
293.68	374.62
293.91	378.62
294.141	377.62
294.372	380.62
294.603	380.62
294.833	387.62
295.064	376.62
295.295	396.62
295.525	390.62
295.756	383.62
295.987	392.62
296.217	377.62
296.448	414.62
296.679	400.62
296.909	404.62
297.14	414.62
297.37	420.62
297.601	408.62
297.831	411.62
298.062	395.62
298.292	418.62
298.523	428.62
298.753	422.62
298.984	416.62
299.214	421.62
299.445	412.62
299.675	414.62
299.905	432.62
300.136	430.62
300.366	415.62
300.597	433.62
300.827	433.62
301.057	426.62
301.288	455.62
301.518	439.62
301.748	432.62
301.979	443.62
302.209	438.62
302.439	438.62
302.669	432.62
302.9	433.62
303.13	424.62
303.36	436.62
303.59	412.62
303.82	420.62
304.051	428.62
304.281	427.62
304.511	439.62
304.741	442.62
304.971	445.62
305.201	443.62
305.431	441.62
305.661	427.62
305.891	425.62
306.121	425.62
306.352	404.62
306.582	429.62
306.812	409.62
307.042	427.62
307.272	434.62
307.502	402.62
307.731	420.62
307.961	415.62
308.191	397.62
308.421	416.62
308.651	423.62
308.881	425.62
309.111	420.62
309.341	419.62
309.571	428.62
309.8	428.62
310.03	434.62
310.26	409.62
310.49	441.62
310.72	439.62
310.949	420.62
311.179	417.62
311.409	431.62
311.639	433.62
311.868	441.62
312.098	445.62
312.328	428.62
312.557	419.62
312.787	418.62
313.017	459.62
313.246	446.62
313.476	425.62
313.706	460.62
313.935	436.62
314.165	463.62
314.394	456.62
314.624	460.62
314.853	437.62
315.083	460.62
315.312	453.62
315.542	437.62
315.771	448.62
316.001	446.62
316.23	439.62
316.46	431.62
316.689	436.62
316.919	450.62
317.148	456.62
317.377	448.62
317.607	447.62
317.836	446.62
318.065	445.62
318.295	441.62
318.524	427.62
318.753	446.62
318.983	441.62
319.212	438.62
319.441	431.62
319.67	432.62
319.9	450.62
320.129	435.62
320.358	438.62
320.587	441.62
320.816	442.62
321.046	456.62
321.275	456.62
321.504	451.62
321.733	447.62
321.962	450.62
322.191	443.62
322.42	464.62
322.649	453.62
322.878	456.62
323.108	466.62
323.337	456.62
323.566	453.62
323.795	466.62
324.024	466.62
324.253	462.62
324.482	415.62
324.71	459.62
324.939	455.62
325.168	471.62
325.397	463.62
325.626	475.62
325.855	464.62
326.084	480.62
326.313	498.62
326.542	520.62
326.77	485.62
326.999	487.62
327.228	483.62
327.457	489.62
327.686	472.62
327.914	462.62
328.143	484.62
328.372	468.62
328.6	485.62
328.829	474.62
329.058	489.62
329.287	477.62
329.515	492.62
329.744	496.62
329.972	472.62
330.201	487.62
330.43	477.62
330.658	481.62
330.887	493.62
331.115	501.62
331.344	513.62
331.572	533.62
331.801	528.62
332.03	548.62
332.258	522.62
332.486	576.62
332.715	602.62
332.943	588.62
333.172	626.62
333.4	632.62
333.629	679.62
333.857	667.62
334.085	648.62
334.314	649.62
334.542	608.62
334.771	634.62
334.999	612.62
335.227	606.62
335.455	609.62
335.684	603.62
335.912	589.62
336.14	596.62
336.369	594.62
336.597	594.62
336.825	585.62
337.053	585.62
337.281	589.62
337.51	564.62
337.738	562.62
337.966	555.62
338.194	527.62
338.422	540.62
338.65	535.62
338.878	541.62
339.106	542.62
339.334	522.62
339.562	516.62
339.79	502.62
340.018	511.62
340.246	488.62
340.474	476.62
340.702	510.62
340.93	521.62
341.158	514.62
341.386	538.62
341.614	518.62
341.842	524.62
342.07	516.62
342.298	533.62
342.526	510.62
342.754	512.62
342.981	503.62
343.209	540.62
343.437	540.62
343.665	547.62
343.893	600.62
344.12	614.62
344.348	599.62
344.576	593.62
344.804	568.62
345.031	555.62
345.259	554.62
345.487	512.62
345.714	518.62
345.942	515.62
346.17	534.62
346.397	514.62
346.625	499.62
346.853	508.62
347.08	508.62
347.308	530.62
347.535	513.62
347.763	540.62
347.99	501.62
348.218	534.62
348.445	541.62
348.673	508.62
348.9	503.62
349.128	506.62
349.355	535.62
349.583	500.62
349.81	488.62
350.037	504.62
350.265	504.62
350.492	483.62
350.72	494.62
350.947	467.62
351.174	490.62
351.402	495.62
351.629	505.62
351.856	512.62
352.083	500.62
352.311	475.62
352.538	514.62
352.765	494.62
352.992	450.62
353.22	468.62
353.447	488.62
353.674	483.62
353.901	491.62
354.128	490.62
354.355	476.62
354.583	489.62
354.81	502.62
355.037	498.62
355.264	485.62
355.491	473.62
355.718	495.62
355.945	478.62
356.172	504.62
356.399	475.62
356.626	508.62
356.853	504.62
357.08	491.62
357.307	496.62
357.534	466.62
357.761	484.62
357.988	467.62
358.215	496.62
358.441	477.62
358.668	468.62
358.895	497.62
359.122	474.62
359.349	473.62
359.576	466.62
359.802	470.62
360.029	504.62
360.256	496.62
360.483	490.62
360.709	484.62
360.936	493.62
361.163	504.62
361.39	496.62
361.616	485.62
361.843	470.62
362.07	482.62
362.296	498.62
362.523	490.62
362.749	502.62
362.976	471.62
363.203	481.62
363.429	490.62
363.656	477.62
363.882	479.62
364.109	482.62
364.335	507.62
364.562	480.62
364.788	470.62
365.015	451.62
365.241	482.62
365.468	484.62
365.694	483.62
365.92	482.62
366.147	472.62
366.373	467.62
366.599	465.62
366.826	501.62
367.052	511.62
367.278	481.62
367.505	507.62
367.731	482.62
367.957	496.62
368.184	497.62
368.41	487.62
368.636	489.62
368.862	503.62
369.089	494.62
369.315	483.62
369.541	512.62
369.767	504.62
369.993	521.62
370.219	506.62
370.445	512.62
370.672	529.62
370.898	528.62
371.124	521.62
371.35	547.62
371.576	496.62
371.802	530.62
372.028	517.62
372.254	531.62
372.48	537.62
372.706	531.62
372.932	564.62
373.158	562.62
373.384	552.62
373.61	532.62
373.835	553.62
374.061	511.62
374.287	565.62
374.513	558.62
374.739	552.62
374.965	580.62
375.191	598.62
375.416	599.62
375.642	562.62
375.868	568.62
376.094	549.62
376.319	544.62
376.545	537.62
376.771	551.62
376.997	545.62
377.222	546.62
377.448	541.62
377.674	545.62
377.899	531.62
378.125	524.62
378.35	501.62
378.576	536.62
378.802	513.62
379.027	516.62
379.253	544.62
379.478	518.62
379.704	518.62
379.929	532.62
380.155	509.62
380.38	531.62
380.606	508.62
380.831	521.62
381.057	544.62
381.282	520.62
381.507	531.62
381.733	552.62
381.958	530.62
382.184	545.62
382.409	528.62
382.634	546.62
382.86	547.62
383.085	557.62
383.31	576.62
383.535	608.62
383.761	584.62
383.986	616.62
384.211	619.62
384.436	607.62
384.662	642.62
384.887	653.62
385.112	630.62
385.337	632.62
385.562	622.62
385.787	650.62
386.013	672.62
386.238	619.62
386.463	638.62
386.688	612.62
386.913	634.62
387.138	590.62
387.363	626.62
387.588	599.62
387.813	628.62
388.038	592.62
388.263	611.62
388.488	640.62
388.713	621.62
388.938	629.62
389.163	614.62
389.387	611.62
389.612	618.62
389.837	617.62
390.062	616.62
390.287	595.62
390.512	622.62
390.736	635.62
390.961	618.62
391.186	635.62
391.411	663.62
391.636	662.62
391.86	655.62
392.085	691.62
392.31	689.62
392.534	668.62
392.759	667.62
392.984	671.62
393.208	661.62
393.433	648.62
393.658	671.62
393.882	658.62
394.107	674.62
394.331	699.62
394.556	660.62
394.78	666.62
395.005	653.62
395.229	667.62
395.454	682.62
395.678	706.62
395.903	711.62
396.127	665.62
396.352	697.62
396.576	637.62
396.801	641.62
397.025	672.62
397.249	666.62
397.474	707.62
397.698	693.62
397.922	690.62
398.147	704.62
398.371	719.62
398.595	708.62
398.82	754.62
399.044	825.62
399.268	913.62
399.492	1041.62
399.717	1175.62
399.941	1186.62
400.165	979.62
400.389	928.62
400.613	857.62
400.837	774.62
401.062	774.62
401.286	779.62
401.51	758.62
401.734	755.62
401.958	761.62
402.182	766.62
402.406	790.62
402.63	819.62
402.854	839.62
403.078	865.62
403.302	843.62
403.526	891.62
403.75	898.62
403.974	896.62
404.198	901.62
404.422	910.62
404.645	894.62
404.869	907.62
405.093	887.62
405.317	851.62
405.541	840.62
405.765	857.62
405.988	827.62
406.212	868.62
406.436	847.62
406.66	880.62
406.883	898.62
407.107	963.62
407.331	978.62
407.555	1022.62
407.778	1006.62
408.002	1004.62
408.226	937.62
408.449	925.62
408.673	879.62
408.896	876.62
409.12	890.62
409.344	898.62
409.567	902.62
409.791	908.62
410.014	909.62
410.238	905.62
410.461	891.62
410.685	891.62
410.908	888.62
411.132	840.62
411.355	816.62
411.578	804.62
411.802	808.62
412.025	821.62
412.249	832.62
412.472	810.62
412.695	795.62
412.919	786.62
413.142	796.62
413.365	774.62
413.589	770.62
413.812	766.62
414.035	752.62
414.258	770.62
414.482	789.62
414.705	800.62
414.928	799.62
415.151	798.62
415.374	785.62
415.597	780.62
415.821	775.62
416.044	754.62
416.267	734.62
416.49	766.62
416.713	731.62
416.936	774.62
417.159	761.62
417.382	778.62
417.605	751.62
417.828	758.62
418.051	764.62
418.274	762.62
418.497	787.62
418.72	803.62
418.943	788.62
419.166	825.62
419.389	914.62
419.611	900.62
419.834	844.62
420.057	816.62
420.28	767.62
420.503	770.62
420.726	796.62
420.948	776.62
421.171	759.62
421.394	755.62
421.617	741.62
421.839	772.62
422.062	774.62
422.285	779.62
422.507	773.62
422.73	785.62
422.953	780.62
423.175	798.62
423.398	792.62
423.621	807.62
423.843	833.62
424.066	832.62
424.288	807.62
424.511	786.62
424.733	795.62
424.956	803.62
425.178	793.62
425.401	784.62
425.623	778.62
425.846	740.62
426.068	768.62
426.291	738.62
426.513	732.62
426.735	725.62
426.958	743.62
427.18	730.62
427.402	723.62
427.625	712.62
427.847	694.62
428.069	691.62
428.292	704.62
428.514	687.62
428.736	698.62
428.958	688.62
429.181	681.62
429.403	698.62
429.625	664.62
429.847	684.62
430.069	673.62
430.292	663.62
430.514	668.62
430.736	682.62
430.958	680.62
431.18	687.62
431.402	667.62
431.624	658.62
431.846	697.62
432.068	679.62
432.29	711.62
432.512	702.62
432.734	707.62
432.956	686.62
433.178	695.62
433.4	699.62
433.622	709.62
433.844	707.62
434.066	702.62
434.287	709.62
434.509	706.62
434.731	768.62
434.953	790.62
435.175	810.62
435.397	798.62
435.618	728.62
435.84	756.62
436.062	722.62
436.284	723.62
436.505	709.62
436.727	703.62
436.949	707.62
437.17	718.62
437.392	686.62
437.614	663.62
437.835	681.62
438.057	662.62
438.278	656.62
438.5	678.62
438.721	697.62
438.943	681.62
439.165	663.62
439.386	677.62
439.608	699.62
439.829	698.62
440.05	707.62
440.272	735.62
440.493	691.62
440.715	702.62
440.936	740.62
441.158	726.62
441.379	728.62
441.6	804.62
441.822	803.62
442.043	786.62
442.264	780.62
442.486	738.62
442.707	788.62
442.928	768.62
443.149	760.62
443.371	764.62
443.592	779.62
443.813	792.62
444.034	787.62
444.255	824.62
444.476	854.62
444.698	890.62
444.919	917.62
445.14	1008.62
445.361	895.62
445.582	775.62
445.803	755.62
446.024	755.62
446.245	728.62
446.466	700.62
446.687	707.62
446.908	709.62
447.129	681.62
447.35	685.62
447.571	674.62
447.792	652.62
448.013	688.62
448.234	665.62
448.455	656.62
448.675	649.62
448.896	645.62
449.117	637.62
449.338	650.62
449.559	638.62
449.779	649.62
450	651.62
450.221	627.62
450.442	643.62
450.662	668.62
450.883	662.62
451.104	694.62
451.324	678.62
451.545	649.62
451.766	662.62
451.986	668.62
452.207	664.62
452.428	672.62
452.648	646.62
452.869	651.62
453.089	664.62
453.31	630.62
453.53	637.62
453.751	653.62
453.971	647.62
454.192	636.62
454.412	626.62
454.633	616.62
454.853	626.62
455.073	634.62
455.294	628.62
455.514	623.62
455.734	596.62
455.955	614.62
456.175	613.62
456.395	594.62
456.616	596.62
456.836	586.62
457.056	600.62
457.276	595.62
457.497	624.62
457.717	592.62
457.937	601.62
458.157	616.62
458.377	627.62
458.598	627.62
458.818	650.62
459.038	648.62
459.258	675.62
459.478	730.62
459.698	737.62
459.918	774.62
460.138	784.62
460.358	823.62
460.578	810.62
460.798	854.62
461.018	843.62
461.238	832.62
461.458	811.62
461.678	821.62
461.898	838.62
462.118	840.62
462.338	872.62
462.558	890.62
462.777	934.62
462.997	1008.62
463.217	1108.62
463.437	1133.62
463.657	1020.62
463.876	995.62
464.096	976.62
464.316	999.62
464.536	963.62
464.755	947.62
464.975	900.62
465.195	897.62
465.414	828.62
465.634	778.62
465.854	732.62
466.073	737.62
466.293	724.62
466.512	699.62
466.732	680.62
466.951	662.62
467.171	673.62
467.391	676.62
467.61	708.62
467.829	689.62
468.049	668.62
468.268	654.62
468.488	660.62
468.707	675.62
468.927	650.62
469.146	666.62
469.365	657.62
469.585	665.62
469.804	683.62
470.023	689.62
470.243	703.62
470.462	688.62
470.681	718.62
470.901	727.62
471.12	697.62
471.339	673.62
471.558	675.62
471.777	667.62
471.997	637.62
472.216	652.62
472.435	650.62
472.654	648.62
472.873	650.62
473.092	641.62
473.311	634.62
473.53	615.62
473.749	649.62
473.968	636.62
474.187	630.62
474.406	649.62
474.625	644.62
474.844	656.62
475.063	641.62
475.282	650.62
475.501	652.62
475.72	637.62
475.939	641.62
476.158	643.62
476.377	695.62
476.596	680.62
476.814	683.62
477.033	695.62
477.252	699.62
477.471	698.62
477.69	720.62
477.908	729.62
478.127	762.62
478.346	754.62
478.564	765.62
478.783	800.62
479.002	803.62
479.22	797.62
479.439	778.62
479.658	770.62
479.876	786.62
480.095	818.62
480.313	855.62
480.532	871.62
480.751	858.62
480.969	826.62
481.188	818.62
481.406	777.62
481.624	729.62
481.843	748.62
482.061	742.62
482.28	741.62
482.498	740.62
482.717	752.62
482.935	745.62
483.153	753.62
483.372	744.62
483.59	778.62
483.808	764.62
484.027	745.62
484.245	736.62
484.463	747.62
484.681	761.62
484.9	776.62
485.118	774.62
485.336	796.62
485.554	780.62
485.772	799.62
485.99	798.62
486.209	824.62
486.427	792.62
486.645	809.62
486.863	795.62
487.081	808.62
487.299	804.62
487.517	786.62
487.735	792.62
487.953	778.62
488.171	788.62
488.389	798.62
488.607	765.62
488.825	788.62
489.043	758.62
489.261	763.62
489.479	742.62
489.696	776.62
489.914	770.62
490.132	770.62
490.35	779.62
490.568	787.62
490.786	770.62
491.003	781.62
491.221	826.62
491.439	770.62
491.657	770.62
491.874	784.62
492.092	778.62
492.31	782.62
492.527	804.62
492.745	809.62
492.963	805.62
493.18	811.62
493.398	801.62
493.615	804.62
493.833	804.62
494.05	826.62
494.268	807.62
494.485	806.62
494.703	805.62
494.92	824.62
495.138	812.62
495.355	828.62
495.573	822.62
495.79	824.62
496.008	810.62
496.225	835.62
496.442	820.62
496.66	848.62
496.877	839.62
497.094	868.62
497.312	866.62
497.529	880.62
497.746	898.62
497.963	930.62
498.181	971.62
498.398	1010.62
498.615	1030.62
498.832	1118.62
499.049	1204.62
499.267	1288.62
499.484	1422.62
499.701	1582.62
499.918	1766.62
500.135	1951.62
500.352	2263.62
500.569	2430.62
500.786	2418.62
501.003	2176.62
501.22	1898.62
