Data from Ni(NO3)2@0.5M.TitratingCurve.Agarose3%dH2O.NegLispCup.LampEnergy10.LIBS07252019_HRD10591_17-58-51-566.txt Node
Date: Thu Jul 25 17:58:51 EDT 2019
User: cochatt
Spectrometer: HR+D1059
Trigger mode: 1
Integration Time (sec): 1.000000E-1
Scans to average: 1
Electric dark correction enabled: true
Nonlinearity correction enabled: false
Boxcar width: 0
XAxis mode: Wavelengths
Number of Pixels in Spectrum: 2048
>>>>>Begin Spectral Data<<<<<
223.165	-18.44
223.4	-18.44
223.635	-18.44
223.869	-3.44
224.104	-0.44
224.338	-8.44
224.573	-31.44
224.808	-20.44
225.042	-27.44
225.277	-2.44
225.511	0.56
225.746	-1.44
225.98	0.56
226.215	21.56
226.449	10.56
226.683	23.56
226.918	33.56
227.152	23.56
227.387	25.56
227.621	24.56
227.856	39.56
228.09	30.56
228.324	56.56
228.559	61.56
228.793	81.56
229.027	126.56
229.262	143.56
229.496	153.56
229.73	152.56
229.964	183.56
230.199	233.56
230.433	204.56
230.667	190.56
230.901	194.56
231.136	153.56
231.37	171.56
231.604	195.56
231.838	215.56
232.072	216.56
232.306	197.56
232.541	186.56
232.775	183.56
233.009	168.56
233.243	173.56
233.477	162.56
233.711	162.56
233.945	164.56
234.179	166.56
234.413	180.56
234.647	182.56
234.881	182.56
235.115	177.56
235.349	174.56
235.583	175.56
235.817	160.56
236.051	160.56
236.285	161.56
236.519	148.56
236.753	169.56
236.987	164.56
237.221	169.56
237.455	161.56
237.689	160.56
237.922	172.56
238.156	183.56
238.39	178.56
238.624	179.56
238.858	187.56
239.091	170.56
239.325	182.56
239.559	209.56
239.793	224.56
240.027	232.56
240.26	193.56
240.494	186.56
240.728	193.56
240.961	191.56
241.195	197.56
241.429	209.56
241.662	238.56
241.896	237.56
242.13	250.56
242.363	218.56
242.597	195.56
242.83	195.56
243.064	204.56
243.298	197.56
243.531	204.56
243.765	239.56
243.998	233.56
244.232	232.56
244.465	233.56
244.699	207.56
244.932	223.56
245.166	213.56
245.399	202.56
245.633	208.56
245.866	226.56
246.099	217.56
246.333	235.56
246.566	227.56
246.8	245.56
247.033	227.56
247.266	228.56
247.5	231.56
247.733	228.56
247.966	235.56
248.2	233.56
248.433	264.56
248.666	231.56
248.899	252.56
249.133	248.56
249.366	260.56
249.599	270.56
249.832	255.56
250.066	272.56
250.299	261.56
250.532	254.56
250.765	282.56
250.998	268.56
251.231	315.56
251.465	327.56
251.698	320.56
251.931	305.56
252.164	286.56
252.397	283.56
252.63	273.56
252.863	301.56
253.096	293.56
253.329	280.56
253.562	283.56
253.795	300.56
254.028	298.56
254.261	283.56
254.494	295.56
254.727	294.56
254.96	304.56
255.193	295.56
255.426	279.56
255.659	316.56
255.892	327.56
256.124	297.56
256.357	321.56
256.59	321.56
256.823	323.56
257.056	338.56
257.289	331.56
257.521	328.56
257.754	327.56
257.987	321.56
258.22	338.56
258.452	344.56
258.685	324.56
258.918	326.56
259.151	341.56
259.383	322.56
259.616	330.56
259.849	324.56
260.081	325.56
260.314	352.56
260.547	348.56
260.779	338.56
261.012	358.56
261.244	352.56
261.477	348.56
261.71	343.56
261.942	363.56
262.175	356.56
262.407	344.56
262.64	343.56
262.872	354.56
263.105	354.56
263.337	368.56
263.57	360.56
263.802	366.56
264.035	366.56
264.267	364.56
264.499	379.56
264.732	366.56
264.964	369.56
265.197	369.56
265.429	379.56
265.661	403.56
265.894	397.56
266.126	404.56
266.358	372.56
266.591	408.56
266.823	402.56
267.055	395.56
267.287	400.56
267.52	398.56
267.752	406.56
267.984	411.56
268.216	402.56
268.448	402.56
268.681	432.56
268.913	424.56
269.145	418.56
269.377	396.56
269.609	421.56
269.841	406.56
270.073	407.56
270.306	410.56
270.538	414.56
270.77	401.56
271.002	433.56
271.234	421.56
271.466	410.56
271.698	410.56
271.93	428.56
272.162	420.56
272.394	450.56
272.626	434.56
272.858	445.56
273.09	446.56
273.322	425.56
273.553	457.56
273.785	439.56
274.017	463.56
274.249	467.56
274.481	457.56
274.713	454.56
274.945	450.56
275.176	466.56
275.408	445.56
275.64	462.56
275.872	463.56
276.104	463.56
276.335	459.56
276.567	448.56
276.799	470.56
277.031	476.56
277.262	469.56
277.494	468.56
277.726	462.56
277.957	498.56
278.189	462.56
278.421	454.56
278.652	473.56
278.884	460.56
279.115	484.56
279.347	488.56
279.579	496.56
279.81	481.56
280.042	487.56
280.273	490.56
280.505	482.56
280.736	494.56
280.968	494.56
281.199	527.56
281.431	509.56
281.662	511.56
281.894	512.56
282.125	521.56
282.356	500.56
282.588	517.56
282.819	502.56
283.051	513.56
283.282	516.56
283.513	511.56
283.745	519.56
283.976	506.56
284.207	486.56
284.439	512.56
284.67	536.56
284.901	519.56
285.132	541.56
285.364	514.56
285.595	520.56
285.826	534.56
286.057	507.56
286.288	570.56
286.52	563.56
286.751	555.56
286.982	517.56
287.213	540.56
287.444	549.56
287.675	554.56
287.906	531.56
288.138	540.56
288.369	543.56
288.6	578.56
288.831	551.56
289.062	553.56
289.293	561.56
289.524	534.56
289.755	559.56
289.986	551.56
290.217	559.56
290.448	546.56
290.679	547.56
290.91	562.56
291.141	568.56
291.371	564.56
291.602	557.56
291.833	542.56
292.064	560.56
292.295	572.56
292.526	551.56
292.757	553.56
292.987	559.56
293.218	574.56
293.449	580.56
293.68	575.56
293.91	554.56
294.141	561.56
294.372	570.56
294.603	550.56
294.833	589.56
295.064	588.56
295.295	568.56
295.525	564.56
295.756	559.56
295.987	586.56
296.217	566.56
296.448	586.56
296.679	566.56
296.909	578.56
297.14	574.56
297.37	606.56
297.601	586.56
297.831	591.56
298.062	601.56
298.292	594.56
298.523	609.56
298.753	601.56
298.984	608.56
299.214	601.56
299.445	610.56
299.675	626.56
299.905	625.56
300.136	604.56
300.366	636.56
300.597	670.56
300.827	629.56
301.057	667.56
301.288	647.56
301.518	644.56
301.748	634.56
301.979	621.56
302.209	627.56
302.439	634.56
302.669	628.56
302.9	627.56
303.13	629.56
303.36	650.56
303.59	639.56
303.82	652.56
304.051	675.56
304.281	665.56
304.511	644.56
304.741	650.56
304.971	655.56
305.201	670.56
305.431	699.56
305.661	678.56
305.891	688.56
306.121	672.56
306.352	649.56
306.582	633.56
306.812	639.56
307.042	638.56
307.272	658.56
307.502	641.56
307.731	641.56
307.961	646.56
308.191	651.56
308.421	640.56
308.651	657.56
308.881	658.56
309.111	649.56
309.341	664.56
309.571	662.56
309.8	674.56
310.03	704.56
310.26	744.56
310.49	732.56
310.72	697.56
310.949	681.56
311.179	658.56
311.409	672.56
311.639	652.56
311.868	681.56
312.098	674.56
312.328	690.56
312.557	705.56
312.787	687.56
313.017	720.56
313.246	728.56
313.476	721.56
313.706	736.56
313.935	734.56
314.165	706.56
314.394	707.56
314.624	700.56
314.853	674.56
315.083	717.56
315.312	698.56
315.542	715.56
315.771	709.56
316.001	706.56
316.23	696.56
316.46	709.56
316.689	733.56
316.919	721.56
317.148	709.56
317.377	725.56
317.607	721.56
317.836	731.56
318.065	722.56
318.295	740.56
318.524	717.56
318.753	728.56
318.983	742.56
319.212	719.56
319.441	719.56
319.67	762.56
319.9	753.56
320.129	739.56
320.358	743.56
320.587	744.56
320.816	742.56
321.046	747.56
321.275	773.56
321.504	740.56
321.733	755.56
321.962	754.56
322.191	777.56
322.42	771.56
322.649	781.56
322.878	747.56
323.108	767.56
323.337	792.56
323.566	780.56
323.795	767.56
324.024	761.56
324.253	787.56
324.482	796.56
324.71	809.56
324.939	767.56
325.168	827.56
325.397	819.56
325.626	804.56
325.855	816.56
326.084	802.56
326.313	807.56
326.542	809.56
326.77	808.56
326.999	802.56
327.228	807.56
327.457	815.56
327.686	815.56
327.914	811.56
328.143	828.56
328.372	809.56
328.6	814.56
328.829	827.56
329.058	808.56
329.287	775.56
329.515	806.56
329.744	846.56
329.972	847.56
330.201	810.56
330.43	840.56
330.658	836.56
330.887	847.56
331.115	855.56
331.344	856.56
331.572	884.56
331.801	856.56
332.03	879.56
332.258	886.56
332.486	870.56
332.715	888.56
332.943	882.56
333.172	894.56
333.4	914.56
333.629	920.56
333.857	931.56
334.085	942.56
334.314	944.56
334.542	929.56
334.771	934.56
334.999	938.56
335.227	945.56
335.455	922.56
335.684	960.56
335.912	935.56
336.14	950.56
336.369	937.56
336.597	966.56
336.825	975.56
337.053	986.56
337.281	951.56
337.51	949.56
337.738	938.56
337.966	996.56
338.194	987.56
338.422	933.56
338.65	909.56
338.878	917.56
339.106	930.56
339.334	940.56
339.562	949.56
339.79	914.56
340.018	914.56
340.246	889.56
340.474	896.56
340.702	867.56
340.93	910.56
341.158	899.56
341.386	970.56
341.614	991.56
341.842	965.56
342.07	933.56
342.298	918.56
342.526	919.56
342.754	891.56
342.981	868.56
343.209	900.56
343.437	944.56
343.665	942.56
343.893	929.56
344.12	956.56
344.348	946.56
344.576	955.56
344.804	969.56
345.031	898.56
345.259	907.56
345.487	917.56
345.714	938.56
345.942	966.56
346.17	977.56
346.397	956.56
346.625	904.56
346.853	875.56
347.08	888.56
347.308	872.56
347.535	878.56
347.763	878.56
347.99	862.56
348.218	884.56
348.445	865.56
348.673	860.56
348.9	863.56
349.128	884.56
349.355	912.56
349.583	920.56
349.81	878.56
350.037	849.56
350.265	858.56
350.492	852.56
350.72	844.56
350.947	875.56
351.174	891.56
351.402	922.56
351.629	940.56
351.856	908.56
352.083	879.56
352.311	918.56
352.538	926.56
352.765	935.56
352.992	866.56
353.22	857.56
353.447	822.56
353.674	834.56
353.901	832.56
354.128	825.56
354.355	836.56
354.583	834.56
354.81	822.56
355.037	836.56
355.264	824.56
355.491	834.56
355.718	845.56
355.945	863.56
356.172	823.56
356.399	830.56
356.626	872.56
356.853	916.56
357.08	821.56
357.307	842.56
357.534	839.56
357.761	842.56
357.988	849.56
358.215	849.56
358.441	852.56
358.668	827.56
358.895	825.56
359.122	830.56
359.349	828.56
359.576	867.56
359.802	829.56
360.029	848.56
360.256	848.56
360.483	821.56
360.709	850.56
360.936	851.56
361.163	876.56
361.39	856.56
361.616	857.56
361.843	881.56
362.07	933.56
362.296	917.56
362.523	867.56
362.749	846.56
362.976	837.56
363.203	858.56
363.429	860.56
363.656	864.56
363.882	857.56
364.109	853.56
364.335	844.56
364.562	855.56
364.788	827.56
365.015	842.56
365.241	849.56
365.468	830.56
365.694	856.56
365.92	843.56
366.147	867.56
366.373	866.56
366.599	866.56
366.826	872.56
367.052	836.56
367.278	841.56
367.505	859.56
367.731	872.56
367.957	842.56
368.184	864.56
368.41	881.56
368.636	863.56
368.862	862.56
369.089	907.56
369.315	869.56
369.541	883.56
369.767	871.56
369.993	850.56
370.219	867.56
370.445	852.56
370.672	875.56
370.898	884.56
371.124	886.56
371.35	919.56
371.576	916.56
371.802	913.56
372.028	914.56
372.254	899.56
372.48	908.56
372.706	892.56
372.932	894.56
373.158	926.56
373.384	894.56
373.61	903.56
373.835	919.56
374.061	888.56
374.287	902.56
374.513	939.56
374.739	936.56
374.965	956.56
375.191	929.56
375.416	961.56
375.642	941.56
375.868	927.56
376.094	915.56
376.319	936.56
376.545	930.56
376.771	911.56
376.997	892.56
377.222	912.56
377.448	909.56
377.674	912.56
377.899	897.56
378.125	862.56
378.35	896.56
378.576	912.56
378.802	873.56
379.027	898.56
379.253	875.56
379.478	854.56
379.704	936.56
379.929	895.56
380.155	894.56
380.38	886.56
380.606	879.56
380.831	908.56
381.057	898.56
381.282	901.56
381.507	908.56
381.733	904.56
381.958	906.56
382.184	899.56
382.409	894.56
382.634	917.56
382.86	903.56
383.085	931.56
383.31	954.56
383.535	941.56
383.761	926.56
383.986	936.56
384.211	961.56
384.436	961.56
384.662	935.56
384.887	962.56
385.112	974.56
385.337	980.56
385.562	993.56
385.787	1019.56
386.013	990.56
386.238	1000.56
386.463	1030.56
386.688	1002.56
386.913	1025.56
387.138	981.56
387.363	988.56
387.588	999.56
387.813	984.56
388.038	1010.56
388.263	1016.56
388.488	1024.56
388.713	1021.56
388.938	993.56
389.163	1013.56
389.387	1052.56
389.612	1026.56
389.837	999.56
390.062	1009.56
390.287	1007.56
390.512	1021.56
390.736	1028.56
390.961	1038.56
391.186	1006.56
391.411	1032.56
391.636	1030.56
391.86	1046.56
392.085	1023.56
392.31	1040.56
392.534	1044.56
392.759	1058.56
392.984	1017.56
393.208	1044.56
393.433	1070.56
393.658	1048.56
393.882	1049.56
394.107	1062.56
394.331	1036.56
394.556	1045.56
394.78	1056.56
395.005	1059.56
395.229	1044.56
395.454	1081.56
395.678	1085.56
395.903	1058.56
396.127	1076.56
396.352	1048.56
396.576	1086.56
396.801	1059.56
397.025	1079.56
397.249	1101.56
397.474	1077.56
397.698	1122.56
397.922	1124.56
398.147	1138.56
398.371	1114.56
398.595	1158.56
398.82	1202.56
399.044	1180.56
399.268	1227.56
399.492	1302.56
399.717	1308.56
399.941	1342.56
400.165	1326.56
400.389	1313.56
400.613	1245.56
400.837	1229.56
401.062	1206.56
401.286	1184.56
401.51	1175.56
401.734	1187.56
401.958	1152.56
402.182	1180.56
402.406	1167.56
402.63	1186.56
402.854	1182.56
403.078	1198.56
403.302	1175.56
403.526	1205.56
403.75	1198.56
403.974	1174.56
404.198	1196.56
404.422	1219.56
404.645	1217.56
404.869	1203.56
405.093	1192.56
405.317	1218.56
405.541	1205.56
405.765	1203.56
405.988	1218.56
406.212	1233.56
406.436	1252.56
406.66	1279.56
406.883	1263.56
407.107	1338.56
407.331	1305.56
407.555	1328.56
407.778	1327.56
408.002	1337.56
408.226	1321.56
408.449	1346.56
408.673	1304.56
408.896	1296.56
409.12	1304.56
409.344	1271.56
409.567	1259.56
409.791	1275.56
410.014	1261.56
410.238	1233.56
410.461	1240.56
410.685	1254.56
410.908	1226.56
411.132	1240.56
411.355	1202.56
411.578	1231.56
411.802	1203.56
412.025	1206.56
412.249	1219.56
412.472	1240.56
412.695	1208.56
412.919	1185.56
413.142	1221.56
413.365	1231.56
413.589	1204.56
413.812	1186.56
414.035	1191.56
414.258	1147.56
414.482	1183.56
414.705	1196.56
414.928	1145.56
415.151	1187.56
415.374	1184.56
415.597	1121.56
415.821	1153.56
416.044	1153.56
416.267	1171.56
416.49	1154.56
416.713	1136.56
416.936	1160.56
417.159	1113.56
417.382	1115.56
417.605	1138.56
417.828	1120.56
418.051	1131.56
418.274	1159.56
418.497	1104.56
418.72	1125.56
418.943	1124.56
419.166	1189.56
419.389	1244.56
419.611	1224.56
419.834	1211.56
420.057	1162.56
420.28	1142.56
420.503	1096.56
420.726	1099.56
420.948	1109.56
421.171	1138.56
421.394	1099.56
421.617	1109.56
421.839	1154.56
422.062	1144.56
422.285	1099.56
422.507	1128.56
422.73	1123.56
422.953	1126.56
423.175	1139.56
423.398	1146.56
423.621	1127.56
423.843	1136.56
424.066	1143.56
424.288	1105.56
424.511	1140.56
424.733	1118.56
424.956	1126.56
425.178	1111.56
425.401	1130.56
425.623	1131.56
425.846	1122.56
426.068	1155.56
426.291	1084.56
426.513	1126.56
426.735	1127.56
426.958	1095.56
427.18	1093.56
427.402	1127.56
427.625	1128.56
427.847	1091.56
428.069	1120.56
428.292	1082.56
428.514	1056.56
428.736	1090.56
428.958	1112.56
429.181	1096.56
429.403	1107.56
429.625	1066.56
429.847	1078.56
430.069	1066.56
430.292	1078.56
430.514	1080.56
430.736	1098.56
430.958	1094.56
431.18	1095.56
431.402	1075.56
431.624	1094.56
431.846	1073.56
432.068	1086.56
432.29	1104.56
432.512	1100.56
432.734	1131.56
432.956	1102.56
433.178	1143.56
433.4	1156.56
433.622	1166.56
433.844	1122.56
434.066	1168.56
434.287	1154.56
434.509	1159.56
434.731	1158.56
434.953	1153.56
435.175	1188.56
435.397	1159.56
435.618	1124.56
435.84	1151.56
436.062	1106.56
436.284	1131.56
436.505	1107.56
436.727	1119.56
436.949	1108.56
437.17	1140.56
437.392	1140.56
437.614	1097.56
437.835	1065.56
438.057	1073.56
438.278	1081.56
438.5	1070.56
438.721	1063.56
438.943	1060.56
439.165	1067.56
439.386	1089.56
439.608	1081.56
439.829	1082.56
440.05	1051.56
440.272	1110.56
440.493	1079.56
440.715	1130.56
440.936	1096.56
441.158	1120.56
441.379	1125.56
441.6	1160.56
441.822	1159.56
442.043	1129.56
442.264	1146.56
442.486	1123.56
442.707	1129.56
442.928	1164.56
443.149	1152.56
443.371	1208.56
443.592	1255.56
443.813	1205.56
444.034	1150.56
444.255	1156.56
444.476	1186.56
444.698	1227.56
444.919	1266.56
445.14	1346.56
445.361	1254.56
445.582	1192.56
445.803	1143.56
446.024	1118.56
446.245	1123.56
446.466	1114.56
446.687	1088.56
446.908	1074.56
447.129	1054.56
447.35	1044.56
447.571	1050.56
447.792	1052.56
448.013	1062.56
448.234	1000.56
448.455	1030.56
448.675	1040.56
448.896	1030.56
449.117	1030.56
449.338	1010.56
449.559	1034.56
449.779	1003.56
450	996.56
450.221	987.56
450.442	982.56
450.662	1027.56
450.883	1035.56
451.104	1013.56
451.324	998.56
451.545	995.56
451.766	975.56
451.986	975.56
452.207	1007.56
452.428	984.56
452.648	982.56
452.869	961.56
453.089	970.56
453.31	1005.56
453.53	991.56
453.751	958.56
453.971	966.56
454.192	1046.56
454.412	1043.56
454.633	993.56
454.853	942.56
455.073	969.56
455.294	968.56
455.514	1008.56
455.734	1015.56
455.955	1045.56
456.175	1017.56
456.395	940.56
456.616	980.56
456.836	984.56
457.056	969.56
457.276	971.56
457.497	1006.56
457.717	1018.56
457.937	1011.56
458.157	999.56
458.377	1007.56
458.598	1013.56
458.818	1022.56
459.038	1037.56
459.258	1079.56
459.478	1143.56
459.698	1251.56
459.918	1242.56
460.138	1184.56
460.358	1214.56
460.578	1191.56
460.798	1262.56
461.018	1232.56
461.238	1187.56
461.458	1167.56
461.678	1148.56
461.898	1214.56
462.118	1188.56
462.338	1230.56
462.558	1257.56
462.777	1282.56
462.997	1332.56
463.217	1353.56
463.437	1427.56
463.657	1369.56
463.876	1302.56
464.096	1292.56
464.316	1260.56
464.536	1271.56
464.755	1270.56
464.975	1227.56
465.195	1162.56
465.414	1146.56
465.634	1116.56
465.854	1110.56
466.073	1130.56
466.293	1096.56
466.512	1082.56
466.732	1084.56
466.951	1064.56
467.171	1090.56
467.391	1098.56
467.61	1077.56
467.829	1090.56
468.049	1040.56
468.268	1042.56
468.488	1023.56
468.707	1034.56
468.927	1046.56
469.146	1062.56
469.365	1100.56
469.585	1062.56
469.804	1080.56
470.023	1074.56
470.243	1055.56
470.462	1087.56
470.681	1055.56
470.901	1037.56
471.12	1054.56
471.339	1073.56
471.558	1080.56
471.777	1082.56
471.997	1067.56
472.216	1048.56
472.435	1054.56
472.654	1036.56
472.873	1030.56
473.092	1016.56
473.311	1052.56
473.53	1027.56
473.749	1027.56
473.968	1053.56
474.187	1018.56
474.406	1040.56
474.625	1055.56
474.844	1048.56
475.063	1083.56
475.282	1120.56
475.501	1078.56
475.72	1080.56
475.939	1065.56
476.158	1097.56
476.377	1082.56
476.596	1107.56
476.814	1121.56
477.033	1106.56
477.252	1142.56
477.471	1119.56
477.69	1147.56
477.908	1162.56
478.127	1160.56
478.346	1184.56
478.564	1200.56
478.783	1219.56
479.002	1256.56
479.22	1314.56
479.439	1270.56
479.658	1236.56
479.876	1230.56
480.095	1235.56
480.313	1285.56
480.532	1297.56
480.751	1266.56
480.969	1235.56
481.188	1254.56
481.406	1239.56
481.624	1227.56
481.843	1231.56
482.061	1255.56
482.28	1235.56
482.498	1190.56
482.717	1223.56
482.935	1267.56
483.153	1283.56
483.372	1302.56
483.59	1320.56
483.808	1291.56
484.027	1276.56
484.245	1252.56
484.463	1273.56
484.681	1265.56
484.9	1323.56
485.118	1262.56
485.336	1283.56
485.554	1262.56
485.772	1296.56
485.99	1259.56
486.209	1262.56
486.427	1260.56
486.645	1300.56
486.863	1295.56
487.081	1280.56
487.299	1274.56
487.517	1259.56
487.735	1312.56
487.953	1312.56
488.171	1293.56
488.389	1289.56
488.607	1276.56
488.825	1265.56
489.043	1258.56
489.261	1266.56
489.479	1249.56
489.696	1234.56
489.914	1273.56
490.132	1255.56
490.35	1316.56
490.568	1282.56
490.786	1306.56
491.003	1271.56
491.221	1346.56
491.439	1304.56
491.657	1302.56
491.874	1299.56
492.092	1353.56
492.31	1323.56
492.527	1292.56
492.745	1319.56
492.963	1326.56
493.18	1318.56
493.398	1336.56
493.615	1316.56
493.833	1359.56
494.05	1336.56
494.268	1334.56
494.485	1322.56
494.703	1354.56
494.92	1328.56
495.138	1360.56
495.355	1337.56
