Data from Ni(NO3)2@0.0625M.TitratingCurve.Agarose3%dH2O.NegLispCup.LampEnergy10.LIBS07252019_HRD10591_18-13-35-568.txt Node
Date: Thu Jul 25 18:13:35 EDT 2019
User: cochatt
Spectrometer: HR+D1059
Trigger mode: 1
Integration Time (sec): 1.000000E-1
Scans to average: 1
Electric dark correction enabled: true
Nonlinearity correction enabled: false
Boxcar width: 0
XAxis mode: Wavelengths
Number of Pixels in Spectrum: 2048
>>>>>Begin Spectral Data<<<<<
223.165	-13.81
223.4	-13.81
223.635	-13.81
223.869	-22.81
224.104	-26.81
224.338	-13.81
224.573	-10.81
224.808	-7.81
225.042	-2.81
225.277	-20.81
225.511	-12.81
225.746	7.19
225.98	12.19
226.215	12.19
226.449	21.19
226.683	13.19
226.918	33.19
227.152	33.19
227.387	22.19
227.621	31.19
227.856	45.19
228.09	25.19
228.324	49.19
228.559	59.19
228.793	76.19
229.027	107.19
229.262	119.19
229.496	127.19
229.73	110.19
229.964	137.19
230.199	138.19
230.433	150.19
230.667	141.19
230.901	143.19
231.136	153.19
231.37	147.19
231.604	161.19
231.838	149.19
232.072	149.19
232.306	146.19
232.541	162.19
232.775	146.19
233.009	154.19
233.243	153.19
233.477	155.19
233.711	166.19
233.945	153.19
234.179	150.19
234.413	165.19
234.647	159.19
234.881	169.19
235.115	153.19
235.349	153.19
235.583	150.19
235.817	158.19
236.051	155.19
236.285	162.19
236.519	164.19
236.753	176.19
236.987	170.19
237.221	169.19
237.455	170.19
237.689	169.19
237.922	166.19
238.156	175.19
238.39	177.19
238.624	170.19
238.858	184.19
239.091	167.19
239.325	185.19
239.559	177.19
239.793	190.19
240.027	187.19
240.26	173.19
240.494	187.19
240.728	192.19
240.961	198.19
241.195	202.19
241.429	196.19
241.662	201.19
241.896	206.19
242.13	195.19
242.363	211.19
242.597	198.19
242.83	216.19
243.064	213.19
243.298	213.19
243.531	232.19
243.765	204.19
243.998	217.19
244.232	221.19
244.465	223.19
244.699	226.19
244.932	220.19
245.166	214.19
245.399	213.19
245.633	209.19
245.866	226.19
246.099	233.19
246.333	238.19
246.566	229.19
246.8	246.19
247.033	245.19
247.266	261.19
247.5	236.19
247.733	248.19
247.966	246.19
248.2	261.19
248.433	263.19
248.666	269.19
248.899	260.19
249.133	260.19
249.366	276.19
249.599	267.19
249.832	259.19
250.066	277.19
250.299	263.19
250.532	283.19
250.765	280.19
250.998	267.19
251.231	282.19
251.465	289.19
251.698	275.19
251.931	273.19
252.164	284.19
252.397	292.19
252.63	291.19
252.863	298.19
253.096	296.19
253.329	309.19
253.562	290.19
253.795	307.19
254.028	303.19
254.261	289.19
254.494	295.19
254.727	288.19
254.96	310.19
255.193	309.19
255.426	295.19
255.659	297.19
255.892	307.19
256.124	317.19
256.357	302.19
256.59	309.19
256.823	309.19
257.056	306.19
257.289	315.19
257.521	314.19
257.754	330.19
257.987	311.19
258.22	332.19
258.452	331.19
258.685	348.19
258.918	336.19
259.151	324.19
259.383	317.19
259.616	318.19
259.849	356.19
260.081	340.19
260.314	345.19
260.547	355.19
260.779	376.19
261.012	343.19
261.244	344.19
261.477	355.19
261.71	356.19
261.942	337.19
262.175	325.19
262.407	353.19
262.64	349.19
262.872	355.19
263.105	360.19
263.337	388.19
263.57	356.19
263.802	362.19
264.035	370.19
264.267	370.19
264.499	375.19
264.732	359.19
264.964	360.19
265.197	372.19
265.429	371.19
265.661	364.19
265.894	381.19
266.126	383.19
266.358	383.19
266.591	386.19
266.823	387.19
267.055	378.19
267.287	397.19
267.52	383.19
267.752	397.19
267.984	390.19
268.216	394.19
268.448	402.19
268.681	402.19
268.913	399.19
269.145	393.19
269.377	425.19
269.609	405.19
269.841	407.19
270.073	413.19
270.306	395.19
270.538	411.19
270.77	417.19
271.002	405.19
271.234	414.19
271.466	429.19
271.698	409.19
271.93	403.19
272.162	440.19
272.394	431.19
272.626	419.19
272.858	430.19
273.09	420.19
273.322	411.19
273.553	430.19
273.785	451.19
274.017	439.19
274.249	448.19
274.481	436.19
274.713	428.19
274.945	437.19
275.176	441.19
275.408	443.19
275.64	467.19
275.872	462.19
276.104	455.19
276.335	448.19
276.567	448.19
276.799	457.19
277.031	470.19
277.262	447.19
277.494	466.19
277.726	453.19
277.957	462.19
278.189	464.19
278.421	466.19
278.652	469.19
278.884	498.19
279.115	446.19
279.347	482.19
279.579	486.19
279.81	476.19
280.042	498.19
280.273	478.19
280.505	483.19
280.736	494.19
280.968	501.19
281.199	494.19
281.431	505.19
281.662	513.19
281.894	490.19
282.125	487.19
282.356	512.19
282.588	504.19
282.819	503.19
283.051	510.19
283.282	521.19
283.513	513.19
283.745	505.19
283.976	534.19
284.207	530.19
284.439	499.19
284.67	527.19
284.901	527.19
285.132	538.19
285.364	528.19
285.595	513.19
285.826	528.19
286.057	528.19
286.288	513.19
286.52	548.19
286.751	530.19
286.982	557.19
287.213	563.19
287.444	535.19
287.675	542.19
287.906	541.19
288.138	543.19
288.369	547.19
288.6	561.19
288.831	586.19
289.062	578.19
289.293	552.19
289.524	559.19
289.755	573.19
289.986	550.19
290.217	571.19
290.448	557.19
290.679	547.19
290.91	590.19
291.141	561.19
291.371	581.19
291.602	580.19
291.833	545.19
292.064	562.19
292.295	573.19
292.526	563.19
292.757	570.19
292.987	554.19
293.218	538.19
293.449	561.19
293.68	582.19
293.91	561.19
294.141	571.19
294.372	542.19
294.603	565.19
294.833	601.19
295.064	575.19
295.295	584.19
295.525	579.19
295.756	595.19
295.987	591.19
296.217	589.19
296.448	601.19
296.679	586.19
296.909	601.19
297.14	593.19
297.37	597.19
297.601	627.19
297.831	615.19
298.062	619.19
298.292	629.19
298.523	653.19
298.753	643.19
298.984	621.19
299.214	636.19
299.445	619.19
299.675	615.19
299.905	620.19
300.136	595.19
300.366	625.19
300.597	608.19
300.827	669.19
301.057	639.19
301.288	661.19
301.518	645.19
301.748	658.19
301.979	629.19
302.209	673.19
302.439	666.19
302.669	667.19
302.9	653.19
303.13	637.19
303.36	646.19
303.59	634.19
303.82	645.19
304.051	654.19
304.281	621.19
304.511	637.19
304.741	634.19
304.971	620.19
305.201	631.19
305.431	620.19
305.661	622.19
305.891	646.19
306.121	647.19
306.352	629.19
306.582	623.19
306.812	607.19
307.042	629.19
307.272	649.19
307.502	629.19
307.731	597.19
307.961	634.19
308.191	635.19
308.421	609.19
308.651	622.19
308.881	638.19
309.111	635.19
309.341	607.19
309.571	630.19
309.8	654.19
310.03	637.19
310.26	652.19
310.49	622.19
310.72	626.19
310.949	653.19
311.179	639.19
311.409	645.19
311.639	641.19
311.868	658.19
312.098	649.19
312.328	641.19
312.557	666.19
312.787	629.19
313.017	665.19
313.246	706.19
313.476	663.19
313.706	664.19
313.935	674.19
314.165	708.19
314.394	689.19
314.624	682.19
314.853	666.19
315.083	683.19
315.312	700.19
315.542	663.19
315.771	680.19
316.001	665.19
316.23	676.19
316.46	657.19
316.689	660.19
316.919	636.19
317.148	666.19
317.377	680.19
317.607	658.19
317.836	652.19
318.065	659.19
318.295	672.19
318.524	643.19
318.753	668.19
318.983	662.19
319.212	664.19
319.441	669.19
319.67	658.19
319.9	660.19
320.129	663.19
320.358	659.19
320.587	650.19
320.816	659.19
321.046	664.19
321.275	669.19
321.504	680.19
321.733	664.19
321.962	700.19
322.191	671.19
322.42	663.19
322.649	675.19
322.878	647.19
323.108	682.19
323.337	679.19
323.566	683.19
323.795	696.19
324.024	705.19
324.253	681.19
324.482	665.19
324.71	684.19
324.939	680.19
325.168	681.19
325.397	695.19
325.626	711.19
325.855	695.19
326.084	713.19
326.313	689.19
326.542	706.19
326.77	745.19
326.999	733.19
327.228	709.19
327.457	730.19
327.686	707.19
327.914	736.19
328.143	725.19
328.372	730.19
328.6	743.19
328.829	727.19
329.058	734.19
329.287	744.19
329.515	732.19
329.744	748.19
329.972	751.19
330.201	756.19
330.43	727.19
330.658	755.19
330.887	744.19
331.115	757.19
331.344	777.19
331.572	764.19
331.801	771.19
332.03	799.19
332.258	838.19
332.486	846.19
332.715	894.19
332.943	905.19
333.172	941.19
333.4	970.19
333.629	1009.19
333.857	998.19
334.085	973.19
334.314	949.19
334.542	909.19
334.771	959.19
334.999	903.19
335.227	938.19
335.455	915.19
335.684	893.19
335.912	929.19
336.14	915.19
336.369	881.19
336.597	894.19
336.825	888.19
337.053	897.19
337.281	870.19
337.51	856.19
337.738	847.19
337.966	784.19
338.194	810.19
338.422	789.19
338.65	772.19
338.878	790.19
339.106	792.19
339.334	792.19
339.562	776.19
339.79	775.19
340.018	757.19
340.246	766.19
340.474	767.19
340.702	743.19
340.93	775.19
341.158	795.19
341.386	772.19
341.614	757.19
341.842	758.19
342.07	751.19
342.298	740.19
342.526	756.19
342.754	766.19
342.981	754.19
343.209	800.19
343.437	805.19
343.665	839.19
343.893	951.19
344.12	963.19
344.348	898.19
344.576	847.19
344.804	802.19
345.031	787.19
345.259	791.19
345.487	765.19
345.714	794.19
345.942	734.19
346.17	731.19
346.397	757.19
346.625	748.19
346.853	721.19
347.08	730.19
347.308	779.19
347.535	776.19
347.763	760.19
347.99	766.19
348.218	786.19
348.445	757.19
348.673	741.19
348.9	761.19
349.128	745.19
349.355	709.19
349.583	749.19
349.81	715.19
350.037	724.19
350.265	708.19
350.492	712.19
350.72	705.19
350.947	715.19
351.174	723.19
351.402	733.19
351.629	715.19
351.856	725.19
352.083	738.19
352.311	710.19
352.538	688.19
352.765	714.19
352.992	696.19
353.22	710.19
353.447	706.19
353.674	669.19
353.901	723.19
354.128	708.19
354.355	707.19
354.583	700.19
354.81	728.19
355.037	722.19
355.264	707.19
355.491	718.19
355.718	717.19
355.945	714.19
356.172	737.19
356.399	738.19
356.626	708.19
356.853	715.19
357.08	704.19
357.307	725.19
357.534	702.19
357.761	696.19
357.988	691.19
358.215	707.19
358.441	689.19
358.668	714.19
358.895	711.19
359.122	721.19
359.349	717.19
359.576	715.19
359.802	734.19
360.029	725.19
360.256	729.19
360.483	705.19
360.709	715.19
360.936	698.19
361.163	701.19
361.39	716.19
361.616	705.19
361.843	723.19
362.07	708.19
362.296	700.19
362.523	700.19
362.749	719.19
362.976	711.19
363.203	716.19
363.429	700.19
363.656	699.19
363.882	719.19
364.109	709.19
364.335	717.19
364.562	706.19
364.788	706.19
365.015	721.19
365.241	728.19
365.468	719.19
365.694	709.19
365.92	677.19
366.147	714.19
366.373	727.19
366.599	713.19
366.826	726.19
367.052	707.19
367.278	736.19
367.505	717.19
367.731	718.19
367.957	726.19
368.184	724.19
368.41	738.19
368.636	699.19
368.862	727.19
369.089	759.19
369.315	733.19
369.541	750.19
369.767	755.19
369.993	730.19
370.219	749.19
370.445	753.19
370.672	779.19
370.898	749.19
371.124	778.19
371.35	795.19
371.576	782.19
371.802	786.19
372.028	787.19
372.254	785.19
372.48	783.19
372.706	823.19
372.932	827.19
373.158	800.19
373.384	802.19
373.61	779.19
373.835	796.19
374.061	810.19
374.287	794.19
374.513	793.19
374.739	817.19
374.965	872.19
375.191	897.19
375.416	883.19
375.642	824.19
375.868	809.19
376.094	810.19
376.319	792.19
376.545	786.19
376.771	792.19
376.997	783.19
377.222	793.19
377.448	757.19
377.674	788.19
377.899	757.19
378.125	741.19
378.35	774.19
378.576	772.19
378.802	741.19
379.027	787.19
379.253	742.19
379.478	770.19
379.704	790.19
379.929	757.19
380.155	775.19
380.38	789.19
380.606	767.19
380.831	790.19
381.057	777.19
381.282	757.19
381.507	772.19
381.733	791.19
381.958	777.19
382.184	789.19
382.409	790.19
382.634	829.19
382.86	814.19
383.085	842.19
383.31	842.19
383.535	851.19
383.761	871.19
383.986	889.19
384.211	903.19
384.436	920.19
384.662	948.19
384.887	965.19
385.112	928.19
385.337	940.19
385.562	942.19
385.787	945.19
386.013	974.19
386.238	950.19
386.463	973.19
386.688	957.19
386.913	921.19
387.138	923.19
387.363	921.19
387.588	894.19
387.813	893.19
388.038	885.19
388.263	940.19
388.488	939.19
388.713	909.19
388.938	898.19
389.163	881.19
389.387	918.19
389.612	911.19
389.837	913.19
390.062	900.19
390.287	879.19
390.512	886.19
390.736	928.19
390.961	924.19
391.186	926.19
391.411	983.19
391.636	1014.19
391.86	1017.19
392.085	1071.19
392.31	1077.19
392.534	1010.19
392.759	974.19
392.984	981.19
393.208	997.19
393.433	966.19
393.658	990.19
393.882	974.19
394.107	1005.19
394.331	1031.19
394.556	994.19
394.78	979.19
395.005	1005.19
395.229	995.19
395.454	1030.19
395.678	1045.19
395.903	1043.19
396.127	1014.19
396.352	995.19
396.576	995.19
396.801	958.19
397.025	1007.19
397.249	1030.19
397.474	1029.19
397.698	1040.19
397.922	1043.19
398.147	999.19
398.371	1022.19
398.595	1105.19
398.82	1109.19
399.044	1256.19
399.268	1351.19
399.492	1633.19
399.717	1843.19
399.941	1832.19
400.165	1606.19
400.389	1416.19
400.613	1293.19
400.837	1219.19
401.062	1194.19
401.286	1179.19
401.51	1146.19
401.734	1183.19
401.958	1164.19
402.182	1190.19
402.406	1227.19
402.63	1235.19
402.854	1258.19
403.078	1272.19
403.302	1299.19
403.526	1342.19
403.75	1360.19
403.974	1416.19
404.198	1385.19
404.422	1417.19
404.645	1370.19
404.869	1350.19
405.093	1347.19
405.317	1325.19
405.541	1293.19
405.765	1273.19
405.988	1291.19
406.212	1297.19
406.436	1286.19
406.66	1303.19
406.883	1301.19
407.107	1431.19
407.331	1485.19
407.555	1544.19
407.778	1519.19
408.002	1533.19
408.226	1443.19
408.449	1447.19
408.673	1364.19
408.896	1306.19
409.12	1342.19
409.344	1355.19
409.567	1334.19
409.791	1370.19
410.014	1341.19
410.238	1332.19
410.461	1334.19
410.685	1292.19
410.908	1293.19
411.132	1253.19
411.355	1212.19
411.578	1242.19
411.802	1239.19
412.025	1237.19
412.249	1251.19
412.472	1244.19
412.695	1176.19
412.919	1145.19
413.142	1159.19
413.365	1159.19
413.589	1165.19
413.812	1177.19
414.035	1166.19
414.258	1158.19
414.482	1182.19
414.705	1204.19
414.928	1187.19
415.151	1175.19
415.374	1186.19
415.597	1193.19
415.821	1162.19
416.044	1149.19
416.267	1094.19
416.49	1137.19
416.713	1123.19
416.936	1129.19
417.159	1171.19
417.382	1140.19
417.605	1148.19
417.828	1170.19
418.051	1165.19
418.274	1175.19
418.497	1150.19
418.72	1193.19
418.943	1150.19
419.166	1266.19
419.389	1314.19
419.611	1326.19
419.834	1269.19
420.057	1228.19
420.28	1183.19
420.503	1137.19
420.726	1128.19
420.948	1123.19
421.171	1134.19
421.394	1139.19
421.617	1141.19
421.839	1143.19
422.062	1183.19
422.285	1134.19
422.507	1208.19
422.73	1209.19
422.953	1187.19
423.175	1213.19
423.398	1285.19
423.621	1244.19
423.843	1262.19
424.066	1249.19
424.288	1276.19
424.511	1226.19
424.733	1231.19
424.956	1178.19
425.178	1205.19
425.401	1161.19
425.623	1157.19
425.846	1140.19
426.068	1129.19
426.291	1093.19
426.513	1113.19
426.735	1078.19
426.958	1083.19
427.18	1036.19
427.402	1070.19
427.625	1073.19
427.847	1019.19
428.069	1018.19
428.292	1043.19
428.514	1029.19
428.736	1030.19
428.958	1024.19
429.181	997.19
429.403	1002.19
429.625	999.19
429.847	997.19
430.069	986.19
430.292	1001.19
430.514	974.19
430.736	1019.19
430.958	1010.19
431.18	1005.19
431.402	1027.19
431.624	1000.19
431.846	1037.19
432.068	1036.19
432.29	1049.19
432.512	1019.19
432.734	1038.19
432.956	1003.19
433.178	1016.19
433.4	1048.19
433.622	1037.19
433.844	1019.19
434.066	1073.19
434.287	1047.19
434.509	1073.19
434.731	1134.19
434.953	1209.19
435.175	1205.19
435.397	1182.19
435.618	1108.19
435.84	1084.19
436.062	1089.19
436.284	1033.19
436.505	1018.19
436.727	1020.19
436.949	1028.19
437.17	1028.19
437.392	1027.19
437.614	1010.19
437.835	961.19
438.057	1006.19
438.278	988.19
438.5	957.19
438.721	1012.19
438.943	1026.19
439.165	1006.19
439.386	1004.19
439.608	1039.19
439.829	1063.19
440.05	1031.19
440.272	1038.19
440.493	1003.19
440.715	1038.19
440.936	1048.19
441.158	1113.19
441.379	1123.19
441.6	1151.19
441.822	1186.19
442.043	1163.19
442.264	1142.19
442.486	1147.19
442.707	1147.19
442.928	1156.19
443.149	1179.19
443.371	1116.19
443.592	1150.19
443.813	1208.19
444.034	1191.19
444.255	1221.19
444.476	1281.19
444.698	1386.19
444.919	1407.19
445.14	1490.19
445.361	1323.19
445.582	1213.19
445.803	1147.19
446.024	1067.19
446.245	1067.19
446.466	1059.19
446.687	1029.19
446.908	1037.19
447.129	1010.19
447.35	1004.19
447.571	1000.19
447.792	973.19
448.013	935.19
448.234	954.19
448.455	962.19
448.675	981.19
448.896	945.19
449.117	939.19
449.338	963.19
449.559	922.19
449.779	933.19
450	919.19
450.221	963.19
450.442	941.19
450.662	948.19
450.883	979.19
451.104	1009.19
451.324	969.19
451.545	949.19
451.766	956.19
451.986	959.19
452.207	961.19
452.428	937.19
452.648	939.19
452.869	934.19
453.089	967.19
453.31	953.19
453.53	940.19
453.751	942.19
453.971	957.19
454.192	926.19
454.412	927.19
454.633	901.19
454.853	896.19
455.073	889.19
455.294	868.19
455.514	864.19
455.734	921.19
455.955	871.19
456.175	883.19
456.395	893.19
456.616	897.19
456.836	893.19
457.056	890.19
457.276	892.19
457.497	894.19
457.717	864.19
457.937	871.19
458.157	910.19
458.377	926.19
458.598	947.19
458.818	968.19
459.038	959.19
459.258	983.19
459.478	1069.19
459.698	1064.19
459.918	1092.19
460.138	1141.19
460.358	1185.19
460.578	1231.19
460.798	1244.19
461.018	1276.19
461.238	1231.19
461.458	1224.19
461.678	1199.19
461.898	1237.19
462.118	1241.19
462.338	1299.19
462.558	1358.19
462.777	1390.19
462.997	1525.19
463.217	1693.19
463.437	1729.19
463.657	1556.19
463.876	1466.19
464.096	1458.19
464.316	1452.19
464.536	1470.19
464.755	1387.19
464.975	1353.19
465.195	1267.19
465.414	1203.19
465.634	1130.19
465.854	1096.19
466.073	1066.19
466.293	1053.19
466.512	1021.19
466.732	983.19
466.951	991.19
467.171	987.19
467.391	1026.19
467.61	984.19
467.829	956.19
468.049	976.19
468.268	960.19
468.488	957.19
468.707	954.19
468.927	939.19
469.146	926.19
469.365	957.19
469.585	969.19
469.804	966.19
470.023	991.19
470.243	1039.19
470.462	1025.19
470.681	1043.19
470.901	1029.19
471.12	1029.19
471.339	1001.19
471.558	973.19
471.777	985.19
471.997	971.19
472.216	978.19
472.435	938.19
472.654	949.19
472.873	925.19
473.092	944.19
473.311	911.19
473.53	890.19
473.749	893.19
473.968	920.19
474.187	898.19
474.406	921.19
474.625	912.19
474.844	901.19
475.063	937.19
475.282	917.19
475.501	922.19
475.72	922.19
475.939	945.19
476.158	936.19
476.377	952.19
476.596	973.19
476.814	959.19
477.033	1004.19
477.252	1015.19
477.471	1012.19
477.69	1056.19
477.908	1079.19
478.127	1081.19
478.346	1128.19
478.564	1143.19
478.783	1143.19
479.002	1180.19
479.22	1169.19
479.439	1179.19
479.658	1141.19
479.876	1150.19
480.095	1165.19
480.313	1212.19
480.532	1287.19
480.751	1265.19
480.969	1212.19
481.188	1151.19
481.406	1108.19
481.624	1077.19
481.843	1074.19
482.061	1038.19
482.28	1097.19
482.498	1077.19
482.717	1052.19
482.935	1039.19
483.153	1048.19
483.372	1057.19
483.59	1042.19
483.808	1028.19
484.027	1050.19
484.245	1077.19
484.463	1049.19
484.681	1049.19
484.9	1099.19
485.118	1096.19
485.336	1091.19
485.554	1112.19
485.772	1107.19
485.99	1114.19
486.209	1116.19
486.427	1100.19
486.645	1119.19
486.863	1099.19
487.081	1097.19
487.299	1103.19
487.517	1125.19
487.735	1106.19
487.953	1104.19
488.171	1114.19
488.389	1111.19
488.607	1097.19
488.825	1082.19
489.043	1086.19
489.261	1090.19
489.479	1077.19
489.696	1065.19
489.914	1104.19
490.132	1128.19
490.35	1116.19
490.568	1096.19
490.786	1113.19
491.003	1078.19
491.221	1066.19
491.439	1111.19
491.657	1097.19
491.874	1085.19
492.092	1120.19
492.31	1091.19
492.527	1078.19
492.745	1132.19
492.963	1139.19
493.18	1145.19
493.398	1127.19
493.615	1145.19
493.833	1141.19
494.05	1144.19
494.268	1167.19
494.485	1178.19
494.703	1180.19
494.92	1170.19
495.138	1147.19
495.355	1176.19
495.573	1208.19
495.79	1155.19
496.008	1185.19
496.225	1182.19
496.442	1189.19
496.66	1231.19
