Data from Ni(NO3)2@0.0625M.TitratingCurve.Agarose3%dH2O.NegLispCup.LampEnergy10.LIBS07252019_HRD10591_18-14-20-569.txt Node
Date: Thu Jul 25 18:14:20 EDT 2019
User: cochatt
Spectrometer: HR+D1059
Trigger mode: 1
Integration Time (sec): 1.000000E-1
Scans to average: 1
Electric dark correction enabled: true
Nonlinearity correction enabled: false
Boxcar width: 0
XAxis mode: Wavelengths
Number of Pixels in Spectrum: 2048
>>>>>Begin Spectral Data<<<<<
223.165	-6.44
223.4	-6.44
223.635	-6.44
223.869	-21.44
224.104	-22.44
224.338	-10.44
224.573	-10.44
224.808	-14.44
225.042	-12.44
225.277	1.56
225.511	-6.44
225.746	-7.44
225.98	20.56
226.215	15.56
226.449	9.56
226.683	17.56
226.918	18.56
227.152	28.56
227.387	35.56
227.621	33.56
227.856	56.56
228.09	49.56
228.324	47.56
228.559	30.56
228.793	59.56
229.027	106.56
229.262	114.56
229.496	103.56
229.73	120.56
229.964	127.56
230.199	127.56
230.433	124.56
230.667	119.56
230.901	126.56
231.136	121.56
231.37	133.56
231.604	139.56
231.838	141.56
232.072	139.56
232.306	149.56
232.541	133.56
232.775	138.56
233.009	148.56
233.243	151.56
233.477	140.56
233.711	137.56
233.945	151.56
234.179	143.56
234.413	153.56
234.647	154.56
234.881	149.56
235.115	144.56
235.349	141.56
235.583	152.56
235.817	163.56
236.051	143.56
236.285	159.56
236.519	142.56
236.753	153.56
236.987	169.56
237.221	160.56
237.455	167.56
237.689	166.56
237.922	166.56
238.156	167.56
238.39	168.56
238.624	159.56
238.858	161.56
239.091	159.56
239.325	145.56
239.559	167.56
239.793	156.56
240.027	176.56
240.26	162.56
240.494	169.56
240.728	183.56
240.961	171.56
241.195	187.56
241.429	193.56
241.662	162.56
241.896	168.56
242.13	172.56
242.363	187.56
242.597	189.56
242.83	188.56
243.064	183.56
243.298	183.56
243.531	196.56
243.765	203.56
243.998	191.56
244.232	199.56
244.465	201.56
244.699	206.56
244.932	203.56
245.166	209.56
245.399	219.56
245.633	199.56
245.866	190.56
246.099	194.56
246.333	204.56
246.566	211.56
246.8	226.56
247.033	208.56
247.266	221.56
247.5	214.56
247.733	227.56
247.966	237.56
248.2	222.56
248.433	233.56
248.666	234.56
248.899	227.56
249.133	221.56
249.366	242.56
249.599	234.56
249.832	247.56
250.066	234.56
250.299	260.56
250.532	227.56
250.765	251.56
250.998	229.56
251.231	254.56
251.465	230.56
251.698	254.56
251.931	237.56
252.164	265.56
252.397	269.56
252.63	268.56
252.863	259.56
253.096	285.56
253.329	276.56
253.562	271.56
253.795	248.56
254.028	275.56
254.261	263.56
254.494	263.56
254.727	266.56
254.96	265.56
255.193	266.56
255.426	271.56
255.659	267.56
255.892	286.56
256.124	274.56
256.357	290.56
256.59	283.56
256.823	275.56
257.056	284.56
257.289	279.56
257.521	264.56
257.754	279.56
257.987	291.56
258.22	295.56
258.452	284.56
258.685	289.56
258.918	320.56
259.151	293.56
259.383	283.56
259.616	286.56
259.849	299.56
260.081	280.56
260.314	312.56
260.547	310.56
260.779	310.56
261.012	311.56
261.244	311.56
261.477	299.56
261.71	314.56
261.942	323.56
262.175	333.56
262.407	319.56
262.64	313.56
262.872	317.56
263.105	326.56
263.337	315.56
263.57	317.56
263.802	327.56
264.035	303.56
264.267	330.56
264.499	330.56
264.732	324.56
264.964	334.56
265.197	343.56
265.429	322.56
265.661	341.56
265.894	346.56
266.126	356.56
266.358	337.56
266.591	340.56
266.823	347.56
267.055	325.56
267.287	350.56
267.52	348.56
267.752	333.56
267.984	349.56
268.216	369.56
268.448	351.56
268.681	376.56
268.913	369.56
269.145	346.56
269.377	353.56
269.609	374.56
269.841	349.56
270.073	352.56
270.306	346.56
270.538	369.56
270.77	357.56
271.002	351.56
271.234	364.56
271.466	369.56
271.698	359.56
271.93	365.56
272.162	385.56
272.394	365.56
272.626	373.56
272.858	366.56
273.09	389.56
273.322	385.56
273.553	371.56
273.785	374.56
274.017	395.56
274.249	380.56
274.481	393.56
274.713	388.56
274.945	380.56
275.176	401.56
275.408	414.56
275.64	382.56
275.872	406.56
276.104	402.56
276.335	400.56
276.567	401.56
276.799	379.56
277.031	399.56
277.262	404.56
277.494	417.56
277.726	393.56
277.957	406.56
278.189	435.56
278.421	424.56
278.652	407.56
278.884	414.56
279.115	390.56
279.347	406.56
279.579	422.56
279.81	416.56
280.042	406.56
280.273	398.56
280.505	415.56
280.736	443.56
280.968	437.56
281.199	445.56
281.431	445.56
281.662	431.56
281.894	421.56
282.125	429.56
282.356	435.56
282.588	431.56
282.819	449.56
283.051	444.56
283.282	432.56
283.513	459.56
283.745	455.56
283.976	465.56
284.207	462.56
284.439	471.56
284.67	455.56
284.901	468.56
285.132	468.56
285.364	462.56
285.595	461.56
285.826	471.56
286.057	483.56
286.288	461.56
286.52	478.56
286.751	458.56
286.982	494.56
287.213	472.56
287.444	474.56
287.675	482.56
287.906	481.56
288.138	486.56
288.369	490.56
288.6	483.56
288.831	509.56
289.062	481.56
289.293	491.56
289.524	473.56
289.755	495.56
289.986	507.56
290.217	505.56
290.448	474.56
290.679	485.56
290.91	497.56
291.141	476.56
291.371	503.56
291.602	485.56
291.833	493.56
292.064	490.56
292.295	510.56
292.526	505.56
292.757	484.56
292.987	495.56
293.218	507.56
293.449	525.56
293.68	518.56
293.91	494.56
294.141	507.56
294.372	508.56
294.603	518.56
294.833	537.56
295.064	515.56
295.295	526.56
295.525	511.56
295.756	515.56
295.987	520.56
296.217	532.56
296.448	490.56
296.679	519.56
296.909	493.56
297.14	540.56
297.37	543.56
297.601	539.56
297.831	549.56
298.062	554.56
298.292	561.56
298.523	591.56
298.753	593.56
298.984	534.56
299.214	563.56
299.445	543.56
299.675	531.56
299.905	540.56
300.136	539.56
300.366	542.56
300.597	562.56
300.827	588.56
301.057	575.56
301.288	581.56
301.518	590.56
301.748	581.56
301.979	556.56
302.209	551.56
302.439	579.56
302.669	572.56
302.9	568.56
303.13	552.56
303.36	573.56
303.59	541.56
303.82	545.56
304.051	559.56
304.281	578.56
304.511	557.56
304.741	546.56
304.971	575.56
305.201	572.56
305.431	567.56
305.661	545.56
305.891	574.56
306.121	567.56
306.352	551.56
306.582	558.56
306.812	540.56
307.042	537.56
307.272	526.56
307.502	531.56
307.731	528.56
307.961	547.56
308.191	557.56
308.421	547.56
308.651	533.56
308.881	551.56
309.111	543.56
309.341	526.56
309.571	558.56
309.8	545.56
310.03	527.56
310.26	581.56
310.49	532.56
310.72	541.56
310.949	536.56
311.179	561.56
311.409	570.56
311.639	572.56
311.868	581.56
312.098	587.56
312.328	581.56
312.557	552.56
312.787	561.56
313.017	559.56
313.246	595.56
313.476	597.56
313.706	592.56
313.935	590.56
314.165	618.56
314.394	592.56
314.624	591.56
314.853	587.56
315.083	592.56
315.312	591.56
315.542	585.56
315.771	573.56
316.001	575.56
316.23	580.56
316.46	566.56
316.689	568.56
316.919	548.56
317.148	568.56
317.377	585.56
317.607	585.56
317.836	565.56
318.065	587.56
318.295	568.56
318.524	570.56
318.753	562.56
318.983	552.56
319.212	580.56
319.441	557.56
319.67	563.56
319.9	584.56
320.129	595.56
320.358	558.56
320.587	558.56
320.816	574.56
321.046	557.56
321.275	565.56
321.504	547.56
321.733	572.56
321.962	565.56
322.191	580.56
322.42	560.56
322.649	591.56
322.878	572.56
323.108	582.56
323.337	576.56
323.566	565.56
323.795	581.56
324.024	595.56
324.253	586.56
324.482	613.56
324.71	611.56
324.939	606.56
325.168	582.56
325.397	604.56
325.626	615.56
325.855	601.56
326.084	646.56
326.313	615.56
326.542	627.56
326.77	646.56
326.999	638.56
327.228	623.56
327.457	620.56
327.686	624.56
327.914	655.56
328.143	634.56
328.372	639.56
328.6	625.56
328.829	618.56
329.058	636.56
329.287	612.56
329.515	630.56
329.744	632.56
329.972	637.56
330.201	635.56
330.43	635.56
330.658	631.56
330.887	645.56
331.115	630.56
331.344	664.56
331.572	667.56
331.801	697.56
332.03	697.56
332.258	705.56
332.486	759.56
332.715	774.56
332.943	776.56
333.172	822.56
333.4	859.56
333.629	895.56
333.857	882.56
334.085	845.56
334.314	839.56
334.542	822.56
334.771	820.56
334.999	792.56
335.227	789.56
335.455	787.56
335.684	787.56
335.912	782.56
336.14	765.56
336.369	759.56
336.597	783.56
336.825	767.56
337.053	756.56
337.281	746.56
337.51	737.56
337.738	728.56
337.966	703.56
338.194	710.56
338.422	669.56
338.65	691.56
338.878	680.56
339.106	694.56
339.334	693.56
339.562	670.56
339.79	649.56
340.018	675.56
340.246	664.56
340.474	653.56
340.702	663.56
340.93	642.56
341.158	663.56
341.386	664.56
341.614	675.56
341.842	654.56
342.07	667.56
342.298	630.56
342.526	678.56
342.754	674.56
342.981	660.56
343.209	668.56
343.437	687.56
343.665	735.56
343.893	799.56
344.12	854.56
344.348	820.56
344.576	736.56
344.804	715.56
345.031	692.56
345.259	685.56
345.487	643.56
345.714	653.56
345.942	663.56
346.17	638.56
346.397	668.56
346.625	650.56
346.853	651.56
347.08	642.56
347.308	637.56
347.535	681.56
347.763	675.56
347.99	638.56
348.218	647.56
348.445	662.56
348.673	617.56
348.9	647.56
349.128	657.56
349.355	636.56
349.583	646.56
349.81	614.56
350.037	601.56
350.265	607.56
350.492	631.56
350.72	632.56
350.947	635.56
351.174	617.56
351.402	606.56
351.629	616.56
351.856	610.56
352.083	604.56
352.311	583.56
352.538	588.56
352.765	609.56
352.992	616.56
353.22	604.56
353.447	614.56
353.674	632.56
353.901	634.56
354.128	627.56
354.355	608.56
354.583	617.56
354.81	615.56
355.037	615.56
355.264	613.56
355.491	622.56
355.718	611.56
355.945	599.56
356.172	605.56
356.399	608.56
356.626	626.56
356.853	635.56
357.08	613.56
357.307	631.56
357.534	605.56
357.761	604.56
357.988	633.56
358.215	628.56
358.441	600.56
358.668	613.56
358.895	614.56
359.122	628.56
359.349	587.56
359.576	604.56
359.802	618.56
360.029	620.56
360.256	602.56
360.483	605.56
360.709	619.56
360.936	631.56
361.163	622.56
361.39	621.56
361.616	617.56
361.843	635.56
362.07	637.56
362.296	626.56
362.523	590.56
362.749	622.56
362.976	603.56
363.203	606.56
363.429	616.56
363.656	608.56
363.882	599.56
364.109	610.56
364.335	620.56
364.562	601.56
364.788	610.56
365.015	590.56
365.241	611.56
365.468	611.56
365.694	611.56
365.92	616.56
366.147	587.56
366.373	611.56
366.599	612.56
366.826	623.56
367.052	578.56
367.278	618.56
367.505	627.56
367.731	620.56
367.957	611.56
368.184	613.56
368.41	646.56
368.636	621.56
368.862	638.56
369.089	633.56
369.315	637.56
369.541	627.56
369.767	632.56
369.993	614.56
370.219	639.56
370.445	653.56
370.672	652.56
370.898	653.56
371.124	636.56
371.35	670.56
371.576	690.56
371.802	657.56
372.028	683.56
372.254	656.56
372.48	686.56
372.706	671.56
372.932	702.56
373.158	697.56
373.384	679.56
373.61	697.56
373.835	694.56
374.061	685.56
374.287	704.56
374.513	691.56
374.739	719.56
374.965	718.56
375.191	755.56
375.416	762.56
375.642	708.56
375.868	699.56
376.094	697.56
376.319	669.56
376.545	684.56
376.771	690.56
376.997	713.56
377.222	681.56
377.448	677.56
377.674	681.56
377.899	659.56
378.125	689.56
378.35	674.56
378.576	650.56
378.802	694.56
379.027	659.56
379.253	651.56
379.478	665.56
379.704	663.56
379.929	655.56
380.155	651.56
380.38	688.56
380.606	674.56
380.831	670.56
381.057	635.56
381.282	660.56
381.507	659.56
381.733	678.56
381.958	656.56
382.184	690.56
382.409	702.56
382.634	679.56
382.86	707.56
383.085	719.56
383.31	724.56
383.535	717.56
383.761	737.56
383.986	789.56
384.211	801.56
384.436	814.56
384.662	825.56
384.887	835.56
385.112	807.56
385.337	809.56
385.562	795.56
385.787	813.56
386.013	820.56
386.238	805.56
386.463	823.56
386.688	798.56
386.913	778.56
387.138	772.56
387.363	807.56
387.588	811.56
387.813	791.56
388.038	804.56
388.263	806.56
388.488	813.56
388.713	807.56
388.938	777.56
389.163	794.56
389.387	788.56
389.612	775.56
389.837	773.56
390.062	769.56
390.287	788.56
390.512	787.56
390.736	787.56
390.961	806.56
391.186	821.56
391.411	834.56
391.636	856.56
391.86	896.56
392.085	903.56
392.31	901.56
392.534	882.56
392.759	870.56
392.984	865.56
393.208	845.56
393.433	874.56
393.658	829.56
393.882	845.56
394.107	860.56
394.331	850.56
394.556	842.56
394.78	865.56
395.005	874.56
395.229	879.56
395.454	892.56
395.678	925.56
395.903	927.56
396.127	887.56
396.352	835.56
396.576	823.56
396.801	822.56
397.025	842.56
397.249	874.56
397.474	871.56
397.698	892.56
397.922	893.56
398.147	866.56
398.371	901.56
398.595	930.56
398.82	939.56
399.044	1055.56
399.268	1156.56
399.492	1368.56
399.717	1555.56
399.941	1592.56
400.165	1353.56
400.389	1242.56
400.613	1138.56
400.837	1030.56
401.062	1030.56
401.286	1002.56
401.51	981.56
401.734	1005.56
401.958	1001.56
402.182	1059.56
402.406	1043.56
402.63	1017.56
402.854	1083.56
403.078	1113.56
403.302	1147.56
403.526	1144.56
403.75	1182.56
403.974	1192.56
404.198	1226.56
404.422	1207.56
404.645	1167.56
404.869	1175.56
405.093	1165.56
405.317	1132.56
405.541	1126.56
405.765	1110.56
405.988	1097.56
406.212	1083.56
406.436	1115.56
406.66	1145.56
406.883	1160.56
407.107	1215.56
407.331	1291.56
407.555	1306.56
407.778	1339.56
408.002	1244.56
408.226	1230.56
408.449	1202.56
408.673	1171.56
408.896	1124.56
409.12	1138.56
409.344	1167.56
409.567	1153.56
409.791	1172.56
410.014	1191.56
410.238	1147.56
410.461	1158.56
410.685	1142.56
410.908	1111.56
411.132	1095.56
411.355	1067.56
411.578	1061.56
411.802	1048.56
412.025	1101.56
412.249	1056.56
412.472	1053.56
412.695	1041.56
412.919	1002.56
413.142	1003.56
413.365	1031.56
413.589	1006.56
413.812	990.56
414.035	1002.56
414.258	1015.56
414.482	997.56
414.705	1052.56
414.928	1051.56
415.151	1017.56
415.374	1015.56
415.597	1009.56
415.821	982.56
416.044	989.56
416.267	1011.56
416.49	956.56
416.713	983.56
416.936	1019.56
417.159	983.56
417.382	985.56
417.605	996.56
417.828	1035.56
418.051	1025.56
418.274	1008.56
418.497	1029.56
418.72	1058.56
418.943	1027.56
419.166	1114.56
419.389	1207.56
419.611	1113.56
419.834	1084.56
420.057	1060.56
420.28	1025.56
420.503	962.56
420.726	965.56
420.948	959.56
421.171	977.56
421.394	990.56
421.617	985.56
421.839	1001.56
422.062	994.56
422.285	983.56
422.507	1059.56
422.73	1010.56
422.953	1031.56
423.175	1025.56
423.398	1084.56
423.621	1077.56
423.843	1067.56
424.066	1089.56
424.288	1101.56
424.511	1083.56
424.733	1080.56
424.956	1028.56
425.178	1032.56
425.401	1012.56
425.623	989.56
425.846	972.56
426.068	955.56
426.291	941.56
426.513	965.56
426.735	919.56
426.958	918.56
427.18	917.56
427.402	934.56
427.625	918.56
427.847	891.56
428.069	897.56
428.292	906.56
428.514	886.56
428.736	854.56
428.958	925.56
429.181	860.56
429.403	851.56
429.625	869.56
429.847	870.56
430.069	862.56
430.292	861.56
430.514	854.56
430.736	897.56
430.958	878.56
431.18	856.56
431.402	864.56
431.624	881.56
431.846	899.56
432.068	914.56
432.29	975.56
432.512	893.56
432.734	910.56
432.956	894.56
433.178	897.56
433.4	911.56
433.622	929.56
433.844	902.56
434.066	933.56
434.287	920.56
434.509	929.56
434.731	971.56
434.953	1017.56
435.175	1046.56
435.397	1031.56
435.618	953.56
435.84	927.56
436.062	908.56
436.284	929.56
436.505	926.56
436.727	899.56
436.949	921.56
437.17	907.56
437.392	884.56
437.614	895.56
437.835	860.56
438.057	855.56
438.278	852.56
438.5	843.56
438.721	844.56
438.943	884.56
439.165	847.56
439.386	871.56
439.608	912.56
439.829	909.56
440.05	915.56
440.272	919.56
440.493	888.56
440.715	911.56
440.936	945.56
441.158	929.56
441.379	942.56
441.6	1027.56
441.822	1037.56
442.043	1034.56
442.264	993.56
442.486	978.56
442.707	1001.56
442.928	1012.56
443.149	987.56
443.371	990.56
443.592	997.56
443.813	1019.56
444.034	1031.56
444.255	1056.56
444.476	1083.56
444.698	1169.56
444.919	1244.56
445.14	1317.56
445.361	1124.56
445.582	1045.56
445.803	988.56
446.024	971.56
446.245	934.56
446.466	910.56
446.687	893.56
446.908	906.56
447.129	890.56
447.35	878.56
447.571	871.56
447.792	846.56
448.013	854.56
448.234	842.56
448.455	831.56
448.675	814.56
448.896	831.56
449.117	793.56
449.338	803.56
449.559	808.56
449.779	795.56
450	828.56
450.221	836.56
450.442	841.56
450.662	826.56
450.883	869.56
451.104	850.56
451.324	862.56
451.545	872.56
451.766	879.56
451.986	825.56
452.207	858.56
452.428	833.56
452.648	839.56
452.869	817.56
453.089	845.56
453.31	830.56
453.53	823.56
453.751	825.56
453.971	795.56
454.192	818.56
454.412	798.56
454.633	789.56
454.853	775.56
455.073	793.56
455.294	806.56
455.514	795.56
455.734	785.56
455.955	782.56
456.175	788.56
456.395	782.56
456.616	769.56
456.836	779.56
457.056	769.56
457.276	744.56
457.497	759.56
457.717	763.56
457.937	792.56
458.157	796.56
458.377	805.56
458.598	817.56
458.818	861.56
459.038	847.56
459.258	871.56
459.478	938.56
459.698	936.56
459.918	961.56
460.138	1015.56
460.358	1081.56
460.578	1088.56
460.798	1102.56
461.018	1096.56
461.238	1080.56
461.458	1075.56
461.678	1053.56
461.898	1068.56
462.118	1092.56
462.338	1137.56
462.558	1169.56
462.777	1225.56
462.997	1303.56
463.217	1517.56
463.437	1518.56
463.657	1355.56
463.876	1268.56
464.096	1279.56
464.316	1286.56
464.536	1321.56
464.755	1226.56
464.975	1193.56
465.195	1117.56
465.414	1068.56
465.634	988.56
465.854	950.56
466.073	917.56
466.293	919.56
466.512	886.56
466.732	873.56
466.951	882.56
467.171	865.56
467.391	901.56
467.61	874.56
467.829	882.56
468.049	863.56
468.268	845.56
468.488	847.56
468.707	827.56
468.927	806.56
469.146	838.56
469.365	839.56
469.585	829.56
469.804	878.56
470.023	883.56
470.243	919.56
470.462	896.56
470.681	902.56
470.901	900.56
471.12	888.56
471.339	845.56
471.558	864.56
471.777	866.56
471.997	852.56
472.216	821.56
472.435	831.56
472.654	815.56
472.873	810.56
473.092	816.56
473.311	810.56
473.53	818.56
473.749	807.56
473.968	795.56
474.187	793.56
474.406	824.56
474.625	808.56
474.844	794.56
475.063	782.56
475.282	819.56
475.501	808.56
475.72	833.56
475.939	795.56
476.158	842.56
476.377	857.56
476.596	844.56
476.814	833.56
477.033	847.56
477.252	876.56
477.471	905.56
477.69	900.56
477.908	901.56
478.127	953.56
478.346	965.56
478.564	955.56
478.783	987.56
479.002	1015.56
479.22	1008.56
479.439	1021.56
479.658	995.56
479.876	1014.56
480.095	1039.56
480.313	1076.56
480.532	1094.56
480.751	1091.56
480.969	1046.56
481.188	1003.56
481.406	989.56
481.624	962.56
481.843	951.56
482.061	938.56
482.28	908.56
482.498	917.56
482.717	917.56
482.935	908.56
483.153	889.56
483.372	921.56
483.59	925.56
483.808	905.56
484.027	919.56
484.245	917.56
484.463	937.56
484.681	943.56
484.9	930.56
485.118	957.56
485.336	965.56
485.554	949.56
485.772	1004.56
485.99	994.56
486.209	979.56
486.427	989.56
486.645	1001.56
486.863	1009.56
487.081	1004.56
487.299	959.56
487.517	986.56
487.735	980.56
487.953	973.56
488.171	953.56
488.389	966.56
488.607	976.56
488.825	934.56
489.043	941.56
489.261	948.56
489.479	947.56
489.696	980.56
489.914	975.56
490.132	948.56
490.35	921.56
490.568	964.56
490.786	979.56
491.003	963.56
491.221	956.56
491.439	973.56
491.657	965.56
491.874	966.56
492.092	956.56
492.31	970.56
492.527	974.56
492.745	1021.56
492.963	1026.56
493.18	1010.56
493.398	993.56
493.615	1017.56
493.833	991.56
494.05	1015.56
494.268	1062.56
494.485	1018.56
494.703	1025.56
494.92	1025.56
495.138	999.56
495.355	1018.56
495.573	1013.56
495.79	1014.56
496.008	1044.56
496.225	1028.56
496.442	1016.56
496.66	1068.56
496.877	1061.56
497.094	1086.56
497.312	1118.56
497.529	1115.56
497.746	1161.56
497.963	1197.56
498.181	1221.56
498.398	1234.56
498.615	1349.56
498.832	1408.56
499.049	1539.56
