Data from Ni(NO3)2@0.5M.TitratingCurve.Agarose3%dH2O.NegLispCup.LampEnergy10.LIBS07252019_HRD10591_17-58-26-564.txt Node
Date: Thu Jul 25 17:58:26 EDT 2019
User: cochatt
Spectrometer: HR+D1059
Trigger mode: 1
Integration Time (sec): 1.000000E-1
Scans to average: 1
Electric dark correction enabled: true
Nonlinearity correction enabled: false
Boxcar width: 0
XAxis mode: Wavelengths
Number of Pixels in Spectrum: 2048
>>>>>Begin Spectral Data<<<<<
223.165	-24.44
223.4	-24.44
223.635	-24.44
223.869	-4.44
224.104	-21.44
224.338	-8.44
224.573	-16.44
224.808	-12.44
225.042	-2.44
225.277	-3.44
225.511	-8.44
225.746	-0.44
225.98	5.56
226.215	17.56
226.449	19.56
226.683	5.56
226.918	25.56
227.152	28.56
227.387	35.56
227.621	36.56
227.856	41.56
228.09	33.56
228.324	57.56
228.559	58.56
228.793	76.56
229.027	97.56
229.262	105.56
229.496	116.56
229.73	110.56
229.964	135.56
230.199	136.56
230.433	139.56
230.667	150.56
230.901	130.56
231.136	127.56
231.37	149.56
231.604	137.56
231.838	153.56
232.072	164.56
232.306	155.56
232.541	160.56
232.775	135.56
233.009	124.56
233.243	153.56
233.477	132.56
233.711	131.56
233.945	135.56
234.179	126.56
234.413	127.56
234.647	137.56
234.881	138.56
235.115	138.56
235.349	127.56
235.583	139.56
235.817	127.56
236.051	136.56
236.285	126.56
236.519	129.56
236.753	142.56
236.987	137.56
237.221	109.56
237.455	133.56
237.689	148.56
237.922	146.56
238.156	135.56
238.39	139.56
238.624	132.56
238.858	136.56
239.091	144.56
239.325	163.56
239.559	159.56
239.793	158.56
240.027	151.56
240.26	145.56
240.494	146.56
240.728	135.56
240.961	166.56
241.195	151.56
241.429	159.56
241.662	165.56
241.896	168.56
242.13	175.56
242.363	165.56
242.597	138.56
242.83	169.56
243.064	163.56
243.298	160.56
243.531	171.56
243.765	174.56
243.998	186.56
244.232	156.56
244.465	176.56
244.699	167.56
244.932	169.56
245.166	170.56
245.399	172.56
245.633	170.56
245.866	165.56
246.099	164.56
246.333	175.56
246.566	169.56
246.8	152.56
247.033	191.56
247.266	181.56
247.5	174.56
247.733	160.56
247.966	175.56
248.2	191.56
248.433	195.56
248.666	184.56
248.899	189.56
249.133	189.56
249.366	187.56
249.599	186.56
249.832	185.56
250.066	198.56
250.299	174.56
250.532	201.56
250.765	205.56
250.998	190.56
251.231	211.56
251.465	203.56
251.698	227.56
251.931	203.56
252.164	208.56
252.397	211.56
252.63	205.56
252.863	203.56
253.096	219.56
253.329	211.56
253.562	212.56
253.795	212.56
254.028	217.56
254.261	216.56
254.494	213.56
254.727	223.56
254.96	201.56
255.193	228.56
255.426	214.56
255.659	223.56
255.892	244.56
256.124	223.56
256.357	217.56
256.59	228.56
256.823	224.56
257.056	231.56
257.289	220.56
257.521	213.56
257.754	234.56
257.987	222.56
258.22	236.56
258.452	232.56
258.685	243.56
258.918	230.56
259.151	229.56
259.383	231.56
259.616	233.56
259.849	257.56
260.081	247.56
260.314	251.56
260.547	253.56
260.779	246.56
261.012	250.56
261.244	260.56
261.477	257.56
261.71	249.56
261.942	257.56
262.175	261.56
262.407	270.56
262.64	252.56
262.872	294.56
263.105	253.56
263.337	251.56
263.57	276.56
263.802	247.56
264.035	273.56
264.267	266.56
264.499	279.56
264.732	265.56
264.964	278.56
265.197	259.56
265.429	279.56
265.661	275.56
265.894	278.56
266.126	281.56
266.358	281.56
266.591	262.56
266.823	281.56
267.055	253.56
267.287	276.56
267.52	258.56
267.752	268.56
267.984	282.56
268.216	279.56
268.448	285.56
268.681	262.56
268.913	289.56
269.145	276.56
269.377	287.56
269.609	287.56
269.841	290.56
270.073	284.56
270.306	282.56
270.538	270.56
270.77	305.56
271.002	294.56
271.234	304.56
271.466	291.56
271.698	291.56
271.93	297.56
272.162	291.56
272.394	298.56
272.626	297.56
272.858	314.56
273.09	311.56
273.322	315.56
273.553	304.56
273.785	318.56
274.017	320.56
274.249	295.56
274.481	321.56
274.713	307.56
274.945	324.56
275.176	310.56
275.408	320.56
275.64	324.56
275.872	333.56
276.104	325.56
276.335	333.56
276.567	311.56
276.799	345.56
277.031	339.56
277.262	317.56
277.494	341.56
277.726	337.56
277.957	318.56
278.189	333.56
278.421	337.56
278.652	343.56
278.884	360.56
279.115	330.56
279.347	329.56
279.579	352.56
279.81	338.56
280.042	343.56
280.273	338.56
280.505	347.56
280.736	328.56
280.968	359.56
281.199	359.56
281.431	347.56
281.662	336.56
281.894	350.56
282.125	339.56
282.356	340.56
282.588	364.56
282.819	333.56
283.051	338.56
283.282	362.56
283.513	364.56
283.745	359.56
283.976	337.56
284.207	356.56
284.439	345.56
284.67	380.56
284.901	353.56
285.132	356.56
285.364	356.56
285.595	368.56
285.826	337.56
286.057	361.56
286.288	371.56
286.52	382.56
286.751	376.56
286.982	372.56
287.213	358.56
287.444	357.56
287.675	372.56
287.906	363.56
288.138	379.56
288.369	374.56
288.6	381.56
288.831	381.56
289.062	393.56
289.293	379.56
289.524	379.56
289.755	372.56
289.986	355.56
290.217	385.56
290.448	383.56
290.679	371.56
290.91	370.56
291.141	398.56
291.371	384.56
291.602	372.56
291.833	372.56
292.064	376.56
292.295	381.56
292.526	387.56
292.757	395.56
292.987	385.56
293.218	394.56
293.449	389.56
293.68	385.56
293.91	380.56
294.141	384.56
294.372	406.56
294.603	387.56
294.833	399.56
295.064	417.56
295.295	401.56
295.525	387.56
295.756	397.56
295.987	374.56
296.217	379.56
296.448	390.56
296.679	397.56
296.909	421.56
297.14	415.56
297.37	403.56
297.601	406.56
297.831	383.56
298.062	404.56
298.292	419.56
298.523	426.56
298.753	405.56
298.984	426.56
299.214	427.56
299.445	433.56
299.675	420.56
299.905	442.56
300.136	453.56
300.366	462.56
300.597	461.56
300.827	463.56
301.057	443.56
301.288	440.56
301.518	458.56
301.748	442.56
301.979	438.56
302.209	438.56
302.439	454.56
302.669	447.56
302.9	457.56
303.13	429.56
303.36	431.56
303.59	437.56
303.82	452.56
304.051	433.56
304.281	431.56
304.511	447.56
304.741	439.56
304.971	438.56
305.201	466.56
305.431	490.56
305.661	448.56
305.891	453.56
306.121	430.56
306.352	448.56
306.582	435.56
306.812	439.56
307.042	455.56
307.272	470.56
307.502	447.56
307.731	458.56
307.961	456.56
308.191	435.56
308.421	447.56
308.651	419.56
308.881	451.56
309.111	435.56
309.341	438.56
309.571	450.56
309.8	449.56
310.03	475.56
310.26	496.56
310.49	475.56
310.72	456.56
310.949	475.56
311.179	449.56
311.409	474.56
311.639	453.56
311.868	473.56
312.098	474.56
312.328	472.56
312.557	464.56
312.787	470.56
313.017	483.56
313.246	479.56
313.476	488.56
313.706	496.56
313.935	465.56
314.165	472.56
314.394	479.56
314.624	484.56
314.853	476.56
315.083	482.56
315.312	483.56
315.542	494.56
315.771	471.56
316.001	484.56
316.23	505.56
316.46	478.56
316.689	494.56
316.919	468.56
317.148	488.56
317.377	494.56
317.607	504.56
317.836	483.56
318.065	516.56
318.295	483.56
318.524	478.56
318.753	505.56
318.983	504.56
319.212	495.56
319.441	494.56
319.67	483.56
319.9	520.56
320.129	527.56
320.358	535.56
320.587	503.56
320.816	508.56
321.046	500.56
321.275	525.56
321.504	517.56
321.733	524.56
321.962	529.56
322.191	521.56
322.42	522.56
322.649	494.56
322.878	542.56
323.108	521.56
323.337	532.56
323.566	536.56
323.795	521.56
324.024	518.56
324.253	517.56
324.482	528.56
324.71	534.56
324.939	535.56
325.168	559.56
325.397	551.56
325.626	525.56
325.855	565.56
326.084	560.56
326.313	551.56
326.542	567.56
326.77	554.56
326.999	539.56
327.228	525.56
327.457	535.56
327.686	543.56
327.914	561.56
328.143	573.56
328.372	544.56
328.6	555.56
328.829	563.56
329.058	552.56
329.287	545.56
329.515	557.56
329.744	559.56
329.972	574.56
330.201	576.56
330.43	585.56
330.658	582.56
330.887	594.56
331.115	580.56
331.344	568.56
331.572	588.56
331.801	604.56
332.03	577.56
332.258	603.56
332.486	614.56
332.715	621.56
332.943	628.56
333.172	617.56
333.4	616.56
333.629	609.56
333.857	632.56
334.085	641.56
334.314	641.56
334.542	630.56
334.771	651.56
334.999	654.56
335.227	657.56
335.455	677.56
335.684	640.56
335.912	665.56
336.14	641.56
336.369	668.56
336.597	647.56
336.825	678.56
337.053	671.56
337.281	687.56
337.51	659.56
337.738	654.56
337.966	656.56
338.194	655.56
338.422	654.56
338.65	636.56
338.878	622.56
339.106	647.56
339.334	664.56
339.562	641.56
339.79	616.56
340.018	607.56
340.246	617.56
340.474	607.56
340.702	632.56
340.93	611.56
341.158	612.56
341.386	648.56
341.614	686.56
341.842	677.56
342.07	607.56
342.298	613.56
342.526	628.56
342.754	622.56
342.981	623.56
343.209	641.56
343.437	651.56
343.665	664.56
343.893	653.56
344.12	672.56
344.348	664.56
344.576	668.56
344.804	673.56
345.031	671.56
345.259	627.56
345.487	667.56
345.714	644.56
345.942	661.56
346.17	673.56
346.397	648.56
346.625	622.56
346.853	583.56
347.08	609.56
347.308	627.56
347.535	581.56
347.763	605.56
347.99	609.56
348.218	598.56
348.445	604.56
348.673	598.56
348.9	602.56
349.128	602.56
349.355	644.56
349.583	651.56
349.81	603.56
350.037	574.56
350.265	596.56
350.492	583.56
350.72	546.56
350.947	596.56
351.174	620.56
351.402	636.56
351.629	651.56
351.856	627.56
352.083	612.56
352.311	619.56
352.538	645.56
352.765	627.56
352.992	598.56
353.22	599.56
353.447	577.56
353.674	567.56
353.901	565.56
354.128	573.56
354.355	584.56
354.583	583.56
354.81	581.56
355.037	572.56
355.264	596.56
355.491	587.56
355.718	589.56
355.945	566.56
356.172	578.56
356.399	584.56
356.626	608.56
356.853	614.56
357.08	601.56
357.307	597.56
357.534	591.56
357.761	580.56
357.988	604.56
358.215	582.56
358.441	576.56
358.668	578.56
358.895	595.56
359.122	571.56
359.349	600.56
359.576	577.56
359.802	578.56
360.029	589.56
360.256	599.56
360.483	576.56
360.709	585.56
360.936	598.56
361.163	619.56
361.39	599.56
361.616	601.56
361.843	616.56
362.07	653.56
362.296	651.56
362.523	576.56
362.749	561.56
362.976	567.56
363.203	583.56
363.429	583.56
363.656	587.56
363.882	578.56
364.109	572.56
364.335	593.56
364.562	588.56
364.788	599.56
365.015	600.56
365.241	592.56
365.468	600.56
365.694	590.56
365.92	587.56
366.147	598.56
366.373	575.56
366.599	569.56
366.826	571.56
367.052	599.56
367.278	580.56
367.505	605.56
367.731	602.56
367.957	603.56
368.184	596.56
368.41	592.56
368.636	594.56
368.862	615.56
369.089	579.56
369.315	601.56
369.541	601.56
369.767	600.56
369.993	620.56
370.219	605.56
370.445	601.56
370.672	626.56
370.898	603.56
371.124	603.56
371.35	640.56
371.576	612.56
371.802	615.56
372.028	608.56
372.254	634.56
372.48	641.56
372.706	628.56
372.932	622.56
373.158	643.56
373.384	635.56
373.61	597.56
373.835	627.56
374.061	638.56
374.287	625.56
374.513	654.56
374.739	647.56
374.965	645.56
375.191	653.56
375.416	654.56
375.642	651.56
375.868	641.56
376.094	636.56
376.319	647.56
376.545	639.56
376.771	636.56
376.997	632.56
377.222	641.56
377.448	627.56
377.674	644.56
377.899	651.56
378.125	623.56
378.35	622.56
378.576	641.56
378.802	589.56
379.027	615.56
379.253	615.56
379.478	619.56
379.704	596.56
379.929	604.56
380.155	588.56
380.38	615.56
380.606	616.56
380.831	616.56
381.057	621.56
381.282	619.56
381.507	621.56
381.733	602.56
381.958	638.56
382.184	643.56
382.409	627.56
382.634	638.56
382.86	612.56
383.085	639.56
383.31	627.56
383.535	658.56
383.761	646.56
383.986	659.56
384.211	663.56
384.436	657.56
384.662	649.56
384.887	673.56
385.112	639.56
385.337	669.56
385.562	685.56
385.787	694.56
386.013	713.56
386.238	681.56
386.463	695.56
386.688	698.56
386.913	661.56
387.138	704.56
387.363	673.56
387.588	685.56
387.813	699.56
388.038	709.56
388.263	666.56
388.488	702.56
388.713	679.56
388.938	668.56
389.163	674.56
389.387	707.56
389.612	711.56
389.837	703.56
390.062	714.56
390.287	721.56
390.512	699.56
390.736	709.56
390.961	703.56
391.186	695.56
391.411	711.56
391.636	709.56
391.86	763.56
392.085	725.56
392.31	715.56
392.534	750.56
392.759	740.56
392.984	734.56
393.208	714.56
393.433	733.56
393.658	733.56
393.882	737.56
394.107	736.56
394.331	731.56
394.556	714.56
394.78	730.56
395.005	715.56
395.229	720.56
395.454	728.56
395.678	752.56
395.903	755.56
396.127	765.56
396.352	739.56
396.576	741.56
396.801	726.56
397.025	751.56
397.249	740.56
397.474	777.56
397.698	790.56
397.922	759.56
398.147	771.56
398.371	796.56
398.595	803.56
398.82	809.56
399.044	838.56
399.268	851.56
399.492	919.56
399.717	928.56
399.941	941.56
400.165	916.56
400.389	889.56
400.613	869.56
400.837	860.56
401.062	846.56
401.286	836.56
401.51	818.56
401.734	815.56
401.958	813.56
402.182	817.56
402.406	846.56
402.63	830.56
402.854	806.56
403.078	821.56
403.302	830.56
403.526	839.56
403.75	830.56
403.974	853.56
404.198	830.56
404.422	842.56
404.645	845.56
404.869	844.56
405.093	835.56
405.317	841.56
405.541	859.56
405.765	867.56
405.988	876.56
406.212	863.56
406.436	870.56
406.66	904.56
406.883	895.56
407.107	914.56
407.331	908.56
407.555	952.56
407.778	939.56
408.002	933.56
408.226	901.56
408.449	915.56
408.673	905.56
408.896	887.56
409.12	890.56
409.344	857.56
409.567	872.56
409.791	917.56
410.014	878.56
410.238	895.56
410.461	867.56
410.685	861.56
410.908	859.56
411.132	871.56
411.355	829.56
411.578	869.56
411.802	838.56
412.025	854.56
412.249	851.56
412.472	855.56
412.695	828.56
412.919	835.56
413.142	848.56
413.365	826.56
413.589	852.56
413.812	843.56
414.035	817.56
414.258	831.56
414.482	823.56
414.705	870.56
414.928	823.56
415.151	820.56
415.374	810.56
415.597	827.56
415.821	825.56
416.044	793.56
416.267	803.56
416.49	794.56
416.713	825.56
416.936	809.56
417.159	811.56
417.382	795.56
417.605	791.56
417.828	798.56
418.051	793.56
418.274	792.56
418.497	794.56
418.72	836.56
418.943	783.56
419.166	835.56
419.389	876.56
419.611	857.56
419.834	853.56
420.057	812.56
420.28	807.56
420.503	800.56
420.726	806.56
420.948	785.56
421.171	789.56
421.394	803.56
421.617	793.56
421.839	803.56
422.062	810.56
422.285	792.56
422.507	806.56
422.73	807.56
422.953	798.56
423.175	796.56
423.398	826.56
423.621	802.56
423.843	787.56
424.066	790.56
424.288	788.56
424.511	790.56
424.733	790.56
424.956	806.56
425.178	780.56
425.401	803.56
425.623	811.56
425.846	796.56
426.068	779.56
426.291	764.56
426.513	789.56
426.735	763.56
426.958	797.56
427.18	754.56
427.402	755.56
427.625	782.56
427.847	757.56
428.069	771.56
428.292	797.56
428.514	778.56
428.736	765.56
428.958	756.56
429.181	767.56
429.403	761.56
429.625	756.56
429.847	788.56
430.069	785.56
430.292	756.56
430.514	718.56
430.736	760.56
430.958	750.56
431.18	767.56
431.402	779.56
431.624	769.56
431.846	773.56
432.068	757.56
432.29	757.56
432.512	779.56
432.734	776.56
432.956	760.56
433.178	778.56
433.4	837.56
433.622	808.56
433.844	805.56
434.066	805.56
434.287	777.56
434.509	798.56
434.731	790.56
434.953	808.56
435.175	834.56
435.397	813.56
435.618	793.56
435.84	775.56
436.062	762.56
436.284	797.56
436.505	758.56
436.727	774.56
436.949	776.56
437.17	772.56
437.392	772.56
437.614	764.56
437.835	740.56
438.057	781.56
438.278	735.56
438.5	768.56
438.721	734.56
438.943	773.56
439.165	728.56
439.386	746.56
439.608	789.56
439.829	789.56
440.05	757.56
440.272	753.56
440.493	791.56
440.715	797.56
440.936	779.56
441.158	785.56
441.379	808.56
441.6	811.56
441.822	822.56
442.043	804.56
442.264	810.56
442.486	811.56
442.707	795.56
442.928	788.56
443.149	815.56
443.371	837.56
443.592	889.56
443.813	859.56
444.034	852.56
444.255	831.56
444.476	844.56
444.698	835.56
444.919	851.56
445.14	933.56
445.361	901.56
445.582	845.56
445.803	807.56
446.024	819.56
446.245	806.56
446.466	801.56
446.687	780.56
446.908	794.56
447.129	755.56
447.35	748.56
447.571	781.56
447.792	741.56
448.013	727.56
448.234	742.56
448.455	725.56
448.675	735.56
448.896	701.56
449.117	724.56
449.338	735.56
449.559	739.56
449.779	698.56
450	713.56
450.221	691.56
450.442	686.56
450.662	715.56
450.883	716.56
451.104	743.56
451.324	718.56
451.545	711.56
451.766	735.56
451.986	720.56
452.207	703.56
452.428	718.56
452.648	721.56
452.869	702.56
453.089	691.56
453.31	734.56
453.53	693.56
453.751	716.56
453.971	705.56
454.192	704.56
454.412	711.56
454.633	700.56
454.853	695.56
455.073	671.56
455.294	701.56
455.514	704.56
455.734	702.56
455.955	699.56
456.175	707.56
456.395	695.56
456.616	694.56
456.836	699.56
457.056	679.56
457.276	686.56
457.497	708.56
457.717	715.56
457.937	727.56
458.157	727.56
458.377	697.56
458.598	723.56
458.818	717.56
459.038	717.56
459.258	741.56
459.478	768.56
459.698	821.56
459.918	829.56
460.138	820.56
460.358	814.56
460.578	851.56
460.798	873.56
461.018	869.56
461.238	856.56
461.458	837.56
461.678	834.56
461.898	841.56
462.118	840.56
462.338	881.56
462.558	894.56
462.777	919.56
462.997	921.56
463.217	961.56
463.437	967.56
463.657	916.56
463.876	901.56
464.096	916.56
464.316	916.56
464.536	936.56
464.755	896.56
464.975	878.56
465.195	867.56
465.414	840.56
465.634	801.56
465.854	802.56
466.073	750.56
466.293	759.56
466.512	756.56
466.732	765.56
466.951	742.56
467.171	771.56
467.391	746.56
467.61	745.56
467.829	742.56
468.049	773.56
468.268	757.56
468.488	726.56
468.707	745.56
468.927	741.56
469.146	773.56
469.365	771.56
469.585	737.56
469.804	741.56
470.023	756.56
470.243	745.56
470.462	748.56
470.681	771.56
470.901	731.56
471.12	757.56
471.339	771.56
471.558	743.56
471.777	760.56
471.997	723.56
472.216	739.56
472.435	748.56
472.654	731.56
472.873	718.56
473.092	720.56
473.311	741.56
473.53	745.56
473.749	732.56
473.968	719.56
474.187	717.56
474.406	765.56
474.625	726.56
474.844	746.56
475.063	744.56
475.282	773.56
475.501	748.56
475.72	747.56
475.939	753.56
476.158	763.56
476.377	777.56
476.596	759.56
476.814	771.56
477.033	763.56
477.252	780.56
477.471	767.56
477.69	805.56
477.908	812.56
478.127	808.56
478.346	827.56
478.564	868.56
478.783	872.56
479.002	868.56
479.22	877.56
479.439	868.56
479.658	848.56
479.876	862.56
480.095	884.56
480.313	857.56
480.532	895.56
480.751	872.56
480.969	866.56
481.188	849.56
481.406	808.56
481.624	824.56
481.843	812.56
482.061	839.56
482.28	840.56
482.498	836.56
482.717	847.56
482.935	830.56
483.153	873.56
483.372	863.56
483.59	883.56
483.808	853.56
484.027	851.56
484.245	872.56
484.463	848.56
484.681	885.56
484.9	857.56
485.118	869.56
485.336	851.56
485.554	870.56
485.772	861.56
485.99	879.56
486.209	871.56
486.427	887.56
486.645	861.56
486.863	877.56
487.081	863.56
487.299	893.56
487.517	891.56
487.735	909.56
487.953	903.56
488.171	917.56
488.389	893.56
488.607	878.56
488.825	861.56
489.043	879.56
489.261	851.56
489.479	880.56
489.696	888.56
489.914	902.56
490.132	891.56
490.35	892.56
490.568	874.56
490.786	905.56
491.003	885.56
491.221	916.56
491.439	908.56
491.657	908.56
491.874	915.56
492.092	934.56
492.31	963.56
492.527	921.56
492.745	890.56
492.963	918.56
493.18	921.56
493.398	914.56
493.615	920.56
493.833	906.56
494.05	917.56
494.268	934.56
494.485	928.56
494.703	936.56
494.92	933.56
495.138	946.56
495.355	931.56
495.573	954.56
495.79	943.56
496.008	975.56
496.225	966.56
496.442	947.56
496.66	963.56
496.877	994.56
497.094	976.56
497.312	1003.56
497.529	1040.56
497.746	1030.56
497.963	1057.56
498.181	1054.56
498.398	1113.56
498.615	1122.56
498.832	1139.56
499.049	1186.56
499.267	1278.56
499.484	1309.56
499.701	1334.56
499.918	1393.56
500.135	1491.56
500.352	1543.56
500.569	1553.56
500.786	1576.56
501.003	1543.56
501.22	1486.56
501.437	1371.56
