Data from Ni(NO3)2@0.25M.TitratingCurve.Agarose3%dH2O.NegLispCup.LampEnergy10.LIBS07252019_HRD10591_18-02-40-566.txt Node
Date: Thu Jul 25 18:02:40 EDT 2019
User: cochatt
Spectrometer: HR+D1059
Trigger mode: 1
Integration Time (sec): 1.000000E-1
Scans to average: 1
Electric dark correction enabled: true
Nonlinearity correction enabled: false
Boxcar width: 0
XAxis mode: Wavelengths
Number of Pixels in Spectrum: 2048
>>>>>Begin Spectral Data<<<<<
223.165	-17.69
223.4	-17.69
223.635	-17.69
223.869	-22.69
224.104	0.31
224.338	-9.69
224.573	-16.69
224.808	1.31
225.042	4.31
225.277	0.31
225.511	2.31
225.746	-20.69
225.98	-13.69
226.215	16.31
226.449	8.31
226.683	23.31
226.918	16.31
227.152	28.31
227.387	36.31
227.621	38.31
227.856	42.31
228.09	42.31
228.324	36.31
228.559	56.31
228.793	73.31
229.027	113.31
229.262	112.31
229.496	121.31
229.73	116.31
229.964	136.31
230.199	141.31
230.433	138.31
230.667	135.31
230.901	138.31
231.136	140.31
231.37	144.31
231.604	135.31
231.838	143.31
232.072	158.31
232.306	145.31
232.541	152.31
232.775	143.31
233.009	140.31
233.243	139.31
233.477	130.31
233.711	143.31
233.945	137.31
234.179	140.31
234.413	142.31
234.647	148.31
234.881	144.31
235.115	149.31
235.349	147.31
235.583	148.31
235.817	136.31
236.051	138.31
236.285	132.31
236.519	125.31
236.753	142.31
236.987	139.31
237.221	135.31
237.455	137.31
237.689	144.31
237.922	152.31
238.156	148.31
238.39	145.31
238.624	124.31
238.858	151.31
239.091	140.31
239.325	154.31
239.559	157.31
239.793	159.31
240.027	164.31
240.26	150.31
240.494	158.31
240.728	139.31
240.961	154.31
241.195	152.31
241.429	165.31
241.662	163.31
241.896	178.31
242.13	176.31
242.363	166.31
242.597	175.31
242.83	159.31
243.064	155.31
243.298	160.31
243.531	159.31
243.765	173.31
243.998	191.31
244.232	202.31
244.465	189.31
244.699	197.31
244.932	190.31
245.166	179.31
245.399	181.31
245.633	183.31
245.866	184.31
246.099	183.31
246.333	195.31
246.566	175.31
246.8	196.31
247.033	196.31
247.266	201.31
247.5	205.31
247.733	201.31
247.966	210.31
248.2	214.31
248.433	204.31
248.666	207.31
248.899	224.31
249.133	201.31
249.366	215.31
249.599	227.31
249.832	228.31
250.066	246.31
250.299	234.31
250.532	249.31
250.765	244.31
250.998	234.31
251.231	258.31
251.465	278.31
251.698	272.31
251.931	263.31
252.164	250.31
252.397	271.31
252.63	274.31
252.863	270.31
253.096	282.31
253.329	260.31
253.562	285.31
253.795	282.31
254.028	295.31
254.261	286.31
254.494	302.31
254.727	297.31
254.96	293.31
255.193	312.31
255.426	328.31
255.659	307.31
255.892	314.31
256.124	330.31
256.357	318.31
256.59	300.31
256.823	317.31
257.056	334.31
257.289	330.31
257.521	338.31
257.754	335.31
257.987	341.31
258.22	350.31
258.452	342.31
258.685	350.31
258.918	353.31
259.151	341.31
259.383	368.31
259.616	342.31
259.849	332.31
260.081	360.31
260.314	384.31
260.547	357.31
260.779	379.31
261.012	363.31
261.244	388.31
261.477	390.31
261.71	385.31
261.942	379.31
262.175	378.31
262.407	349.31
262.64	349.31
262.872	401.31
263.105	398.31
263.337	382.31
263.57	386.31
263.802	378.31
264.035	395.31
264.267	392.31
264.499	397.31
264.732	413.31
264.964	407.31
265.197	389.31
265.429	408.31
265.661	401.31
265.894	412.31
266.126	381.31
266.358	395.31
266.591	419.31
266.823	406.31
267.055	414.31
267.287	414.31
267.52	417.31
267.752	422.31
267.984	431.31
268.216	416.31
268.448	435.31
268.681	410.31
268.913	412.31
269.145	427.31
269.377	419.31
269.609	408.31
269.841	445.31
270.073	435.31
270.306	441.31
270.538	428.31
270.77	419.31
271.002	438.31
271.234	422.31
271.466	426.31
271.698	422.31
271.93	443.31
272.162	464.31
272.394	451.31
272.626	446.31
272.858	421.31
273.09	444.31
273.322	430.31
273.553	459.31
273.785	462.31
274.017	470.31
274.249	462.31
274.481	462.31
274.713	454.31
274.945	477.31
275.176	434.31
275.408	474.31
275.64	484.31
275.872	458.31
276.104	469.31
276.335	463.31
276.567	475.31
276.799	469.31
277.031	482.31
277.262	475.31
277.494	482.31
277.726	474.31
277.957	478.31
278.189	478.31
278.421	474.31
278.652	481.31
278.884	487.31
279.115	490.31
279.347	486.31
279.579	452.31
279.81	488.31
280.042	475.31
280.273	467.31
280.505	469.31
280.736	478.31
280.968	489.31
281.199	477.31
281.431	486.31
281.662	471.31
281.894	490.31
282.125	507.31
282.356	484.31
282.588	491.31
282.819	515.31
283.051	473.31
283.282	477.31
283.513	513.31
283.745	484.31
283.976	500.31
284.207	492.31
284.439	501.31
284.67	510.31
284.901	475.31
285.132	514.31
285.364	472.31
285.595	489.31
285.826	479.31
286.057	502.31
286.288	530.31
286.52	524.31
286.751	524.31
286.982	517.31
287.213	511.31
287.444	504.31
287.675	498.31
287.906	520.31
288.138	522.31
288.369	495.31
288.6	518.31
288.831	491.31
289.062	527.31
289.293	526.31
289.524	514.31
289.755	498.31
289.986	510.31
290.217	500.31
290.448	526.31
290.679	525.31
290.91	533.31
291.141	533.31
291.371	528.31
291.602	516.31
291.833	533.31
292.064	551.31
292.295	526.31
292.526	525.31
292.757	502.31
292.987	533.31
293.218	522.31
293.449	532.31
293.68	517.31
293.91	526.31
294.141	521.31
294.372	538.31
294.603	544.31
294.833	528.31
295.064	525.31
295.295	518.31
295.525	534.31
295.756	520.31
295.987	509.31
296.217	540.31
296.448	570.31
296.679	528.31
296.909	550.31
297.14	542.31
297.37	550.31
297.601	559.31
297.831	534.31
298.062	557.31
298.292	540.31
298.523	553.31
298.753	565.31
298.984	556.31
299.214	549.31
299.445	584.31
299.675	554.31
299.905	566.31
300.136	566.31
300.366	563.31
300.597	592.31
300.827	595.31
301.057	566.31
301.288	573.31
301.518	580.31
301.748	585.31
301.979	587.31
302.209	584.31
302.439	591.31
302.669	571.31
302.9	592.31
303.13	583.31
303.36	586.31
303.59	580.31
303.82	602.31
304.051	599.31
304.281	626.31
304.511	575.31
304.741	610.31
304.971	610.31
305.201	634.31
305.431	606.31
305.661	597.31
305.891	634.31
306.121	602.31
306.352	595.31
306.582	591.31
306.812	594.31
307.042	612.31
307.272	596.31
307.502	574.31
307.731	609.31
307.961	609.31
308.191	613.31
308.421	597.31
308.651	587.31
308.881	630.31
309.111	646.31
309.341	598.31
309.571	626.31
309.8	664.31
310.03	636.31
310.26	662.31
310.49	634.31
310.72	636.31
310.949	648.31
311.179	648.31
311.409	647.31
311.639	667.31
311.868	663.31
312.098	668.31
312.328	644.31
312.557	670.31
312.787	677.31
313.017	684.31
313.246	687.31
313.476	672.31
313.706	709.31
313.935	708.31
314.165	672.31
314.394	686.31
314.624	700.31
314.853	716.31
315.083	704.31
315.312	699.31
315.542	698.31
315.771	714.31
316.001	730.31
316.23	730.31
316.46	719.31
316.689	758.31
316.919	730.31
317.148	740.31
317.377	752.31
317.607	747.31
317.836	722.31
318.065	758.31
318.295	765.31
318.524	776.31
318.753	761.31
318.983	761.31
319.212	759.31
319.441	761.31
319.67	790.31
319.9	789.31
320.129	791.31
320.358	814.31
320.587	788.31
320.816	799.31
321.046	828.31
321.275	816.31
321.504	781.31
321.733	800.31
321.962	814.31
322.191	816.31
322.42	844.31
322.649	845.31
322.878	844.31
323.108	846.31
323.337	845.31
323.566	840.31
323.795	881.31
324.024	872.31
324.253	866.31
324.482	873.31
324.71	905.31
324.939	889.31
325.168	894.31
325.397	885.31
325.626	873.31
325.855	921.31
326.084	950.31
326.313	922.31
326.542	922.31
326.77	937.31
326.999	912.31
327.228	929.31
327.457	928.31
327.686	951.31
327.914	951.31
328.143	947.31
328.372	936.31
328.6	951.31
328.829	964.31
329.058	950.31
329.287	952.31
329.515	971.31
329.744	976.31
329.972	989.31
330.201	984.31
330.43	959.31
330.658	994.31
330.887	982.31
331.115	1007.31
331.344	1004.31
331.572	1002.31
331.801	1019.31
332.03	1033.31
332.258	1037.31
332.486	1038.31
332.715	1055.31
332.943	1059.31
333.172	1040.31
333.4	1055.31
333.629	1067.31
333.857	1096.31
334.085	1083.31
334.314	1074.31
334.542	1048.31
334.771	1125.31
334.999	1093.31
335.227	1120.31
335.455	1117.31
335.684	1101.31
335.912	1084.31
336.14	1110.31
336.369	1121.31
336.597	1133.31
336.825	1151.31
337.053	1121.31
337.281	1142.31
337.51	1118.31
337.738	1114.31
337.966	1126.31
338.194	1123.31
338.422	1114.31
338.65	1100.31
338.878	1136.31
339.106	1087.31
339.334	1116.31
339.562	1114.31
339.79	1085.31
340.018	1100.31
340.246	1116.31
340.474	1111.31
340.702	1105.31
340.93	1085.31
341.158	1135.31
341.386	1094.31
341.614	1150.31
341.842	1126.31
342.07	1110.31
342.298	1071.31
342.526	1096.31
342.754	1081.31
342.981	1092.31
343.209	1113.31
343.437	1098.31
343.665	1132.31
343.893	1128.31
344.12	1128.31
344.348	1087.31
344.576	1131.31
344.804	1141.31
345.031	1118.31
345.259	1120.31
345.487	1103.31
345.714	1111.31
345.942	1151.31
346.17	1138.31
346.397	1076.31
346.625	1088.31
346.853	1072.31
347.08	1051.31
347.308	1080.31
347.535	1088.31
347.763	1074.31
347.99	1071.31
348.218	1082.31
348.445	1096.31
348.673	1065.31
348.9	1072.31
349.128	1069.31
349.355	1064.31
349.583	1069.31
349.81	1074.31
350.037	1055.31
350.265	1046.31
350.492	1058.31
350.72	1036.31
350.947	1058.31
351.174	1093.31
351.402	1100.31
351.629	1110.31
351.856	1074.31
352.083	1076.31
352.311	1051.31
352.538	1077.31
352.765	1070.31
352.992	1061.31
353.22	1014.31
353.447	1019.31
353.674	1013.31
353.901	1035.31
354.128	1032.31
354.355	1034.31
354.583	1028.31
354.81	1017.31
355.037	1026.31
355.264	1058.31
355.491	1029.31
355.718	1051.31
355.945	1022.31
356.172	1049.31
356.399	1062.31
356.626	1056.31
356.853	1069.31
357.08	1033.31
357.307	1044.31
357.534	1051.31
357.761	1005.31
357.988	1003.31
358.215	1029.31
358.441	1039.31
358.668	1014.31
358.895	1029.31
359.122	1029.31
359.349	1049.31
359.576	1036.31
359.802	1020.31
360.029	1058.31
360.256	1031.31
360.483	1048.31
360.709	1032.31
360.936	1046.31
361.163	1041.31
361.39	1020.31
361.616	1036.31
361.843	1054.31
362.07	1067.31
362.296	1058.31
362.523	1033.31
362.749	1026.31
362.976	1029.31
363.203	1057.31
363.429	1038.31
363.656	1028.31
363.882	1002.31
364.109	1028.31
364.335	1031.31
364.562	1011.31
364.788	1028.31
365.015	1028.31
365.241	1030.31
365.468	1019.31
365.694	1017.31
365.92	1023.31
366.147	971.31
366.373	1026.31
366.599	1035.31
366.826	1009.31
367.052	1011.31
367.278	1025.31
367.505	1030.31
367.731	1035.31
367.957	1029.31
368.184	1001.31
368.41	1026.31
368.636	1021.31
368.862	1012.31
369.089	1021.31
369.315	1063.31
369.541	1010.31
369.767	997.31
369.993	1003.31
370.219	1036.31
370.445	1021.31
370.672	1036.31
370.898	1050.31
371.124	1020.31
371.35	1043.31
371.576	1032.31
371.802	1023.31
372.028	1021.31
372.254	1044.31
372.48	1032.31
372.706	1066.31
372.932	1050.31
373.158	1014.31
373.384	1026.31
373.61	1043.31
373.835	1058.31
374.061	1023.31
374.287	1029.31
374.513	1034.31
374.739	1044.31
374.965	1010.31
375.191	1052.31
375.416	1049.31
375.642	1017.31
375.868	1027.31
376.094	985.31
376.319	978.31
376.545	1032.31
376.771	1019.31
376.997	1035.31
377.222	996.31
377.448	987.31
377.674	1021.31
377.899	1000.31
378.125	1014.31
378.35	988.31
378.576	1012.31
378.802	997.31
379.027	974.31
379.253	997.31
379.478	960.31
379.704	982.31
379.929	975.31
380.155	996.31
380.38	997.31
380.606	970.31
380.831	965.31
381.057	1004.31
381.282	1022.31
381.507	980.31
381.733	969.31
381.958	983.31
382.184	977.31
382.409	1001.31
382.634	1016.31
382.86	978.31
383.085	993.31
383.31	1019.31
383.535	993.31
383.761	1014.31
383.986	999.31
384.211	997.31
384.436	1007.31
384.662	1031.31
384.887	1047.31
385.112	1018.31
385.337	1046.31
385.562	1034.31
385.787	1031.31
386.013	1048.31
386.238	1076.31
386.463	1061.31
386.688	1030.31
386.913	1048.31
387.138	1035.31
387.363	1026.31
387.588	1077.31
387.813	1085.31
388.038	1051.31
388.263	1039.31
388.488	1066.31
388.713	1062.31
388.938	1093.31
389.163	1064.31
389.387	1085.31
389.612	1045.31
389.837	1053.31
390.062	1074.31
390.287	1062.31
390.512	1077.31
390.736	1064.31
390.961	1068.31
391.186	1062.31
391.411	1080.31
391.636	1101.31
391.86	1078.31
392.085	1107.31
392.31	1086.31
392.534	1111.31
392.759	1089.31
392.984	1107.31
393.208	1099.31
393.433	1092.31
393.658	1094.31
393.882	1084.31
394.107	1080.31
394.331	1078.31
394.556	1092.31
394.78	1055.31
395.005	1094.31
395.229	1074.31
395.454	1098.31
395.678	1088.31
395.903	1095.31
396.127	1129.31
396.352	1114.31
396.576	1128.31
396.801	1113.31
397.025	1115.31
397.249	1118.31
397.474	1123.31
397.698	1133.31
397.922	1159.31
398.147	1172.31
398.371	1162.31
398.595	1168.31
398.82	1180.31
399.044	1195.31
399.268	1221.31
399.492	1234.31
399.717	1276.31
399.941	1295.31
400.165	1276.31
400.389	1274.31
400.613	1295.31
400.837	1200.31
401.062	1242.31
401.286	1212.31
401.51	1222.31
401.734	1240.31
401.958	1232.31
402.182	1194.31
402.406	1199.31
402.63	1203.31
402.854	1153.31
403.078	1193.31
403.302	1169.31
403.526	1212.31
403.75	1199.31
403.974	1224.31
404.198	1226.31
404.422	1202.31
404.645	1168.31
404.869	1188.31
405.093	1226.31
405.317	1216.31
405.541	1249.31
405.765	1235.31
405.988	1230.31
406.212	1282.31
406.436	1261.31
406.66	1254.31
406.883	1277.31
407.107	1292.31
407.331	1300.31
407.555	1302.31
407.778	1317.31
408.002	1336.31
408.226	1326.31
408.449	1344.31
408.673	1297.31
408.896	1291.31
409.12	1279.31
409.344	1292.31
409.567	1284.31
409.791	1313.31
410.014	1275.31
410.238	1270.31
410.461	1282.31
410.685	1256.31
410.908	1238.31
411.132	1288.31
411.355	1246.31
411.578	1251.31
411.802	1198.31
412.025	1264.31
412.249	1266.31
412.472	1268.31
412.695	1232.31
412.919	1242.31
413.142	1243.31
413.365	1229.31
413.589	1228.31
413.812	1212.31
414.035	1207.31
414.258	1233.31
414.482	1227.31
414.705	1245.31
414.928	1221.31
415.151	1254.31
415.374	1219.31
415.597	1232.31
415.821	1207.31
416.044	1194.31
416.267	1197.31
416.49	1217.31
416.713	1208.31
416.936	1222.31
417.159	1190.31
417.382	1207.31
417.605	1175.31
417.828	1222.31
418.051	1189.31
418.274	1200.31
418.497	1177.31
418.72	1177.31
418.943	1188.31
419.166	1237.31
419.389	1290.31
419.611	1296.31
419.834	1268.31
420.057	1251.31
420.28	1213.31
420.503	1190.31
420.726	1191.31
420.948	1206.31
421.171	1173.31
421.394	1183.31
421.617	1164.31
421.839	1210.31
422.062	1206.31
422.285	1154.31
422.507	1217.31
422.73	1189.31
422.953	1208.31
423.175	1197.31
423.398	1221.31
423.621	1177.31
423.843	1218.31
424.066	1237.31
424.288	1255.31
424.511	1234.31
424.733	1191.31
424.956	1217.31
425.178	1242.31
425.401	1229.31
425.623	1244.31
425.846	1224.31
426.068	1242.31
426.291	1230.31
426.513	1229.31
426.735	1241.31
426.958	1236.31
427.18	1203.31
427.402	1229.31
427.625	1243.31
427.847	1180.31
428.069	1194.31
428.292	1229.31
428.514	1199.31
428.736	1215.31
428.958	1197.31
429.181	1175.31
429.403	1197.31
429.625	1205.31
429.847	1189.31
430.069	1226.31
430.292	1220.31
430.514	1198.31
430.736	1227.31
430.958	1247.31
431.18	1222.31
431.402	1250.31
431.624	1178.31
431.846	1193.31
432.068	1202.31
432.29	1196.31
432.512	1195.31
432.734	1216.31
432.956	1209.31
433.178	1231.31
433.4	1211.31
433.622	1252.31
433.844	1261.31
434.066	1229.31
434.287	1258.31
434.509	1232.31
434.731	1230.31
434.953	1240.31
435.175	1222.31
435.397	1270.31
435.618	1238.31
435.84	1218.31
436.062	1207.31
436.284	1254.31
436.505	1232.31
436.727	1230.31
436.949	1207.31
437.17	1240.31
437.392	1204.31
437.614	1212.31
437.835	1175.31
438.057	1198.31
438.278	1145.31
438.5	1199.31
438.721	1226.31
438.943	1230.31
439.165	1207.31
439.386	1202.31
439.608	1250.31
439.829	1230.31
440.05	1204.31
440.272	1240.31
440.493	1233.31
440.715	1228.31
440.936	1244.31
441.158	1223.31
441.379	1272.31
441.6	1300.31
441.822	1244.31
442.043	1281.31
442.264	1270.31
442.486	1227.31
442.707	1262.31
442.928	1257.31
443.149	1252.31
443.371	1289.31
443.592	1300.31
443.813	1295.31
444.034	1286.31
444.255	1287.31
444.476	1290.31
444.698	1279.31
444.919	1303.31
445.14	1428.31
445.361	1366.31
445.582	1303.31
445.803	1245.31
446.024	1254.31
446.245	1245.31
446.466	1223.31
446.687	1220.31
446.908	1215.31
447.129	1207.31
447.35	1198.31
447.571	1178.31
447.792	1164.31
448.013	1165.31
448.234	1164.31
448.455	1181.31
448.675	1154.31
448.896	1173.31
449.117	1144.31
449.338	1133.31
449.559	1157.31
449.779	1134.31
450	1130.31
450.221	1166.31
450.442	1116.31
450.662	1108.31
450.883	1147.31
451.104	1170.31
451.324	1096.31
451.545	1155.31
451.766	1131.31
451.986	1133.31
452.207	1146.31
452.428	1123.31
452.648	1110.31
452.869	1105.31
453.089	1093.31
453.31	1138.31
453.53	1086.31
453.751	1091.31
453.971	1084.31
454.192	1075.31
454.412	1095.31
454.633	1138.31
454.853	1090.31
455.073	1091.31
455.294	1075.31
455.514	1087.31
455.734	1120.31
455.955	1091.31
456.175	1093.31
456.395	1103.31
456.616	1086.31
456.836	1098.31
457.056	1084.31
457.276	1122.31
457.497	1122.31
457.717	1126.31
457.937	1102.31
458.157	1118.31
458.377	1108.31
458.598	1125.31
458.818	1138.31
459.038	1159.31
459.258	1161.31
459.478	1182.31
459.698	1255.31
459.918	1262.31
460.138	1250.31
460.358	1229.31
460.578	1257.31
460.798	1262.31
461.018	1309.31
461.238	1265.31
461.458	1247.31
461.678	1231.31
461.898	1267.31
462.118	1252.31
462.338	1306.31
462.558	1323.31
462.777	1312.31
462.997	1360.31
463.217	1360.31
463.437	1400.31
463.657	1388.31
463.876	1351.31
464.096	1331.31
464.316	1336.31
464.536	1332.31
464.755	1286.31
464.975	1314.31
465.195	1246.31
465.414	1262.31
465.634	1213.31
465.854	1241.31
466.073	1254.31
466.293	1215.31
466.512	1196.31
466.732	1214.31
466.951	1219.31
467.171	1198.31
467.391	1202.31
467.61	1186.31
467.829	1199.31
468.049	1190.31
468.268	1199.31
468.488	1187.31
468.707	1182.31
468.927	1190.31
469.146	1185.31
469.365	1211.31
469.585	1255.31
469.804	1172.31
470.023	1182.31
470.243	1167.31
470.462	1211.31
470.681	1194.31
470.901	1203.31
471.12	1194.31
471.339	1200.31
471.558	1188.31
471.777	1213.31
471.997	1210.31
472.216	1228.31
472.435	1220.31
472.654	1216.31
472.873	1186.31
473.092	1183.31
473.311	1178.31
473.53	1236.31
473.749	1200.31
473.968	1239.31
474.187	1199.31
474.406	1218.31
474.625	1217.31
474.844	1229.31
475.063	1255.31
475.282	1260.31
475.501	1238.31
475.72	1236.31
475.939	1261.31
476.158	1246.31
476.377	1248.31
476.596	1302.31
476.814	1301.31
477.033	1292.31
477.252	1273.31
477.471	1317.31
477.69	1348.31
477.908	1324.31
478.127	1338.31
478.346	1336.31
478.564	1401.31
478.783	1394.31
479.002	1430.31
479.22	1398.31
479.439	1382.31
479.658	1403.31
479.876	1420.31
480.095	1390.31
480.313	1387.31
480.532	1406.31
480.751	1402.31
480.969	1402.31
481.188	1403.31
481.406	1407.31
481.624	1392.31
481.843	1378.31
482.061	1439.31
482.28	1396.31
482.498	1396.31
482.717	1395.31
482.935	1432.31
483.153	1419.31
483.372	1455.31
483.59	1493.31
483.808	1424.31
484.027	1460.31
484.245	1450.31
484.463	1439.31
484.681	1478.31
484.9	1460.31
485.118	1472.31
485.336	1460.31
485.554	1426.31
485.772	1464.31
485.99	1430.31
486.209	1419.31
486.427	1443.31
486.645	1498.31
486.863	1504.31
487.081	1489.31
487.299	1496.31
487.517	1479.31
487.735	1501.31
487.953	1527.31
488.171	1534.31
488.389	1507.31
488.607	1486.31
488.825	1498.31
489.043	1495.31
489.261	1501.31
489.479	1465.31
489.696	1462.31
489.914	1486.31
490.132	1516.31
490.35	1525.31
490.568	1514.31
490.786	1522.31
491.003	1498.31
491.221	1498.31
491.439	1527.31
491.657	1551.31
491.874	1551.31
492.092	1577.31
