Data from Ni(NO3)2@0.25M.TitratingCurve.Agarose3%dH2O.NegLispCup.LampEnergy10.LIBS07252019_HRD10591_18-02-45-565.txt Node
Date: Thu Jul 25 18:02:45 EDT 2019
User: cochatt
Spectrometer: HR+D1059
Trigger mode: 1
Integration Time (sec): 1.000000E-1
Scans to average: 1
Electric dark correction enabled: true
Nonlinearity correction enabled: false
Boxcar width: 0
XAxis mode: Wavelengths
Number of Pixels in Spectrum: 2048
>>>>>Begin Spectral Data<<<<<
223.165	-21.19
223.4	-21.19
223.635	-21.19
223.869	-24.19
224.104	-18.19
224.338	-14.19
224.573	-27.19
224.808	-5.19
225.042	-5.19
225.277	-20.19
225.511	4.81
225.746	6.81
225.98	0.81
226.215	20.81
226.449	19.81
226.683	20.81
226.918	26.81
227.152	34.81
227.387	23.81
227.621	40.81
227.856	40.81
228.09	46.81
228.324	52.81
228.559	56.81
228.793	51.81
229.027	115.81
229.262	114.81
229.496	123.81
229.73	117.81
229.964	131.81
230.199	136.81
230.433	146.81
230.667	138.81
230.901	136.81
231.136	140.81
231.37	118.81
231.604	145.81
231.838	162.81
232.072	162.81
232.306	135.81
232.541	143.81
232.775	136.81
233.009	128.81
233.243	142.81
233.477	148.81
233.711	143.81
233.945	154.81
234.179	151.81
234.413	134.81
234.647	135.81
234.881	151.81
235.115	135.81
235.349	135.81
235.583	137.81
235.817	150.81
236.051	122.81
236.285	130.81
236.519	145.81
236.753	136.81
236.987	152.81
237.221	142.81
237.455	150.81
237.689	150.81
237.922	152.81
238.156	147.81
238.39	150.81
238.624	152.81
238.858	152.81
239.091	156.81
239.325	162.81
239.559	170.81
239.793	159.81
240.027	182.81
240.26	161.81
240.494	158.81
240.728	148.81
240.961	147.81
241.195	159.81
241.429	181.81
241.662	163.81
241.896	188.81
242.13	172.81
242.363	177.81
242.597	164.81
242.83	153.81
243.064	166.81
243.298	163.81
243.531	157.81
243.765	183.81
243.998	190.81
244.232	190.81
244.465	172.81
244.699	187.81
244.932	204.81
245.166	182.81
245.399	198.81
245.633	197.81
245.866	171.81
246.099	198.81
246.333	220.81
246.566	188.81
246.8	196.81
247.033	196.81
247.266	211.81
247.5	210.81
247.733	201.81
247.966	203.81
248.2	224.81
248.433	214.81
248.666	238.81
248.899	217.81
249.133	230.81
249.366	251.81
249.599	244.81
249.832	220.81
250.066	249.81
250.299	262.81
250.532	244.81
250.765	244.81
250.998	253.81
251.231	275.81
251.465	284.81
251.698	271.81
251.931	279.81
252.164	280.81
252.397	267.81
252.63	288.81
252.863	287.81
253.096	277.81
253.329	288.81
253.562	289.81
253.795	300.81
254.028	302.81
254.261	315.81
254.494	302.81
254.727	310.81
254.96	308.81
255.193	315.81
255.426	318.81
255.659	320.81
255.892	318.81
256.124	343.81
256.357	333.81
256.59	341.81
256.823	344.81
257.056	326.81
257.289	341.81
257.521	358.81
257.754	337.81
257.987	362.81
258.22	364.81
258.452	339.81
258.685	382.81
258.918	373.81
259.151	370.81
259.383	365.81
259.616	382.81
259.849	384.81
260.081	388.81
260.314	390.81
260.547	372.81
260.779	387.81
261.012	399.81
261.244	393.81
261.477	401.81
261.71	399.81
261.942	391.81
262.175	408.81
262.407	398.81
262.64	416.81
262.872	410.81
263.105	393.81
263.337	414.81
263.57	430.81
263.802	419.81
264.035	421.81
264.267	431.81
264.499	445.81
264.732	427.81
264.964	449.81
265.197	419.81
265.429	422.81
265.661	450.81
265.894	432.81
266.126	433.81
266.358	433.81
266.591	418.81
266.823	445.81
267.055	431.81
267.287	445.81
267.52	442.81
267.752	446.81
267.984	449.81
268.216	455.81
268.448	446.81
268.681	435.81
268.913	467.81
269.145	448.81
269.377	440.81
269.609	446.81
269.841	460.81
270.073	454.81
270.306	463.81
270.538	442.81
270.77	415.81
271.002	437.81
271.234	460.81
271.466	448.81
271.698	468.81
271.93	458.81
272.162	482.81
272.394	452.81
272.626	475.81
272.858	475.81
273.09	499.81
273.322	483.81
273.553	468.81
273.785	471.81
274.017	484.81
274.249	456.81
274.481	491.81
274.713	476.81
274.945	492.81
275.176	486.81
275.408	484.81
275.64	479.81
275.872	472.81
276.104	492.81
276.335	495.81
276.567	475.81
276.799	507.81
277.031	513.81
277.262	498.81
277.494	499.81
277.726	512.81
277.957	496.81
278.189	506.81
278.421	512.81
278.652	493.81
278.884	512.81
279.115	483.81
279.347	512.81
279.579	491.81
279.81	523.81
280.042	533.81
280.273	495.81
280.505	511.81
280.736	511.81
280.968	526.81
281.199	510.81
281.431	534.81
281.662	509.81
281.894	533.81
282.125	526.81
282.356	520.81
282.588	515.81
282.819	532.81
283.051	515.81
283.282	537.81
283.513	491.81
283.745	515.81
283.976	536.81
284.207	517.81
284.439	534.81
284.67	556.81
284.901	513.81
285.132	530.81
285.364	515.81
285.595	550.81
285.826	511.81
286.057	535.81
286.288	522.81
286.52	556.81
286.751	547.81
286.982	550.81
287.213	535.81
287.444	557.81
287.675	560.81
287.906	549.81
288.138	558.81
288.369	524.81
288.6	538.81
288.831	542.81
289.062	530.81
289.293	517.81
289.524	540.81
289.755	561.81
289.986	538.81
290.217	515.81
290.448	530.81
290.679	535.81
290.91	544.81
291.141	545.81
291.371	527.81
291.602	574.81
291.833	543.81
292.064	571.81
292.295	539.81
292.526	566.81
292.757	546.81
292.987	529.81
293.218	545.81
293.449	539.81
293.68	560.81
293.91	550.81
294.141	561.81
294.372	540.81
294.603	545.81
294.833	545.81
295.064	533.81
295.295	560.81
295.525	542.81
295.756	544.81
295.987	531.81
296.217	548.81
296.448	552.81
296.679	529.81
296.909	546.81
297.14	558.81
297.37	568.81
297.601	567.81
297.831	565.81
298.062	577.81
298.292	557.81
298.523	565.81
298.753	579.81
298.984	561.81
299.214	573.81
299.445	592.81
299.675	585.81
299.905	579.81
300.136	577.81
300.366	594.81
300.597	591.81
300.827	591.81
301.057	595.81
301.288	571.81
301.518	585.81
301.748	604.81
301.979	610.81
302.209	607.81
302.439	620.81
302.669	628.81
302.9	610.81
303.13	605.81
303.36	632.81
303.59	626.81
303.82	606.81
304.051	630.81
304.281	622.81
304.511	606.81
304.741	653.81
304.971	650.81
305.201	627.81
305.431	631.81
305.661	627.81
305.891	620.81
306.121	622.81
306.352	626.81
306.582	618.81
306.812	641.81
307.042	621.81
307.272	622.81
307.502	627.81
307.731	654.81
307.961	636.81
308.191	636.81
308.421	661.81
308.651	631.81
308.881	620.81
309.111	630.81
309.341	649.81
309.571	656.81
309.8	648.81
310.03	676.81
310.26	670.81
310.49	674.81
310.72	682.81
310.949	664.81
311.179	698.81
311.409	657.81
311.639	669.81
311.868	679.81
312.098	707.81
312.328	678.81
312.557	694.81
312.787	689.81
313.017	703.81
313.246	712.81
313.476	724.81
313.706	726.81
313.935	737.81
314.165	718.81
314.394	722.81
314.624	734.81
314.853	731.81
315.083	724.81
315.312	753.81
315.542	754.81
315.771	742.81
316.001	744.81
316.23	757.81
316.46	743.81
316.689	780.81
316.919	762.81
317.148	777.81
317.377	794.81
317.607	769.81
317.836	775.81
318.065	789.81
318.295	794.81
318.524	801.81
318.753	806.81
318.983	794.81
319.212	813.81
319.441	827.81
319.67	820.81
319.9	828.81
320.129	850.81
320.358	814.81
320.587	822.81
320.816	832.81
321.046	836.81
321.275	871.81
321.504	840.81
321.733	863.81
321.962	882.81
322.191	869.81
322.42	848.81
322.649	875.81
322.878	886.81
323.108	875.81
323.337	924.81
323.566	917.81
323.795	897.81
324.024	930.81
324.253	906.81
324.482	920.81
324.71	914.81
324.939	951.81
325.168	950.81
325.397	951.81
325.626	933.81
325.855	946.81
326.084	957.81
326.313	966.81
326.542	965.81
326.77	977.81
326.999	964.81
327.228	986.81
327.457	999.81
327.686	987.81
327.914	995.81
328.143	1000.81
328.372	1003.81
328.6	1001.81
328.829	1012.81
329.058	1029.81
329.287	1010.81
329.515	1026.81
329.744	1002.81
329.972	1040.81
330.201	1045.81
330.43	1054.81
330.658	1046.81
330.887	1038.81
331.115	1057.81
331.344	1056.81
331.572	1076.81
331.801	1104.81
332.03	1048.81
332.258	1084.81
332.486	1087.81
332.715	1108.81
332.943	1113.81
333.172	1118.81
333.4	1126.81
333.629	1144.81
333.857	1144.81
334.085	1140.81
334.314	1184.81
334.542	1170.81
334.771	1166.81
334.999	1124.81
335.227	1213.81
335.455	1157.81
335.684	1211.81
335.912	1205.81
336.14	1180.81
336.369	1132.81
336.597	1166.81
336.825	1189.81
337.053	1161.81
337.281	1184.81
337.51	1149.81
337.738	1167.81
337.966	1161.81
338.194	1171.81
338.422	1139.81
338.65	1127.81
338.878	1168.81
339.106	1132.81
339.334	1147.81
339.562	1163.81
339.79	1139.81
340.018	1165.81
340.246	1126.81
340.474	1127.81
340.702	1136.81
340.93	1160.81
341.158	1143.81
341.386	1139.81
341.614	1147.81
341.842	1121.81
342.07	1142.81
342.298	1118.81
342.526	1139.81
342.754	1151.81
342.981	1150.81
343.209	1143.81
343.437	1170.81
343.665	1181.81
343.893	1172.81
344.12	1206.81
344.348	1215.81
344.576	1191.81
344.804	1151.81
345.031	1167.81
345.259	1168.81
345.487	1176.81
345.714	1142.81
345.942	1117.81
346.17	1176.81
346.397	1141.81
346.625	1140.81
346.853	1135.81
347.08	1132.81
347.308	1115.81
347.535	1158.81
347.763	1132.81
347.99	1080.81
348.218	1107.81
348.445	1106.81
348.673	1120.81
348.9	1120.81
349.128	1122.81
349.355	1109.81
349.583	1127.81
349.81	1132.81
350.037	1088.81
350.265	1091.81
350.492	1135.81
350.72	1098.81
350.947	1100.81
351.174	1104.81
351.402	1125.81
351.629	1118.81
351.856	1082.81
352.083	1107.81
352.311	1083.81
352.538	1118.81
352.765	1093.81
352.992	1081.81
353.22	1088.81
353.447	1097.81
353.674	1085.81
353.901	1116.81
354.128	1085.81
354.355	1069.81
354.583	1092.81
354.81	1106.81
355.037	1088.81
355.264	1089.81
355.491	1094.81
355.718	1067.81
355.945	1093.81
356.172	1111.81
356.399	1069.81
356.626	1123.81
356.853	1114.81
357.08	1110.81
357.307	1100.81
357.534	1105.81
357.761	1081.81
357.988	1113.81
358.215	1103.81
358.441	1045.81
358.668	1095.81
358.895	1104.81
359.122	1072.81
359.349	1079.81
359.576	1096.81
359.802	1099.81
360.029	1078.81
360.256	1076.81
360.483	1107.81
360.709	1077.81
360.936	1105.81
361.163	1058.81
361.39	1049.81
361.616	1088.81
361.843	1129.81
362.07	1111.81
362.296	1108.81
362.523	1084.81
362.749	1074.81
362.976	1074.81
363.203	1072.81
363.429	1061.81
363.656	1106.81
363.882	1076.81
364.109	1066.81
364.335	1066.81
364.562	1084.81
364.788	1084.81
365.015	1104.81
365.241	1094.81
365.468	1066.81
365.694	1069.81
365.92	1070.81
366.147	1061.81
366.373	1088.81
366.599	1098.81
366.826	1084.81
367.052	1059.81
367.278	1106.81
367.505	1053.81
367.731	1102.81
367.957	1090.81
368.184	1130.81
368.41	1067.81
368.636	1099.81
368.862	1131.81
369.089	1089.81
369.315	1099.81
369.541	1062.81
369.767	1099.81
369.993	1097.81
370.219	1077.81
370.445	1082.81
370.672	1087.81
370.898	1093.81
371.124	1087.81
371.35	1089.81
371.576	1086.81
371.802	1098.81
372.028	1078.81
372.254	1100.81
372.48	1085.81
372.706	1086.81
372.932	1096.81
373.158	1058.81
373.384	1095.81
373.61	1091.81
373.835	1109.81
374.061	1090.81
374.287	1104.81
374.513	1123.81
374.739	1089.81
374.965	1072.81
375.191	1103.81
375.416	1090.81
375.642	1082.81
375.868	1076.81
376.094	1068.81
376.319	1051.81
376.545	1069.81
376.771	1068.81
376.997	1088.81
377.222	1056.81
377.448	1037.81
377.674	1067.81
377.899	1046.81
378.125	1045.81
378.35	1035.81
378.576	1026.81
378.802	1057.81
379.027	1026.81
379.253	1063.81
379.478	1043.81
379.704	1040.81
379.929	1028.81
380.155	1061.81
380.38	1009.81
380.606	1050.81
380.831	1030.81
381.057	1016.81
381.282	1043.81
381.507	1032.81
381.733	1032.81
381.958	1032.81
382.184	1037.81
382.409	1050.81
382.634	1041.81
382.86	1057.81
383.085	1085.81
383.31	1054.81
383.535	1080.81
383.761	1054.81
383.986	1049.81
384.211	1068.81
384.436	1066.81
384.662	1068.81
384.887	1061.81
385.112	1042.81
385.337	1082.81
385.562	1100.81
385.787	1096.81
386.013	1100.81
386.238	1111.81
386.463	1080.81
386.688	1087.81
386.913	1058.81
387.138	1085.81
387.363	1118.81
387.588	1100.81
387.813	1123.81
388.038	1112.81
388.263	1086.81
388.488	1080.81
388.713	1087.81
388.938	1086.81
389.163	1108.81
389.387	1103.81
389.612	1083.81
389.837	1084.81
390.062	1105.81
390.287	1119.81
390.512	1106.81
390.736	1118.81
390.961	1122.81
391.186	1110.81
391.411	1104.81
391.636	1137.81
391.86	1106.81
392.085	1120.81
392.31	1173.81
392.534	1130.81
392.759	1113.81
392.984	1124.81
393.208	1132.81
393.433	1106.81
393.658	1123.81
393.882	1127.81
394.107	1130.81
394.331	1110.81
394.556	1122.81
394.78	1133.81
395.005	1107.81
395.229	1125.81
395.454	1107.81
395.678	1140.81
395.903	1147.81
396.127	1154.81
396.352	1123.81
396.576	1130.81
396.801	1148.81
397.025	1140.81
397.249	1164.81
397.474	1165.81
397.698	1184.81
397.922	1180.81
398.147	1190.81
398.371	1209.81
398.595	1181.81
398.82	1219.81
399.044	1248.81
399.268	1232.81
399.492	1313.81
399.717	1324.81
399.941	1316.81
400.165	1274.81
400.389	1313.81
400.613	1249.81
400.837	1303.81
401.062	1271.81
401.286	1241.81
401.51	1209.81
401.734	1255.81
401.958	1226.81
402.182	1225.81
402.406	1182.81
402.63	1238.81
402.854	1221.81
403.078	1221.81
403.302	1242.81
403.526	1243.81
403.75	1266.81
403.974	1238.81
404.198	1215.81
404.422	1251.81
404.645	1253.81
404.869	1250.81
405.093	1240.81
405.317	1264.81
405.541	1283.81
405.765	1274.81
405.988	1250.81
406.212	1290.81
406.436	1306.81
406.66	1306.81
406.883	1283.81
407.107	1348.81
407.331	1322.81
407.555	1351.81
407.778	1334.81
408.002	1343.81
408.226	1347.81
408.449	1381.81
408.673	1302.81
408.896	1357.81
409.12	1362.81
409.344	1342.81
409.567	1303.81
409.791	1336.81
410.014	1285.81
410.238	1300.81
410.461	1300.81
410.685	1295.81
410.908	1267.81
411.132	1299.81
411.355	1276.81
411.578	1260.81
411.802	1285.81
412.025	1263.81
412.249	1287.81
412.472	1291.81
412.695	1273.81
412.919	1265.81
413.142	1297.81
413.365	1277.81
413.589	1286.81
413.812	1272.81
414.035	1263.81
414.258	1274.81
414.482	1266.81
414.705	1288.81
414.928	1259.81
415.151	1283.81
415.374	1268.81
415.597	1264.81
415.821	1252.81
416.044	1259.81
416.267	1284.81
416.49	1249.81
416.713	1269.81
416.936	1226.81
417.159	1220.81
417.382	1211.81
417.605	1242.81
417.828	1258.81
418.051	1239.81
418.274	1238.81
418.497	1225.81
418.72	1258.81
418.943	1206.81
419.166	1302.81
419.389	1329.81
419.611	1341.81
419.834	1331.81
420.057	1268.81
420.28	1250.81
420.503	1246.81
420.726	1236.81
420.948	1187.81
421.171	1206.81
421.394	1244.81
421.617	1238.81
421.839	1266.81
422.062	1254.81
422.285	1205.81
422.507	1254.81
422.73	1281.81
422.953	1266.81
423.175	1262.81
423.398	1266.81
423.621	1242.81
423.843	1243.81
424.066	1283.81
424.288	1260.81
424.511	1238.81
424.733	1261.81
424.956	1274.81
425.178	1234.81
425.401	1288.81
425.623	1276.81
425.846	1263.81
426.068	1308.81
426.291	1269.81
426.513	1261.81
426.735	1260.81
426.958	1262.81
427.18	1217.81
427.402	1223.81
427.625	1244.81
427.847	1243.81
428.069	1265.81
428.292	1295.81
428.514	1264.81
428.736	1263.81
428.958	1288.81
429.181	1247.81
429.403	1239.81
429.625	1253.81
429.847	1242.81
430.069	1279.81
430.292	1243.81
430.514	1258.81
430.736	1250.81
430.958	1265.81
431.18	1248.81
431.402	1271.81
431.624	1240.81
431.846	1228.81
432.068	1250.81
432.29	1258.81
432.512	1252.81
432.734	1311.81
432.956	1269.81
433.178	1283.81
433.4	1260.81
433.622	1318.81
433.844	1298.81
434.066	1302.81
434.287	1308.81
434.509	1297.81
434.731	1280.81
434.953	1306.81
435.175	1294.81
435.397	1346.81
435.618	1270.81
435.84	1294.81
436.062	1247.81
436.284	1273.81
436.505	1279.81
436.727	1277.81
436.949	1261.81
437.17	1268.81
437.392	1303.81
437.614	1264.81
437.835	1262.81
438.057	1222.81
438.278	1230.81
438.5	1247.81
438.721	1246.81
438.943	1236.81
439.165	1270.81
439.386	1265.81
439.608	1251.81
439.829	1278.81
440.05	1293.81
440.272	1301.81
440.493	1289.81
440.715	1275.81
440.936	1283.81
441.158	1283.81
441.379	1318.81
441.6	1304.81
441.822	1307.81
442.043	1307.81
442.264	1315.81
442.486	1292.81
442.707	1312.81
442.928	1278.81
443.149	1302.81
443.371	1276.81
443.592	1340.81
443.813	1343.81
444.034	1320.81
444.255	1334.81
444.476	1311.81
444.698	1337.81
444.919	1343.81
445.14	1487.81
445.361	1362.81
445.582	1332.81
445.803	1313.81
446.024	1236.81
446.245	1299.81
446.466	1291.81
446.687	1231.81
446.908	1276.81
447.129	1259.81
447.35	1230.81
447.571	1238.81
447.792	1185.81
448.013	1205.81
448.234	1212.81
448.455	1191.81
448.675	1206.81
448.896	1202.81
449.117	1215.81
449.338	1220.81
449.559	1174.81
449.779	1169.81
450	1194.81
450.221	1191.81
450.442	1228.81
450.662	1197.81
450.883	1167.81
451.104	1200.81
451.324	1204.81
451.545	1166.81
451.766	1203.81
451.986	1196.81
452.207	1199.81
452.428	1215.81
452.648	1179.81
452.869	1175.81
453.089	1150.81
453.31	1148.81
453.53	1166.81
453.751	1123.81
453.971	1178.81
454.192	1169.81
454.412	1176.81
454.633	1173.81
454.853	1144.81
455.073	1134.81
455.294	1160.81
455.514	1154.81
455.734	1165.81
455.955	1150.81
456.175	1139.81
456.395	1158.81
456.616	1130.81
456.836	1138.81
457.056	1152.81
457.276	1088.81
457.497	1156.81
457.717	1176.81
457.937	1158.81
458.157	1143.81
458.377	1141.81
458.598	1146.81
458.818	1144.81
459.038	1174.81
459.258	1182.81
459.478	1232.81
459.698	1265.81
459.918	1284.81
460.138	1264.81
460.358	1288.81
460.578	1278.81
460.798	1299.81
461.018	1309.81
461.238	1286.81
461.458	1298.81
461.678	1300.81
461.898	1303.81
462.118	1281.81
462.338	1332.81
462.558	1364.81
462.777	1323.81
462.997	1357.81
463.217	1370.81
463.437	1408.81
463.657	1410.81
463.876	1363.81
464.096	1408.81
464.316	1362.81
464.536	1345.81
464.755	1304.81
464.975	1351.81
465.195	1310.81
465.414	1278.81
465.634	1277.81
465.854	1263.81
466.073	1212.81
466.293	1238.81
466.512	1238.81
466.732	1240.81
466.951	1259.81
467.171	1223.81
467.391	1227.81
467.61	1246.81
467.829	1200.81
468.049	1231.81
468.268	1238.81
468.488	1210.81
468.707	1218.81
468.927	1235.81
469.146	1229.81
469.365	1237.81
469.585	1235.81
469.804	1250.81
470.023	1246.81
470.243	1264.81
470.462	1209.81
470.681	1230.81
470.901	1267.81
471.12	1241.81
471.339	1270.81
471.558	1275.81
471.777	1278.81
471.997	1287.81
472.216	1271.81
472.435	1252.81
472.654	1223.81
472.873	1204.81
473.092	1266.81
473.311	1241.81
473.53	1269.81
473.749	1274.81
473.968	1249.81
474.187	1249.81
474.406	1246.81
474.625	1286.81
474.844	1274.81
475.063	1267.81
475.282	1320.81
475.501	1296.81
475.72	1310.81
475.939	1310.81
476.158	1356.81
476.377	1351.81
476.596	1326.81
476.814	1350.81
477.033	1356.81
477.252	1334.81
477.471	1355.81
477.69	1370.81
477.908	1426.81
478.127	1426.81
478.346	1427.81
478.564	1439.81
478.783	1406.81
479.002	1488.81
479.22	1495.81
479.439	1479.81
479.658	1471.81
479.876	1439.81
480.095	1483.81
480.313	1451.81
480.532	1496.81
480.751	1497.81
480.969	1476.81
481.188	1475.81
481.406	1469.81
481.624	1439.81
481.843	1491.81
482.061	1451.81
482.28	1459.81
482.498	1488.81
482.717	1435.81
482.935	1483.81
483.153	1547.81
483.372	1511.81
483.59	1551.81
483.808	1488.81
484.027	1516.81
484.245	1527.81
484.463	1496.81
484.681	1551.81
484.9	1518.81
485.118	1526.81
485.336	1509.81
485.554	1498.81
485.772	1530.81
485.99	1554.81
486.209	1516.81
486.427	1508.81
486.645	1516.81
486.863	1557.81
487.081	1535.81
487.299	1557.81
487.517	1565.81
487.735	1589.81
487.953	1576.81
488.171	1595.81
488.389	1540.81
488.607	1590.81
488.825	1547.81
489.043	1570.81
489.261	1578.81
489.479	1565.81
489.696	1558.81
489.914	1537.81
490.132	1560.81
490.35	1600.81
490.568	1543.81
490.786	1606.81
491.003	1588.81
491.221	1591.81
491.439	1648.81
