Data from Ni(NO3)2@0.25M.TitratingCurve.Agarose3%dH2O.NegLispCup.LampEnergy10.LIBS07252019_HRD10591_18-03-25-565.txt Node
Date: Thu Jul 25 18:03:25 EDT 2019
User: cochatt
Spectrometer: HR+D1059
Trigger mode: 1
Integration Time (sec): 1.000000E-1
Scans to average: 1
Electric dark correction enabled: true
Nonlinearity correction enabled: false
Boxcar width: 0
XAxis mode: Wavelengths
Number of Pixels in Spectrum: 2048
>>>>>Begin Spectral Data<<<<<
223.165	-22.06
223.4	-22.06
223.635	-22.06
223.869	-31.06
224.104	-25.06
224.338	-16.06
224.573	-13.06
224.808	-15.06
225.042	-12.06
225.277	-5.06
225.511	5.94
225.746	10.94
225.98	1.94
226.215	11.94
226.449	12.94
226.683	29.94
226.918	29.94
227.152	35.94
227.387	29.94
227.621	36.94
227.856	39.94
228.09	33.94
228.324	36.94
228.559	56.94
228.793	60.94
229.027	88.94
229.262	85.94
229.496	102.94
229.73	102.94
229.964	111.94
230.199	113.94
230.433	131.94
230.667	133.94
230.901	122.94
231.136	118.94
231.37	112.94
231.604	123.94
231.838	139.94
232.072	127.94
232.306	128.94
232.541	118.94
232.775	121.94
233.009	128.94
233.243	133.94
233.477	133.94
233.711	135.94
233.945	117.94
234.179	126.94
234.413	120.94
234.647	129.94
234.881	141.94
235.115	119.94
235.349	123.94
235.583	117.94
235.817	145.94
236.051	122.94
236.285	125.94
236.519	123.94
236.753	125.94
236.987	132.94
237.221	140.94
237.455	121.94
237.689	129.94
237.922	136.94
238.156	136.94
238.39	138.94
238.624	134.94
238.858	151.94
239.091	139.94
239.325	150.94
239.559	127.94
239.793	135.94
240.027	143.94
240.26	125.94
240.494	121.94
240.728	129.94
240.961	143.94
241.195	155.94
241.429	141.94
241.662	145.94
241.896	153.94
242.13	157.94
242.363	144.94
242.597	147.94
242.83	167.94
243.064	152.94
243.298	154.94
243.531	150.94
243.765	164.94
243.998	159.94
244.232	171.94
244.465	159.94
244.699	164.94
244.932	146.94
245.166	168.94
245.399	175.94
245.633	177.94
245.866	179.94
246.099	164.94
246.333	177.94
246.566	164.94
246.8	169.94
247.033	169.94
247.266	186.94
247.5	181.94
247.733	183.94
247.966	202.94
248.2	186.94
248.433	181.94
248.666	186.94
248.899	186.94
249.133	206.94
249.366	203.94
249.599	193.94
249.832	206.94
250.066	216.94
250.299	209.94
250.532	217.94
250.765	226.94
250.998	227.94
251.231	202.94
251.465	230.94
251.698	242.94
251.931	214.94
252.164	235.94
252.397	228.94
252.63	240.94
252.863	236.94
253.096	243.94
253.329	247.94
253.562	232.94
253.795	222.94
254.028	249.94
254.261	237.94
254.494	266.94
254.727	245.94
254.96	265.94
255.193	270.94
255.426	258.94
255.659	248.94
255.892	267.94
256.124	277.94
256.357	263.94
256.59	272.94
256.823	267.94
257.056	276.94
257.289	275.94
257.521	273.94
257.754	309.94
257.987	302.94
258.22	296.94
258.452	301.94
258.685	283.94
258.918	296.94
259.151	301.94
259.383	292.94
259.616	294.94
259.849	292.94
260.081	307.94
260.314	307.94
260.547	302.94
260.779	312.94
261.012	317.94
261.244	323.94
261.477	315.94
261.71	319.94
261.942	321.94
262.175	318.94
262.407	345.94
262.64	320.94
262.872	307.94
263.105	325.94
263.337	336.94
263.57	313.94
263.802	345.94
264.035	343.94
264.267	343.94
264.499	341.94
264.732	327.94
264.964	331.94
265.197	329.94
265.429	348.94
265.661	327.94
265.894	358.94
266.126	338.94
266.358	325.94
266.591	344.94
266.823	355.94
267.055	327.94
267.287	329.94
267.52	359.94
267.752	347.94
267.984	362.94
268.216	354.94
268.448	373.94
268.681	354.94
268.913	347.94
269.145	354.94
269.377	373.94
269.609	354.94
269.841	350.94
270.073	369.94
270.306	369.94
270.538	356.94
270.77	368.94
271.002	357.94
271.234	342.94
271.466	367.94
271.698	375.94
271.93	363.94
272.162	379.94
272.394	375.94
272.626	368.94
272.858	385.94
273.09	404.94
273.322	371.94
273.553	380.94
273.785	384.94
274.017	392.94
274.249	385.94
274.481	370.94
274.713	370.94
274.945	403.94
275.176	386.94
275.408	378.94
275.64	385.94
275.872	401.94
276.104	379.94
276.335	375.94
276.567	406.94
276.799	408.94
277.031	418.94
277.262	396.94
277.494	416.94
277.726	410.94
277.957	405.94
278.189	405.94
278.421	408.94
278.652	417.94
278.884	403.94
279.115	401.94
279.347	398.94
279.579	401.94
279.81	402.94
280.042	416.94
280.273	425.94
280.505	405.94
280.736	408.94
280.968	405.94
281.199	410.94
281.431	405.94
281.662	433.94
281.894	421.94
282.125	408.94
282.356	440.94
282.588	437.94
282.819	410.94
283.051	421.94
283.282	399.94
283.513	426.94
283.745	419.94
283.976	410.94
284.207	431.94
284.439	426.94
284.67	426.94
284.901	417.94
285.132	437.94
285.364	432.94
285.595	426.94
285.826	413.94
286.057	423.94
286.288	441.94
286.52	437.94
286.751	441.94
286.982	438.94
287.213	430.94
287.444	440.94
287.675	434.94
287.906	438.94
288.138	451.94
288.369	450.94
288.6	449.94
288.831	450.94
289.062	446.94
289.293	427.94
289.524	437.94
289.755	462.94
289.986	447.94
290.217	424.94
290.448	445.94
290.679	446.94
290.91	436.94
291.141	447.94
291.371	435.94
291.602	457.94
291.833	448.94
292.064	449.94
292.295	455.94
292.526	455.94
292.757	450.94
292.987	435.94
293.218	449.94
293.449	451.94
293.68	451.94
293.91	449.94
294.141	455.94
294.372	458.94
294.603	439.94
294.833	438.94
295.064	455.94
295.295	461.94
295.525	437.94
295.756	448.94
295.987	445.94
296.217	470.94
296.448	456.94
296.679	465.94
296.909	455.94
297.14	457.94
297.37	481.94
297.601	462.94
297.831	465.94
298.062	467.94
298.292	487.94
298.523	497.94
298.753	473.94
298.984	480.94
299.214	481.94
299.445	493.94
299.675	486.94
299.905	490.94
300.136	482.94
300.366	485.94
300.597	527.94
300.827	517.94
301.057	511.94
301.288	486.94
301.518	505.94
301.748	501.94
301.979	515.94
302.209	495.94
302.439	489.94
302.669	508.94
302.9	513.94
303.13	486.94
303.36	516.94
303.59	505.94
303.82	518.94
304.051	525.94
304.281	515.94
304.511	507.94
304.741	500.94
304.971	523.94
305.201	513.94
305.431	541.94
305.661	558.94
305.891	523.94
306.121	501.94
306.352	513.94
306.582	500.94
306.812	513.94
307.042	513.94
307.272	515.94
307.502	523.94
307.731	502.94
307.961	511.94
308.191	528.94
308.421	510.94
308.651	500.94
308.881	490.94
309.111	511.94
309.341	529.94
309.571	529.94
309.8	530.94
310.03	527.94
310.26	559.94
310.49	539.94
310.72	550.94
310.949	528.94
311.179	529.94
311.409	546.94
311.639	554.94
311.868	548.94
312.098	546.94
312.328	575.94
312.557	557.94
312.787	584.94
313.017	569.94
313.246	561.94
313.476	578.94
313.706	595.94
313.935	569.94
314.165	575.94
314.394	569.94
314.624	586.94
314.853	585.94
315.083	586.94
315.312	590.94
315.542	615.94
315.771	592.94
316.001	584.94
316.23	578.94
316.46	616.94
316.689	615.94
316.919	598.94
317.148	598.94
317.377	585.94
317.607	598.94
317.836	591.94
318.065	609.94
318.295	607.94
318.524	607.94
318.753	611.94
318.983	642.94
319.212	635.94
319.441	660.94
319.67	625.94
319.9	637.94
320.129	625.94
320.358	647.94
320.587	639.94
320.816	629.94
321.046	635.94
321.275	656.94
321.504	667.94
321.733	648.94
321.962	673.94
322.191	651.94
322.42	677.94
322.649	654.94
322.878	682.94
323.108	661.94
323.337	680.94
323.566	677.94
323.795	712.94
324.024	667.94
324.253	687.94
324.482	689.94
324.71	693.94
324.939	710.94
325.168	702.94
325.397	737.94
325.626	721.94
325.855	726.94
326.084	754.94
326.313	730.94
326.542	753.94
326.77	782.94
326.999	770.94
327.228	737.94
327.457	744.94
327.686	751.94
327.914	750.94
328.143	777.94
328.372	756.94
328.6	779.94
328.829	757.94
329.058	798.94
329.287	778.94
329.515	780.94
329.744	757.94
329.972	774.94
330.201	807.94
330.43	799.94
330.658	813.94
330.887	825.94
331.115	804.94
331.344	808.94
331.572	810.94
331.801	831.94
332.03	842.94
332.258	873.94
332.486	863.94
332.715	909.94
332.943	895.94
333.172	914.94
333.4	926.94
333.629	963.94
333.857	980.94
334.085	980.94
334.314	1005.94
334.542	978.94
334.771	970.94
334.999	993.94
335.227	1000.94
335.455	986.94
335.684	993.94
335.912	985.94
336.14	980.94
336.369	971.94
336.597	1000.94
336.825	981.94
337.053	967.94
337.281	982.94
337.51	963.94
337.738	945.94
337.966	951.94
338.194	953.94
338.422	938.94
338.65	902.94
338.878	905.94
339.106	901.94
339.334	908.94
339.562	933.94
339.79	897.94
340.018	911.94
340.246	886.94
340.474	887.94
340.702	887.94
340.93	897.94
341.158	897.94
341.386	896.94
341.614	941.94
341.842	928.94
342.07	853.94
342.298	882.94
342.526	889.94
342.754	902.94
342.981	874.94
343.209	881.94
343.437	935.94
343.665	940.94
343.893	951.94
344.12	982.94
344.348	1006.94
344.576	980.94
344.804	992.94
345.031	945.94
345.259	907.94
345.487	899.94
345.714	920.94
345.942	928.94
346.17	927.94
346.397	911.94
346.625	880.94
346.853	850.94
347.08	872.94
347.308	854.94
347.535	881.94
347.763	850.94
347.99	851.94
348.218	854.94
348.445	873.94
348.673	847.94
348.9	858.94
349.128	838.94
349.355	878.94
349.583	860.94
349.81	852.94
350.037	845.94
350.265	849.94
350.492	807.94
350.72	825.94
350.947	838.94
351.174	860.94
351.402	847.94
351.629	874.94
351.856	863.94
352.083	831.94
352.311	836.94
352.538	851.94
352.765	840.94
352.992	813.94
353.22	807.94
353.447	832.94
353.674	832.94
353.901	846.94
354.128	803.94
354.355	811.94
354.583	842.94
354.81	818.94
355.037	816.94
355.264	798.94
355.491	808.94
355.718	809.94
355.945	797.94
356.172	825.94
356.399	831.94
356.626	832.94
356.853	850.94
357.08	828.94
357.307	835.94
357.534	843.94
357.761	803.94
357.988	818.94
358.215	813.94
358.441	797.94
358.668	790.94
358.895	801.94
359.122	802.94
359.349	818.94
359.576	813.94
359.802	808.94
360.029	809.94
360.256	837.94
360.483	808.94
360.709	793.94
360.936	817.94
361.163	810.94
361.39	816.94
361.616	817.94
361.843	844.94
362.07	861.94
362.296	858.94
362.523	826.94
362.749	825.94
362.976	802.94
363.203	815.94
363.429	795.94
363.656	807.94
363.882	805.94
364.109	830.94
364.335	813.94
364.562	820.94
364.788	802.94
365.015	818.94
365.241	802.94
365.468	825.94
365.694	824.94
365.92	809.94
366.147	826.94
366.373	825.94
366.599	832.94
366.826	806.94
367.052	827.94
367.278	796.94
367.505	823.94
367.731	799.94
367.957	782.94
368.184	774.94
368.41	808.94
368.636	826.94
368.862	824.94
369.089	822.94
369.315	799.94
369.541	810.94
369.767	811.94
369.993	824.94
370.219	816.94
370.445	813.94
370.672	842.94
370.898	806.94
371.124	825.94
371.35	853.94
371.576	831.94
371.802	839.94
372.028	839.94
372.254	849.94
372.48	859.94
372.706	850.94
372.932	860.94
373.158	826.94
373.384	849.94
373.61	839.94
373.835	854.94
374.061	868.94
374.287	839.94
374.513	846.94
374.739	829.94
374.965	850.94
375.191	869.94
375.416	879.94
375.642	881.94
375.868	881.94
376.094	854.94
376.319	863.94
376.545	839.94
376.771	837.94
376.997	821.94
377.222	859.94
377.448	817.94
377.674	845.94
377.899	810.94
378.125	822.94
378.35	822.94
378.576	793.94
378.802	785.94
379.027	802.94
379.253	800.94
379.478	807.94
379.704	801.94
379.929	800.94
380.155	804.94
380.38	809.94
380.606	800.94
380.831	839.94
381.057	829.94
381.282	785.94
381.507	823.94
381.733	810.94
381.958	817.94
382.184	810.94
382.409	799.94
382.634	821.94
382.86	820.94
383.085	822.94
383.31	880.94
383.535	845.94
383.761	873.94
383.986	900.94
384.211	858.94
384.436	883.94
384.662	904.94
384.887	879.94
385.112	905.94
385.337	908.94
385.562	910.94
385.787	923.94
386.013	936.94
386.238	959.94
386.463	946.94
386.688	915.94
386.913	941.94
387.138	934.94
387.363	915.94
387.588	946.94
387.813	947.94
388.038	933.94
388.263	933.94
388.488	913.94
388.713	931.94
388.938	952.94
389.163	930.94
389.387	941.94
389.612	919.94
389.837	957.94
390.062	946.94
390.287	936.94
390.512	914.94
390.736	947.94
390.961	937.94
391.186	965.94
391.411	934.94
391.636	984.94
391.86	1016.94
392.085	999.94
392.31	996.94
392.534	1018.94
392.759	1007.94
392.984	974.94
393.208	991.94
393.433	986.94
393.658	974.94
393.882	969.94
394.107	965.94
394.331	1019.94
394.556	985.94
394.78	996.94
395.005	987.94
395.229	974.94
395.454	1015.94
395.678	1033.94
395.903	1013.94
396.127	986.94
396.352	1017.94
396.576	990.94
396.801	1011.94
397.025	1050.94
397.249	1036.94
397.474	1057.94
397.698	1102.94
397.922	1088.94
398.147	1096.94
398.371	1106.94
398.595	1140.94
398.82	1180.94
399.044	1204.94
399.268	1292.94
399.492	1348.94
399.717	1376.94
399.941	1415.94
400.165	1419.94
400.389	1345.94
400.613	1272.94
400.837	1245.94
401.062	1189.94
401.286	1175.94
401.51	1183.94
401.734	1168.94
401.958	1156.94
402.182	1153.94
402.406	1188.94
402.63	1171.94
402.854	1175.94
403.078	1170.94
403.302	1177.94
403.526	1202.94
403.75	1177.94
403.974	1202.94
404.198	1193.94
404.422	1235.94
404.645	1214.94
404.869	1203.94
405.093	1241.94
405.317	1221.94
405.541	1263.94
405.765	1265.94
405.988	1251.94
406.212	1242.94
406.436	1236.94
406.66	1271.94
406.883	1307.94
407.107	1374.94
407.331	1403.94
407.555	1389.94
407.778	1423.94
408.002	1396.94
408.226	1384.94
408.449	1364.94
408.673	1302.94
408.896	1328.94
409.12	1311.94
409.344	1309.94
409.567	1289.94
409.791	1285.94
410.014	1283.94
410.238	1291.94
410.461	1263.94
410.685	1257.94
410.908	1276.94
411.132	1271.94
411.355	1221.94
411.578	1242.94
411.802	1249.94
412.025	1262.94
412.249	1241.94
412.472	1242.94
412.695	1227.94
412.919	1211.94
413.142	1227.94
413.365	1245.94
413.589	1226.94
413.812	1209.94
414.035	1175.94
414.258	1207.94
414.482	1198.94
414.705	1203.94
414.928	1201.94
415.151	1211.94
415.374	1220.94
415.597	1194.94
415.821	1174.94
416.044	1173.94
416.267	1155.94
416.49	1157.94
416.713	1181.94
416.936	1189.94
417.159	1169.94
417.382	1158.94
417.605	1178.94
417.828	1173.94
418.051	1176.94
418.274	1167.94
418.497	1171.94
418.72	1195.94
418.943	1194.94
419.166	1247.94
419.389	1364.94
419.611	1331.94
419.834	1293.94
420.057	1270.94
420.28	1224.94
420.503	1165.94
420.726	1167.94
420.948	1159.94
421.171	1190.94
421.394	1214.94
421.617	1185.94
421.839	1222.94
422.062	1203.94
422.285	1173.94
422.507	1218.94
422.73	1216.94
422.953	1214.94
423.175	1191.94
423.398	1217.94
423.621	1194.94
423.843	1242.94
424.066	1217.94
424.288	1225.94
424.511	1212.94
424.733	1207.94
424.956	1181.94
425.178	1235.94
425.401	1184.94
425.623	1190.94
425.846	1143.94
426.068	1192.94
426.291	1140.94
426.513	1155.94
426.735	1173.94
426.958	1183.94
427.18	1143.94
427.402	1170.94
427.625	1179.94
427.847	1173.94
428.069	1129.94
428.292	1139.94
428.514	1130.94
428.736	1154.94
428.958	1153.94
429.181	1121.94
429.403	1127.94
429.625	1142.94
429.847	1138.94
430.069	1133.94
430.292	1159.94
430.514	1074.94
430.736	1119.94
430.958	1111.94
431.18	1145.94
431.402	1165.94
431.624	1149.94
431.846	1149.94
432.068	1137.94
432.29	1158.94
432.512	1149.94
432.734	1167.94
432.956	1116.94
433.178	1187.94
433.4	1158.94
433.622	1202.94
433.844	1194.94
434.066	1182.94
434.287	1172.94
434.509	1190.94
434.731	1218.94
434.953	1220.94
435.175	1274.94
435.397	1226.94
435.618	1228.94
435.84	1185.94
436.062	1179.94
436.284	1164.94
436.505	1161.94
436.727	1143.94
436.949	1149.94
437.17	1175.94
437.392	1173.94
437.614	1166.94
437.835	1087.94
438.057	1134.94
438.278	1111.94
438.5	1101.94
438.721	1104.94
438.943	1134.94
439.165	1119.94
439.386	1127.94
439.608	1168.94
439.829	1176.94
440.05	1169.94
440.272	1195.94
440.493	1170.94
440.715	1213.94
440.936	1189.94
441.158	1194.94
441.379	1213.94
441.6	1220.94
441.822	1285.94
442.043	1245.94
442.264	1247.94
442.486	1184.94
442.707	1213.94
442.928	1238.94
443.149	1277.94
443.371	1234.94
443.592	1242.94
443.813	1232.94
444.034	1246.94
444.255	1262.94
444.476	1288.94
444.698	1337.94
444.919	1366.94
445.14	1405.94
445.361	1318.94
445.582	1303.94
445.803	1232.94
446.024	1224.94
446.245	1239.94
446.466	1258.94
446.687	1174.94
446.908	1189.94
447.129	1178.94
447.35	1140.94
447.571	1147.94
447.792	1119.94
448.013	1139.94
448.234	1090.94
448.455	1083.94
448.675	1091.94
448.896	1091.94
449.117	1062.94
449.338	1073.94
449.559	1094.94
449.779	1103.94
450	1044.94
450.221	1104.94
450.442	1106.94
450.662	1078.94
450.883	1067.94
451.104	1087.94
451.324	1073.94
451.545	1065.94
451.766	1047.94
451.986	1083.94
452.207	1069.94
452.428	1050.94
452.648	1066.94
452.869	1022.94
453.089	1047.94
453.31	1048.94
453.53	1032.94
453.751	1013.94
453.971	993.94
454.192	1025.94
454.412	998.94
454.633	1034.94
454.853	1001.94
455.073	1043.94
455.294	1010.94
455.514	1000.94
455.734	1019.94
455.955	988.94
456.175	1003.94
456.395	991.94
456.616	1014.94
456.836	1007.94
457.056	1023.94
457.276	991.94
457.497	1023.94
457.717	1022.94
457.937	1030.94
458.157	1049.94
458.377	1070.94
458.598	1085.94
458.818	1063.94
459.038	1109.94
459.258	1103.94
459.478	1117.94
459.698	1198.94
459.918	1202.94
460.138	1200.94
460.358	1276.94
460.578	1238.94
460.798	1302.94
461.018	1291.94
461.238	1291.94
461.458	1302.94
461.678	1292.94
461.898	1329.94
462.118	1333.94
462.338	1386.94
462.558	1417.94
462.777	1440.94
462.997	1496.94
463.217	1499.94
463.437	1539.94
463.657	1498.94
463.876	1498.94
464.096	1458.94
464.316	1434.94
464.536	1399.94
464.755	1373.94
464.975	1381.94
465.195	1314.94
465.414	1269.94
465.634	1237.94
465.854	1236.94
466.073	1197.94
466.293	1186.94
466.512	1150.94
466.732	1167.94
466.951	1139.94
467.171	1119.94
467.391	1169.94
467.61	1122.94
467.829	1124.94
468.049	1111.94
468.268	1120.94
468.488	1072.94
468.707	1070.94
468.927	1102.94
469.146	1088.94
469.365	1142.94
469.585	1119.94
469.804	1133.94
470.023	1133.94
470.243	1115.94
470.462	1118.94
470.681	1158.94
470.901	1119.94
471.12	1181.94
471.339	1122.94
471.558	1159.94
471.777	1114.94
471.997	1149.94
472.216	1107.94
472.435	1117.94
472.654	1093.94
472.873	1109.94
473.092	1080.94
473.311	1079.94
473.53	1099.94
473.749	1123.94
473.968	1090.94
474.187	1074.94
474.406	1078.94
474.625	1097.94
474.844	1099.94
475.063	1096.94
475.282	1113.94
475.501	1118.94
475.72	1137.94
475.939	1098.94
476.158	1140.94
476.377	1167.94
476.596	1158.94
476.814	1161.94
477.033	1162.94
477.252	1157.94
477.471	1196.94
477.69	1227.94
477.908	1235.94
478.127	1261.94
478.346	1279.94
478.564	1298.94
478.783	1295.94
479.002	1294.94
479.22	1307.94
479.439	1303.94
479.658	1268.94
479.876	1306.94
480.095	1328.94
480.313	1334.94
480.532	1353.94
480.751	1341.94
480.969	1330.94
481.188	1303.94
481.406	1317.94
481.624	1309.94
481.843	1301.94
482.061	1261.94
482.28	1263.94
482.498	1242.94
482.717	1261.94
482.935	1242.94
483.153	1281.94
483.372	1287.94
483.59	1286.94
483.808	1291.94
484.027	1271.94
484.245	1264.94
484.463	1278.94
484.681	1264.94
484.9	1264.94
485.118	1314.94
485.336	1265.94
485.554	1307.94
485.772	1322.94
485.99	1260.94
486.209	1321.94
486.427	1301.94
486.645	1311.94
486.863	1339.94
487.081	1289.94
487.299	1315.94
487.517	1321.94
487.735	1353.94
487.953	1317.94
488.171	1319.94
488.389	1297.94
488.607	1303.94
488.825	1333.94
489.043	1297.94
489.261	1277.94
489.479	1295.94
489.696	1303.94
489.914	1315.94
490.132	1320.94
490.35	1322.94
490.568	1318.94
490.786	1350.94
491.003	1376.94
491.221	1371.94
491.439	1375.94
491.657	1385.94
491.874	1379.94
492.092	1423.94
492.31	1399.94
492.527	1429.94
492.745	1426.94
492.963	1364.94
493.18	1389.94
493.398	1408.94
493.615	1415.94
493.833	1413.94
494.05	1425.94
494.268	1371.94
494.485	1435.94
494.703	1444.94
494.92	1432.94
495.138	1420.94
495.355	1458.94
