Data from Ni(NO3)2@0.0625M.TitratingCurve.Agarose3%dH2O.NegLispCup.LampEnergy10.LIBS07252019_HRD10591_18-13-48-569.txt Node
Date: Thu Jul 25 18:13:48 EDT 2019
User: cochatt
Spectrometer: HR+D1059
Trigger mode: 1
Integration Time (sec): 1.000000E-1
Scans to average: 1
Electric dark correction enabled: true
Nonlinearity correction enabled: false
Boxcar width: 0
XAxis mode: Wavelengths
Number of Pixels in Spectrum: 2048
>>>>>Begin Spectral Data<<<<<
223.165	-20.88
223.4	-20.88
223.635	-20.88
223.869	-23.88
224.104	-27.88
224.338	-15.88
224.573	-13.88
224.808	-7.88
225.042	-13.88
225.277	-0.88
225.511	-5.88
225.746	2.12
225.98	7.12
226.215	20.12
226.449	22.12
226.683	22.12
226.918	27.12
227.152	30.12
227.387	31.12
227.621	46.12
227.856	45.12
228.09	31.12
228.324	47.12
228.559	53.12
228.793	69.12
229.027	97.12
229.262	120.12
229.496	112.12
229.73	105.12
229.964	130.12
230.199	130.12
230.433	118.12
230.667	134.12
230.901	135.12
231.136	142.12
231.37	116.12
231.604	138.12
231.838	142.12
232.072	143.12
232.306	151.12
232.541	151.12
232.775	147.12
233.009	147.12
233.243	152.12
233.477	144.12
233.711	155.12
233.945	150.12
234.179	162.12
234.413	145.12
234.647	166.12
234.881	145.12
235.115	157.12
235.349	148.12
235.583	160.12
235.817	170.12
236.051	181.12
236.285	146.12
236.519	155.12
236.753	171.12
236.987	151.12
237.221	145.12
237.455	181.12
237.689	186.12
237.922	162.12
238.156	151.12
238.39	170.12
238.624	160.12
238.858	159.12
239.091	163.12
239.325	182.12
239.559	183.12
239.793	181.12
240.027	194.12
240.26	179.12
240.494	177.12
240.728	168.12
240.961	188.12
241.195	185.12
241.429	202.12
241.662	190.12
241.896	196.12
242.13	208.12
242.363	211.12
242.597	211.12
242.83	217.12
243.064	198.12
243.298	196.12
243.531	199.12
243.765	206.12
243.998	207.12
244.232	214.12
244.465	205.12
244.699	215.12
244.932	223.12
245.166	204.12
245.399	224.12
245.633	229.12
245.866	223.12
246.099	244.12
246.333	249.12
246.566	249.12
246.8	218.12
247.033	229.12
247.266	229.12
247.5	238.12
247.733	263.12
247.966	232.12
248.2	247.12
248.433	238.12
248.666	223.12
248.899	241.12
249.133	256.12
249.366	268.12
249.599	270.12
249.832	266.12
250.066	261.12
250.299	270.12
250.532	273.12
250.765	270.12
250.998	250.12
251.231	255.12
251.465	262.12
251.698	268.12
251.931	283.12
252.164	299.12
252.397	275.12
252.63	280.12
252.863	278.12
253.096	306.12
253.329	279.12
253.562	281.12
253.795	268.12
254.028	289.12
254.261	284.12
254.494	287.12
254.727	296.12
254.96	286.12
255.193	277.12
255.426	294.12
255.659	301.12
255.892	300.12
256.124	311.12
256.357	318.12
256.59	298.12
256.823	301.12
257.056	314.12
257.289	313.12
257.521	319.12
257.754	327.12
257.987	316.12
258.22	317.12
258.452	328.12
258.685	326.12
258.918	312.12
259.151	298.12
259.383	318.12
259.616	326.12
259.849	339.12
260.081	336.12
260.314	341.12
260.547	329.12
260.779	320.12
261.012	318.12
261.244	318.12
261.477	332.12
261.71	346.12
261.942	339.12
262.175	336.12
262.407	335.12
262.64	334.12
262.872	345.12
263.105	341.12
263.337	350.12
263.57	344.12
263.802	350.12
264.035	345.12
264.267	375.12
264.499	354.12
264.732	345.12
264.964	363.12
265.197	359.12
265.429	359.12
265.661	361.12
265.894	352.12
266.126	370.12
266.358	366.12
266.591	364.12
266.823	380.12
267.055	377.12
267.287	358.12
267.52	368.12
267.752	350.12
267.984	371.12
268.216	378.12
268.448	388.12
268.681	381.12
268.913	387.12
269.145	378.12
269.377	378.12
269.609	381.12
269.841	386.12
270.073	404.12
270.306	397.12
270.538	379.12
270.77	396.12
271.002	387.12
271.234	406.12
271.466	372.12
271.698	382.12
271.93	399.12
272.162	408.12
272.394	424.12
272.626	388.12
272.858	426.12
273.09	411.12
273.322	404.12
273.553	407.12
273.785	406.12
274.017	414.12
274.249	401.12
274.481	423.12
274.713	409.12
274.945	423.12
275.176	437.12
275.408	413.12
275.64	434.12
275.872	434.12
276.104	429.12
276.335	416.12
276.567	424.12
276.799	421.12
277.031	447.12
277.262	437.12
277.494	444.12
277.726	455.12
277.957	446.12
278.189	429.12
278.421	435.12
278.652	454.12
278.884	447.12
279.115	468.12
279.347	460.12
279.579	462.12
279.81	456.12
280.042	437.12
280.273	448.12
280.505	462.12
280.736	459.12
280.968	480.12
281.199	478.12
281.431	467.12
281.662	459.12
281.894	485.12
282.125	468.12
282.356	484.12
282.588	500.12
282.819	472.12
283.051	478.12
283.282	461.12
283.513	502.12
283.745	498.12
283.976	478.12
284.207	500.12
284.439	509.12
284.67	515.12
284.901	493.12
285.132	497.12
285.364	508.12
285.595	523.12
285.826	494.12
286.057	504.12
286.288	502.12
286.52	502.12
286.751	487.12
286.982	522.12
287.213	522.12
287.444	504.12
287.675	528.12
287.906	520.12
288.138	524.12
288.369	530.12
288.6	518.12
288.831	545.12
289.062	533.12
289.293	540.12
289.524	530.12
289.755	544.12
289.986	520.12
290.217	551.12
290.448	520.12
290.679	531.12
290.91	544.12
291.141	531.12
291.371	544.12
291.602	544.12
291.833	531.12
292.064	542.12
292.295	550.12
292.526	534.12
292.757	553.12
292.987	528.12
293.218	539.12
293.449	549.12
293.68	556.12
293.91	548.12
294.141	563.12
294.372	547.12
294.603	545.12
294.833	550.12
295.064	567.12
295.295	559.12
295.525	544.12
295.756	539.12
295.987	553.12
296.217	576.12
296.448	551.12
296.679	570.12
296.909	571.12
297.14	578.12
297.37	596.12
297.601	585.12
297.831	575.12
298.062	580.12
298.292	611.12
298.523	605.12
298.753	600.12
298.984	598.12
299.214	600.12
299.445	597.12
299.675	595.12
299.905	586.12
300.136	605.12
300.366	586.12
300.597	615.12
300.827	611.12
301.057	618.12
301.288	643.12
301.518	614.12
301.748	614.12
301.979	628.12
302.209	619.12
302.439	640.12
302.669	602.12
302.9	623.12
303.13	628.12
303.36	622.12
303.59	596.12
303.82	604.12
304.051	601.12
304.281	619.12
304.511	615.12
304.741	594.12
304.971	627.12
305.201	615.12
305.431	612.12
305.661	609.12
305.891	598.12
306.121	592.12
306.352	606.12
306.582	596.12
306.812	592.12
307.042	616.12
307.272	584.12
307.502	589.12
307.731	591.12
307.961	603.12
308.191	599.12
308.421	589.12
308.651	581.12
308.881	598.12
309.111	608.12
309.341	603.12
309.571	598.12
309.8	624.12
310.03	571.12
310.26	594.12
310.49	596.12
310.72	591.12
310.949	609.12
311.179	634.12
311.409	606.12
311.639	596.12
311.868	600.12
312.098	636.12
312.328	624.12
312.557	640.12
312.787	621.12
313.017	632.12
313.246	647.12
313.476	624.12
313.706	646.12
313.935	661.12
314.165	661.12
314.394	647.12
314.624	650.12
314.853	628.12
315.083	619.12
315.312	647.12
315.542	672.12
315.771	641.12
316.001	605.12
316.23	650.12
316.46	630.12
316.689	617.12
316.919	617.12
317.148	621.12
317.377	641.12
317.607	639.12
317.836	635.12
318.065	617.12
318.295	628.12
318.524	635.12
318.753	605.12
318.983	628.12
319.212	610.12
319.441	630.12
319.67	638.12
319.9	644.12
320.129	620.12
320.358	640.12
320.587	623.12
320.816	639.12
321.046	632.12
321.275	659.12
321.504	631.12
321.733	610.12
321.962	610.12
322.191	612.12
322.42	631.12
322.649	644.12
322.878	614.12
323.108	628.12
323.337	644.12
323.566	654.12
323.795	626.12
324.024	633.12
324.253	635.12
324.482	659.12
324.71	638.12
324.939	618.12
325.168	647.12
325.397	663.12
325.626	655.12
325.855	670.12
326.084	681.12
326.313	710.12
326.542	698.12
326.77	710.12
326.999	688.12
327.228	654.12
327.457	657.12
327.686	694.12
327.914	699.12
328.143	684.12
328.372	680.12
328.6	679.12
328.829	670.12
329.058	682.12
329.287	678.12
329.515	697.12
329.744	687.12
329.972	660.12
330.201	700.12
330.43	696.12
330.658	715.12
330.887	712.12
331.115	699.12
331.344	715.12
331.572	743.12
331.801	734.12
332.03	758.12
332.258	772.12
332.486	780.12
332.715	847.12
332.943	872.12
333.172	887.12
333.4	938.12
333.629	964.12
333.857	934.12
334.085	917.12
334.314	924.12
334.542	902.12
334.771	906.12
334.999	869.12
335.227	869.12
335.455	871.12
335.684	867.12
335.912	841.12
336.14	862.12
336.369	830.12
336.597	835.12
336.825	818.12
337.053	814.12
337.281	830.12
337.51	798.12
337.738	805.12
337.966	781.12
338.194	765.12
338.422	766.12
338.65	730.12
338.878	774.12
339.106	780.12
339.334	781.12
339.562	750.12
339.79	736.12
340.018	733.12
340.246	722.12
340.474	734.12
340.702	720.12
340.93	728.12
341.158	725.12
341.386	731.12
341.614	706.12
341.842	711.12
342.07	725.12
342.298	710.12
342.526	698.12
342.754	719.12
342.981	738.12
343.209	728.12
343.437	754.12
343.665	811.12
343.893	876.12
344.12	930.12
344.348	879.12
344.576	834.12
344.804	794.12
345.031	744.12
345.259	753.12
345.487	738.12
345.714	707.12
345.942	703.12
346.17	719.12
346.397	719.12
346.625	716.12
346.853	700.12
347.08	712.12
347.308	716.12
347.535	723.12
347.763	722.12
347.99	737.12
348.218	743.12
348.445	724.12
348.673	704.12
348.9	724.12
349.128	673.12
349.355	669.12
349.583	695.12
349.81	700.12
350.037	675.12
350.265	688.12
350.492	658.12
350.72	666.12
350.947	681.12
351.174	662.12
351.402	683.12
351.629	670.12
351.856	671.12
352.083	662.12
352.311	671.12
352.538	647.12
352.765	653.12
352.992	654.12
353.22	677.12
353.447	679.12
353.674	657.12
353.901	664.12
354.128	648.12
354.355	663.12
354.583	662.12
354.81	683.12
355.037	694.12
355.264	676.12
355.491	676.12
355.718	685.12
355.945	671.12
356.172	683.12
356.399	697.12
356.626	649.12
356.853	703.12
357.08	657.12
357.307	669.12
357.534	657.12
357.761	650.12
357.988	671.12
358.215	661.12
358.441	658.12
358.668	668.12
358.895	658.12
359.122	674.12
359.349	685.12
359.576	658.12
359.802	664.12
360.029	667.12
360.256	658.12
360.483	678.12
360.709	668.12
360.936	664.12
361.163	660.12
361.39	678.12
361.616	660.12
361.843	690.12
362.07	710.12
362.296	690.12
362.523	672.12
362.749	654.12
362.976	669.12
363.203	712.12
363.429	682.12
363.656	666.12
363.882	671.12
364.109	679.12
364.335	672.12
364.562	668.12
364.788	678.12
365.015	674.12
365.241	662.12
365.468	642.12
365.694	654.12
365.92	668.12
366.147	667.12
366.373	663.12
366.599	684.12
366.826	675.12
367.052	672.12
367.278	658.12
367.505	659.12
367.731	682.12
367.957	654.12
368.184	683.12
368.41	681.12
368.636	681.12
368.862	657.12
369.089	696.12
369.315	669.12
369.541	699.12
369.767	685.12
369.993	703.12
370.219	697.12
370.445	709.12
370.672	718.12
370.898	712.12
371.124	712.12
371.35	727.12
371.576	734.12
371.802	719.12
372.028	715.12
372.254	761.12
372.48	727.12
372.706	758.12
372.932	781.12
373.158	767.12
373.384	752.12
373.61	745.12
373.835	721.12
374.061	732.12
374.287	764.12
374.513	735.12
374.739	766.12
374.965	803.12
375.191	828.12
375.416	815.12
375.642	784.12
375.868	759.12
376.094	754.12
376.319	754.12
376.545	758.12
376.771	759.12
376.997	731.12
377.222	746.12
377.448	719.12
377.674	739.12
377.899	744.12
378.125	709.12
378.35	700.12
378.576	709.12
378.802	713.12
379.027	748.12
379.253	730.12
379.478	725.12
379.704	726.12
379.929	692.12
380.155	719.12
380.38	724.12
380.606	760.12
380.831	726.12
381.057	723.12
381.282	709.12
381.507	718.12
381.733	735.12
381.958	733.12
382.184	774.12
382.409	747.12
382.634	770.12
382.86	757.12
383.085	797.12
383.31	781.12
383.535	804.12
383.761	818.12
383.986	850.12
384.211	823.12
384.436	867.12
384.662	877.12
384.887	917.12
385.112	886.12
385.337	910.12
385.562	900.12
385.787	914.12
386.013	918.12
386.238	900.12
386.463	895.12
386.688	877.12
386.913	892.12
387.138	882.12
387.363	876.12
387.588	879.12
387.813	859.12
388.038	876.12
388.263	868.12
388.488	895.12
388.713	880.12
388.938	876.12
389.163	876.12
389.387	860.12
389.612	825.12
389.837	877.12
390.062	858.12
390.287	846.12
390.512	864.12
390.736	876.12
390.961	906.12
391.186	898.12
391.411	934.12
391.636	925.12
391.86	1003.12
392.085	1024.12
392.31	1018.12
392.534	992.12
392.759	975.12
392.984	927.12
393.208	964.12
393.433	936.12
393.658	929.12
393.882	960.12
394.107	938.12
394.331	939.12
394.556	970.12
394.78	953.12
395.005	954.12
395.229	966.12
395.454	999.12
395.678	1022.12
395.903	1040.12
396.127	979.12
396.352	959.12
396.576	928.12
396.801	911.12
397.025	939.12
397.249	963.12
397.474	962.12
397.698	1020.12
397.922	979.12
398.147	979.12
398.371	1012.12
398.595	1037.12
398.82	1100.12
399.044	1192.12
399.268	1267.12
399.492	1524.12
399.717	1795.12
399.941	1758.12
400.165	1536.12
400.389	1350.12
400.613	1242.12
400.837	1166.12
401.062	1144.12
401.286	1133.12
401.51	1108.12
401.734	1112.12
401.958	1124.12
402.182	1148.12
402.406	1156.12
402.63	1154.12
402.854	1204.12
403.078	1220.12
403.302	1227.12
403.526	1290.12
403.75	1299.12
403.974	1370.12
404.198	1338.12
404.422	1370.12
404.645	1299.12
404.869	1295.12
405.093	1290.12
405.317	1278.12
405.541	1242.12
405.765	1232.12
405.988	1192.12
406.212	1228.12
406.436	1223.12
406.66	1267.12
406.883	1244.12
407.107	1338.12
407.331	1452.12
407.555	1518.12
407.778	1502.12
408.002	1408.12
408.226	1363.12
408.449	1355.12
408.673	1288.12
408.896	1294.12
409.12	1250.12
409.344	1276.12
409.567	1285.12
409.791	1302.12
410.014	1285.12
410.238	1291.12
410.461	1265.12
410.685	1251.12
410.908	1224.12
411.132	1184.12
411.355	1180.12
411.578	1185.12
411.802	1150.12
412.025	1147.12
412.249	1193.12
412.472	1168.12
412.695	1129.12
412.919	1108.12
413.142	1086.12
413.365	1101.12
413.589	1121.12
413.812	1115.12
414.035	1108.12
414.258	1084.12
414.482	1171.12
414.705	1120.12
414.928	1134.12
415.151	1156.12
415.374	1106.12
415.597	1100.12
415.821	1095.12
416.044	1064.12
416.267	1060.12
416.49	1069.12
416.713	1103.12
416.936	1107.12
417.159	1072.12
417.382	1095.12
417.605	1094.12
417.828	1103.12
418.051	1107.12
418.274	1110.12
418.497	1131.12
418.72	1147.12
418.943	1156.12
419.166	1210.12
419.389	1279.12
419.611	1270.12
419.834	1238.12
420.057	1161.12
420.28	1156.12
420.503	1102.12
420.726	1087.12
420.948	1105.12
421.171	1073.12
421.394	1118.12
421.617	1096.12
421.839	1104.12
422.062	1113.12
422.285	1094.12
422.507	1163.12
422.73	1122.12
422.953	1113.12
423.175	1173.12
423.398	1182.12
423.621	1160.12
423.843	1218.12
424.066	1224.12
424.288	1213.12
424.511	1204.12
424.733	1174.12
424.956	1148.12
425.178	1146.12
425.401	1139.12
425.623	1117.12
425.846	1082.12
426.068	1065.12
426.291	1077.12
426.513	1056.12
426.735	1039.12
426.958	1046.12
427.18	1003.12
427.402	988.12
427.625	1006.12
427.847	975.12
428.069	993.12
428.292	976.12
428.514	950.12
428.736	980.12
428.958	981.12
429.181	959.12
429.403	926.12
429.625	935.12
429.847	942.12
430.069	963.12
430.292	954.12
430.514	934.12
430.736	946.12
430.958	947.12
431.18	947.12
431.402	966.12
431.624	961.12
431.846	1002.12
432.068	992.12
432.29	1000.12
432.512	975.12
432.734	975.12
432.956	958.12
433.178	994.12
433.4	946.12
433.622	981.12
433.844	999.12
434.066	988.12
434.287	1008.12
434.509	1044.12
434.731	1077.12
434.953	1103.12
435.175	1109.12
435.397	1112.12
435.618	1058.12
435.84	1062.12
436.062	1015.12
436.284	962.12
436.505	980.12
436.727	1000.12
436.949	996.12
437.17	998.12
437.392	965.12
437.614	963.12
437.835	924.12
438.057	982.12
438.278	926.12
438.5	948.12
438.721	935.12
438.943	940.12
439.165	926.12
439.386	955.12
439.608	987.12
439.829	1009.12
440.05	995.12
440.272	989.12
440.493	1002.12
440.715	1012.12
440.936	991.12
441.158	1033.12
441.379	1026.12
441.6	1147.12
441.822	1138.12
442.043	1129.12
442.264	1129.12
442.486	1066.12
442.707	1102.12
442.928	1078.12
443.149	1091.12
443.371	1105.12
443.592	1118.12
443.813	1112.12
444.034	1142.12
444.255	1159.12
444.476	1231.12
444.698	1292.12
444.919	1380.12
445.14	1407.12
445.361	1260.12
445.582	1155.12
445.803	1101.12
446.024	1078.12
446.245	1054.12
446.466	1014.12
446.687	991.12
446.908	1006.12
447.129	994.12
447.35	930.12
447.571	960.12
447.792	935.12
448.013	959.12
448.234	940.12
448.455	897.12
448.675	913.12
448.896	910.12
449.117	875.12
449.338	898.12
449.559	886.12
449.779	902.12
450	906.12
450.221	893.12
450.442	918.12
450.662	914.12
450.883	932.12
451.104	932.12
451.324	909.12
451.545	952.12
451.766	898.12
451.986	905.12
452.207	912.12
452.428	932.12
452.648	902.12
452.869	925.12
453.089	888.12
453.31	879.12
453.53	900.12
453.751	886.12
453.971	885.12
454.192	887.12
454.412	885.12
454.633	862.12
454.853	879.12
455.073	839.12
455.294	854.12
455.514	849.12
455.734	865.12
455.955	858.12
456.175	864.12
456.395	818.12
456.616	826.12
456.836	824.12
457.056	851.12
457.276	844.12
457.497	851.12
457.717	848.12
457.937	867.12
458.157	880.12
458.377	884.12
458.598	896.12
458.818	944.12
459.038	959.12
459.258	954.12
459.478	1003.12
459.698	1067.12
459.918	1074.12
460.138	1097.12
460.358	1194.12
460.578	1195.12
460.798	1203.12
461.018	1217.12
461.238	1165.12
461.458	1189.12
461.678	1150.12
461.898	1181.12
462.118	1174.12
462.338	1285.12
462.558	1303.12
462.777	1345.12
462.997	1463.12
463.217	1630.12
463.437	1707.12
463.657	1519.12
463.876	1411.12
464.096	1391.12
464.316	1404.12
464.536	1438.12
464.755	1379.12
464.975	1297.12
465.195	1232.12
465.414	1168.12
465.634	1110.12
465.854	1067.12
466.073	1023.12
466.293	1042.12
466.512	973.12
466.732	974.12
466.951	967.12
467.171	968.12
467.391	969.12
467.61	947.12
467.829	946.12
468.049	944.12
468.268	908.12
468.488	908.12
468.707	920.12
468.927	900.12
469.146	919.12
469.365	930.12
469.585	929.12
469.804	942.12
470.023	973.12
470.243	951.12
470.462	1000.12
470.681	965.12
470.901	983.12
471.12	996.12
471.339	980.12
471.558	915.12
471.777	938.12
471.997	917.12
472.216	942.12
472.435	893.12
472.654	909.12
472.873	884.12
473.092	862.12
473.311	879.12
473.53	873.12
473.749	886.12
473.968	876.12
474.187	904.12
474.406	875.12
474.625	911.12
474.844	908.12
475.063	889.12
475.282	896.12
475.501	895.12
475.72	891.12
475.939	917.12
476.158	921.12
476.377	916.12
476.596	923.12
476.814	938.12
477.033	903.12
477.252	951.12
477.471	990.12
477.69	1010.12
477.908	1013.12
478.127	1039.12
478.346	1076.12
478.564	1071.12
478.783	1110.12
479.002	1130.12
479.22	1104.12
479.439	1093.12
479.658	1120.12
479.876	1129.12
480.095	1123.12
480.313	1200.12
480.532	1246.12
480.751	1210.12
480.969	1164.12
481.188	1111.12
481.406	1086.12
481.624	1035.12
481.843	1008.12
482.061	1015.12
482.28	999.12
482.498	973.12
482.717	999.12
482.935	991.12
483.153	992.12
483.372	984.12
483.59	1001.12
483.808	1011.12
484.027	1044.12
484.245	1004.12
484.463	1031.12
484.681	1016.12
484.9	1040.12
485.118	1063.12
485.336	1063.12
485.554	1052.12
485.772	1065.12
485.99	1097.12
486.209	1111.12
486.427	1080.12
486.645	1050.12
486.863	1068.12
487.081	1089.12
487.299	1051.12
487.517	1078.12
487.735	1067.12
487.953	1084.12
488.171	1068.12
488.389	1042.12
488.607	1042.12
488.825	1037.12
489.043	1038.12
489.261	1047.12
489.479	998.12
489.696	1064.12
489.914	1071.12
490.132	1043.12
490.35	1039.12
490.568	1078.12
490.786	1038.12
491.003	1056.12
491.221	1076.12
491.439	1065.12
491.657	1066.12
491.874	1085.12
492.092	1080.12
492.31	1098.12
492.527	1067.12
492.745	1069.12
492.963	1074.12
493.18	1085.12
493.398	1090.12
493.615	1112.12
493.833	1103.12
494.05	1107.12
494.268	1126.12
494.485	1128.12
494.703	1134.12
494.92	1131.12
495.138	1141.12
495.355	1101.12
495.573	1143.12
495.79	1118.12
496.008	1115.12
496.225	1152.12
496.442	1138.12
496.66	1178.12
496.877	1179.12
497.094	1208.12
497.312	1226.12
497.529	1237.12
