Data from Ni(NO3)2@0.25M.TitratingCurve.Agarose3%dH2O.NegLispCup.LampEnergy10.LIBS07252019_HRD10591_18-04-11-567.txt Node
Date: Thu Jul 25 18:04:11 EDT 2019
User: cochatt
Spectrometer: HR+D1059
Trigger mode: 1
Integration Time (sec): 1.000000E-1
Scans to average: 1
Electric dark correction enabled: true
Nonlinearity correction enabled: false
Boxcar width: 0
XAxis mode: Wavelengths
Number of Pixels in Spectrum: 2048
>>>>>Begin Spectral Data<<<<<
223.165	-20.81
223.4	-20.81
223.635	-20.81
223.869	-21.81
224.104	-24.81
224.338	-7.81
224.573	-12.81
224.808	-4.81
225.042	-0.81
225.277	-7.81
225.511	-4.81
225.746	1.19
225.98	19.19
226.215	10.19
226.449	13.19
226.683	12.19
226.918	21.19
227.152	29.19
227.387	34.19
227.621	20.19
227.856	35.19
228.09	29.19
228.324	49.19
228.559	43.19
228.793	71.19
229.027	80.19
229.262	84.19
229.496	84.19
229.73	86.19
229.964	112.19
230.199	112.19
230.433	122.19
230.667	120.19
230.901	119.19
231.136	120.19
231.37	115.19
231.604	111.19
231.838	115.19
232.072	105.19
232.306	131.19
232.541	114.19
232.775	124.19
233.009	120.19
233.243	114.19
233.477	119.19
233.711	108.19
233.945	121.19
234.179	119.19
234.413	124.19
234.647	108.19
234.881	129.19
235.115	125.19
235.349	104.19
235.583	101.19
235.817	120.19
236.051	116.19
236.285	129.19
236.519	122.19
236.753	127.19
236.987	132.19
237.221	128.19
237.455	121.19
237.689	146.19
237.922	115.19
238.156	137.19
238.39	129.19
238.624	124.19
238.858	139.19
239.091	127.19
239.325	129.19
239.559	121.19
239.793	143.19
240.027	151.19
240.26	153.19
240.494	155.19
240.728	144.19
240.961	129.19
241.195	140.19
241.429	148.19
241.662	131.19
241.896	168.19
242.13	154.19
242.363	148.19
242.597	138.19
242.83	143.19
243.064	142.19
243.298	156.19
243.531	139.19
243.765	160.19
243.998	166.19
244.232	149.19
244.465	149.19
244.699	157.19
244.932	164.19
245.166	169.19
245.399	160.19
245.633	157.19
245.866	157.19
246.099	144.19
246.333	173.19
246.566	156.19
246.8	164.19
247.033	172.19
247.266	165.19
247.5	185.19
247.733	181.19
247.966	164.19
248.2	187.19
248.433	182.19
248.666	167.19
248.899	179.19
249.133	175.19
249.366	191.19
249.599	188.19
249.832	185.19
250.066	195.19
250.299	185.19
250.532	188.19
250.765	191.19
250.998	202.19
251.231	196.19
251.465	208.19
251.698	198.19
251.931	197.19
252.164	197.19
252.397	222.19
252.63	211.19
252.863	199.19
253.096	215.19
253.329	218.19
253.562	214.19
253.795	219.19
254.028	223.19
254.261	208.19
254.494	211.19
254.727	205.19
254.96	227.19
255.193	244.19
255.426	223.19
255.659	244.19
255.892	222.19
256.124	238.19
256.357	239.19
256.59	224.19
256.823	255.19
257.056	252.19
257.289	242.19
257.521	239.19
257.754	242.19
257.987	210.19
258.22	228.19
258.452	232.19
258.685	262.19
258.918	253.19
259.151	245.19
259.383	264.19
259.616	248.19
259.849	240.19
260.081	256.19
260.314	255.19
260.547	251.19
260.779	267.19
261.012	259.19
261.244	265.19
261.477	275.19
261.71	268.19
261.942	286.19
262.175	270.19
262.407	258.19
262.64	257.19
262.872	273.19
263.105	270.19
263.337	259.19
263.57	273.19
263.802	285.19
264.035	288.19
264.267	280.19
264.499	276.19
264.732	286.19
264.964	290.19
265.197	300.19
265.429	278.19
265.661	288.19
265.894	290.19
266.126	295.19
266.358	283.19
266.591	303.19
266.823	287.19
267.055	290.19
267.287	292.19
267.52	288.19
267.752	304.19
267.984	305.19
268.216	306.19
268.448	296.19
268.681	298.19
268.913	291.19
269.145	303.19
269.377	310.19
269.609	302.19
269.841	320.19
270.073	302.19
270.306	319.19
270.538	306.19
270.77	295.19
271.002	309.19
271.234	312.19
271.466	325.19
271.698	323.19
271.93	310.19
272.162	328.19
272.394	324.19
272.626	311.19
272.858	303.19
273.09	331.19
273.322	303.19
273.553	324.19
273.785	325.19
274.017	332.19
274.249	319.19
274.481	328.19
274.713	360.19
274.945	343.19
275.176	332.19
275.408	341.19
275.64	328.19
275.872	337.19
276.104	343.19
276.335	342.19
276.567	348.19
276.799	333.19
277.031	337.19
277.262	330.19
277.494	328.19
277.726	343.19
277.957	334.19
278.189	369.19
278.421	340.19
278.652	348.19
278.884	347.19
279.115	341.19
279.347	358.19
279.579	349.19
279.81	333.19
280.042	348.19
280.273	342.19
280.505	364.19
280.736	353.19
280.968	344.19
281.199	345.19
281.431	364.19
281.662	362.19
281.894	367.19
282.125	367.19
282.356	370.19
282.588	344.19
282.819	371.19
283.051	370.19
283.282	384.19
283.513	389.19
283.745	369.19
283.976	369.19
284.207	367.19
284.439	354.19
284.67	371.19
284.901	365.19
285.132	383.19
285.364	383.19
285.595	377.19
285.826	382.19
286.057	380.19
286.288	382.19
286.52	378.19
286.751	392.19
286.982	373.19
287.213	372.19
287.444	384.19
287.675	377.19
287.906	382.19
288.138	384.19
288.369	383.19
288.6	389.19
288.831	405.19
289.062	394.19
289.293	392.19
289.524	384.19
289.755	378.19
289.986	388.19
290.217	385.19
290.448	392.19
290.679	415.19
290.91	411.19
291.141	387.19
291.371	391.19
291.602	390.19
291.833	403.19
292.064	405.19
292.295	388.19
292.526	407.19
292.757	377.19
292.987	395.19
293.218	384.19
293.449	428.19
293.68	398.19
293.91	397.19
294.141	399.19
294.372	390.19
294.603	401.19
294.833	399.19
295.064	406.19
295.295	396.19
295.525	379.19
295.756	397.19
295.987	395.19
296.217	396.19
296.448	407.19
296.679	408.19
296.909	407.19
297.14	404.19
297.37	427.19
297.601	401.19
297.831	397.19
298.062	431.19
298.292	419.19
298.523	425.19
298.753	420.19
298.984	425.19
299.214	420.19
299.445	438.19
299.675	444.19
299.905	419.19
300.136	411.19
300.366	436.19
300.597	450.19
300.827	437.19
301.057	431.19
301.288	449.19
301.518	457.19
301.748	458.19
301.979	439.19
302.209	448.19
302.439	429.19
302.669	455.19
302.9	436.19
303.13	451.19
303.36	465.19
303.59	444.19
303.82	456.19
304.051	467.19
304.281	460.19
304.511	457.19
304.741	466.19
304.971	449.19
305.201	443.19
305.431	448.19
305.661	469.19
305.891	449.19
306.121	469.19
306.352	439.19
306.582	437.19
306.812	439.19
307.042	445.19
307.272	441.19
307.502	451.19
307.731	446.19
307.961	445.19
308.191	434.19
308.421	441.19
308.651	428.19
308.881	449.19
309.111	443.19
309.341	463.19
309.571	452.19
309.8	457.19
310.03	462.19
310.26	441.19
310.49	477.19
310.72	452.19
310.949	469.19
311.179	449.19
311.409	482.19
311.639	475.19
311.868	468.19
312.098	488.19
312.328	469.19
312.557	472.19
312.787	483.19
313.017	471.19
313.246	483.19
313.476	483.19
313.706	517.19
313.935	505.19
314.165	483.19
314.394	494.19
314.624	486.19
314.853	519.19
315.083	502.19
315.312	485.19
315.542	509.19
315.771	514.19
316.001	487.19
316.23	495.19
316.46	499.19
316.689	527.19
316.919	501.19
317.148	516.19
317.377	491.19
317.607	497.19
317.836	505.19
318.065	496.19
318.295	501.19
318.524	519.19
318.753	498.19
318.983	513.19
319.212	532.19
319.441	507.19
319.67	486.19
319.9	539.19
320.129	505.19
320.358	531.19
320.587	513.19
320.816	524.19
321.046	528.19
321.275	521.19
321.504	537.19
321.733	542.19
321.962	533.19
322.191	530.19
322.42	544.19
322.649	540.19
322.878	544.19
323.108	550.19
323.337	539.19
323.566	556.19
323.795	564.19
324.024	545.19
324.253	563.19
324.482	572.19
324.71	587.19
324.939	576.19
325.168	602.19
325.397	570.19
325.626	584.19
325.855	595.19
326.084	588.19
326.313	600.19
326.542	599.19
326.77	631.19
326.999	603.19
327.228	585.19
327.457	592.19
327.686	606.19
327.914	624.19
328.143	631.19
328.372	620.19
328.6	627.19
328.829	609.19
329.058	625.19
329.287	645.19
329.515	612.19
329.744	630.19
329.972	625.19
330.201	634.19
330.43	608.19
330.658	635.19
330.887	643.19
331.115	644.19
331.344	659.19
331.572	673.19
331.801	667.19
332.03	676.19
332.258	677.19
332.486	716.19
332.715	717.19
332.943	752.19
333.172	740.19
333.4	753.19
333.629	789.19
333.857	797.19
334.085	772.19
334.314	783.19
334.542	786.19
334.771	790.19
334.999	777.19
335.227	781.19
335.455	796.19
335.684	784.19
335.912	773.19
336.14	755.19
336.369	749.19
336.597	791.19
336.825	754.19
337.053	761.19
337.281	746.19
337.51	726.19
337.738	730.19
337.966	743.19
338.194	753.19
338.422	715.19
338.65	715.19
338.878	718.19
339.106	701.19
339.334	745.19
339.562	734.19
339.79	674.19
340.018	701.19
340.246	675.19
340.474	675.19
340.702	676.19
340.93	691.19
341.158	687.19
341.386	674.19
341.614	708.19
341.842	725.19
342.07	699.19
342.298	673.19
342.526	677.19
342.754	696.19
342.981	680.19
343.209	680.19
343.437	709.19
343.665	770.19
343.893	767.19
344.12	792.19
344.348	794.19
344.576	765.19
344.804	754.19
345.031	728.19
345.259	699.19
345.487	699.19
345.714	721.19
345.942	713.19
346.17	733.19
346.397	701.19
346.625	671.19
346.853	674.19
347.08	698.19
347.308	681.19
347.535	666.19
347.763	647.19
347.99	647.19
348.218	665.19
348.445	665.19
348.673	660.19
348.9	677.19
349.128	673.19
349.355	659.19
349.583	672.19
349.81	660.19
350.037	665.19
350.265	664.19
350.492	656.19
350.72	633.19
350.947	677.19
351.174	666.19
351.402	652.19
351.629	665.19
351.856	657.19
352.083	640.19
352.311	652.19
352.538	676.19
352.765	681.19
352.992	665.19
353.22	650.19
353.447	610.19
353.674	627.19
353.901	643.19
354.128	628.19
354.355	627.19
354.583	618.19
354.81	633.19
355.037	645.19
355.264	631.19
355.491	624.19
355.718	637.19
355.945	644.19
356.172	642.19
356.399	619.19
356.626	652.19
356.853	666.19
357.08	631.19
357.307	631.19
357.534	658.19
357.761	615.19
357.988	632.19
358.215	649.19
358.441	652.19
358.668	643.19
358.895	620.19
359.122	616.19
359.349	642.19
359.576	637.19
359.802	649.19
360.029	637.19
360.256	648.19
360.483	633.19
360.709	627.19
360.936	638.19
361.163	623.19
361.39	659.19
361.616	658.19
361.843	658.19
362.07	665.19
362.296	643.19
362.523	625.19
362.749	650.19
362.976	651.19
363.203	636.19
363.429	646.19
363.656	631.19
363.882	612.19
364.109	628.19
364.335	637.19
364.562	631.19
364.788	628.19
365.015	636.19
365.241	643.19
365.468	634.19
365.694	618.19
365.92	623.19
366.147	655.19
366.373	623.19
366.599	616.19
366.826	613.19
367.052	644.19
367.278	635.19
367.505	629.19
367.731	648.19
367.957	641.19
368.184	627.19
368.41	643.19
368.636	639.19
368.862	633.19
369.089	662.19
369.315	635.19
369.541	670.19
369.767	637.19
369.993	639.19
370.219	658.19
370.445	637.19
370.672	648.19
370.898	649.19
371.124	657.19
371.35	645.19
371.576	646.19
371.802	666.19
372.028	686.19
372.254	654.19
372.48	677.19
372.706	687.19
372.932	683.19
373.158	680.19
373.384	667.19
373.61	663.19
373.835	691.19
374.061	665.19
374.287	674.19
374.513	676.19
374.739	680.19
374.965	716.19
375.191	710.19
375.416	709.19
375.642	700.19
375.868	695.19
376.094	666.19
376.319	669.19
376.545	666.19
376.771	677.19
376.997	662.19
377.222	659.19
377.448	655.19
377.674	689.19
377.899	653.19
378.125	652.19
378.35	661.19
378.576	653.19
378.802	658.19
379.027	643.19
379.253	653.19
379.478	654.19
379.704	650.19
379.929	647.19
380.155	656.19
380.38	661.19
380.606	656.19
380.831	660.19
381.057	652.19
381.282	640.19
381.507	653.19
381.733	651.19
381.958	647.19
382.184	644.19
382.409	655.19
382.634	682.19
382.86	683.19
383.085	689.19
383.31	684.19
383.535	688.19
383.761	693.19
383.986	709.19
384.211	715.19
384.436	743.19
384.662	743.19
384.887	738.19
385.112	735.19
385.337	759.19
385.562	738.19
385.787	736.19
386.013	766.19
386.238	747.19
386.463	769.19
386.688	767.19
386.913	771.19
387.138	746.19
387.363	738.19
387.588	757.19
387.813	783.19
388.038	765.19
388.263	766.19
388.488	733.19
388.713	764.19
388.938	751.19
389.163	741.19
389.387	769.19
389.612	732.19
389.837	732.19
390.062	734.19
390.287	746.19
390.512	744.19
390.736	767.19
390.961	769.19
391.186	786.19
391.411	778.19
391.636	785.19
391.86	852.19
392.085	863.19
392.31	858.19
392.534	831.19
392.759	823.19
392.984	810.19
393.208	802.19
393.433	811.19
393.658	806.19
393.882	787.19
394.107	835.19
394.331	818.19
394.556	831.19
394.78	809.19
395.005	843.19
395.229	819.19
395.454	831.19
395.678	855.19
395.903	850.19
396.127	828.19
396.352	818.19
396.576	799.19
396.801	842.19
397.025	852.19
397.249	834.19
397.474	877.19
397.698	840.19
397.922	852.19
398.147	874.19
398.371	897.19
398.595	895.19
398.82	926.19
399.044	1022.19
399.268	1084.19
399.492	1183.19
399.717	1286.19
399.941	1284.19
400.165	1155.19
400.389	1085.19
400.613	1039.19
400.837	1004.19
401.062	983.19
401.286	975.19
401.51	985.19
401.734	969.19
401.958	983.19
402.182	963.19
402.406	977.19
402.63	996.19
402.854	987.19
403.078	984.19
403.302	1000.19
403.526	1019.19
403.75	1025.19
403.974	1047.19
404.198	1032.19
404.422	1067.19
404.645	1012.19
404.869	1040.19
405.093	1076.19
405.317	1042.19
405.541	1042.19
405.765	1024.19
405.988	1014.19
406.212	1029.19
406.436	1027.19
406.66	1058.19
406.883	1067.19
407.107	1108.19
407.331	1135.19
407.555	1157.19
407.778	1183.19
408.002	1168.19
408.226	1128.19
408.449	1098.19
408.673	1085.19
408.896	1064.19
409.12	1107.19
409.344	1061.19
409.567	1101.19
409.791	1100.19
410.014	1061.19
410.238	1060.19
410.461	1042.19
410.685	1038.19
410.908	1023.19
411.132	1018.19
411.355	1005.19
411.578	1025.19
411.802	991.19
412.025	1008.19
412.249	1013.19
412.472	1034.19
412.695	994.19
412.919	978.19
413.142	1022.19
413.365	979.19
413.589	979.19
413.812	979.19
414.035	968.19
414.258	977.19
414.482	1011.19
414.705	963.19
414.928	982.19
415.151	966.19
415.374	981.19
415.597	961.19
415.821	940.19
416.044	949.19
416.267	972.19
416.49	952.19
416.713	958.19
416.936	963.19
417.159	973.19
417.382	932.19
417.605	978.19
417.828	953.19
418.051	962.19
418.274	970.19
418.497	944.19
418.72	981.19
418.943	972.19
419.166	1048.19
419.389	1108.19
419.611	1080.19
419.834	1073.19
420.057	1003.19
420.28	973.19
420.503	967.19
420.726	956.19
420.948	951.19
421.171	959.19
421.394	947.19
421.617	961.19
421.839	982.19
422.062	974.19
422.285	954.19
422.507	987.19
422.73	1020.19
422.953	972.19
423.175	1004.19
423.398	994.19
423.621	980.19
423.843	1008.19
424.066	1001.19
424.288	1004.19
424.511	1017.19
424.733	1021.19
424.956	975.19
425.178	963.19
425.401	984.19
425.623	965.19
425.846	961.19
426.068	921.19
426.291	950.19
426.513	946.19
426.735	953.19
426.958	941.19
427.18	912.19
427.402	917.19
427.625	922.19
427.847	900.19
428.069	932.19
428.292	886.19
428.514	888.19
428.736	907.19
428.958	911.19
429.181	890.19
429.403	897.19
429.625	889.19
429.847	892.19
430.069	897.19
430.292	884.19
430.514	858.19
430.736	900.19
430.958	872.19
431.18	877.19
431.402	895.19
431.624	917.19
431.846	895.19
432.068	902.19
432.29	926.19
432.512	915.19
432.734	912.19
432.956	893.19
433.178	908.19
433.4	932.19
433.622	925.19
433.844	922.19
434.066	928.19
434.287	931.19
434.509	959.19
434.731	986.19
434.953	972.19
435.175	1021.19
435.397	995.19
435.618	945.19
435.84	943.19
436.062	929.19
436.284	919.19
436.505	911.19
436.727	943.19
436.949	920.19
437.17	947.19
437.392	903.19
437.614	905.19
437.835	868.19
438.057	883.19
438.278	863.19
438.5	888.19
438.721	883.19
438.943	903.19
439.165	918.19
439.386	924.19
439.608	919.19
439.829	936.19
440.05	918.19
440.272	931.19
440.493	929.19
440.715	944.19
440.936	953.19
441.158	969.19
441.379	989.19
441.6	1009.19
441.822	1029.19
442.043	990.19
442.264	1007.19
442.486	1003.19
442.707	968.19
442.928	1007.19
443.149	990.19
443.371	994.19
443.592	1012.19
443.813	1004.19
444.034	1022.19
444.255	1036.19
444.476	1047.19
444.698	1127.19
444.919	1161.19
445.14	1229.19
445.361	1135.19
445.582	1041.19
445.803	985.19
446.024	961.19
446.245	966.19
446.466	970.19
446.687	944.19
446.908	955.19
447.129	911.19
447.35	938.19
447.571	899.19
447.792	860.19
448.013	901.19
448.234	887.19
448.455	871.19
448.675	867.19
448.896	868.19
449.117	843.19
449.338	866.19
449.559	832.19
449.779	856.19
450	832.19
450.221	846.19
450.442	850.19
450.662	853.19
450.883	861.19
451.104	853.19
451.324	867.19
451.545	843.19
451.766	850.19
451.986	850.19
452.207	859.19
452.428	834.19
452.648	844.19
452.869	821.19
453.089	813.19
453.31	811.19
453.53	837.19
453.751	788.19
453.971	805.19
454.192	797.19
454.412	820.19
454.633	795.19
454.853	811.19
455.073	802.19
455.294	828.19
455.514	829.19
455.734	807.19
455.955	803.19
456.175	781.19
456.395	792.19
456.616	788.19
456.836	789.19
457.056	802.19
457.276	802.19
457.497	827.19
457.717	798.19
457.937	818.19
458.157	822.19
458.377	820.19
458.598	836.19
458.818	824.19
459.038	864.19
459.258	892.19
459.478	939.19
459.698	925.19
459.918	976.19
460.138	984.19
460.358	1023.19
460.578	1039.19
460.798	1027.19
461.018	1051.19
461.238	1044.19
461.458	1061.19
461.678	1032.19
461.898	1094.19
462.118	1068.19
462.338	1104.19
462.558	1125.19
462.777	1169.19
462.997	1234.19
463.217	1281.19
463.437	1311.19
463.657	1237.19
463.876	1222.19
464.096	1212.19
464.316	1179.19
464.536	1203.19
464.755	1161.19
464.975	1113.19
465.195	1071.19
465.414	1037.19
465.634	985.19
465.854	950.19
466.073	943.19
466.293	953.19
466.512	917.19
466.732	901.19
466.951	870.19
467.171	891.19
467.391	889.19
467.61	894.19
467.829	885.19
468.049	901.19
468.268	845.19
468.488	855.19
468.707	863.19
468.927	876.19
469.146	865.19
469.365	886.19
469.585	891.19
469.804	883.19
470.023	923.19
470.243	935.19
470.462	903.19
470.681	901.19
470.901	932.19
471.12	922.19
471.339	900.19
471.558	885.19
471.777	893.19
471.997	911.19
472.216	884.19
472.435	879.19
472.654	885.19
472.873	865.19
473.092	850.19
473.311	860.19
473.53	839.19
473.749	842.19
473.968	851.19
474.187	855.19
474.406	850.19
474.625	883.19
474.844	869.19
475.063	853.19
475.282	870.19
475.501	859.19
475.72	881.19
475.939	869.19
476.158	891.19
476.377	909.19
476.596	874.19
476.814	904.19
477.033	891.19
477.252	892.19
477.471	919.19
477.69	935.19
477.908	965.19
478.127	980.19
478.346	985.19
478.564	1014.19
478.783	1004.19
479.002	1056.19
479.22	1055.19
479.439	1037.19
479.658	1047.19
479.876	1053.19
480.095	1033.19
480.313	1059.19
480.532	1045.19
480.751	1052.19
480.969	1040.19
481.188	1014.19
481.406	1001.19
481.624	995.19
481.843	998.19
482.061	960.19
482.28	936.19
482.498	960.19
482.717	963.19
482.935	946.19
483.153	971.19
483.372	977.19
483.59	995.19
483.808	1007.19
484.027	1008.19
484.245	985.19
484.463	1007.19
484.681	1006.19
484.9	1017.19
485.118	999.19
485.336	1001.19
485.554	983.19
485.772	1019.19
485.99	1026.19
486.209	1013.19
486.427	1005.19
486.645	990.19
486.863	1012.19
487.081	1031.19
487.299	1018.19
487.517	1032.19
487.735	1052.19
487.953	1041.19
488.171	1010.19
488.389	1017.19
488.607	1026.19
488.825	1020.19
489.043	1005.19
489.261	1019.19
489.479	983.19
489.696	1029.19
489.914	1045.19
490.132	1034.19
490.35	1046.19
490.568	1034.19
490.786	1045.19
491.003	1053.19
491.221	1041.19
491.439	1050.19
491.657	1039.19
491.874	1066.19
492.092	1042.19
492.31	1091.19
492.527	1080.19
492.745	1073.19
492.963	1082.19
493.18	1071.19
493.398	1096.19
493.615	1099.19
493.833	1110.19
494.05	1076.19
494.268	1109.19
494.485	1124.19
494.703	1104.19
494.92	1099.19
495.138	1109.19
495.355	1112.19
495.573	1122.19
495.79	1132.19
496.008	1144.19
496.225	1132.19
496.442	1129.19
496.66	1176.19
496.877	1196.19
497.094	1216.19
497.312	1204.19
497.529	1240.19
497.746	1261.19
497.963	1304.19
498.181	1340.19
498.398	1383.19
498.615	1413.19
498.832	1567.19
499.049	1592.19
