Data from Ni(NO3)2@0.25M.TitratingCurve.Agarose3%dH2O.NegLispCup.LampEnergy10.LIBS07252019_HRD10591_18-05-46-566.txt Node
Date: Thu Jul 25 18:05:46 EDT 2019
User: cochatt
Spectrometer: HR+D1059
Trigger mode: 1
Integration Time (sec): 1.000000E-1
Scans to average: 1
Electric dark correction enabled: true
Nonlinearity correction enabled: false
Boxcar width: 0
XAxis mode: Wavelengths
Number of Pixels in Spectrum: 2048
>>>>>Begin Spectral Data<<<<<
223.165	-13.62
223.4	-13.62
223.635	-13.62
223.869	-13.62
224.104	-14.62
224.338	-8.62
224.573	-12.62
224.808	-2.62
225.042	-9.62
225.277	4.38
225.511	-3.62
225.746	-9.62
225.98	-6.62
226.215	5.38
226.449	8.38
226.683	16.38
226.918	38.38
227.152	22.38
227.387	56.38
227.621	43.38
227.856	40.38
228.09	36.38
228.324	40.38
228.559	36.38
228.793	70.38
229.027	119.38
229.262	114.38
229.496	136.38
229.73	141.38
229.964	145.38
230.199	149.38
230.433	127.38
230.667	150.38
230.901	154.38
231.136	150.38
231.37	148.38
231.604	159.38
231.838	168.38
232.072	142.38
232.306	171.38
232.541	162.38
232.775	160.38
233.009	147.38
233.243	166.38
233.477	159.38
233.711	172.38
233.945	177.38
234.179	171.38
234.413	169.38
234.647	180.38
234.881	171.38
235.115	169.38
235.349	170.38
235.583	164.38
235.817	166.38
236.051	174.38
236.285	161.38
236.519	177.38
236.753	174.38
236.987	185.38
237.221	181.38
237.455	168.38
237.689	188.38
237.922	177.38
238.156	189.38
238.39	174.38
238.624	181.38
238.858	192.38
239.091	187.38
239.325	201.38
239.559	184.38
239.793	194.38
240.027	196.38
240.26	219.38
240.494	184.38
240.728	187.38
240.961	210.38
241.195	194.38
241.429	208.38
241.662	213.38
241.896	213.38
242.13	217.38
242.363	224.38
242.597	224.38
242.83	220.38
243.064	226.38
243.298	220.38
243.531	222.38
243.765	220.38
243.998	235.38
244.232	247.38
244.465	240.38
244.699	233.38
244.932	238.38
245.166	245.38
245.399	245.38
245.633	245.38
245.866	263.38
246.099	264.38
246.333	268.38
246.566	244.38
246.8	252.38
247.033	256.38
247.266	256.38
247.5	260.38
247.733	267.38
247.966	269.38
248.2	279.38
248.433	289.38
248.666	285.38
248.899	273.38
249.133	294.38
249.366	309.38
249.599	295.38
249.832	287.38
250.066	294.38
250.299	296.38
250.532	302.38
250.765	298.38
250.998	316.38
251.231	307.38
251.465	313.38
251.698	310.38
251.931	325.38
252.164	351.38
252.397	346.38
252.63	349.38
252.863	335.38
253.096	321.38
253.329	318.38
253.562	330.38
253.795	358.38
254.028	338.38
254.261	347.38
254.494	341.38
254.727	336.38
254.96	358.38
255.193	351.38
255.426	362.38
255.659	346.38
255.892	355.38
256.124	350.38
256.357	367.38
256.59	378.38
256.823	378.38
257.056	362.38
257.289	382.38
257.521	390.38
257.754	370.38
257.987	377.38
258.22	385.38
258.452	398.38
258.685	409.38
258.918	387.38
259.151	394.38
259.383	407.38
259.616	391.38
259.849	418.38
260.081	396.38
260.314	385.38
260.547	397.38
260.779	416.38
261.012	401.38
261.244	406.38
261.477	416.38
261.71	436.38
261.942	418.38
262.175	432.38
262.407	429.38
262.64	420.38
262.872	408.38
263.105	427.38
263.337	424.38
263.57	426.38
263.802	442.38
264.035	416.38
264.267	438.38
264.499	453.38
264.732	442.38
264.964	443.38
265.197	449.38
265.429	448.38
265.661	437.38
265.894	457.38
266.126	461.38
266.358	456.38
266.591	454.38
266.823	445.38
267.055	458.38
267.287	492.38
267.52	476.38
267.752	486.38
267.984	465.38
268.216	470.38
268.448	481.38
268.681	483.38
268.913	496.38
269.145	493.38
269.377	474.38
269.609	483.38
269.841	494.38
270.073	488.38
270.306	500.38
270.538	496.38
270.77	459.38
271.002	498.38
271.234	500.38
271.466	503.38
271.698	503.38
271.93	498.38
272.162	504.38
272.394	483.38
272.626	492.38
272.858	499.38
273.09	500.38
273.322	530.38
273.553	515.38
273.785	510.38
274.017	513.38
274.249	538.38
274.481	536.38
274.713	527.38
274.945	522.38
275.176	547.38
275.408	540.38
275.64	526.38
275.872	546.38
276.104	564.38
276.335	543.38
276.567	540.38
276.799	562.38
277.031	553.38
277.262	531.38
277.494	547.38
277.726	546.38
277.957	553.38
278.189	585.38
278.421	572.38
278.652	558.38
278.884	593.38
279.115	584.38
279.347	577.38
279.579	570.38
279.81	549.38
280.042	595.38
280.273	565.38
280.505	572.38
280.736	578.38
280.968	587.38
281.199	568.38
281.431	590.38
281.662	587.38
281.894	592.38
282.125	610.38
282.356	608.38
282.588	597.38
282.819	626.38
283.051	622.38
283.282	618.38
283.513	617.38
283.745	611.38
283.976	591.38
284.207	589.38
284.439	624.38
284.67	628.38
284.901	640.38
285.132	637.38
285.364	608.38
285.595	652.38
285.826	625.38
286.057	658.38
286.288	654.38
286.52	633.38
286.751	614.38
286.982	642.38
287.213	637.38
287.444	629.38
287.675	626.38
287.906	647.38
288.138	672.38
288.369	629.38
288.6	638.38
288.831	643.38
289.062	635.38
289.293	655.38
289.524	654.38
289.755	673.38
289.986	669.38
290.217	669.38
290.448	632.38
290.679	689.38
290.91	648.38
291.141	648.38
291.371	657.38
291.602	658.38
291.833	685.38
292.064	646.38
292.295	662.38
292.526	633.38
292.757	665.38
292.987	646.38
293.218	614.38
293.449	686.38
293.68	666.38
293.91	686.38
294.141	659.38
294.372	640.38
294.603	654.38
294.833	698.38
295.064	663.38
295.295	657.38
295.525	662.38
295.756	676.38
295.987	670.38
296.217	707.38
296.448	675.38
296.679	690.38
296.909	667.38
297.14	708.38
297.37	697.38
297.601	712.38
297.831	692.38
298.062	697.38
298.292	709.38
298.523	730.38
298.753	717.38
298.984	713.38
299.214	717.38
299.445	721.38
299.675	704.38
299.905	717.38
300.136	724.38
300.366	724.38
300.597	727.38
300.827	778.38
301.057	747.38
301.288	743.38
301.518	744.38
301.748	767.38
301.979	763.38
302.209	754.38
302.439	753.38
302.669	774.38
302.9	746.38
303.13	748.38
303.36	745.38
303.59	768.38
303.82	763.38
304.051	741.38
304.281	769.38
304.511	743.38
304.741	774.38
304.971	759.38
305.201	790.38
305.431	753.38
305.661	782.38
305.891	728.38
306.121	748.38
306.352	755.38
306.582	725.38
306.812	762.38
307.042	736.38
307.272	752.38
307.502	741.38
307.731	758.38
307.961	754.38
308.191	753.38
308.421	730.38
308.651	743.38
308.881	728.38
309.111	727.38
309.341	765.38
309.571	726.38
309.8	754.38
310.03	760.38
310.26	749.38
310.49	770.38
310.72	745.38
310.949	772.38
311.179	792.38
311.409	777.38
311.639	754.38
311.868	779.38
312.098	783.38
312.328	759.38
312.557	785.38
312.787	799.38
313.017	774.38
313.246	776.38
313.476	813.38
313.706	820.38
313.935	788.38
314.165	828.38
314.394	844.38
314.624	850.38
314.853	803.38
315.083	822.38
315.312	813.38
315.542	828.38
315.771	812.38
316.001	818.38
316.23	787.38
316.46	801.38
316.689	824.38
316.919	808.38
317.148	819.38
317.377	814.38
317.607	789.38
317.836	836.38
318.065	800.38
318.295	820.38
318.524	843.38
318.753	854.38
318.983	797.38
319.212	800.38
319.441	830.38
319.67	816.38
319.9	833.38
320.129	826.38
320.358	833.38
320.587	836.38
320.816	832.38
321.046	820.38
321.275	812.38
321.504	836.38
321.733	874.38
321.962	848.38
322.191	864.38
322.42	856.38
322.649	856.38
322.878	851.38
323.108	823.38
323.337	870.38
323.566	876.38
323.795	893.38
324.024	877.38
324.253	869.38
324.482	877.38
324.71	899.38
324.939	878.38
325.168	900.38
325.397	908.38
325.626	913.38
325.855	917.38
326.084	916.38
326.313	905.38
326.542	935.38
326.77	938.38
326.999	939.38
327.228	917.38
327.457	938.38
327.686	910.38
327.914	937.38
328.143	960.38
328.372	938.38
328.6	925.38
328.829	963.38
329.058	954.38
329.287	949.38
329.515	989.38
329.744	958.38
329.972	963.38
330.201	980.38
330.43	982.38
330.658	966.38
330.887	989.38
331.115	972.38
331.344	1023.38
331.572	999.38
331.801	1033.38
332.03	1043.38
332.258	1048.38
332.486	1082.38
332.715	1094.38
332.943	1113.38
333.172	1134.38
333.4	1144.38
333.629	1194.38
333.857	1212.38
334.085	1214.38
334.314	1226.38
334.542	1241.38
334.771	1234.38
334.999	1232.38
335.227	1251.38
335.455	1201.38
335.684	1233.38
335.912	1218.38
336.14	1209.38
336.369	1197.38
336.597	1204.38
336.825	1192.38
337.053	1157.38
337.281	1158.38
337.51	1116.38
337.738	1176.38
337.966	1109.38
338.194	1090.38
338.422	1108.38
338.65	1081.38
338.878	1103.38
339.106	1080.38
339.334	1096.38
339.562	1065.38
339.79	1061.38
340.018	1049.38
340.246	1028.38
340.474	1066.38
340.702	1027.38
340.93	1021.38
341.158	1031.38
341.386	1060.38
341.614	1057.38
341.842	1062.38
342.07	1035.38
342.298	1030.38
342.526	1028.38
342.754	1037.38
342.981	1016.38
343.209	1039.38
343.437	1091.38
343.665	1122.38
343.893	1176.38
344.12	1225.38
344.348	1202.38
344.576	1161.38
344.804	1144.38
345.031	1104.38
345.259	1060.38
345.487	1063.38
345.714	1050.38
345.942	1046.38
346.17	1091.38
346.397	1037.38
346.625	1026.38
346.853	988.38
347.08	979.38
347.308	1003.38
347.535	1007.38
347.763	984.38
347.99	968.38
348.218	1026.38
348.445	1003.38
348.673	993.38
348.9	968.38
349.128	999.38
349.355	987.38
349.583	1019.38
349.81	980.38
350.037	980.38
350.265	955.38
350.492	940.38
350.72	953.38
350.947	962.38
351.174	973.38
351.402	973.38
351.629	984.38
351.856	971.38
352.083	967.38
352.311	963.38
352.538	963.38
352.765	994.38
352.992	1000.38
353.22	927.38
353.447	891.38
353.674	943.38
353.901	953.38
354.128	957.38
354.355	941.38
354.583	955.38
354.81	953.38
355.037	986.38
355.264	962.38
355.491	934.38
355.718	963.38
355.945	981.38
356.172	939.38
356.399	962.38
356.626	964.38
356.853	983.38
357.08	939.38
357.307	954.38
357.534	946.38
357.761	953.38
357.988	929.38
358.215	930.38
358.441	935.38
358.668	944.38
358.895	924.38
359.122	947.38
359.349	946.38
359.576	938.38
359.802	956.38
360.029	954.38
360.256	946.38
360.483	942.38
360.709	940.38
360.936	941.38
361.163	966.38
361.39	937.38
361.616	930.38
361.843	942.38
362.07	961.38
362.296	956.38
362.523	960.38
362.749	947.38
362.976	932.38
363.203	964.38
363.429	917.38
363.656	948.38
363.882	923.38
364.109	942.38
364.335	913.38
364.562	953.38
364.788	953.38
365.015	957.38
365.241	943.38
365.468	925.38
365.694	941.38
365.92	933.38
366.147	951.38
366.373	932.38
366.599	916.38
366.826	932.38
367.052	929.38
367.278	914.38
367.505	932.38
367.731	924.38
367.957	948.38
368.184	980.38
368.41	929.38
368.636	971.38
368.862	994.38
369.089	963.38
369.315	974.38
369.541	953.38
369.767	978.38
369.993	968.38
370.219	980.38
370.445	985.38
370.672	996.38
370.898	989.38
371.124	1014.38
371.35	1018.38
371.576	1006.38
371.802	1003.38
372.028	1008.38
372.254	1038.38
372.48	1001.38
372.706	1028.38
372.932	1036.38
373.158	1003.38
373.384	1050.38
373.61	1000.38
373.835	1012.38
374.061	1020.38
374.287	1046.38
374.513	1039.38
374.739	1039.38
374.965	1091.38
375.191	1099.38
375.416	1110.38
375.642	1070.38
375.868	1069.38
376.094	1058.38
376.319	1044.38
376.545	1018.38
376.771	1019.38
376.997	1008.38
377.222	984.38
377.448	1007.38
377.674	998.38
377.899	1010.38
378.125	997.38
378.35	989.38
378.576	970.38
378.802	993.38
379.027	978.38
379.253	976.38
379.478	989.38
379.704	982.38
379.929	997.38
380.155	985.38
380.38	985.38
380.606	1013.38
380.831	1008.38
381.057	1009.38
381.282	985.38
381.507	988.38
381.733	1036.38
381.958	1010.38
382.184	1018.38
382.409	1029.38
382.634	1033.38
382.86	1032.38
383.085	1038.38
383.31	1074.38
383.535	1049.38
383.761	1074.38
383.986	1093.38
384.211	1123.38
384.436	1135.38
384.662	1130.38
384.887	1146.38
385.112	1128.38
385.337	1152.38
385.562	1170.38
385.787	1168.38
386.013	1206.38
386.238	1172.38
386.463	1190.38
386.688	1173.38
386.913	1186.38
387.138	1193.38
387.363	1202.38
387.588	1174.38
387.813	1209.38
388.038	1158.38
388.263	1222.38
388.488	1206.38
388.713	1222.38
388.938	1206.38
389.163	1201.38
389.387	1158.38
389.612	1152.38
389.837	1152.38
390.062	1177.38
390.287	1206.38
390.512	1167.38
390.736	1188.38
390.961	1243.38
391.186	1208.38
391.411	1251.38
391.636	1289.38
391.86	1323.38
392.085	1323.38
392.31	1340.38
392.534	1316.38
392.759	1311.38
392.984	1282.38
393.208	1272.38
393.433	1276.38
393.658	1294.38
393.882	1289.38
394.107	1282.38
394.331	1284.38
394.556	1268.38
394.78	1278.38
395.005	1284.38
395.229	1312.38
395.454	1305.38
395.678	1337.38
395.903	1329.38
396.127	1329.38
396.352	1311.38
396.576	1300.38
396.801	1314.38
397.025	1294.38
397.249	1352.38
397.474	1364.38
397.698	1381.38
397.922	1428.38
398.147	1396.38
398.371	1451.38
398.595	1444.38
398.82	1536.38
399.044	1606.38
399.268	1681.38
399.492	1869.38
399.717	1955.38
399.941	2012.38
400.165	1953.38
400.389	1827.38
400.613	1740.38
400.837	1630.38
401.062	1588.38
401.286	1567.38
401.51	1554.38
401.734	1548.38
401.958	1556.38
402.182	1542.38
402.406	1517.38
402.63	1565.38
402.854	1567.38
403.078	1538.38
403.302	1563.38
403.526	1601.38
403.75	1578.38
403.974	1674.38
404.198	1589.38
404.422	1620.38
404.645	1609.38
404.869	1637.38
405.093	1624.38
405.317	1603.38
405.541	1663.38
405.765	1630.38
405.988	1604.38
406.212	1666.38
406.436	1650.38
406.66	1709.38
406.883	1765.38
407.107	1788.38
407.331	1855.38
407.555	1894.38
407.778	1890.38
408.002	1883.38
408.226	1838.38
408.449	1799.38
408.673	1790.38
408.896	1742.38
409.12	1727.38
409.344	1737.38
409.567	1720.38
409.791	1732.38
410.014	1739.38
410.238	1715.38
410.461	1696.38
410.685	1664.38
410.908	1672.38
411.132	1630.38
411.355	1621.38
411.578	1606.38
411.802	1577.38
412.025	1606.38
412.249	1609.38
412.472	1600.38
412.695	1578.38
412.919	1539.38
413.142	1549.38
413.365	1577.38
413.589	1568.38
413.812	1546.38
414.035	1517.38
414.258	1517.38
414.482	1523.38
414.705	1526.38
414.928	1562.38
415.151	1576.38
415.374	1523.38
415.597	1517.38
415.821	1484.38
416.044	1501.38
416.267	1527.38
416.49	1482.38
416.713	1501.38
416.936	1502.38
417.159	1494.38
417.382	1470.38
417.605	1478.38
417.828	1491.38
418.051	1479.38
418.274	1506.38
418.497	1506.38
418.72	1522.38
418.943	1492.38
419.166	1637.38
419.389	1752.38
419.611	1709.38
419.834	1652.38
420.057	1579.38
420.28	1524.38
420.503	1509.38
420.726	1472.38
420.948	1487.38
421.171	1490.38
421.394	1480.38
421.617	1486.38
421.839	1531.38
422.062	1495.38
422.285	1498.38
422.507	1481.38
422.73	1469.38
422.953	1520.38
423.175	1560.38
423.398	1542.38
423.621	1533.38
423.843	1556.38
424.066	1543.38
424.288	1554.38
424.511	1504.38
424.733	1523.38
424.956	1532.38
425.178	1497.38
425.401	1512.38
425.623	1502.38
425.846	1458.38
426.068	1441.38
426.291	1460.38
426.513	1440.38
426.735	1473.38
426.958	1472.38
427.18	1425.38
427.402	1431.38
427.625	1394.38
427.847	1414.38
428.069	1406.38
428.292	1400.38
428.514	1368.38
428.736	1381.38
428.958	1418.38
429.181	1355.38
429.403	1333.38
429.625	1361.38
429.847	1380.38
430.069	1380.38
430.292	1393.38
430.514	1346.38
430.736	1373.38
430.958	1379.38
431.18	1353.38
431.402	1394.38
431.624	1364.38
431.846	1383.38
432.068	1366.38
432.29	1390.38
432.512	1399.38
432.734	1407.38
432.956	1383.38
433.178	1400.38
433.4	1403.38
433.622	1377.38
433.844	1428.38
434.066	1422.38
434.287	1431.38
434.509	1449.38
434.731	1507.38
434.953	1489.38
435.175	1533.38
435.397	1535.38
435.618	1428.38
435.84	1437.38
436.062	1388.38
436.284	1363.38
436.505	1372.38
436.727	1402.38
436.949	1394.38
437.17	1398.38
437.392	1349.38
437.614	1346.38
437.835	1309.38
438.057	1347.38
438.278	1290.38
438.5	1326.38
438.721	1305.38
438.943	1339.38
439.165	1352.38
439.386	1349.38
439.608	1382.38
439.829	1374.38
440.05	1429.38
440.272	1369.38
440.493	1414.38
440.715	1417.38
440.936	1442.38
441.158	1475.38
441.379	1460.38
441.6	1498.38
441.822	1542.38
442.043	1533.38
442.264	1538.38
442.486	1461.38
442.707	1503.38
442.928	1498.38
443.149	1501.38
443.371	1514.38
443.592	1520.38
443.813	1552.38
444.034	1500.38
444.255	1576.38
444.476	1636.38
444.698	1652.38
444.919	1726.38
445.14	1771.38
445.361	1672.38
445.582	1595.38
445.803	1548.38
446.024	1513.38
446.245	1478.38
446.466	1456.38
446.687	1394.38
446.908	1421.38
447.129	1352.38
447.35	1350.38
447.571	1364.38
447.792	1304.38
448.013	1314.38
448.234	1315.38
448.455	1313.38
448.675	1317.38
448.896	1283.38
449.117	1304.38
449.338	1261.38
449.559	1266.38
449.779	1248.38
450	1256.38
450.221	1278.38
450.442	1286.38
450.662	1281.38
450.883	1249.38
451.104	1296.38
451.324	1287.38
451.545	1307.38
451.766	1287.38
451.986	1278.38
452.207	1250.38
452.428	1282.38
452.648	1242.38
452.869	1243.38
453.089	1236.38
453.31	1256.38
453.53	1220.38
453.751	1200.38
453.971	1221.38
454.192	1195.38
454.412	1184.38
454.633	1195.38
454.853	1205.38
455.073	1201.38
455.294	1220.38
455.514	1176.38
455.734	1216.38
455.955	1189.38
456.175	1184.38
456.395	1157.38
456.616	1159.38
456.836	1194.38
457.056	1166.38
457.276	1161.38
457.497	1206.38
457.717	1221.38
457.937	1212.38
458.157	1257.38
458.377	1224.38
458.598	1280.38
458.818	1297.38
459.038	1303.38
459.258	1346.38
459.478	1413.38
459.698	1405.38
459.918	1481.38
460.138	1536.38
460.358	1564.38
460.578	1571.38
460.798	1586.38
461.018	1606.38
461.238	1599.38
461.458	1605.38
461.678	1634.38
461.898	1648.38
462.118	1628.38
462.338	1712.38
462.558	1752.38
462.777	1818.38
462.997	1909.38
463.217	1994.38
463.437	2014.38
463.657	1942.38
463.876	1916.38
464.096	1875.38
464.316	1859.38
464.536	1853.38
464.755	1767.38
464.975	1752.38
465.195	1634.38
465.414	1582.38
465.634	1501.38
465.854	1468.38
466.073	1470.38
466.293	1400.38
466.512	1357.38
466.732	1333.38
466.951	1321.38
467.171	1337.38
467.391	1324.38
467.61	1331.38
467.829	1310.38
468.049	1304.38
468.268	1280.38
468.488	1293.38
468.707	1277.38
468.927	1281.38
469.146	1269.38
469.365	1314.38
469.585	1307.38
469.804	1310.38
470.023	1332.38
470.243	1332.38
470.462	1345.38
470.681	1377.38
470.901	1375.38
471.12	1321.38
471.339	1355.38
471.558	1325.38
471.777	1348.38
471.997	1319.38
472.216	1266.38
472.435	1280.38
472.654	1265.38
472.873	1241.38
473.092	1261.38
473.311	1272.38
473.53	1248.38
473.749	1265.38
473.968	1248.38
474.187	1249.38
474.406	1257.38
474.625	1244.38
474.844	1270.38
475.063	1265.38
475.282	1269.38
475.501	1286.38
475.72	1288.38
475.939	1266.38
476.158	1281.38
476.377	1346.38
476.596	1324.38
476.814	1321.38
477.033	1346.38
477.252	1370.38
477.471	1379.38
477.69	1416.38
477.908	1405.38
478.127	1434.38
478.346	1460.38
478.564	1475.38
478.783	1514.38
479.002	1542.38
479.22	1531.38
479.439	1570.38
479.658	1572.38
479.876	1561.38
480.095	1556.38
480.313	1579.38
480.532	1586.38
480.751	1585.38
480.969	1550.38
481.188	1502.38
481.406	1567.38
481.624	1484.38
481.843	1468.38
482.061	1448.38
482.28	1483.38
482.498	1432.38
482.717	1416.38
482.935	1422.38
483.153	1437.38
483.372	1442.38
483.59	1422.38
483.808	1442.38
484.027	1402.38
484.245	1481.38
484.463	1473.38
484.681	1457.38
484.9	1477.38
485.118	1431.38
485.336	1459.38
485.554	1485.38
485.772	1481.38
485.99	1520.38
486.209	1499.38
486.427	1483.38
486.645	1516.38
486.863	1497.38
487.081	1517.38
487.299	1489.38
487.517	1497.38
487.735	1512.38
487.953	1515.38
488.171	1525.38
488.389	1468.38
488.607	1517.38
488.825	1477.38
489.043	1465.38
489.261	1463.38
489.479	1483.38
489.696	1508.38
489.914	1516.38
490.132	1500.38
490.35	1530.38
490.568	1518.38
490.786	1520.38
491.003	1532.38
491.221	1529.38
491.439	1534.38
491.657	1559.38
491.874	1517.38
492.092	1592.38
492.31	1580.38
492.527	1558.38
492.745	1578.38
492.963	1564.38
493.18	1571.38
