Data from Ni(NO3)2@0.5M.TitratingCurve.Agarose3%dH2O.NegLispCup.LampEnergy10.LIBS07252019_HRD10591_17-59-25-566.txt Node
Date: Thu Jul 25 17:59:25 EDT 2019
User: cochatt
Spectrometer: HR+D1059
Trigger mode: 1
Integration Time (sec): 1.000000E-1
Scans to average: 1
Electric dark correction enabled: true
Nonlinearity correction enabled: false
Boxcar width: 0
XAxis mode: Wavelengths
Number of Pixels in Spectrum: 2048
>>>>>Begin Spectral Data<<<<<
223.165	-8.44
223.4	-8.44
223.635	-8.44
223.869	-14.44
224.104	-24.44
224.338	-13.44
224.573	-6.44
224.808	-11.44
225.042	-3.44
225.277	-0.44
225.511	-6.44
225.746	-4.44
225.98	2.56
226.215	-6.44
226.449	20.56
226.683	22.56
226.918	17.56
227.152	36.56
227.387	42.56
227.621	40.56
227.856	45.56
228.09	47.56
228.324	58.56
228.559	52.56
228.793	73.56
229.027	126.56
229.262	124.56
229.496	136.56
229.73	141.56
229.964	166.56
230.199	164.56
230.433	181.56
230.667	175.56
230.901	150.56
231.136	148.56
231.37	140.56
231.604	162.56
231.838	179.56
232.072	192.56
232.306	155.56
232.541	152.56
232.775	150.56
233.009	150.56
233.243	165.56
233.477	156.56
233.711	161.56
233.945	155.56
234.179	150.56
234.413	164.56
234.647	141.56
234.881	139.56
235.115	164.56
235.349	156.56
235.583	156.56
235.817	156.56
236.051	134.56
236.285	132.56
236.519	151.56
236.753	170.56
236.987	160.56
237.221	164.56
237.455	151.56
237.689	164.56
237.922	167.56
238.156	154.56
238.39	153.56
238.624	138.56
238.858	158.56
239.091	158.56
239.325	159.56
239.559	174.56
239.793	171.56
240.027	206.56
240.26	158.56
240.494	171.56
240.728	152.56
240.961	154.56
241.195	171.56
241.429	165.56
241.662	173.56
241.896	188.56
242.13	203.56
242.363	178.56
242.597	188.56
242.83	172.56
243.064	163.56
243.298	169.56
243.531	185.56
243.765	195.56
243.998	197.56
244.232	202.56
244.465	205.56
244.699	199.56
244.932	193.56
245.166	190.56
245.399	197.56
245.633	196.56
245.866	190.56
246.099	200.56
246.333	201.56
246.566	219.56
246.8	211.56
247.033	186.56
247.266	186.56
247.5	203.56
247.733	197.56
247.966	219.56
248.2	213.56
248.433	227.56
248.666	227.56
248.899	212.56
249.133	215.56
249.366	202.56
249.599	231.56
249.832	215.56
250.066	218.56
250.299	217.56
250.532	227.56
250.765	228.56
250.998	233.56
251.231	251.56
251.465	258.56
251.698	262.56
251.931	230.56
252.164	229.56
252.397	235.56
252.63	232.56
252.863	236.56
253.096	233.56
253.329	252.56
253.562	237.56
253.795	241.56
254.028	249.56
254.261	248.56
254.494	248.56
254.727	256.56
254.96	260.56
255.193	266.56
255.426	251.56
255.659	263.56
255.892	264.56
256.124	256.56
256.357	257.56
256.59	251.56
256.823	253.56
257.056	267.56
257.289	278.56
257.521	282.56
257.754	283.56
257.987	278.56
258.22	268.56
258.452	273.56
258.685	278.56
258.918	270.56
259.151	265.56
259.383	290.56
259.616	295.56
259.849	282.56
260.081	288.56
260.314	291.56
260.547	295.56
260.779	300.56
261.012	297.56
261.244	296.56
261.477	296.56
261.71	312.56
261.942	285.56
262.175	300.56
262.407	312.56
262.64	300.56
262.872	316.56
263.105	311.56
263.337	311.56
263.57	299.56
263.802	298.56
264.035	312.56
264.267	312.56
264.499	327.56
264.732	308.56
264.964	324.56
265.197	309.56
265.429	314.56
265.661	328.56
265.894	325.56
266.126	330.56
266.358	347.56
266.591	314.56
266.823	320.56
267.055	319.56
267.287	338.56
267.52	312.56
267.752	315.56
267.984	346.56
268.216	329.56
268.448	337.56
268.681	337.56
268.913	338.56
269.145	348.56
269.377	353.56
269.609	342.56
269.841	350.56
270.073	327.56
270.306	322.56
270.538	345.56
270.77	353.56
271.002	336.56
271.234	347.56
271.466	350.56
271.698	361.56
271.93	360.56
272.162	368.56
272.394	360.56
272.626	353.56
272.858	342.56
273.09	376.56
273.322	368.56
273.553	354.56
273.785	368.56
274.017	384.56
274.249	373.56
274.481	370.56
274.713	375.56
274.945	397.56
275.176	352.56
275.408	367.56
275.64	378.56
275.872	365.56
276.104	382.56
276.335	383.56
276.567	388.56
276.799	377.56
277.031	392.56
277.262	380.56
277.494	386.56
277.726	396.56
277.957	384.56
278.189	406.56
278.421	385.56
278.652	386.56
278.884	396.56
279.115	382.56
279.347	385.56
279.579	384.56
279.81	379.56
280.042	403.56
280.273	406.56
280.505	416.56
280.736	386.56
280.968	410.56
281.199	383.56
281.431	422.56
281.662	413.56
281.894	413.56
282.125	421.56
282.356	425.56
282.588	403.56
282.819	396.56
283.051	402.56
283.282	407.56
283.513	420.56
283.745	426.56
283.976	408.56
284.207	424.56
284.439	438.56
284.67	436.56
284.901	430.56
285.132	438.56
285.364	424.56
285.595	451.56
285.826	420.56
286.057	426.56
286.288	433.56
286.52	444.56
286.751	445.56
286.982	452.56
287.213	438.56
287.444	454.56
287.675	429.56
287.906	443.56
288.138	449.56
288.369	433.56
288.6	477.56
288.831	430.56
289.062	452.56
289.293	445.56
289.524	444.56
289.755	428.56
289.986	433.56
290.217	464.56
290.448	464.56
290.679	447.56
290.91	464.56
291.141	447.56
291.371	460.56
291.602	470.56
291.833	466.56
292.064	470.56
292.295	453.56
292.526	461.56
292.757	474.56
292.987	471.56
293.218	466.56
293.449	449.56
293.68	468.56
293.91	439.56
294.141	456.56
294.372	452.56
294.603	468.56
294.833	482.56
295.064	456.56
295.295	456.56
295.525	458.56
295.756	471.56
295.987	477.56
296.217	477.56
296.448	493.56
296.679	468.56
296.909	450.56
297.14	474.56
297.37	473.56
297.601	468.56
297.831	466.56
298.062	496.56
298.292	512.56
298.523	506.56
298.753	505.56
298.984	505.56
299.214	500.56
299.445	526.56
299.675	489.56
299.905	497.56
300.136	505.56
300.366	531.56
300.597	548.56
300.827	508.56
301.057	518.56
301.288	528.56
301.518	518.56
301.748	522.56
301.979	503.56
302.209	520.56
302.439	516.56
302.669	530.56
302.9	519.56
303.13	506.56
303.36	537.56
303.59	507.56
303.82	542.56
304.051	520.56
304.281	528.56
304.511	545.56
304.741	533.56
304.971	542.56
305.201	562.56
305.431	564.56
305.661	530.56
305.891	511.56
306.121	530.56
306.352	526.56
306.582	520.56
306.812	530.56
307.042	521.56
307.272	512.56
307.502	520.56
307.731	539.56
307.961	520.56
308.191	514.56
308.421	521.56
308.651	535.56
308.881	524.56
309.111	527.56
309.341	521.56
309.571	541.56
309.8	538.56
310.03	563.56
310.26	552.56
310.49	562.56
310.72	547.56
310.949	551.56
311.179	545.56
311.409	538.56
311.639	555.56
311.868	554.56
312.098	537.56
312.328	562.56
312.557	556.56
312.787	543.56
313.017	559.56
313.246	574.56
313.476	591.56
313.706	578.56
313.935	583.56
314.165	556.56
314.394	540.56
314.624	550.56
314.853	565.56
315.083	550.56
315.312	566.56
315.542	568.56
315.771	558.56
316.001	567.56
316.23	568.56
316.46	575.56
316.689	584.56
316.919	582.56
317.148	579.56
317.377	581.56
317.607	559.56
317.836	573.56
318.065	580.56
318.295	591.56
318.524	579.56
318.753	599.56
318.983	592.56
319.212	580.56
319.441	564.56
319.67	590.56
319.9	598.56
320.129	591.56
320.358	600.56
320.587	594.56
320.816	613.56
321.046	580.56
321.275	587.56
321.504	594.56
321.733	614.56
321.962	595.56
322.191	590.56
322.42	607.56
322.649	617.56
322.878	613.56
323.108	613.56
323.337	617.56
323.566	608.56
323.795	622.56
324.024	613.56
324.253	617.56
324.482	624.56
324.71	632.56
324.939	652.56
325.168	643.56
325.397	614.56
325.626	613.56
325.855	625.56
326.084	647.56
326.313	656.56
326.542	639.56
326.77	642.56
326.999	632.56
327.228	636.56
327.457	629.56
327.686	622.56
327.914	641.56
328.143	652.56
328.372	611.56
328.6	652.56
328.829	649.56
329.058	650.56
329.287	652.56
329.515	659.56
329.744	654.56
329.972	645.56
330.201	663.56
330.43	646.56
330.658	664.56
330.887	637.56
331.115	658.56
331.344	648.56
331.572	669.56
331.801	692.56
332.03	672.56
332.258	687.56
332.486	699.56
332.715	720.56
332.943	708.56
333.172	732.56
333.4	699.56
333.629	737.56
333.857	748.56
334.085	776.56
334.314	734.56
334.542	753.56
334.771	768.56
334.999	753.56
335.227	749.56
335.455	759.56
335.684	762.56
335.912	737.56
336.14	766.56
336.369	754.56
336.597	774.56
336.825	740.56
337.053	777.56
337.281	753.56
337.51	734.56
337.738	762.56
337.966	728.56
338.194	762.56
338.422	738.56
338.65	711.56
338.878	737.56
339.106	747.56
339.334	736.56
339.562	729.56
339.79	711.56
340.018	702.56
340.246	665.56
340.474	680.56
340.702	685.56
340.93	727.56
341.158	720.56
341.386	744.56
341.614	745.56
341.842	728.56
342.07	710.56
342.298	705.56
342.526	722.56
342.754	714.56
342.981	698.56
343.209	702.56
343.437	723.56
343.665	762.56
343.893	756.56
344.12	730.56
344.348	733.56
344.576	764.56
344.804	753.56
345.031	727.56
345.259	727.56
345.487	746.56
345.714	725.56
345.942	735.56
346.17	739.56
346.397	716.56
346.625	714.56
346.853	664.56
347.08	653.56
347.308	692.56
347.535	694.56
347.763	675.56
347.99	664.56
348.218	684.56
348.445	667.56
348.673	692.56
348.9	679.56
349.128	683.56
349.355	676.56
349.583	710.56
349.81	673.56
350.037	678.56
350.265	673.56
350.492	672.56
350.72	658.56
350.947	676.56
351.174	701.56
351.402	702.56
351.629	727.56
351.856	701.56
352.083	700.56
352.311	682.56
352.538	715.56
352.765	729.56
352.992	704.56
353.22	630.56
353.447	646.56
353.674	656.56
353.901	645.56
354.128	662.56
354.355	631.56
354.583	642.56
354.81	674.56
355.037	655.56
355.264	638.56
355.491	653.56
355.718	665.56
355.945	654.56
356.172	658.56
356.399	688.56
356.626	704.56
356.853	688.56
357.08	692.56
357.307	677.56
357.534	663.56
357.761	677.56
357.988	657.56
358.215	664.56
358.441	646.56
358.668	650.56
358.895	653.56
359.122	652.56
359.349	664.56
359.576	678.56
359.802	673.56
360.029	688.56
360.256	668.56
360.483	650.56
360.709	655.56
360.936	687.56
361.163	700.56
361.39	675.56
361.616	704.56
361.843	683.56
362.07	687.56
362.296	714.56
362.523	646.56
362.749	685.56
362.976	658.56
363.203	677.56
363.429	656.56
363.656	667.56
363.882	672.56
364.109	649.56
364.335	666.56
364.562	659.56
364.788	687.56
365.015	672.56
365.241	643.56
365.468	671.56
365.694	666.56
365.92	644.56
366.147	676.56
366.373	675.56
366.599	664.56
366.826	661.56
367.052	663.56
367.278	672.56
367.505	672.56
367.731	674.56
367.957	686.56
368.184	676.56
368.41	695.56
368.636	670.56
368.862	681.56
369.089	681.56
369.315	666.56
369.541	697.56
369.767	696.56
369.993	707.56
370.219	677.56
370.445	703.56
370.672	710.56
370.898	706.56
371.124	728.56
371.35	702.56
371.576	713.56
371.802	722.56
372.028	708.56
372.254	718.56
372.48	720.56
372.706	723.56
372.932	725.56
373.158	719.56
373.384	710.56
373.61	715.56
373.835	706.56
374.061	740.56
374.287	749.56
374.513	727.56
374.739	721.56
374.965	762.56
375.191	774.56
375.416	731.56
375.642	751.56
375.868	730.56
376.094	710.56
376.319	702.56
376.545	711.56
376.771	710.56
376.997	692.56
377.222	708.56
377.448	701.56
377.674	719.56
377.899	719.56
378.125	686.56
378.35	745.56
378.576	712.56
378.802	708.56
379.027	692.56
379.253	695.56
379.478	714.56
379.704	704.56
379.929	703.56
380.155	697.56
380.38	705.56
380.606	708.56
380.831	725.56
381.057	716.56
381.282	719.56
381.507	693.56
381.733	723.56
381.958	726.56
382.184	735.56
382.409	735.56
382.634	734.56
382.86	718.56
383.085	750.56
383.31	721.56
383.535	748.56
383.761	758.56
383.986	751.56
384.211	744.56
384.436	745.56
384.662	767.56
384.887	768.56
385.112	765.56
385.337	765.56
385.562	791.56
385.787	781.56
386.013	814.56
386.238	792.56
386.463	781.56
386.688	814.56
386.913	786.56
387.138	797.56
387.363	813.56
387.588	801.56
387.813	797.56
388.038	807.56
388.263	761.56
388.488	776.56
388.713	791.56
388.938	820.56
389.163	772.56
389.387	795.56
389.612	809.56
389.837	807.56
390.062	797.56
390.287	818.56
390.512	799.56
390.736	825.56
390.961	829.56
391.186	817.56
391.411	851.56
391.636	822.56
391.86	862.56
392.085	820.56
392.31	844.56
392.534	842.56
392.759	836.56
392.984	858.56
393.208	845.56
393.433	869.56
393.658	831.56
393.882	826.56
394.107	857.56
394.331	834.56
394.556	845.56
394.78	838.56
395.005	833.56
395.229	829.56
395.454	857.56
395.678	854.56
395.903	844.56
396.127	868.56
396.352	855.56
396.576	846.56
396.801	836.56
397.025	852.56
397.249	878.56
397.474	862.56
397.698	866.56
397.922	889.56
398.147	880.56
398.371	945.56
398.595	900.56
398.82	935.56
399.044	951.56
399.268	1004.56
399.492	1057.56
399.717	1094.56
399.941	1106.56
400.165	1065.56
400.389	1030.56
400.613	999.56
400.837	985.56
401.062	982.56
401.286	984.56
401.51	948.56
401.734	973.56
401.958	959.56
402.182	988.56
402.406	948.56
402.63	935.56
402.854	981.56
403.078	955.56
403.302	953.56
403.526	976.56
403.75	936.56
403.974	928.56
404.198	950.56
404.422	959.56
404.645	963.56
404.869	950.56
405.093	986.56
405.317	965.56
405.541	969.56
405.765	996.56
405.988	1009.56
406.212	1000.56
406.436	1007.56
406.66	1053.56
406.883	1010.56
407.107	1055.56
407.331	1056.56
407.555	1074.56
407.778	1111.56
408.002	1065.56
408.226	1073.56
408.449	1060.56
408.673	1035.56
408.896	1066.56
409.12	1060.56
409.344	1059.56
409.567	1021.56
409.791	1003.56
410.014	991.56
410.238	988.56
410.461	994.56
410.685	1023.56
410.908	974.56
411.132	966.56
411.355	964.56
411.578	995.56
411.802	980.56
412.025	991.56
412.249	1017.56
412.472	991.56
412.695	976.56
412.919	972.56
413.142	967.56
413.365	984.56
413.589	976.56
413.812	966.56
414.035	936.56
414.258	939.56
414.482	937.56
414.705	950.56
414.928	1012.56
415.151	968.56
415.374	918.56
415.597	953.56
415.821	928.56
416.044	915.56
416.267	934.56
416.49	896.56
416.713	905.56
416.936	924.56
417.159	912.56
417.382	914.56
417.605	904.56
417.828	922.56
418.051	908.56
418.274	896.56
418.497	917.56
418.72	930.56
418.943	924.56
419.166	968.56
419.389	989.56
419.611	973.56
419.834	950.56
420.057	953.56
420.28	913.56
420.503	929.56
420.726	901.56
420.948	909.56
421.171	889.56
421.394	931.56
421.617	893.56
421.839	912.56
422.062	922.56
422.285	912.56
422.507	912.56
422.73	893.56
422.953	922.56
423.175	900.56
423.398	895.56
423.621	915.56
423.843	879.56
424.066	897.56
424.288	902.56
424.511	897.56
424.733	915.56
424.956	900.56
425.178	941.56
425.401	894.56
425.623	894.56
425.846	888.56
426.068	888.56
426.291	904.56
426.513	895.56
426.735	911.56
426.958	873.56
427.18	889.56
427.402	856.56
427.625	912.56
427.847	859.56
428.069	881.56
428.292	894.56
428.514	866.56
428.736	884.56
428.958	896.56
429.181	850.56
429.403	852.56
429.625	848.56
429.847	856.56
430.069	861.56
430.292	873.56
430.514	868.56
430.736	900.56
430.958	875.56
431.18	889.56
431.402	856.56
431.624	862.56
431.846	862.56
432.068	884.56
432.29	879.56
432.512	878.56
432.734	887.56
432.956	868.56
433.178	888.56
433.4	918.56
433.622	891.56
433.844	915.56
434.066	900.56
434.287	914.56
434.509	899.56
434.731	914.56
434.953	942.56
435.175	962.56
435.397	969.56
435.618	920.56
435.84	881.56
436.062	890.56
436.284	873.56
436.505	858.56
436.727	877.56
436.949	891.56
437.17	879.56
437.392	920.56
437.614	892.56
437.835	832.56
438.057	866.56
438.278	823.56
438.5	857.56
438.721	848.56
438.943	871.56
439.165	865.56
439.386	837.56
439.608	855.56
439.829	861.56
440.05	866.56
440.272	879.56
440.493	894.56
440.715	922.56
440.936	885.56
441.158	906.56
441.379	913.56
441.6	943.56
441.822	955.56
442.043	912.56
442.264	922.56
442.486	903.56
442.707	909.56
442.928	932.56
443.149	918.56
443.371	960.56
443.592	987.56
443.813	972.56
444.034	910.56
444.255	948.56
444.476	953.56
444.698	970.56
444.919	1007.56
445.14	1118.56
445.361	1040.56
445.582	968.56
445.803	920.56
446.024	908.56
446.245	912.56
446.466	889.56
446.687	852.56
446.908	863.56
447.129	840.56
447.35	845.56
447.571	824.56
447.792	796.56
448.013	843.56
448.234	826.56
448.455	817.56
448.675	811.56
448.896	796.56
449.117	789.56
449.338	799.56
449.559	785.56
449.779	782.56
450	783.56
450.221	806.56
450.442	828.56
450.662	788.56
450.883	817.56
451.104	852.56
451.324	801.56
451.545	807.56
451.766	816.56
451.986	804.56
452.207	787.56
452.428	812.56
452.648	814.56
452.869	780.56
453.089	816.56
453.31	836.56
453.53	789.56
453.751	785.56
453.971	778.56
454.192	813.56
454.412	805.56
454.633	789.56
454.853	791.56
455.073	776.56
455.294	785.56
455.514	785.56
455.734	829.56
455.955	814.56
456.175	823.56
456.395	799.56
456.616	768.56
456.836	776.56
457.056	769.56
457.276	757.56
457.497	784.56
457.717	810.56
457.937	824.56
458.157	797.56
458.377	786.56
458.598	799.56
458.818	807.56
459.038	810.56
459.258	827.56
459.478	893.56
459.698	970.56
459.918	969.56
460.138	971.56
460.358	963.56
460.578	935.56
460.798	991.56
461.018	1010.56
461.238	949.56
461.458	925.56
461.678	930.56
461.898	942.56
462.118	964.56
462.338	1000.56
462.558	1030.56
462.777	1020.56
462.997	1088.56
463.217	1102.56
463.437	1157.56
463.657	1104.56
463.876	1041.56
464.096	1064.56
464.316	1034.56
464.536	1037.56
464.755	1007.56
464.975	987.56
465.195	956.56
465.414	953.56
465.634	943.56
465.854	906.56
466.073	886.56
466.293	844.56
466.512	871.56
466.732	843.56
466.951	878.56
467.171	875.56
467.391	847.56
467.61	847.56
467.829	842.56
468.049	850.56
468.268	831.56
468.488	804.56
468.707	822.56
468.927	836.56
469.146	862.56
469.365	862.56
469.585	869.56
469.804	843.56
470.023	846.56
470.243	855.56
470.462	844.56
470.681	848.56
470.901	841.56
471.12	867.56
471.339	848.56
471.558	870.56
471.777	837.56
471.997	828.56
472.216	840.56
472.435	837.56
472.654	831.56
472.873	817.56
473.092	837.56
473.311	831.56
473.53	844.56
473.749	832.56
473.968	859.56
474.187	848.56
474.406	815.56
474.625	837.56
474.844	846.56
475.063	871.56
475.282	833.56
475.501	854.56
475.72	844.56
475.939	847.56
476.158	889.56
476.377	864.56
476.596	828.56
476.814	862.56
477.033	875.56
477.252	872.56
477.471	889.56
477.69	913.56
477.908	961.56
478.127	942.56
478.346	928.56
478.564	957.56
478.783	986.56
479.002	1006.56
479.22	1020.56
479.439	1006.56
479.658	989.56
479.876	990.56
480.095	996.56
480.313	997.56
480.532	999.56
480.751	983.56
480.969	985.56
481.188	984.56
481.406	985.56
481.624	960.56
481.843	991.56
482.061	961.56
482.28	978.56
482.498	970.56
482.717	982.56
482.935	986.56
483.153	1020.56
483.372	1060.56
483.59	1030.56
483.808	992.56
484.027	986.56
484.245	1006.56
484.463	1016.56
484.681	999.56
484.9	1013.56
485.118	990.56
485.336	991.56
485.554	977.56
485.772	1031.56
485.99	1028.56
486.209	984.56
486.427	1005.56
486.645	1017.56
486.863	1017.56
487.081	990.56
487.299	1008.56
487.517	1017.56
487.735	1030.56
487.953	1032.56
488.171	1014.56
488.389	1003.56
488.607	1000.56
488.825	1003.56
489.043	1022.56
489.261	1034.56
489.479	1007.56
489.696	1032.56
489.914	1014.56
490.132	1012.56
490.35	1013.56
490.568	1019.56
490.786	1016.56
491.003	1002.56
491.221	1018.56
491.439	1031.56
491.657	1042.56
491.874	1022.56
492.092	1060.56
492.31	1056.56
492.527	1023.56
492.745	1056.56
492.963	1037.56
493.18	1042.56
493.398	1048.56
493.615	1063.56
493.833	1051.56
494.05	1052.56
494.268	1043.56
494.485	1066.56
494.703	1047.56
494.92	1064.56
495.138	1058.56
495.355	1055.56
495.573	1095.56
495.79	1082.56
496.008	1088.56
496.225	1100.56
496.442	1113.56
496.66	1129.56
496.877	1109.56
497.094	1112.56
497.312	1103.56
497.529	1151.56
497.746	1156.56
497.963	1164.56
498.181	1199.56
498.398	1250.56
498.615	1283.56
498.832	1338.56
499.049	1354.56
499.267	1421.56
499.484	1502.56
499.701	1582.56
499.918	1627.56
