Data from Ni(NO3)2@0.0625M.TitratingCurve.Agarose3%dH2O.NegLispCup.LampEnergy10.LIBS07252019_HRD10591_18-14-39-569.txt Node
Date: Thu Jul 25 18:14:39 EDT 2019
User: cochatt
Spectrometer: HR+D1059
Trigger mode: 1
Integration Time (sec): 1.000000E-1
Scans to average: 1
Electric dark correction enabled: true
Nonlinearity correction enabled: false
Boxcar width: 0
XAxis mode: Wavelengths
Number of Pixels in Spectrum: 2048
>>>>>Begin Spectral Data<<<<<
223.165	-21.06
223.4	-21.06
223.635	-21.06
223.869	-17.06
224.104	-20.06
224.338	-26.06
224.573	-9.06
224.808	-7.06
225.042	-8.06
225.277	-10.06
225.511	-9.06
225.746	9.94
225.98	16.94
226.215	0.94
226.449	10.94
226.683	22.94
226.918	32.94
227.152	32.94
227.387	27.94
227.621	30.94
227.856	50.94
228.09	43.94
228.324	51.94
228.559	61.94
228.793	69.94
229.027	88.94
229.262	89.94
229.496	81.94
229.73	92.94
229.964	119.94
230.199	107.94
230.433	117.94
230.667	115.94
230.901	113.94
231.136	106.94
231.37	115.94
231.604	119.94
231.838	116.94
232.072	121.94
232.306	135.94
232.541	141.94
232.775	114.94
233.009	124.94
233.243	123.94
233.477	131.94
233.711	143.94
233.945	125.94
234.179	130.94
234.413	141.94
234.647	138.94
234.881	137.94
235.115	122.94
235.349	133.94
235.583	125.94
235.817	126.94
236.051	132.94
236.285	125.94
236.519	140.94
236.753	144.94
236.987	128.94
237.221	117.94
237.455	123.94
237.689	130.94
237.922	132.94
238.156	127.94
238.39	137.94
238.624	125.94
238.858	149.94
239.091	134.94
239.325	136.94
239.559	148.94
239.793	145.94
240.027	148.94
240.26	139.94
240.494	132.94
240.728	142.94
240.961	150.94
241.195	143.94
241.429	140.94
241.662	144.94
241.896	139.94
242.13	146.94
242.363	168.94
242.597	142.94
242.83	168.94
243.064	160.94
243.298	140.94
243.531	180.94
243.765	152.94
243.998	166.94
244.232	159.94
244.465	153.94
244.699	153.94
244.932	174.94
245.166	176.94
245.399	178.94
245.633	170.94
245.866	148.94
246.099	152.94
246.333	187.94
246.566	176.94
246.8	167.94
247.033	180.94
247.266	189.94
247.5	183.94
247.733	168.94
247.966	176.94
248.2	188.94
248.433	173.94
248.666	188.94
248.899	173.94
249.133	192.94
249.366	184.94
249.599	198.94
249.832	188.94
250.066	198.94
250.299	198.94
250.532	191.94
250.765	186.94
250.998	209.94
251.231	206.94
251.465	197.94
251.698	213.94
251.931	193.94
252.164	202.94
252.397	210.94
252.63	220.94
252.863	222.94
253.096	217.94
253.329	225.94
253.562	199.94
253.795	206.94
254.028	206.94
254.261	225.94
254.494	202.94
254.727	199.94
254.96	200.94
255.193	222.94
255.426	222.94
255.659	223.94
255.892	225.94
256.124	214.94
256.357	227.94
256.59	208.94
256.823	205.94
257.056	220.94
257.289	235.94
257.521	203.94
257.754	213.94
257.987	214.94
258.22	240.94
258.452	228.94
258.685	237.94
258.918	226.94
259.151	244.94
259.383	233.94
259.616	240.94
259.849	248.94
260.081	240.94
260.314	238.94
260.547	241.94
260.779	231.94
261.012	257.94
261.244	247.94
261.477	244.94
261.71	261.94
261.942	240.94
262.175	248.94
262.407	241.94
262.64	247.94
262.872	236.94
263.105	247.94
263.337	255.94
263.57	274.94
263.802	261.94
264.035	250.94
264.267	251.94
264.499	234.94
264.732	240.94
264.964	259.94
265.197	256.94
265.429	258.94
265.661	269.94
265.894	269.94
266.126	267.94
266.358	271.94
266.591	274.94
266.823	288.94
267.055	258.94
267.287	267.94
267.52	264.94
267.752	288.94
267.984	262.94
268.216	267.94
268.448	278.94
268.681	264.94
268.913	271.94
269.145	278.94
269.377	268.94
269.609	276.94
269.841	279.94
270.073	271.94
270.306	272.94
270.538	285.94
270.77	265.94
271.002	284.94
271.234	280.94
271.466	294.94
271.698	288.94
271.93	288.94
272.162	288.94
272.394	277.94
272.626	293.94
272.858	276.94
273.09	283.94
273.322	299.94
273.553	298.94
273.785	293.94
274.017	280.94
274.249	309.94
274.481	293.94
274.713	305.94
274.945	310.94
275.176	291.94
275.408	297.94
275.64	308.94
275.872	296.94
276.104	295.94
276.335	313.94
276.567	304.94
276.799	319.94
277.031	306.94
277.262	311.94
277.494	298.94
277.726	325.94
277.957	338.94
278.189	318.94
278.421	314.94
278.652	311.94
278.884	328.94
279.115	312.94
279.347	316.94
279.579	299.94
279.81	335.94
280.042	318.94
280.273	322.94
280.505	329.94
280.736	338.94
280.968	328.94
281.199	337.94
281.431	337.94
281.662	346.94
281.894	324.94
282.125	333.94
282.356	344.94
282.588	339.94
282.819	320.94
283.051	345.94
283.282	337.94
283.513	341.94
283.745	354.94
283.976	332.94
284.207	333.94
284.439	357.94
284.67	322.94
284.901	360.94
285.132	353.94
285.364	355.94
285.595	368.94
285.826	365.94
286.057	356.94
286.288	359.94
286.52	363.94
286.751	353.94
286.982	360.94
287.213	359.94
287.444	354.94
287.675	347.94
287.906	364.94
288.138	377.94
288.369	352.94
288.6	380.94
288.831	385.94
289.062	378.94
289.293	389.94
289.524	374.94
289.755	388.94
289.986	380.94
290.217	368.94
290.448	370.94
290.679	378.94
290.91	372.94
291.141	388.94
291.371	375.94
291.602	381.94
291.833	390.94
292.064	382.94
292.295	372.94
292.526	397.94
292.757	381.94
292.987	379.94
293.218	379.94
293.449	385.94
293.68	385.94
293.91	386.94
294.141	394.94
294.372	380.94
294.603	384.94
294.833	389.94
295.064	396.94
295.295	391.94
295.525	375.94
295.756	395.94
295.987	399.94
296.217	388.94
296.448	392.94
296.679	386.94
296.909	380.94
297.14	407.94
297.37	377.94
297.601	420.94
297.831	418.94
298.062	397.94
298.292	424.94
298.523	432.94
298.753	426.94
298.984	421.94
299.214	432.94
299.445	413.94
299.675	409.94
299.905	407.94
300.136	402.94
300.366	436.94
300.597	424.94
300.827	437.94
301.057	422.94
301.288	433.94
301.518	446.94
301.748	451.94
301.979	419.94
302.209	438.94
302.439	459.94
302.669	450.94
302.9	426.94
303.13	424.94
303.36	429.94
303.59	458.94
303.82	428.94
304.051	435.94
304.281	453.94
304.511	435.94
304.741	432.94
304.971	455.94
305.201	429.94
305.431	427.94
305.661	435.94
305.891	434.94
306.121	428.94
306.352	422.94
306.582	419.94
306.812	418.94
307.042	422.94
307.272	421.94
307.502	415.94
307.731	403.94
307.961	429.94
308.191	432.94
308.421	428.94
308.651	415.94
308.881	411.94
309.111	422.94
309.341	440.94
309.571	424.94
309.8	424.94
310.03	428.94
310.26	425.94
310.49	421.94
310.72	416.94
310.949	414.94
311.179	427.94
311.409	433.94
311.639	418.94
311.868	434.94
312.098	439.94
312.328	438.94
312.557	428.94
312.787	452.94
313.017	439.94
313.246	457.94
313.476	435.94
313.706	424.94
313.935	446.94
314.165	436.94
314.394	441.94
314.624	452.94
314.853	463.94
315.083	434.94
315.312	460.94
315.542	424.94
315.771	445.94
316.001	442.94
316.23	452.94
316.46	448.94
316.689	417.94
316.919	438.94
317.148	429.94
317.377	432.94
317.607	442.94
317.836	420.94
318.065	436.94
318.295	444.94
318.524	446.94
318.753	437.94
318.983	432.94
319.212	425.94
319.441	449.94
319.67	443.94
319.9	443.94
320.129	407.94
320.358	420.94
320.587	429.94
320.816	440.94
321.046	434.94
321.275	456.94
321.504	443.94
321.733	420.94
321.962	451.94
322.191	418.94
322.42	451.94
322.649	438.94
322.878	444.94
323.108	433.94
323.337	467.94
323.566	445.94
323.795	458.94
324.024	450.94
324.253	425.94
324.482	435.94
324.71	460.94
324.939	449.94
325.168	453.94
325.397	464.94
325.626	451.94
325.855	464.94
326.084	478.94
326.313	489.94
326.542	490.94
326.77	506.94
326.999	482.94
327.228	466.94
327.457	484.94
327.686	448.94
327.914	485.94
328.143	465.94
328.372	476.94
328.6	479.94
328.829	476.94
329.058	475.94
329.287	492.94
329.515	469.94
329.744	469.94
329.972	485.94
330.201	500.94
330.43	463.94
330.658	487.94
330.887	483.94
331.115	485.94
331.344	513.94
331.572	517.94
331.801	525.94
332.03	521.94
332.258	567.94
332.486	568.94
332.715	577.94
332.943	594.94
333.172	614.94
333.4	660.94
333.629	663.94
333.857	649.94
334.085	636.94
334.314	639.94
334.542	621.94
334.771	607.94
334.999	590.94
335.227	597.94
335.455	598.94
335.684	596.94
335.912	597.94
336.14	570.94
336.369	557.94
336.597	578.94
336.825	592.94
337.053	596.94
337.281	581.94
337.51	569.94
337.738	538.94
337.966	529.94
338.194	528.94
338.422	533.94
338.65	506.94
338.878	533.94
339.106	519.94
339.334	535.94
339.562	523.94
339.79	506.94
340.018	513.94
340.246	483.94
340.474	504.94
340.702	491.94
340.93	512.94
341.158	520.94
341.386	509.94
341.614	515.94
341.842	518.94
342.07	516.94
342.298	476.94
342.526	489.94
342.754	504.94
342.981	514.94
343.209	496.94
343.437	539.94
343.665	558.94
343.893	586.94
344.12	639.94
344.348	590.94
344.576	578.94
344.804	554.94
345.031	534.94
345.259	510.94
345.487	527.94
345.714	502.94
345.942	511.94
346.17	510.94
346.397	484.94
346.625	496.94
346.853	477.94
347.08	489.94
347.308	506.94
347.535	531.94
347.763	526.94
347.99	494.94
348.218	521.94
348.445	490.94
348.673	490.94
348.9	494.94
349.128	501.94
349.355	482.94
349.583	528.94
349.81	500.94
350.037	473.94
350.265	469.94
350.492	478.94
350.72	480.94
350.947	462.94
351.174	493.94
351.402	476.94
351.629	498.94
351.856	489.94
352.083	469.94
352.311	477.94
352.538	488.94
352.765	504.94
352.992	470.94
353.22	458.94
353.447	467.94
353.674	461.94
353.901	466.94
354.128	476.94
354.355	464.94
354.583	473.94
354.81	472.94
355.037	475.94
355.264	458.94
355.491	484.94
355.718	478.94
355.945	477.94
356.172	478.94
356.399	475.94
356.626	464.94
356.853	487.94
357.08	488.94
357.307	479.94
357.534	466.94
357.761	478.94
357.988	490.94
358.215	485.94
358.441	479.94
358.668	464.94
358.895	473.94
359.122	450.94
359.349	453.94
359.576	467.94
359.802	484.94
360.029	473.94
360.256	475.94
360.483	472.94
360.709	462.94
360.936	489.94
361.163	472.94
361.39	474.94
361.616	465.94
361.843	477.94
362.07	480.94
362.296	464.94
362.523	464.94
362.749	469.94
362.976	473.94
363.203	482.94
363.429	458.94
363.656	481.94
363.882	461.94
364.109	458.94
364.335	467.94
364.562	488.94
364.788	451.94
365.015	451.94
365.241	468.94
365.468	457.94
365.694	462.94
365.92	462.94
366.147	463.94
366.373	468.94
366.599	461.94
366.826	462.94
367.052	473.94
367.278	465.94
367.505	482.94
367.731	476.94
367.957	483.94
368.184	475.94
368.41	467.94
368.636	469.94
368.862	469.94
369.089	477.94
369.315	493.94
369.541	489.94
369.767	490.94
369.993	490.94
370.219	480.94
370.445	498.94
370.672	503.94
370.898	513.94
371.124	502.94
371.35	506.94
371.576	523.94
371.802	518.94
372.028	507.94
372.254	520.94
372.48	536.94
372.706	527.94
372.932	546.94
373.158	529.94
373.384	546.94
373.61	532.94
373.835	518.94
374.061	516.94
374.287	522.94
374.513	537.94
374.739	545.94
374.965	552.94
375.191	579.94
375.416	588.94
375.642	574.94
375.868	585.94
376.094	547.94
376.319	538.94
376.545	531.94
376.771	500.94
376.997	533.94
377.222	519.94
377.448	539.94
377.674	523.94
377.899	506.94
378.125	529.94
378.35	514.94
378.576	523.94
378.802	509.94
379.027	498.94
379.253	508.94
379.478	491.94
379.704	498.94
379.929	514.94
380.155	508.94
380.38	484.94
380.606	512.94
380.831	516.94
381.057	525.94
381.282	512.94
381.507	513.94
381.733	542.94
381.958	493.94
382.184	493.94
382.409	537.94
382.634	525.94
382.86	540.94
383.085	567.94
383.31	548.94
383.535	573.94
383.761	584.94
383.986	584.94
384.211	634.94
384.436	621.94
384.662	596.94
384.887	612.94
385.112	609.94
385.337	623.94
385.562	658.94
385.787	620.94
386.013	619.94
386.238	600.94
386.463	614.94
386.688	620.94
386.913	613.94
387.138	610.94
387.363	594.94
387.588	613.94
387.813	601.94
388.038	611.94
388.263	621.94
388.488	603.94
388.713	611.94
388.938	609.94
389.163	609.94
389.387	574.94
389.612	606.94
389.837	619.94
390.062	597.94
390.287	628.94
390.512	586.94
390.736	607.94
390.961	602.94
391.186	616.94
391.411	642.94
391.636	663.94
391.86	679.94
392.085	693.94
392.31	698.94
392.534	685.94
392.759	646.94
392.984	646.94
393.208	642.94
393.433	647.94
393.658	667.94
393.882	658.94
394.107	662.94
394.331	664.94
394.556	663.94
394.78	643.94
395.005	644.94
395.229	653.94
395.454	696.94
395.678	699.94
395.903	716.94
396.127	654.94
396.352	644.94
396.576	635.94
396.801	628.94
397.025	650.94
397.249	664.94
397.474	666.94
397.698	699.94
397.922	684.94
398.147	648.94
398.371	700.94
398.595	712.94
398.82	749.94
399.044	788.94
399.268	870.94
399.492	1040.94
399.717	1230.94
399.941	1175.94
400.165	1037.94
400.389	916.94
400.613	838.94
400.837	818.94
401.062	793.94
401.286	753.94
401.51	746.94
401.734	763.94
401.958	781.94
402.182	780.94
402.406	765.94
402.63	798.94
402.854	818.94
403.078	864.94
403.302	864.94
403.526	909.94
403.75	893.94
403.974	923.94
404.198	908.94
404.422	934.94
404.645	917.94
404.869	884.94
405.093	914.94
405.317	870.94
405.541	859.94
405.765	857.94
405.988	864.94
406.212	845.94
406.436	820.94
406.66	866.94
406.883	868.94
407.107	929.94
407.331	986.94
407.555	1009.94
407.778	990.94
408.002	954.94
408.226	938.94
408.449	941.94
408.673	888.94
408.896	888.94
409.12	894.94
409.344	901.94
409.567	902.94
409.791	904.94
410.014	885.94
410.238	912.94
410.461	863.94
410.685	886.94
410.908	842.94
411.132	818.94
411.355	826.94
411.578	813.94
411.802	789.94
412.025	793.94
412.249	826.94
412.472	796.94
412.695	792.94
412.919	780.94
413.142	764.94
413.365	761.94
413.589	749.94
413.812	761.94
414.035	745.94
414.258	742.94
414.482	792.94
414.705	807.94
414.928	800.94
415.151	778.94
415.374	747.94
415.597	768.94
415.821	737.94
416.044	757.94
416.267	747.94
416.49	748.94
416.713	741.94
416.936	748.94
417.159	766.94
417.382	766.94
417.605	766.94
417.828	764.94
418.051	769.94
418.274	792.94
418.497	789.94
418.72	802.94
418.943	805.94
419.166	837.94
419.389	911.94
419.611	864.94
419.834	854.94
420.057	820.94
420.28	770.94
420.503	733.94
420.726	762.94
420.948	744.94
421.171	770.94
421.394	747.94
421.617	768.94
421.839	776.94
422.062	759.94
422.285	752.94
422.507	795.94
422.73	803.94
422.953	814.94
423.175	796.94
423.398	829.94
423.621	817.94
423.843	835.94
424.066	812.94
424.288	855.94
424.511	812.94
424.733	804.94
424.956	782.94
425.178	795.94
425.401	766.94
425.623	755.94
425.846	748.94
426.068	737.94
426.291	718.94
426.513	722.94
426.735	707.94
426.958	736.94
427.18	707.94
427.402	715.94
427.625	715.94
427.847	706.94
428.069	667.94
428.292	686.94
428.514	689.94
428.736	685.94
428.958	682.94
429.181	666.94
429.403	683.94
429.625	674.94
429.847	662.94
430.069	664.94
430.292	677.94
430.514	659.94
430.736	670.94
430.958	659.94
431.18	664.94
431.402	671.94
431.624	677.94
431.846	685.94
432.068	705.94
432.29	695.94
432.512	673.94
432.734	678.94
432.956	689.94
433.178	681.94
433.4	677.94
433.622	690.94
433.844	732.94
434.066	728.94
434.287	704.94
434.509	716.94
434.731	753.94
434.953	800.94
435.175	801.94
435.397	771.94
435.618	720.94
435.84	723.94
436.062	699.94
436.284	678.94
436.505	689.94
436.727	681.94
436.949	694.94
437.17	708.94
437.392	691.94
437.614	673.94
437.835	658.94
438.057	651.94
438.278	640.94
438.5	673.94
438.721	700.94
438.943	683.94
439.165	640.94
439.386	676.94
439.608	694.94
439.829	714.94
440.05	670.94
440.272	691.94
440.493	724.94
440.715	688.94
440.936	736.94
441.158	716.94
441.379	727.94
441.6	767.94
441.822	778.94
442.043	789.94
442.264	783.94
442.486	766.94
442.707	765.94
442.928	774.94
443.149	747.94
443.371	764.94
443.592	807.94
443.813	790.94
444.034	793.94
444.255	806.94
444.476	826.94
444.698	918.94
444.919	954.94
445.14	1019.94
445.361	901.94
445.582	808.94
445.803	748.94
446.024	730.94
446.245	724.94
446.466	715.94
446.687	691.94
446.908	708.94
447.129	664.94
447.35	698.94
447.571	667.94
447.792	648.94
448.013	629.94
448.234	648.94
448.455	630.94
448.675	630.94
448.896	645.94
449.117	648.94
449.338	646.94
449.559	635.94
449.779	644.94
450	621.94
450.221	612.94
450.442	614.94
450.662	676.94
450.883	666.94
451.104	666.94
451.324	655.94
451.545	667.94
451.766	683.94
451.986	640.94
452.207	674.94
452.428	638.94
452.648	651.94
452.869	647.94
453.089	658.94
453.31	644.94
453.53	633.94
453.751	630.94
453.971	646.94
454.192	639.94
454.412	631.94
454.633	606.94
454.853	629.94
455.073	621.94
455.294	615.94
455.514	602.94
455.734	609.94
455.955	612.94
456.175	609.94
456.395	567.94
456.616	584.94
456.836	604.94
457.056	610.94
457.276	583.94
457.497	588.94
457.717	602.94
457.937	598.94
458.157	604.94
458.377	618.94
458.598	634.94
458.818	640.94
459.038	662.94
459.258	691.94
459.478	703.94
459.698	745.94
459.918	737.94
460.138	759.94
460.358	814.94
460.578	818.94
460.798	795.94
461.018	835.94
461.238	827.94
461.458	825.94
461.678	792.94
461.898	818.94
462.118	834.94
462.338	891.94
462.558	889.94
462.777	930.94
462.997	1042.94
463.217	1143.94
463.437	1149.94
463.657	1029.94
463.876	976.94
464.096	951.94
464.316	975.94
464.536	998.94
464.755	980.94
464.975	880.94
465.195	864.94
465.414	808.94
465.634	752.94
465.854	706.94
466.073	719.94
466.293	694.94
466.512	682.94
466.732	689.94
466.951	672.94
467.171	680.94
467.391	673.94
467.61	653.94
467.829	684.94
468.049	645.94
468.268	652.94
468.488	650.94
468.707	648.94
468.927	636.94
469.146	626.94
469.365	637.94
469.585	647.94
469.804	675.94
470.023	668.94
470.243	689.94
470.462	700.94
470.681	707.94
470.901	684.94
471.12	693.94
471.339	662.94
471.558	652.94
471.777	651.94
471.997	648.94
472.216	647.94
472.435	646.94
472.654	625.94
472.873	610.94
473.092	633.94
473.311	634.94
473.53	630.94
473.749	639.94
473.968	614.94
474.187	604.94
474.406	636.94
474.625	633.94
474.844	628.94
475.063	605.94
475.282	640.94
475.501	613.94
475.72	615.94
475.939	643.94
476.158	643.94
476.377	658.94
476.596	646.94
476.814	651.94
477.033	650.94
477.252	684.94
477.471	689.94
477.69	702.94
477.908	710.94
478.127	733.94
478.346	726.94
478.564	744.94
478.783	755.94
479.002	788.94
479.22	777.94
479.439	772.94
479.658	791.94
479.876	770.94
480.095	796.94
480.313	834.94
480.532	884.94
480.751	853.94
480.969	800.94
481.188	780.94
481.406	741.94
481.624	759.94
481.843	698.94
482.061	725.94
482.28	704.94
482.498	728.94
482.717	702.94
482.935	704.94
483.153	724.94
483.372	725.94
483.59	730.94
483.808	729.94
484.027	718.94
484.245	761.94
484.463	740.94
484.681	749.94
484.9	736.94
485.118	773.94
485.336	742.94
485.554	755.94
485.772	772.94
485.99	772.94
486.209	770.94
486.427	770.94
486.645	772.94
486.863	772.94
487.081	771.94
487.299	754.94
487.517	741.94
487.735	745.94
487.953	753.94
488.171	766.94
488.389	744.94
488.607	760.94
488.825	747.94
489.043	724.94
489.261	738.94
489.479	750.94
489.696	755.94
489.914	747.94
490.132	781.94
490.35	773.94
490.568	741.94
490.786	736.94
491.003	740.94
491.221	743.94
491.439	736.94
491.657	752.94
491.874	765.94
492.092	741.94
492.31	736.94
492.527	736.94
492.745	761.94
492.963	776.94
493.18	763.94
493.398	776.94
493.615	781.94
493.833	757.94
494.05	777.94
494.268	788.94
494.485	797.94
494.703	815.94
494.92	764.94
495.138	787.94
495.355	787.94
495.573	766.94
495.79	797.94
496.008	786.94
496.225	787.94
496.442	798.94
496.66	802.94
496.877	812.94
497.094	830.94
497.312	830.94
497.529	865.94
497.746	877.94
497.963	916.94
498.181	946.94
498.398	956.94
498.615	1042.94
498.832	1096.94
499.049	1196.94
499.267	1277.94
499.484	1424.94
499.701	1596.94
499.918	1754.94
500.135	2067.94
500.352	2408.94
500.569	2544.94
500.786	2501.94
501.003	2304.94
501.22	2003.94
