Data from Ni(NO3)2@0.5M.TitratingCurve.Agarose3%dH2O.NegLispCup.LampEnergy10.LIBS07252019_HRD10591_17-57-13-563.txt Node
Date: Thu Jul 25 17:57:13 EDT 2019
User: cochatt
Spectrometer: HR+D1059
Trigger mode: 1
Integration Time (sec): 1.000000E-1
Scans to average: 1
Electric dark correction enabled: true
Nonlinearity correction enabled: false
Boxcar width: 0
XAxis mode: Wavelengths
Number of Pixels in Spectrum: 2048
>>>>>Begin Spectral Data<<<<<
223.165	-9.81
223.4	-9.81
223.635	-9.81
223.869	-32.81
224.104	-10.81
224.338	-10.81
224.573	-10.81
224.808	-24.81
225.042	-12.81
225.277	5.19
225.511	-2.81
225.746	-0.81
225.98	9.19
226.215	14.19
226.449	18.19
226.683	24.19
226.918	24.19
227.152	21.19
227.387	36.19
227.621	29.19
227.856	38.19
228.09	46.19
228.324	44.19
228.559	60.19
228.793	65.19
229.027	98.19
229.262	108.19
229.496	120.19
229.73	108.19
229.964	125.19
230.199	142.19
230.433	144.19
230.667	143.19
230.901	153.19
231.136	134.19
231.37	133.19
231.604	160.19
231.838	152.19
232.072	149.19
232.306	145.19
232.541	136.19
232.775	129.19
233.009	139.19
233.243	121.19
233.477	132.19
233.711	141.19
233.945	140.19
234.179	153.19
234.413	161.19
234.647	148.19
234.881	147.19
235.115	137.19
235.349	144.19
235.583	127.19
235.817	142.19
236.051	135.19
236.285	148.19
236.519	134.19
236.753	131.19
236.987	149.19
237.221	149.19
237.455	136.19
237.689	149.19
237.922	153.19
238.156	142.19
238.39	156.19
238.624	150.19
238.858	148.19
239.091	148.19
239.325	137.19
239.559	168.19
239.793	143.19
240.027	168.19
240.26	156.19
240.494	158.19
240.728	153.19
240.961	172.19
241.195	147.19
241.429	162.19
241.662	173.19
241.896	189.19
242.13	182.19
242.363	175.19
242.597	161.19
242.83	171.19
243.064	173.19
243.298	170.19
243.531	188.19
243.765	156.19
243.998	180.19
244.232	192.19
244.465	182.19
244.699	168.19
244.932	177.19
245.166	193.19
245.399	181.19
245.633	173.19
245.866	196.19
246.099	190.19
246.333	192.19
246.566	181.19
246.8	193.19
247.033	179.19
247.266	205.19
247.5	199.19
247.733	202.19
247.966	195.19
248.2	198.19
248.433	210.19
248.666	216.19
248.899	217.19
249.133	235.19
249.366	210.19
249.599	217.19
249.832	231.19
250.066	212.19
250.299	202.19
250.532	211.19
250.765	231.19
250.998	234.19
251.231	253.19
251.465	225.19
251.698	209.19
251.931	217.19
252.164	223.19
252.397	238.19
252.63	227.19
252.863	246.19
253.096	238.19
253.329	248.19
253.562	237.19
253.795	252.19
254.028	263.19
254.261	251.19
254.494	243.19
254.727	255.19
254.96	244.19
255.193	257.19
255.426	266.19
255.659	271.19
255.892	281.19
256.124	258.19
256.357	273.19
256.59	265.19
256.823	272.19
257.056	267.19
257.289	287.19
257.521	271.19
257.754	275.19
257.987	283.19
258.22	285.19
258.452	274.19
258.685	270.19
258.918	275.19
259.151	278.19
259.383	281.19
259.616	306.19
259.849	307.19
260.081	296.19
260.314	313.19
260.547	313.19
260.779	298.19
261.012	309.19
261.244	313.19
261.477	314.19
261.71	307.19
261.942	319.19
262.175	311.19
262.407	308.19
262.64	327.19
262.872	313.19
263.105	307.19
263.337	321.19
263.57	317.19
263.802	335.19
264.035	326.19
264.267	329.19
264.499	316.19
264.732	323.19
264.964	331.19
265.197	330.19
265.429	324.19
265.661	335.19
265.894	339.19
266.126	336.19
266.358	338.19
266.591	346.19
266.823	342.19
267.055	324.19
267.287	344.19
267.52	324.19
267.752	342.19
267.984	336.19
268.216	346.19
268.448	360.19
268.681	363.19
268.913	346.19
269.145	355.19
269.377	366.19
269.609	358.19
269.841	347.19
270.073	331.19
270.306	361.19
270.538	357.19
270.77	365.19
271.002	355.19
271.234	353.19
271.466	354.19
271.698	354.19
271.93	369.19
272.162	347.19
272.394	339.19
272.626	363.19
272.858	377.19
273.09	369.19
273.322	371.19
273.553	356.19
273.785	356.19
274.017	392.19
274.249	395.19
274.481	369.19
274.713	381.19
274.945	383.19
275.176	364.19
275.408	373.19
275.64	397.19
275.872	381.19
276.104	391.19
276.335	384.19
276.567	389.19
276.799	390.19
277.031	391.19
277.262	374.19
277.494	401.19
277.726	411.19
277.957	426.19
278.189	402.19
278.421	401.19
278.652	409.19
278.884	400.19
279.115	403.19
279.347	399.19
279.579	414.19
279.81	405.19
280.042	411.19
280.273	416.19
280.505	424.19
280.736	431.19
280.968	419.19
281.199	426.19
281.431	420.19
281.662	411.19
281.894	417.19
282.125	406.19
282.356	421.19
282.588	409.19
282.819	414.19
283.051	421.19
283.282	437.19
283.513	432.19
283.745	426.19
283.976	411.19
284.207	432.19
284.439	422.19
284.67	442.19
284.901	450.19
285.132	448.19
285.364	431.19
285.595	429.19
285.826	432.19
286.057	444.19
286.288	454.19
286.52	438.19
286.751	435.19
286.982	433.19
287.213	443.19
287.444	465.19
287.675	444.19
287.906	442.19
288.138	450.19
288.369	453.19
288.6	457.19
288.831	447.19
289.062	471.19
289.293	461.19
289.524	440.19
289.755	455.19
289.986	439.19
290.217	452.19
290.448	449.19
290.679	458.19
290.91	450.19
291.141	468.19
291.371	461.19
291.602	449.19
291.833	454.19
292.064	477.19
292.295	464.19
292.526	462.19
292.757	478.19
292.987	436.19
293.218	448.19
293.449	460.19
293.68	456.19
293.91	451.19
294.141	476.19
294.372	470.19
294.603	460.19
294.833	467.19
295.064	449.19
295.295	459.19
295.525	461.19
295.756	469.19
295.987	456.19
296.217	471.19
296.448	485.19
296.679	486.19
296.909	474.19
297.14	469.19
297.37	495.19
297.601	487.19
297.831	484.19
298.062	470.19
298.292	495.19
298.523	513.19
298.753	492.19
298.984	511.19
299.214	478.19
299.445	483.19
299.675	495.19
299.905	497.19
300.136	494.19
300.366	531.19
300.597	536.19
300.827	518.19
301.057	534.19
301.288	504.19
301.518	508.19
301.748	498.19
301.979	509.19
302.209	522.19
302.439	484.19
302.669	517.19
302.9	522.19
303.13	526.19
303.36	515.19
303.59	515.19
303.82	531.19
304.051	525.19
304.281	525.19
304.511	499.19
304.741	533.19
304.971	541.19
305.201	534.19
305.431	534.19
305.661	551.19
305.891	540.19
306.121	529.19
306.352	537.19
306.582	543.19
306.812	519.19
307.042	541.19
307.272	535.19
307.502	549.19
307.731	548.19
307.961	521.19
308.191	537.19
308.421	526.19
308.651	545.19
308.881	524.19
309.111	527.19
309.341	556.19
309.571	541.19
309.8	539.19
310.03	545.19
310.26	570.19
310.49	565.19
310.72	548.19
310.949	561.19
311.179	551.19
311.409	541.19
311.639	556.19
311.868	540.19
312.098	549.19
312.328	584.19
312.557	588.19
312.787	581.19
313.017	563.19
313.246	592.19
313.476	599.19
313.706	574.19
313.935	612.19
314.165	597.19
314.394	603.19
314.624	586.19
314.853	571.19
315.083	596.19
315.312	599.19
315.542	588.19
315.771	600.19
316.001	575.19
316.23	595.19
316.46	584.19
316.689	576.19
316.919	587.19
317.148	620.19
317.377	602.19
317.607	629.19
317.836	636.19
318.065	596.19
318.295	631.19
318.524	633.19
318.753	598.19
318.983	618.19
319.212	619.19
319.441	634.19
319.67	615.19
319.9	638.19
320.129	639.19
320.358	633.19
320.587	636.19
320.816	643.19
321.046	637.19
321.275	659.19
321.504	655.19
321.733	628.19
321.962	638.19
322.191	662.19
322.42	637.19
322.649	659.19
322.878	671.19
323.108	639.19
323.337	699.19
323.566	669.19
323.795	655.19
324.024	674.19
324.253	689.19
324.482	667.19
324.71	663.19
324.939	678.19
325.168	682.19
325.397	670.19
325.626	676.19
325.855	677.19
326.084	700.19
326.313	705.19
326.542	696.19
326.77	692.19
326.999	703.19
327.228	682.19
327.457	722.19
327.686	699.19
327.914	685.19
328.143	696.19
328.372	709.19
328.6	703.19
328.829	716.19
329.058	673.19
329.287	697.19
329.515	699.19
329.744	698.19
329.972	724.19
330.201	724.19
330.43	718.19
330.658	727.19
330.887	713.19
331.115	725.19
331.344	748.19
331.572	724.19
331.801	717.19
332.03	723.19
332.258	751.19
332.486	787.19
332.715	766.19
332.943	730.19
333.172	765.19
333.4	748.19
333.629	779.19
333.857	770.19
334.085	783.19
334.314	772.19
334.542	789.19
334.771	785.19
334.999	783.19
335.227	777.19
335.455	783.19
335.684	801.19
335.912	803.19
336.14	774.19
336.369	798.19
336.597	806.19
336.825	822.19
337.053	800.19
337.281	826.19
337.51	803.19
337.738	799.19
337.966	795.19
338.194	798.19
338.422	805.19
338.65	770.19
338.878	809.19
339.106	776.19
339.334	797.19
339.562	795.19
339.79	776.19
340.018	795.19
340.246	776.19
340.474	783.19
340.702	778.19
340.93	773.19
341.158	769.19
341.386	787.19
341.614	819.19
341.842	787.19
342.07	791.19
342.298	741.19
342.526	805.19
342.754	792.19
342.981	782.19
343.209	778.19
343.437	796.19
343.665	790.19
343.893	788.19
344.12	834.19
344.348	797.19
344.576	801.19
344.804	794.19
345.031	756.19
345.259	783.19
345.487	788.19
345.714	755.19
345.942	815.19
346.17	818.19
346.397	783.19
346.625	771.19
346.853	778.19
347.08	780.19
347.308	757.19
347.535	741.19
347.763	771.19
347.99	761.19
348.218	766.19
348.445	759.19
348.673	738.19
348.9	758.19
349.128	781.19
349.355	764.19
349.583	773.19
349.81	743.19
350.037	711.19
350.265	753.19
350.492	737.19
350.72	732.19
350.947	741.19
351.174	770.19
351.402	776.19
351.629	780.19
351.856	788.19
352.083	736.19
352.311	750.19
352.538	768.19
352.765	773.19
352.992	734.19
353.22	740.19
353.447	705.19
353.674	743.19
353.901	723.19
354.128	716.19
354.355	717.19
354.583	737.19
354.81	746.19
355.037	723.19
355.264	738.19
355.491	734.19
355.718	729.19
355.945	741.19
356.172	762.19
356.399	746.19
356.626	739.19
356.853	735.19
357.08	734.19
357.307	758.19
357.534	739.19
357.761	742.19
357.988	750.19
358.215	718.19
358.441	748.19
358.668	740.19
358.895	715.19
359.122	738.19
359.349	733.19
359.576	719.19
359.802	729.19
360.029	730.19
360.256	717.19
360.483	734.19
360.709	749.19
360.936	741.19
361.163	748.19
361.39	719.19
361.616	715.19
361.843	793.19
362.07	771.19
362.296	771.19
362.523	738.19
362.749	734.19
362.976	741.19
363.203	738.19
363.429	713.19
363.656	725.19
363.882	737.19
364.109	757.19
364.335	770.19
364.562	750.19
364.788	753.19
365.015	747.19
365.241	717.19
365.468	748.19
365.694	735.19
365.92	722.19
366.147	758.19
366.373	743.19
366.599	747.19
366.826	753.19
367.052	742.19
367.278	756.19
367.505	755.19
367.731	754.19
367.957	737.19
368.184	745.19
368.41	777.19
368.636	765.19
368.862	755.19
369.089	776.19
369.315	757.19
369.541	780.19
369.767	742.19
369.993	794.19
370.219	751.19
370.445	765.19
370.672	777.19
370.898	759.19
371.124	779.19
371.35	740.19
371.576	769.19
371.802	742.19
372.028	769.19
372.254	771.19
372.48	798.19
372.706	772.19
372.932	801.19
373.158	763.19
373.384	778.19
373.61	779.19
373.835	790.19
374.061	766.19
374.287	774.19
374.513	750.19
374.739	781.19
374.965	777.19
375.191	761.19
375.416	782.19
375.642	784.19
375.868	771.19
376.094	762.19
376.319	755.19
376.545	760.19
376.771	774.19
376.997	729.19
377.222	753.19
377.448	742.19
377.674	777.19
377.899	759.19
378.125	762.19
378.35	758.19
378.576	750.19
378.802	763.19
379.027	737.19
379.253	747.19
379.478	755.19
379.704	745.19
379.929	746.19
380.155	742.19
380.38	773.19
380.606	743.19
380.831	731.19
381.057	746.19
381.282	753.19
381.507	755.19
381.733	757.19
381.958	769.19
382.184	763.19
382.409	770.19
382.634	772.19
382.86	734.19
383.085	767.19
383.31	786.19
383.535	779.19
383.761	787.19
383.986	792.19
384.211	765.19
384.436	763.19
384.662	783.19
384.887	791.19
385.112	795.19
385.337	791.19
385.562	783.19
385.787	783.19
386.013	817.19
386.238	820.19
386.463	804.19
386.688	805.19
386.913	790.19
387.138	788.19
387.363	808.19
387.588	815.19
387.813	808.19
388.038	805.19
388.263	799.19
388.488	811.19
388.713	803.19
388.938	848.19
389.163	814.19
389.387	810.19
389.612	809.19
389.837	810.19
390.062	805.19
390.287	806.19
390.512	801.19
390.736	808.19
390.961	823.19
391.186	827.19
391.411	805.19
391.636	827.19
391.86	809.19
392.085	817.19
392.31	838.19
392.534	828.19
392.759	859.19
392.984	825.19
393.208	845.19
393.433	820.19
393.658	846.19
393.882	831.19
394.107	817.19
394.331	819.19
394.556	823.19
394.78	815.19
395.005	815.19
395.229	831.19
395.454	835.19
395.678	828.19
395.903	851.19
396.127	851.19
396.352	847.19
396.576	813.19
396.801	855.19
397.025	856.19
397.249	878.19
397.474	860.19
397.698	853.19
397.922	862.19
398.147	847.19
398.371	866.19
398.595	894.19
398.82	901.19
399.044	906.19
399.268	927.19
399.492	942.19
399.717	980.19
399.941	970.19
400.165	969.19
400.389	926.19
400.613	914.19
400.837	915.19
401.062	921.19
401.286	912.19
401.51	905.19
401.734	888.19
401.958	912.19
402.182	923.19
402.406	881.19
402.63	890.19
402.854	921.19
403.078	886.19
403.302	880.19
403.526	895.19
403.75	911.19
403.974	925.19
404.198	897.19
404.422	916.19
404.645	899.19
404.869	916.19
405.093	941.19
405.317	900.19
405.541	917.19
405.765	912.19
405.988	925.19
406.212	943.19
406.436	961.19
406.66	935.19
406.883	939.19
407.107	984.19
407.331	985.19
407.555	997.19
407.778	978.19
408.002	986.19
408.226	1018.19
408.449	984.19
408.673	975.19
408.896	975.19
409.12	971.19
409.344	971.19
409.567	932.19
409.791	981.19
410.014	959.19
410.238	941.19
410.461	947.19
410.685	945.19
410.908	940.19
411.132	940.19
411.355	932.19
411.578	933.19
411.802	949.19
412.025	958.19
412.249	916.19
412.472	922.19
412.695	921.19
412.919	897.19
413.142	903.19
413.365	919.19
413.589	931.19
413.812	937.19
414.035	902.19
414.258	904.19
414.482	921.19
414.705	929.19
414.928	929.19
415.151	948.19
415.374	901.19
415.597	914.19
415.821	903.19
416.044	907.19
416.267	871.19
416.49	897.19
416.713	885.19
416.936	945.19
417.159	907.19
417.382	881.19
417.605	868.19
417.828	901.19
418.051	901.19
418.274	896.19
418.497	895.19
418.72	859.19
418.943	878.19
419.166	899.19
419.389	979.19
419.611	935.19
419.834	938.19
420.057	935.19
420.28	898.19
420.503	865.19
420.726	860.19
420.948	878.19
421.171	877.19
421.394	860.19
421.617	886.19
421.839	874.19
422.062	910.19
422.285	871.19
422.507	883.19
422.73	877.19
422.953	893.19
423.175	872.19
423.398	875.19
423.621	895.19
423.843	901.19
424.066	893.19
424.288	891.19
424.511	856.19
424.733	897.19
424.956	897.19
425.178	892.19
425.401	908.19
425.623	933.19
425.846	899.19
426.068	891.19
426.291	867.19
426.513	883.19
426.735	894.19
426.958	887.19
427.18	866.19
427.402	891.19
427.625	870.19
427.847	871.19
428.069	871.19
428.292	880.19
428.514	895.19
428.736	888.19
428.958	907.19
429.181	911.19
429.403	870.19
429.625	872.19
429.847	890.19
430.069	857.19
430.292	861.19
430.514	876.19
430.736	887.19
430.958	873.19
431.18	885.19
431.402	886.19
431.624	845.19
431.846	853.19
432.068	861.19
432.29	859.19
432.512	875.19
432.734	905.19
432.956	900.19
433.178	910.19
433.4	923.19
433.622	907.19
433.844	876.19
434.066	885.19
434.287	889.19
434.509	907.19
434.731	884.19
434.953	878.19
435.175	915.19
435.397	926.19
435.618	901.19
435.84	900.19
436.062	877.19
436.284	911.19
436.505	909.19
436.727	914.19
436.949	877.19
437.17	854.19
437.392	871.19
437.614	901.19
437.835	857.19
438.057	847.19
438.278	883.19
438.5	864.19
438.721	866.19
438.943	887.19
439.165	865.19
439.386	878.19
439.608	904.19
439.829	905.19
440.05	877.19
440.272	879.19
440.493	903.19
440.715	887.19
440.936	910.19
441.158	895.19
441.379	895.19
441.6	910.19
441.822	920.19
442.043	897.19
442.264	915.19
442.486	895.19
442.707	905.19
442.928	908.19
443.149	926.19
443.371	898.19
443.592	955.19
443.813	925.19
444.034	893.19
444.255	925.19
444.476	919.19
444.698	897.19
444.919	912.19
445.14	1058.19
445.361	992.19
445.582	910.19
445.803	883.19
446.024	897.19
446.245	935.19
446.466	877.19
446.687	881.19
446.908	889.19
447.129	874.19
447.35	835.19
447.571	855.19
447.792	839.19
448.013	838.19
448.234	835.19
448.455	858.19
448.675	828.19
448.896	819.19
449.117	831.19
449.338	824.19
449.559	842.19
449.779	828.19
450	807.19
450.221	835.19
450.442	819.19
450.662	830.19
450.883	835.19
451.104	826.19
451.324	817.19
451.545	825.19
451.766	821.19
451.986	791.19
452.207	790.19
452.428	805.19
452.648	778.19
452.869	812.19
453.089	789.19
453.31	798.19
453.53	790.19
453.751	808.19
453.971	813.19
454.192	807.19
454.412	797.19
454.633	802.19
454.853	803.19
455.073	779.19
455.294	820.19
455.514	791.19
455.734	811.19
455.955	810.19
456.175	804.19
456.395	783.19
456.616	776.19
456.836	825.19
457.056	790.19
457.276	785.19
457.497	786.19
457.717	807.19
457.937	804.19
458.157	798.19
458.377	797.19
458.598	802.19
458.818	806.19
459.038	790.19
459.258	838.19
459.478	855.19
459.698	878.19
459.918	857.19
460.138	876.19
460.358	889.19
460.578	867.19
460.798	885.19
461.018	917.19
461.238	904.19
461.458	874.19
461.678	893.19
461.898	911.19
462.118	902.19
462.338	891.19
462.558	953.19
462.777	938.19
462.997	961.19
463.217	983.19
463.437	985.19
463.657	957.19
463.876	946.19
464.096	925.19
464.316	933.19
464.536	926.19
464.755	920.19
464.975	908.19
465.195	901.19
465.414	911.19
465.634	891.19
465.854	874.19
466.073	847.19
466.293	851.19
466.512	855.19
466.732	844.19
466.951	874.19
467.171	870.19
467.391	832.19
467.61	836.19
467.829	837.19
468.049	848.19
468.268	835.19
468.488	862.19
468.707	856.19
468.927	821.19
469.146	835.19
469.365	849.19
469.585	849.19
469.804	856.19
470.023	848.19
470.243	858.19
470.462	880.19
470.681	872.19
470.901	863.19
471.12	870.19
471.339	866.19
471.558	882.19
471.777	878.19
471.997	872.19
472.216	879.19
472.435	860.19
472.654	846.19
472.873	847.19
473.092	868.19
473.311	855.19
473.53	846.19
473.749	845.19
473.968	848.19
474.187	868.19
474.406	841.19
474.625	867.19
474.844	902.19
475.063	882.19
475.282	894.19
475.501	884.19
475.72	880.19
475.939	894.19
476.158	899.19
476.377	888.19
476.596	879.19
476.814	913.19
477.033	919.19
477.252	900.19
477.471	904.19
477.69	951.19
477.908	943.19
478.127	956.19
478.346	929.19
478.564	988.19
478.783	985.19
479.002	998.19
479.22	1036.19
479.439	1012.19
479.658	991.19
479.876	958.19
480.095	970.19
480.313	1027.19
480.532	995.19
480.751	996.19
480.969	1038.19
481.188	968.19
481.406	959.19
481.624	974.19
481.843	989.19
482.061	995.19
482.28	967.19
482.498	990.19
482.717	983.19
482.935	993.19
483.153	1021.19
483.372	1025.19
483.59	1070.19
483.808	1026.19
484.027	1033.19
484.245	1029.19
484.463	1009.19
484.681	1028.19
484.9	1045.19
485.118	1031.19
485.336	1044.19
485.554	1022.19
485.772	1014.19
485.99	1021.19
486.209	1039.19
486.427	989.19
486.645	1026.19
486.863	1039.19
487.081	1037.19
487.299	1035.19
487.517	1046.19
487.735	1057.19
487.953	1065.19
488.171	1075.19
488.389	1078.19
488.607	1070.19
488.825	1049.19
489.043	1033.19
489.261	1066.19
489.479	1042.19
489.696	1029.19
489.914	1066.19
490.132	1053.19
490.35	1062.19
490.568	1059.19
490.786	1071.19
491.003	1079.19
491.221	1105.19
491.439	1089.19
491.657	1064.19
491.874	1102.19
492.092	1091.19
492.31	1129.19
492.527	1120.19
492.745	1108.19
492.963	1120.19
493.18	1101.19
493.398	1122.19
493.615	1128.19
493.833	1098.19
494.05	1087.19
494.268	1099.19
494.485	1111.19
494.703	1094.19
494.92	1105.19
495.138	1095.19
495.355	1143.19
495.573	1123.19
495.79	1125.19
496.008	1114.19
496.225	1108.19
496.442	1153.19
496.66	1147.19
496.877	1153.19
497.094	1157.19
497.312	1157.19
497.529	1192.19
497.746	1210.19
497.963	1182.19
498.181	1197.19
498.398	1201.19
498.615	1236.19
498.832	1214.19
499.049	1244.19
499.267	1253.19
499.484	1298.19
499.701	1374.19
499.918	1374.19
500.135	1397.19
500.352	1404.19
