Data from Ni(NO3)2@0.125M.TitratingCurve.Agarose3%dH2O.NegLispCup.LampEnergy10.LIBS07252019_HRD10591_18-09-23-567.txt Node
Date: Thu Jul 25 18:09:23 EDT 2019
User: cochatt
Spectrometer: HR+D1059
Trigger mode: 1
Integration Time (sec): 1.000000E-1
Scans to average: 1
Electric dark correction enabled: true
Nonlinearity correction enabled: false
Boxcar width: 0
XAxis mode: Wavelengths
Number of Pixels in Spectrum: 2048
>>>>>Begin Spectral Data<<<<<
223.165	-15.19
223.4	-15.19
223.635	-15.19
223.869	-14.19
224.104	-20.19
224.338	-25.19
224.573	-24.19
224.808	-10.19
225.042	-4.19
225.277	1.81
225.511	-9.19
225.746	5.81
225.98	17.81
226.215	6.81
226.449	21.81
226.683	19.81
226.918	22.81
227.152	25.81
227.387	31.81
227.621	25.81
227.856	43.81
228.09	45.81
228.324	46.81
228.559	66.81
228.793	61.81
229.027	103.81
229.262	114.81
229.496	104.81
229.73	113.81
229.964	122.81
230.199	123.81
230.433	134.81
230.667	125.81
230.901	135.81
231.136	136.81
231.37	138.81
231.604	138.81
231.838	126.81
232.072	136.81
232.306	149.81
232.541	148.81
232.775	147.81
233.009	130.81
233.243	141.81
233.477	138.81
233.711	141.81
233.945	144.81
234.179	161.81
234.413	147.81
234.647	152.81
234.881	135.81
235.115	151.81
235.349	150.81
235.583	158.81
235.817	165.81
236.051	147.81
236.285	153.81
236.519	154.81
236.753	155.81
236.987	144.81
237.221	143.81
237.455	152.81
237.689	148.81
237.922	143.81
238.156	151.81
238.39	168.81
238.624	149.81
238.858	170.81
239.091	159.81
239.325	161.81
239.559	180.81
239.793	165.81
240.027	181.81
240.26	163.81
240.494	179.81
240.728	163.81
240.961	178.81
241.195	181.81
241.429	198.81
241.662	188.81
241.896	195.81
242.13	204.81
242.363	185.81
242.597	181.81
242.83	194.81
243.064	189.81
243.298	177.81
243.531	194.81
243.765	193.81
243.998	203.81
244.232	206.81
244.465	204.81
244.699	198.81
244.932	206.81
245.166	200.81
245.399	216.81
245.633	197.81
245.866	209.81
246.099	203.81
246.333	216.81
246.566	214.81
246.8	213.81
247.033	214.81
247.266	223.81
247.5	215.81
247.733	231.81
247.966	217.81
248.2	220.81
248.433	212.81
248.666	226.81
248.899	232.81
249.133	234.81
249.366	235.81
249.599	246.81
249.832	233.81
250.066	259.81
250.299	230.81
250.532	260.81
250.765	244.81
250.998	247.81
251.231	244.81
251.465	267.81
251.698	276.81
251.931	257.81
252.164	261.81
252.397	254.81
252.63	282.81
252.863	262.81
253.096	250.81
253.329	270.81
253.562	264.81
253.795	257.81
254.028	268.81
254.261	279.81
254.494	270.81
254.727	278.81
254.96	255.81
255.193	268.81
255.426	269.81
255.659	281.81
255.892	282.81
256.124	258.81
256.357	289.81
256.59	300.81
256.823	299.81
257.056	267.81
257.289	281.81
257.521	281.81
257.754	296.81
257.987	297.81
258.22	310.81
258.452	314.81
258.685	303.81
258.918	305.81
259.151	312.81
259.383	309.81
259.616	312.81
259.849	314.81
260.081	300.81
260.314	323.81
260.547	311.81
260.779	314.81
261.012	328.81
261.244	330.81
261.477	317.81
261.71	327.81
261.942	328.81
262.175	327.81
262.407	321.81
262.64	338.81
262.872	332.81
263.105	302.81
263.337	313.81
263.57	330.81
263.802	332.81
264.035	313.81
264.267	331.81
264.499	332.81
264.732	333.81
264.964	339.81
265.197	354.81
265.429	332.81
265.661	346.81
265.894	363.81
266.126	351.81
266.358	370.81
266.591	357.81
266.823	357.81
267.055	362.81
267.287	362.81
267.52	365.81
267.752	375.81
267.984	358.81
268.216	354.81
268.448	347.81
268.681	365.81
268.913	356.81
269.145	382.81
269.377	375.81
269.609	384.81
269.841	348.81
270.073	347.81
270.306	370.81
270.538	371.81
270.77	370.81
271.002	371.81
271.234	384.81
271.466	391.81
271.698	379.81
271.93	391.81
272.162	394.81
272.394	390.81
272.626	407.81
272.858	393.81
273.09	387.81
273.322	383.81
273.553	395.81
273.785	388.81
274.017	394.81
274.249	400.81
274.481	400.81
274.713	408.81
274.945	418.81
275.176	403.81
275.408	408.81
275.64	417.81
275.872	417.81
276.104	415.81
276.335	387.81
276.567	419.81
276.799	420.81
277.031	415.81
277.262	419.81
277.494	407.81
277.726	420.81
277.957	424.81
278.189	436.81
278.421	424.81
278.652	409.81
278.884	435.81
279.115	439.81
279.347	450.81
279.579	441.81
279.81	422.81
280.042	415.81
280.273	434.81
280.505	445.81
280.736	464.81
280.968	450.81
281.199	426.81
281.431	455.81
281.662	461.81
281.894	443.81
282.125	450.81
282.356	468.81
282.588	473.81
282.819	471.81
283.051	461.81
283.282	456.81
283.513	474.81
283.745	467.81
283.976	458.81
284.207	454.81
284.439	466.81
284.67	480.81
284.901	457.81
285.132	479.81
285.364	469.81
285.595	450.81
285.826	499.81
286.057	477.81
286.288	486.81
286.52	507.81
286.751	495.81
286.982	485.81
287.213	474.81
287.444	489.81
287.675	506.81
287.906	503.81
288.138	522.81
288.369	490.81
288.6	499.81
288.831	498.81
289.062	491.81
289.293	490.81
289.524	491.81
289.755	513.81
289.986	499.81
290.217	493.81
290.448	503.81
290.679	508.81
290.91	509.81
291.141	508.81
291.371	509.81
291.602	491.81
291.833	505.81
292.064	515.81
292.295	512.81
292.526	515.81
292.757	499.81
292.987	502.81
293.218	515.81
293.449	509.81
293.68	526.81
293.91	509.81
294.141	511.81
294.372	513.81
294.603	504.81
294.833	520.81
295.064	526.81
295.295	515.81
295.525	545.81
295.756	528.81
295.987	505.81
296.217	517.81
296.448	539.81
296.679	515.81
296.909	531.81
297.14	549.81
297.37	577.81
297.601	559.81
297.831	549.81
298.062	545.81
298.292	551.81
298.523	554.81
298.753	561.81
298.984	564.81
299.214	545.81
299.445	559.81
299.675	556.81
299.905	568.81
300.136	563.81
300.366	562.81
300.597	572.81
300.827	601.81
301.057	542.81
301.288	584.81
301.518	589.81
301.748	576.81
301.979	579.81
302.209	596.81
302.439	584.81
302.669	556.81
302.9	583.81
303.13	573.81
303.36	583.81
303.59	579.81
303.82	565.81
304.051	561.81
304.281	564.81
304.511	578.81
304.741	588.81
304.971	565.81
305.201	563.81
305.431	569.81
305.661	565.81
305.891	586.81
306.121	585.81
306.352	581.81
306.582	583.81
306.812	550.81
307.042	564.81
307.272	564.81
307.502	587.81
307.731	578.81
307.961	587.81
308.191	574.81
308.421	571.81
308.651	566.81
308.881	562.81
309.111	586.81
309.341	565.81
309.571	575.81
309.8	578.81
310.03	570.81
310.26	563.81
310.49	584.81
310.72	570.81
310.949	576.81
311.179	579.81
311.409	588.81
311.639	593.81
311.868	599.81
312.098	575.81
312.328	593.81
312.557	603.81
312.787	607.81
313.017	607.81
313.246	620.81
313.476	610.81
313.706	611.81
313.935	629.81
314.165	611.81
314.394	599.81
314.624	626.81
314.853	597.81
315.083	612.81
315.312	605.81
315.542	582.81
315.771	597.81
316.001	600.81
316.23	625.81
316.46	612.81
316.689	626.81
316.919	618.81
317.148	615.81
317.377	596.81
317.607	620.81
317.836	609.81
318.065	603.81
318.295	617.81
318.524	610.81
318.753	591.81
318.983	597.81
319.212	607.81
319.441	606.81
319.67	611.81
319.9	618.81
320.129	610.81
320.358	613.81
320.587	605.81
320.816	606.81
321.046	636.81
321.275	611.81
321.504	632.81
321.733	631.81
321.962	603.81
322.191	639.81
322.42	635.81
322.649	619.81
322.878	614.81
323.108	623.81
323.337	629.81
323.566	646.81
323.795	648.81
324.024	639.81
324.253	636.81
324.482	633.81
324.71	651.81
324.939	646.81
325.168	662.81
325.397	629.81
325.626	653.81
325.855	644.81
326.084	689.81
326.313	683.81
326.542	672.81
326.77	704.81
326.999	677.81
327.228	681.81
327.457	692.81
327.686	689.81
327.914	689.81
328.143	686.81
328.372	680.81
328.6	680.81
328.829	675.81
329.058	690.81
329.287	685.81
329.515	696.81
329.744	691.81
329.972	694.81
330.201	712.81
330.43	713.81
330.658	693.81
330.887	729.81
331.115	727.81
331.344	728.81
331.572	723.81
331.801	741.81
332.03	776.81
332.258	796.81
332.486	799.81
332.715	836.81
332.943	853.81
333.172	870.81
333.4	935.81
333.629	951.81
333.857	940.81
334.085	933.81
334.314	939.81
334.542	900.81
334.771	878.81
334.999	863.81
335.227	866.81
335.455	900.81
335.684	872.81
335.912	857.81
336.14	827.81
336.369	835.81
336.597	850.81
336.825	809.81
337.053	827.81
337.281	825.81
337.51	799.81
337.738	797.81
337.966	758.81
338.194	777.81
338.422	761.81
338.65	733.81
338.878	753.81
339.106	769.81
339.334	774.81
339.562	747.81
339.79	730.81
340.018	724.81
340.246	746.81
340.474	739.81
340.702	702.81
340.93	747.81
341.158	761.81
341.386	713.81
341.614	713.81
341.842	725.81
342.07	723.81
342.298	716.81
342.526	704.81
342.754	735.81
342.981	734.81
343.209	759.81
343.437	783.81
343.665	825.81
343.893	907.81
344.12	912.81
344.348	863.81
344.576	809.81
344.804	778.81
345.031	763.81
345.259	726.81
345.487	753.81
345.714	718.81
345.942	716.81
346.17	726.81
346.397	730.81
346.625	715.81
346.853	696.81
347.08	719.81
347.308	701.81
347.535	720.81
347.763	723.81
347.99	706.81
348.218	710.81
348.445	726.81
348.673	701.81
348.9	717.81
349.128	697.81
349.355	711.81
349.583	703.81
349.81	691.81
350.037	701.81
350.265	693.81
350.492	693.81
350.72	654.81
350.947	677.81
351.174	675.81
351.402	685.81
351.629	682.81
351.856	663.81
352.083	688.81
352.311	655.81
352.538	665.81
352.765	687.81
352.992	666.81
353.22	662.81
353.447	695.81
353.674	678.81
353.901	676.81
354.128	661.81
354.355	671.81
354.583	669.81
354.81	691.81
355.037	683.81
355.264	653.81
355.491	673.81
355.718	682.81
355.945	669.81
356.172	682.81
356.399	691.81
356.626	667.81
356.853	699.81
357.08	673.81
357.307	650.81
357.534	663.81
357.761	678.81
357.988	713.81
358.215	673.81
358.441	646.81
358.668	653.81
358.895	661.81
359.122	702.81
359.349	678.81
359.576	681.81
359.802	691.81
360.029	667.81
360.256	675.81
360.483	659.81
360.709	626.81
360.936	656.81
361.163	682.81
361.39	663.81
361.616	675.81
361.843	682.81
362.07	690.81
362.296	679.81
362.523	661.81
362.749	663.81
362.976	644.81
363.203	641.81
363.429	663.81
363.656	673.81
363.882	679.81
364.109	671.81
364.335	637.81
364.562	684.81
364.788	675.81
365.015	655.81
365.241	655.81
365.468	653.81
365.694	661.81
365.92	649.81
366.147	673.81
366.373	658.81
366.599	672.81
366.826	666.81
367.052	669.81
367.278	696.81
367.505	676.81
367.731	666.81
367.957	672.81
368.184	690.81
368.41	690.81
368.636	678.81
368.862	690.81
369.089	723.81
369.315	682.81
369.541	679.81
369.767	662.81
369.993	715.81
370.219	693.81
370.445	712.81
370.672	723.81
370.898	686.81
371.124	715.81
371.35	724.81
371.576	753.81
371.802	756.81
372.028	730.81
372.254	738.81
372.48	732.81
372.706	742.81
372.932	774.81
373.158	742.81
373.384	742.81
373.61	727.81
373.835	741.81
374.061	732.81
374.287	747.81
374.513	741.81
374.739	778.81
374.965	807.81
375.191	799.81
375.416	829.81
375.642	755.81
375.868	769.81
376.094	771.81
376.319	729.81
376.545	775.81
376.771	762.81
376.997	712.81
377.222	712.81
377.448	731.81
377.674	724.81
377.899	716.81
378.125	729.81
378.35	713.81
378.576	708.81
378.802	711.81
379.027	740.81
379.253	711.81
379.478	717.81
379.704	707.81
379.929	719.81
380.155	735.81
380.38	710.81
380.606	720.81
380.831	724.81
381.057	739.81
381.282	729.81
381.507	749.81
381.733	734.81
381.958	732.81
382.184	753.81
382.409	760.81
382.634	775.81
382.86	753.81
383.085	758.81
383.31	775.81
383.535	801.81
383.761	816.81
383.986	811.81
384.211	829.81
384.436	862.81
384.662	870.81
384.887	889.81
385.112	889.81
385.337	882.81
385.562	899.81
385.787	889.81
386.013	914.81
386.238	891.81
386.463	876.81
386.688	897.81
386.913	860.81
387.138	868.81
387.363	862.81
387.588	868.81
387.813	854.81
388.038	829.81
388.263	871.81
388.488	878.81
388.713	859.81
388.938	857.81
389.163	824.81
389.387	835.81
389.612	845.81
389.837	845.81
390.062	847.81
390.287	845.81
390.512	841.81
390.736	861.81
390.961	870.81
391.186	893.81
391.411	927.81
391.636	953.81
391.86	961.81
392.085	1000.81
392.31	966.81
392.534	958.81
392.759	953.81
392.984	922.81
393.208	919.81
393.433	909.81
393.658	937.81
393.882	937.81
394.107	916.81
394.331	961.81
394.556	922.81
394.78	962.81
395.005	934.81
395.229	952.81
395.454	980.81
395.678	1004.81
395.903	964.81
396.127	950.81
396.352	943.81
396.576	935.81
396.801	922.81
397.025	918.81
397.249	960.81
397.474	989.81
397.698	984.81
397.922	942.81
398.147	968.81
398.371	992.81
398.595	1052.81
398.82	1069.81
399.044	1158.81
399.268	1253.81
399.492	1480.81
399.717	1702.81
399.941	1656.81
400.165	1449.81
400.389	1303.81
400.613	1185.81
400.837	1113.81
401.062	1128.81
401.286	1092.81
401.51	1107.81
401.734	1073.81
401.958	1113.81
402.182	1137.81
402.406	1133.81
402.63	1161.81
402.854	1173.81
403.078	1194.81
403.302	1235.81
403.526	1241.81
403.75	1265.81
403.974	1268.81
404.198	1323.81
404.422	1291.81
404.645	1271.81
404.869	1251.81
405.093	1239.81
405.317	1189.81
405.541	1221.81
405.765	1210.81
405.988	1207.81
406.212	1212.81
406.436	1194.81
406.66	1256.81
406.883	1248.81
407.107	1311.81
407.331	1365.81
407.555	1438.81
407.778	1431.81
408.002	1398.81
408.226	1304.81
408.449	1322.81
408.673	1235.81
408.896	1248.81
409.12	1249.81
409.344	1243.81
409.567	1226.81
409.791	1234.81
410.014	1236.81
410.238	1231.81
410.461	1270.81
410.685	1208.81
410.908	1185.81
411.132	1145.81
411.355	1140.81
411.578	1124.81
411.802	1127.81
412.025	1125.81
412.249	1149.81
412.472	1166.81
412.695	1135.81
412.919	1109.81
413.142	1097.81
413.365	1072.81
413.589	1088.81
413.812	1103.81
414.035	1056.81
414.258	1090.81
414.482	1099.81
414.705	1134.81
414.928	1109.81
415.151	1106.81
415.374	1102.81
415.597	1093.81
415.821	1084.81
416.044	1051.81
416.267	1053.81
416.49	1091.81
416.713	1051.81
416.936	1091.81
417.159	1093.81
417.382	1082.81
417.605	1063.81
417.828	1094.81
418.051	1087.81
418.274	1093.81
418.497	1114.81
418.72	1131.81
418.943	1123.81
419.166	1168.81
419.389	1277.81
419.611	1203.81
419.834	1163.81
420.057	1168.81
420.28	1124.81
420.503	1073.81
420.726	1053.81
420.948	1098.81
421.171	1069.81
421.394	1070.81
421.617	1084.81
421.839	1077.81
422.062	1085.81
422.285	1077.81
422.507	1130.81
422.73	1107.81
422.953	1165.81
423.175	1145.81
423.398	1193.81
423.621	1174.81
423.843	1185.81
424.066	1182.81
424.288	1170.81
424.511	1154.81
424.733	1132.81
424.956	1137.81
425.178	1098.81
425.401	1099.81
425.623	1127.81
425.846	1031.81
426.068	1069.81
426.291	1031.81
426.513	1049.81
426.735	1032.81
426.958	1017.81
427.18	995.81
427.402	1012.81
427.625	991.81
427.847	978.81
428.069	956.81
428.292	981.81
428.514	957.81
428.736	963.81
428.958	987.81
429.181	952.81
429.403	952.81
429.625	941.81
429.847	947.81
430.069	954.81
430.292	958.81
430.514	926.81
430.736	929.81
430.958	967.81
431.18	953.81
431.402	969.81
431.624	961.81
431.846	982.81
432.068	983.81
432.29	1007.81
432.512	973.81
432.734	986.81
432.956	966.81
433.178	953.81
433.4	970.81
433.622	960.81
433.844	1020.81
434.066	985.81
434.287	986.81
434.509	1038.81
434.731	1065.81
434.953	1122.81
435.175	1091.81
435.397	1080.81
435.618	1027.81
435.84	993.81
436.062	965.81
436.284	1001.81
436.505	952.81
436.727	945.81
436.949	974.81
437.17	987.81
437.392	1001.81
437.614	961.81
437.835	914.81
438.057	957.81
438.278	919.81
438.5	942.81
438.721	929.81
438.943	934.81
439.165	939.81
439.386	947.81
439.608	964.81
439.829	989.81
440.05	959.81
440.272	1013.81
440.493	996.81
440.715	1002.81
440.936	1038.81
441.158	1005.81
441.379	1075.81
441.6	1134.81
441.822	1114.81
442.043	1115.81
442.264	1094.81
442.486	1059.81
442.707	1069.81
442.928	1080.81
443.149	1108.81
443.371	1091.81
443.592	1114.81
443.813	1121.81
444.034	1126.81
444.255	1166.81
444.476	1207.81
444.698	1290.81
444.919	1337.81
445.14	1396.81
445.361	1229.81
445.582	1120.81
445.803	1053.81
446.024	1030.81
446.245	1005.81
446.466	1004.81
446.687	988.81
446.908	1002.81
447.129	1001.81
447.35	932.81
447.571	961.81
447.792	923.81
448.013	917.81
448.234	921.81
448.455	892.81
448.675	902.81
448.896	912.81
449.117	903.81
449.338	899.81
449.559	891.81
449.779	883.81
450	907.81
450.221	896.81
450.442	882.81
450.662	901.81
450.883	925.81
451.104	886.81
451.324	918.81
451.545	929.81
451.766	899.81
451.986	903.81
452.207	890.81
452.428	890.81
452.648	897.81
452.869	871.81
453.089	862.81
453.31	883.81
453.53	863.81
453.751	876.81
453.971	846.81
454.192	856.81
454.412	851.81
454.633	842.81
454.853	883.81
455.073	862.81
455.294	828.81
455.514	832.81
455.734	838.81
455.955	821.81
456.175	823.81
456.395	826.81
456.616	825.81
456.836	837.81
457.056	835.81
457.276	827.81
457.497	843.81
457.717	845.81
457.937	843.81
458.157	854.81
458.377	848.81
458.598	872.81
458.818	916.81
459.038	941.81
459.258	949.81
459.478	989.81
459.698	1013.81
459.918	1051.81
460.138	1101.81
460.358	1130.81
460.578	1142.81
460.798	1174.81
461.018	1161.81
461.238	1138.81
461.458	1125.81
461.678	1115.81
461.898	1158.81
462.118	1150.81
462.338	1237.81
462.558	1253.81
462.777	1286.81
462.997	1443.81
463.217	1583.81
463.437	1583.81
463.657	1394.81
463.876	1363.81
464.096	1303.81
464.316	1337.81
464.536	1354.81
464.755	1311.81
464.975	1268.81
465.195	1189.81
465.414	1123.81
465.634	1026.81
465.854	1015.81
466.073	998.81
466.293	987.81
466.512	956.81
466.732	916.81
466.951	958.81
467.171	956.81
467.391	938.81
467.61	946.81
467.829	919.81
468.049	912.81
468.268	917.81
468.488	875.81
468.707	868.81
468.927	889.81
469.146	892.81
469.365	912.81
469.585	913.81
469.804	921.81
470.023	908.81
470.243	989.81
470.462	985.81
470.681	1004.81
470.901	958.81
471.12	949.81
471.339	935.81
471.558	923.81
471.777	927.81
471.997	884.81
472.216	888.81
472.435	872.81
472.654	909.81
472.873	896.81
473.092	895.81
473.311	866.81
473.53	871.81
473.749	878.81
473.968	882.81
474.187	894.81
474.406	850.81
474.625	856.81
474.844	869.81
475.063	866.81
475.282	874.81
475.501	887.81
475.72	869.81
475.939	877.81
476.158	890.81
476.377	897.81
476.596	909.81
476.814	925.81
477.033	944.81
477.252	926.81
477.471	954.81
477.69	976.81
477.908	1007.81
478.127	1069.81
478.346	1045.81
478.564	1046.81
478.783	1068.81
479.002	1125.81
479.22	1136.81
479.439	1091.81
479.658	1085.81
479.876	1075.81
480.095	1085.81
480.313	1167.81
480.532	1185.81
480.751	1150.81
480.969	1137.81
481.188	1072.81
481.406	1029.81
481.624	1047.81
481.843	1008.81
482.061	1003.81
482.28	993.81
482.498	991.81
482.717	1006.81
482.935	969.81
483.153	994.81
483.372	991.81
483.59	1039.81
483.808	1017.81
484.027	989.81
484.245	1000.81
484.463	1023.81
484.681	1053.81
484.9	1039.81
485.118	1044.81
485.336	1046.81
485.554	1047.81
485.772	1066.81
485.99	1035.81
486.209	1073.81
486.427	1068.81
486.645	1073.81
486.863	1056.81
487.081	1053.81
487.299	1051.81
487.517	1039.81
487.735	1046.81
487.953	1085.81
488.171	1069.81
488.389	1059.81
488.607	1013.81
488.825	1039.81
489.043	1022.81
489.261	1042.81
489.479	1023.81
489.696	1076.81
489.914	1037.81
490.132	1048.81
490.35	1058.81
490.568	1037.81
490.786	1023.81
491.003	1065.81
491.221	1075.81
491.439	1066.81
491.657	1063.81
491.874	1074.81
492.092	1092.81
492.31	1078.81
492.527	1083.81
492.745	1077.81
492.963	1068.81
493.18	1074.81
493.398	1097.81
493.615	1101.81
493.833	1107.81
494.05	1085.81
494.268	1133.81
494.485	1109.81
494.703	1093.81
494.92	1150.81
495.138	1123.81
495.355	1123.81
495.573	1129.81
495.79	1100.81
496.008	1163.81
496.225	1102.81
496.442	1161.81
496.66	1146.81
496.877	1139.81
497.094	1144.81
497.312	1205.81
497.529	1231.81
497.746	1273.81
