Data from Ni(NO3)2@0.25M.TitratingCurve.Agarose3%dH2O.NegLispCup.LampEnergy10.LIBS07252019_HRD10591_18-04-58-566.txt Node
Date: Thu Jul 25 18:04:58 EDT 2019
User: cochatt
Spectrometer: HR+D1059
Trigger mode: 1
Integration Time (sec): 1.000000E-1
Scans to average: 1
Electric dark correction enabled: true
Nonlinearity correction enabled: false
Boxcar width: 0
XAxis mode: Wavelengths
Number of Pixels in Spectrum: 2048
>>>>>Begin Spectral Data<<<<<
223.165	-0.06
223.4	-0.06
223.635	-0.06
223.869	-16.06
224.104	-27.06
224.338	-6.06
224.573	-9.06
224.808	-26.06
225.042	-12.06
225.277	-11.06
225.511	-10.06
225.746	15.94
225.98	4.94
226.215	5.94
226.449	18.94
226.683	16.94
226.918	28.94
227.152	25.94
227.387	28.94
227.621	36.94
227.856	50.94
228.09	56.94
228.324	47.94
228.559	50.94
228.793	66.94
229.027	89.94
229.262	88.94
229.496	102.94
229.73	81.94
229.964	97.94
230.199	109.94
230.433	99.94
230.667	105.94
230.901	102.94
231.136	84.94
231.37	98.94
231.604	101.94
231.838	106.94
232.072	100.94
232.306	103.94
232.541	119.94
232.775	107.94
233.009	106.94
233.243	109.94
233.477	103.94
233.711	118.94
233.945	103.94
234.179	106.94
234.413	110.94
234.647	114.94
234.881	114.94
235.115	110.94
235.349	105.94
235.583	106.94
235.817	109.94
236.051	109.94
236.285	99.94
236.519	110.94
236.753	103.94
236.987	117.94
237.221	95.94
237.455	102.94
237.689	103.94
237.922	125.94
238.156	111.94
238.39	108.94
238.624	116.94
238.858	101.94
239.091	110.94
239.325	111.94
239.559	112.94
239.793	117.94
240.027	108.94
240.26	116.94
240.494	129.94
240.728	113.94
240.961	111.94
241.195	126.94
241.429	125.94
241.662	114.94
241.896	115.94
242.13	105.94
242.363	115.94
242.597	134.94
242.83	121.94
243.064	137.94
243.298	126.94
243.531	113.94
243.765	118.94
243.998	116.94
244.232	128.94
244.465	117.94
244.699	137.94
244.932	133.94
245.166	118.94
245.399	131.94
245.633	137.94
245.866	122.94
246.099	150.94
246.333	137.94
246.566	139.94
246.8	124.94
247.033	135.94
247.266	145.94
247.5	147.94
247.733	145.94
247.966	144.94
248.2	141.94
248.433	151.94
248.666	142.94
248.899	158.94
249.133	141.94
249.366	146.94
249.599	136.94
249.832	144.94
250.066	147.94
250.299	163.94
250.532	173.94
250.765	156.94
250.998	156.94
251.231	154.94
251.465	147.94
251.698	154.94
251.931	165.94
252.164	175.94
252.397	168.94
252.63	170.94
252.863	174.94
253.096	173.94
253.329	180.94
253.562	181.94
253.795	164.94
254.028	181.94
254.261	181.94
254.494	171.94
254.727	199.94
254.96	175.94
255.193	187.94
255.426	180.94
255.659	181.94
255.892	193.94
256.124	199.94
256.357	196.94
256.59	181.94
256.823	167.94
257.056	194.94
257.289	194.94
257.521	201.94
257.754	198.94
257.987	204.94
258.22	191.94
258.452	198.94
258.685	204.94
258.918	201.94
259.151	203.94
259.383	204.94
259.616	215.94
259.849	199.94
260.081	191.94
260.314	233.94
260.547	183.94
260.779	207.94
261.012	205.94
261.244	217.94
261.477	229.94
261.71	224.94
261.942	225.94
262.175	219.94
262.407	216.94
262.64	217.94
262.872	226.94
263.105	226.94
263.337	219.94
263.57	220.94
263.802	222.94
264.035	232.94
264.267	225.94
264.499	236.94
264.732	225.94
264.964	225.94
265.197	230.94
265.429	227.94
265.661	236.94
265.894	241.94
266.126	237.94
266.358	238.94
266.591	219.94
266.823	224.94
267.055	244.94
267.287	243.94
267.52	230.94
267.752	252.94
267.984	229.94
268.216	243.94
268.448	237.94
268.681	261.94
268.913	249.94
269.145	241.94
269.377	228.94
269.609	244.94
269.841	261.94
270.073	245.94
270.306	236.94
270.538	231.94
270.77	249.94
271.002	246.94
271.234	272.94
271.466	231.94
271.698	254.94
271.93	255.94
272.162	271.94
272.394	260.94
272.626	248.94
272.858	252.94
273.09	261.94
273.322	257.94
273.553	247.94
273.785	257.94
274.017	239.94
274.249	259.94
274.481	268.94
274.713	253.94
274.945	268.94
275.176	277.94
275.408	273.94
275.64	262.94
275.872	275.94
276.104	260.94
276.335	282.94
276.567	271.94
276.799	261.94
277.031	265.94
277.262	265.94
277.494	252.94
277.726	272.94
277.957	281.94
278.189	269.94
278.421	271.94
278.652	283.94
278.884	244.94
279.115	262.94
279.347	292.94
279.579	259.94
279.81	285.94
280.042	279.94
280.273	276.94
280.505	267.94
280.736	281.94
280.968	269.94
281.199	277.94
281.431	279.94
281.662	264.94
281.894	270.94
282.125	281.94
282.356	280.94
282.588	298.94
282.819	286.94
283.051	286.94
283.282	278.94
283.513	292.94
283.745	282.94
283.976	286.94
284.207	284.94
284.439	283.94
284.67	280.94
284.901	281.94
285.132	282.94
285.364	295.94
285.595	301.94
285.826	296.94
286.057	300.94
286.288	281.94
286.52	293.94
286.751	292.94
286.982	301.94
287.213	287.94
287.444	295.94
287.675	283.94
287.906	296.94
288.138	308.94
288.369	293.94
288.6	311.94
288.831	269.94
289.062	293.94
289.293	299.94
289.524	298.94
289.755	291.94
289.986	278.94
290.217	299.94
290.448	291.94
290.679	285.94
290.91	276.94
291.141	297.94
291.371	312.94
291.602	307.94
291.833	300.94
292.064	282.94
292.295	298.94
292.526	313.94
292.757	295.94
292.987	294.94
293.218	302.94
293.449	304.94
293.68	310.94
293.91	302.94
294.141	300.94
294.372	295.94
294.603	316.94
294.833	303.94
295.064	299.94
295.295	309.94
295.525	305.94
295.756	315.94
295.987	298.94
296.217	332.94
296.448	316.94
296.679	297.94
296.909	287.94
297.14	305.94
297.37	320.94
297.601	318.94
297.831	316.94
298.062	306.94
298.292	298.94
298.523	315.94
298.753	307.94
298.984	321.94
299.214	311.94
299.445	308.94
299.675	314.94
299.905	329.94
300.136	325.94
300.366	347.94
300.597	338.94
300.827	312.94
301.057	321.94
301.288	315.94
301.518	338.94
301.748	336.94
301.979	346.94
302.209	346.94
302.439	321.94
302.669	338.94
302.9	324.94
303.13	338.94
303.36	339.94
303.59	326.94
303.82	339.94
304.051	339.94
304.281	340.94
304.511	341.94
304.741	343.94
304.971	345.94
305.201	361.94
305.431	350.94
305.661	359.94
305.891	342.94
306.121	330.94
306.352	348.94
306.582	313.94
306.812	326.94
307.042	341.94
307.272	335.94
307.502	327.94
307.731	353.94
307.961	333.94
308.191	324.94
308.421	327.94
308.651	351.94
308.881	348.94
309.111	353.94
309.341	349.94
309.571	342.94
309.8	345.94
310.03	350.94
310.26	352.94
310.49	345.94
310.72	349.94
310.949	334.94
311.179	351.94
311.409	350.94
311.639	370.94
311.868	350.94
312.098	360.94
312.328	356.94
312.557	379.94
312.787	361.94
313.017	355.94
313.246	396.94
313.476	371.94
313.706	355.94
313.935	362.94
314.165	381.94
314.394	391.94
314.624	394.94
314.853	375.94
315.083	387.94
315.312	392.94
315.542	386.94
315.771	405.94
316.001	408.94
316.23	387.94
316.46	375.94
316.689	381.94
316.919	391.94
317.148	396.94
317.377	381.94
317.607	388.94
317.836	381.94
318.065	379.94
318.295	383.94
318.524	387.94
318.753	393.94
318.983	403.94
319.212	391.94
319.441	396.94
319.67	409.94
319.9	429.94
320.129	409.94
320.358	407.94
320.587	416.94
320.816	407.94
321.046	406.94
321.275	420.94
321.504	433.94
321.733	443.94
321.962	413.94
322.191	411.94
322.42	431.94
322.649	434.94
322.878	426.94
323.108	440.94
323.337	437.94
323.566	434.94
323.795	457.94
324.024	411.94
324.253	439.94
324.482	445.94
324.71	435.94
324.939	445.94
325.168	464.94
325.397	449.94
325.626	461.94
325.855	471.94
326.084	465.94
326.313	477.94
326.542	483.94
326.77	489.94
326.999	478.94
327.228	463.94
327.457	456.94
327.686	473.94
327.914	498.94
328.143	483.94
328.372	485.94
328.6	481.94
328.829	503.94
329.058	507.94
329.287	509.94
329.515	513.94
329.744	515.94
329.972	517.94
330.201	492.94
330.43	501.94
330.658	533.94
330.887	535.94
331.115	524.94
331.344	525.94
331.572	543.94
331.801	553.94
332.03	540.94
332.258	548.94
332.486	555.94
332.715	565.94
332.943	593.94
333.172	586.94
333.4	615.94
333.629	621.94
333.857	609.94
334.085	649.94
334.314	653.94
334.542	629.94
334.771	621.94
334.999	631.94
335.227	637.94
335.455	638.94
335.684	639.94
335.912	614.94
336.14	633.94
336.369	621.94
336.597	650.94
336.825	623.94
337.053	632.94
337.281	633.94
337.51	606.94
337.738	597.94
337.966	605.94
338.194	609.94
338.422	604.94
338.65	581.94
338.878	570.94
339.106	581.94
339.334	579.94
339.562	584.94
339.79	586.94
340.018	552.94
340.246	588.94
340.474	562.94
340.702	544.94
340.93	575.94
341.158	570.94
341.386	582.94
341.614	582.94
341.842	565.94
342.07	561.94
342.298	561.94
342.526	570.94
342.754	567.94
342.981	569.94
343.209	576.94
343.437	611.94
343.665	609.94
343.893	653.94
344.12	627.94
344.348	617.94
344.576	595.94
344.804	605.94
345.031	601.94
345.259	591.94
345.487	592.94
345.714	589.94
345.942	571.94
346.17	601.94
346.397	581.94
346.625	541.94
346.853	537.94
347.08	566.94
347.308	549.94
347.535	558.94
347.763	547.94
347.99	521.94
348.218	517.94
348.445	534.94
348.673	528.94
348.9	568.94
349.128	541.94
349.355	541.94
349.583	558.94
349.81	536.94
350.037	531.94
350.265	532.94
350.492	545.94
350.72	525.94
350.947	523.94
351.174	547.94
351.402	537.94
351.629	534.94
351.856	558.94
352.083	518.94
352.311	542.94
352.538	531.94
352.765	530.94
352.992	529.94
353.22	532.94
353.447	523.94
353.674	518.94
353.901	519.94
354.128	535.94
354.355	526.94
354.583	508.94
354.81	514.94
355.037	504.94
355.264	549.94
355.491	516.94
355.718	530.94
355.945	506.94
356.172	528.94
356.399	538.94
356.626	547.94
356.853	541.94
357.08	533.94
357.307	531.94
357.534	523.94
357.761	534.94
357.988	517.94
358.215	533.94
358.441	529.94
358.668	516.94
358.895	522.94
359.122	529.94
359.349	525.94
359.576	517.94
359.802	520.94
360.029	529.94
360.256	526.94
360.483	513.94
360.709	500.94
360.936	536.94
361.163	533.94
361.39	541.94
361.616	545.94
361.843	521.94
362.07	535.94
362.296	539.94
362.523	530.94
362.749	517.94
362.976	511.94
363.203	525.94
363.429	505.94
363.656	531.94
363.882	511.94
364.109	509.94
364.335	511.94
364.562	507.94
364.788	524.94
365.015	522.94
365.241	500.94
365.468	527.94
365.694	525.94
365.92	516.94
366.147	501.94
366.373	520.94
366.599	476.94
366.826	490.94
367.052	512.94
367.278	504.94
367.505	524.94
367.731	529.94
367.957	502.94
368.184	499.94
368.41	512.94
368.636	511.94
368.862	523.94
369.089	538.94
369.315	526.94
369.541	537.94
369.767	516.94
369.993	511.94
370.219	525.94
370.445	539.94
370.672	524.94
370.898	538.94
371.124	539.94
371.35	561.94
371.576	549.94
371.802	569.94
372.028	535.94
372.254	549.94
372.48	565.94
372.706	543.94
372.932	573.94
373.158	563.94
373.384	551.94
373.61	565.94
373.835	549.94
374.061	549.94
374.287	551.94
374.513	541.94
374.739	585.94
374.965	566.94
375.191	567.94
375.416	567.94
375.642	577.94
375.868	567.94
376.094	565.94
376.319	545.94
376.545	561.94
376.771	535.94
376.997	542.94
377.222	539.94
377.448	536.94
377.674	504.94
377.899	532.94
378.125	520.94
378.35	512.94
378.576	518.94
378.802	526.94
379.027	530.94
379.253	536.94
379.478	512.94
379.704	521.94
379.929	517.94
380.155	522.94
380.38	548.94
380.606	521.94
380.831	517.94
381.057	528.94
381.282	537.94
381.507	527.94
381.733	533.94
381.958	536.94
382.184	541.94
382.409	528.94
382.634	524.94
382.86	526.94
383.085	554.94
383.31	570.94
383.535	565.94
383.761	558.94
383.986	584.94
384.211	578.94
384.436	568.94
384.662	578.94
384.887	578.94
385.112	601.94
385.337	602.94
385.562	585.94
385.787	603.94
386.013	617.94
386.238	618.94
386.463	593.94
386.688	616.94
386.913	591.94
387.138	608.94
387.363	581.94
387.588	603.94
387.813	615.94
388.038	603.94
388.263	594.94
388.488	616.94
388.713	597.94
388.938	607.94
389.163	582.94
389.387	586.94
389.612	616.94
389.837	602.94
390.062	603.94
390.287	595.94
390.512	601.94
390.736	612.94
390.961	622.94
391.186	608.94
391.411	648.94
391.636	665.94
391.86	645.94
392.085	681.94
392.31	668.94
392.534	653.94
392.759	646.94
392.984	640.94
393.208	653.94
393.433	652.94
393.658	647.94
393.882	656.94
394.107	605.94
394.331	652.94
394.556	628.94
394.78	656.94
395.005	670.94
395.229	655.94
395.454	667.94
395.678	669.94
395.903	669.94
396.127	684.94
396.352	654.94
396.576	654.94
396.801	671.94
397.025	674.94
397.249	689.94
397.474	684.94
397.698	697.94
397.922	723.94
398.147	712.94
398.371	717.94
398.595	722.94
398.82	757.94
399.044	769.94
399.268	830.94
399.492	938.94
399.717	973.94
399.941	988.94
400.165	931.94
400.389	891.94
400.613	855.94
400.837	804.94
401.062	795.94
401.286	777.94
401.51	761.94
401.734	766.94
401.958	753.94
402.182	770.94
402.406	783.94
402.63	794.94
402.854	747.94
403.078	791.94
403.302	781.94
403.526	810.94
403.75	805.94
403.974	822.94
404.198	846.94
404.422	851.94
404.645	814.94
404.869	811.94
405.093	810.94
405.317	809.94
405.541	812.94
405.765	807.94
405.988	807.94
406.212	829.94
406.436	835.94
406.66	838.94
406.883	849.94
407.107	866.94
407.331	897.94
407.555	945.94
407.778	930.94
408.002	917.94
408.226	917.94
408.449	895.94
408.673	859.94
408.896	877.94
409.12	851.94
409.344	873.94
409.567	845.94
409.791	838.94
410.014	862.94
410.238	833.94
410.461	821.94
410.685	798.94
410.908	831.94
411.132	812.94
411.355	804.94
411.578	789.94
411.802	789.94
412.025	810.94
412.249	803.94
412.472	789.94
412.695	803.94
412.919	762.94
413.142	795.94
413.365	795.94
413.589	825.94
413.812	813.94
414.035	781.94
414.258	796.94
414.482	805.94
414.705	810.94
414.928	817.94
415.151	791.94
415.374	790.94
415.597	789.94
415.821	793.94
416.044	763.94
416.267	785.94
416.49	786.94
416.713	758.94
416.936	776.94
417.159	764.94
417.382	775.94
417.605	761.94
417.828	781.94
418.051	773.94
418.274	779.94
418.497	794.94
418.72	793.94
418.943	801.94
419.166	858.94
419.389	899.94
419.611	868.94
419.834	834.94
420.057	816.94
420.28	789.94
420.503	777.94
420.726	774.94
420.948	774.94
421.171	781.94
421.394	796.94
421.617	799.94
421.839	774.94
422.062	777.94
422.285	756.94
422.507	824.94
422.73	785.94
422.953	802.94
423.175	806.94
423.398	822.94
423.621	785.94
423.843	813.94
424.066	831.94
424.288	812.94
424.511	795.94
424.733	811.94
424.956	787.94
425.178	794.94
425.401	781.94
425.623	776.94
425.846	776.94
426.068	782.94
426.291	768.94
426.513	766.94
426.735	771.94
426.958	772.94
427.18	779.94
427.402	759.94
427.625	781.94
427.847	743.94
428.069	734.94
428.292	765.94
428.514	757.94
428.736	730.94
428.958	774.94
429.181	734.94
429.403	750.94
429.625	767.94
429.847	753.94
430.069	739.94
430.292	735.94
430.514	728.94
430.736	757.94
430.958	748.94
431.18	711.94
431.402	731.94
431.624	723.94
431.846	748.94
432.068	748.94
432.29	715.94
432.512	742.94
432.734	770.94
432.956	756.94
433.178	771.94
433.4	771.94
433.622	753.94
433.844	757.94
434.066	732.94
434.287	764.94
434.509	797.94
434.731	787.94
434.953	793.94
435.175	808.94
435.397	815.94
435.618	786.94
435.84	743.94
436.062	755.94
436.284	739.94
436.505	758.94
436.727	793.94
436.949	754.94
437.17	757.94
437.392	739.94
437.614	730.94
437.835	709.94
438.057	721.94
438.278	706.94
438.5	740.94
438.721	739.94
438.943	746.94
439.165	749.94
439.386	739.94
439.608	766.94
439.829	769.94
440.05	763.94
440.272	809.94
440.493	760.94
440.715	739.94
440.936	765.94
441.158	791.94
441.379	822.94
441.6	822.94
441.822	814.94
442.043	845.94
442.264	822.94
442.486	804.94
442.707	778.94
442.928	818.94
443.149	818.94
443.371	805.94
443.592	834.94
443.813	830.94
444.034	837.94
444.255	869.94
444.476	868.94
444.698	926.94
444.919	939.94
445.14	1005.94
445.361	910.94
445.582	844.94
445.803	782.94
446.024	808.94
446.245	799.94
446.466	809.94
446.687	773.94
446.908	802.94
447.129	763.94
447.35	758.94
447.571	743.94
447.792	719.94
448.013	728.94
448.234	723.94
448.455	740.94
448.675	713.94
448.896	730.94
449.117	714.94
449.338	706.94
449.559	719.94
449.779	694.94
450	703.94
450.221	708.94
450.442	725.94
450.662	729.94
450.883	719.94
451.104	726.94
451.324	707.94
451.545	716.94
451.766	683.94
451.986	694.94
452.207	707.94
452.428	677.94
452.648	699.94
452.869	685.94
453.089	673.94
453.31	675.94
453.53	631.94
453.751	681.94
453.971	682.94
454.192	668.94
454.412	661.94
454.633	677.94
454.853	664.94
455.073	635.94
455.294	669.94
455.514	681.94
455.734	656.94
455.955	642.94
456.175	656.94
456.395	653.94
456.616	664.94
456.836	648.94
457.056	711.94
457.276	654.94
457.497	690.94
457.717	655.94
457.937	677.94
458.157	664.94
458.377	686.94
458.598	713.94
458.818	718.94
459.038	700.94
459.258	712.94
459.478	758.94
459.698	761.94
459.918	792.94
460.138	813.94
460.358	862.94
460.578	830.94
460.798	842.94
461.018	892.94
461.238	853.94
461.458	854.94
461.678	857.94
461.898	874.94
462.118	889.94
462.338	891.94
462.558	939.94
462.777	964.94
462.997	1011.94
463.217	1025.94
463.437	1033.94
463.657	1001.94
463.876	993.94
464.096	986.94
464.316	970.94
464.536	961.94
464.755	971.94
464.975	900.94
465.195	886.94
465.414	842.94
465.634	807.94
465.854	829.94
466.073	797.94
466.293	787.94
466.512	767.94
466.732	772.94
466.951	756.94
467.171	738.94
467.391	748.94
467.61	731.94
467.829	730.94
468.049	740.94
468.268	710.94
468.488	725.94
468.707	726.94
468.927	722.94
469.146	719.94
469.365	742.94
469.585	733.94
469.804	742.94
470.023	740.94
470.243	742.94
470.462	745.94
470.681	750.94
470.901	758.94
471.12	754.94
471.339	749.94
471.558	747.94
471.777	750.94
471.997	729.94
472.216	734.94
472.435	730.94
472.654	704.94
472.873	689.94
473.092	707.94
473.311	709.94
473.53	725.94
473.749	706.94
473.968	731.94
474.187	718.94
474.406	701.94
474.625	733.94
474.844	703.94
475.063	712.94
475.282	740.94
475.501	712.94
475.72	732.94
475.939	723.94
476.158	729.94
476.377	747.94
476.596	739.94
476.814	748.94
477.033	737.94
477.252	752.94
477.471	759.94
477.69	801.94
477.908	801.94
478.127	824.94
478.346	857.94
478.564	831.94
478.783	837.94
479.002	862.94
479.22	868.94
479.439	854.94
479.658	829.94
479.876	829.94
480.095	862.94
480.313	893.94
480.532	893.94
480.751	893.94
480.969	885.94
481.188	835.94
481.406	802.94
481.624	825.94
481.843	821.94
482.061	809.94
482.28	833.94
482.498	809.94
482.717	797.94
482.935	797.94
483.153	827.94
483.372	820.94
483.59	835.94
483.808	820.94
484.027	812.94
484.245	828.94
484.463	820.94
484.681	819.94
484.9	845.94
485.118	827.94
485.336	826.94
485.554	817.94
485.772	861.94
485.99	820.94
486.209	829.94
486.427	850.94
486.645	853.94
486.863	857.94
487.081	844.94
487.299	839.94
487.517	842.94
487.735	845.94
487.953	834.94
488.171	848.94
488.389	878.94
488.607	833.94
488.825	863.94
489.043	833.94
489.261	825.94
489.479	830.94
489.696	833.94
489.914	841.94
490.132	838.94
490.35	866.94
490.568	873.94
490.786	847.94
491.003	872.94
491.221	879.94
491.439	905.94
491.657	858.94
491.874	912.94
492.092	920.94
492.31	906.94
492.527	907.94
492.745	899.94
492.963	915.94
493.18	906.94
493.398	919.94
493.615	899.94
493.833	917.94
494.05	921.94
494.268	931.94
494.485	934.94
494.703	917.94
494.92	928.94
495.138	927.94
495.355	914.94
495.573	945.94
495.79	925.94
496.008	983.94
496.225	982.94
496.442	972.94
496.66	975.94
496.877	979.94
497.094	1003.94
497.312	1040.94
497.529	1029.94
497.746	1061.94
497.963	1087.94
498.181	1121.94
498.398	1153.94
498.615	1167.94
498.832	1283.94
499.049	1357.94
499.267	1404.94
499.484	1508.94
499.701	1617.94
499.918	1721.94
500.135	1885.94
500.352	2013.94
500.569	2029.94
500.786	2036.94
501.003	1975.94
501.22	1829.94
501.437	1683.94
