Data from Ni(NO3)2@0.0625M.TitratingCurve.Agarose3%dH2O.NegLispCup.LampEnergy10.LIBS07252019_HRD10591_18-14-03-571.txt Node
Date: Thu Jul 25 18:14:03 EDT 2019
User: cochatt
Spectrometer: HR+D1059
Trigger mode: 1
Integration Time (sec): 1.000000E-1
Scans to average: 1
Electric dark correction enabled: true
Nonlinearity correction enabled: false
Boxcar width: 0
XAxis mode: Wavelengths
Number of Pixels in Spectrum: 2048
>>>>>Begin Spectral Data<<<<<
223.165	-16.38
223.4	-16.38
223.635	-16.38
223.869	-13.38
224.104	-12.38
224.338	-13.38
224.573	-13.38
224.808	-19.38
225.042	-22.38
225.277	-10.38
225.511	-3.38
225.746	-0.38
225.98	4.62
226.215	20.62
226.449	16.62
226.683	30.62
226.918	24.62
227.152	27.62
227.387	37.62
227.621	36.62
227.856	38.62
228.09	45.62
228.324	53.62
228.559	51.62
228.793	74.62
229.027	102.62
229.262	92.62
229.496	106.62
229.73	109.62
229.964	111.62
230.199	127.62
230.433	106.62
230.667	115.62
230.901	121.62
231.136	134.62
231.37	137.62
231.604	135.62
231.838	130.62
232.072	133.62
232.306	135.62
232.541	148.62
232.775	137.62
233.009	145.62
233.243	134.62
233.477	132.62
233.711	133.62
233.945	135.62
234.179	141.62
234.413	140.62
234.647	152.62
234.881	140.62
235.115	128.62
235.349	131.62
235.583	142.62
235.817	133.62
236.051	134.62
236.285	123.62
236.519	143.62
236.753	153.62
236.987	147.62
237.221	150.62
237.455	147.62
237.689	140.62
237.922	153.62
238.156	156.62
238.39	148.62
238.624	161.62
238.858	157.62
239.091	148.62
239.325	156.62
239.559	159.62
239.793	149.62
240.027	180.62
240.26	154.62
240.494	166.62
240.728	166.62
240.961	184.62
241.195	158.62
241.429	168.62
241.662	159.62
241.896	171.62
242.13	180.62
242.363	173.62
242.597	166.62
242.83	175.62
243.064	191.62
243.298	173.62
243.531	200.62
243.765	190.62
243.998	188.62
244.232	174.62
244.465	175.62
244.699	189.62
244.932	198.62
245.166	186.62
245.399	187.62
245.633	184.62
245.866	196.62
246.099	170.62
246.333	187.62
246.566	191.62
246.8	205.62
247.033	198.62
247.266	191.62
247.5	212.62
247.733	213.62
247.966	189.62
248.2	197.62
248.433	211.62
248.666	215.62
248.899	211.62
249.133	217.62
249.366	217.62
249.599	220.62
249.832	202.62
250.066	213.62
250.299	206.62
250.532	222.62
250.765	220.62
250.998	230.62
251.231	217.62
251.465	225.62
251.698	228.62
251.931	220.62
252.164	214.62
252.397	230.62
252.63	245.62
252.863	238.62
253.096	233.62
253.329	247.62
253.562	249.62
253.795	232.62
254.028	245.62
254.261	230.62
254.494	229.62
254.727	231.62
254.96	237.62
255.193	235.62
255.426	250.62
255.659	241.62
255.892	252.62
256.124	243.62
256.357	264.62
256.59	264.62
256.823	247.62
257.056	259.62
257.289	238.62
257.521	267.62
257.754	253.62
257.987	268.62
258.22	272.62
258.452	274.62
258.685	249.62
258.918	254.62
259.151	287.62
259.383	266.62
259.616	277.62
259.849	287.62
260.081	267.62
260.314	284.62
260.547	277.62
260.779	281.62
261.012	268.62
261.244	289.62
261.477	267.62
261.71	268.62
261.942	294.62
262.175	295.62
262.407	286.62
262.64	284.62
262.872	291.62
263.105	285.62
263.337	281.62
263.57	284.62
263.802	286.62
264.035	299.62
264.267	290.62
264.499	296.62
264.732	309.62
264.964	296.62
265.197	307.62
265.429	289.62
265.661	301.62
265.894	303.62
266.126	310.62
266.358	314.62
266.591	311.62
266.823	318.62
267.055	318.62
267.287	298.62
267.52	303.62
267.752	314.62
267.984	305.62
268.216	328.62
268.448	320.62
268.681	320.62
268.913	330.62
269.145	325.62
269.377	340.62
269.609	318.62
269.841	319.62
270.073	315.62
270.306	319.62
270.538	333.62
270.77	325.62
271.002	329.62
271.234	329.62
271.466	315.62
271.698	327.62
271.93	342.62
272.162	341.62
272.394	345.62
272.626	341.62
272.858	327.62
273.09	342.62
273.322	338.62
273.553	346.62
273.785	338.62
274.017	341.62
274.249	334.62
274.481	355.62
274.713	367.62
274.945	359.62
275.176	363.62
275.408	369.62
275.64	351.62
275.872	362.62
276.104	372.62
276.335	375.62
276.567	366.62
276.799	339.62
277.031	362.62
277.262	365.62
277.494	379.62
277.726	381.62
277.957	393.62
278.189	381.62
278.421	386.62
278.652	383.62
278.884	372.62
279.115	372.62
279.347	375.62
279.579	377.62
279.81	392.62
280.042	389.62
280.273	388.62
280.505	387.62
280.736	395.62
280.968	396.62
281.199	400.62
281.431	395.62
281.662	378.62
281.894	389.62
282.125	395.62
282.356	428.62
282.588	415.62
282.819	395.62
283.051	411.62
283.282	403.62
283.513	393.62
283.745	418.62
283.976	404.62
284.207	410.62
284.439	422.62
284.67	420.62
284.901	419.62
285.132	417.62
285.364	409.62
285.595	425.62
285.826	425.62
286.057	420.62
286.288	433.62
286.52	429.62
286.751	405.62
286.982	435.62
287.213	429.62
287.444	430.62
287.675	428.62
287.906	447.62
288.138	416.62
288.369	443.62
288.6	454.62
288.831	432.62
289.062	426.62
289.293	430.62
289.524	407.62
289.755	435.62
289.986	439.62
290.217	439.62
290.448	455.62
290.679	486.62
290.91	466.62
291.141	469.62
291.371	460.62
291.602	457.62
291.833	441.62
292.064	475.62
292.295	474.62
292.526	461.62
292.757	454.62
292.987	430.62
293.218	459.62
293.449	477.62
293.68	453.62
293.91	453.62
294.141	457.62
294.372	452.62
294.603	450.62
294.833	441.62
295.064	444.62
295.295	463.62
295.525	472.62
295.756	450.62
295.987	454.62
296.217	483.62
296.448	442.62
296.679	479.62
296.909	478.62
297.14	486.62
297.37	473.62
297.601	482.62
297.831	472.62
298.062	497.62
298.292	500.62
298.523	505.62
298.753	506.62
298.984	501.62
299.214	487.62
299.445	486.62
299.675	509.62
299.905	515.62
300.136	475.62
300.366	505.62
300.597	507.62
300.827	499.62
301.057	526.62
301.288	505.62
301.518	513.62
301.748	506.62
301.979	514.62
302.209	539.62
302.439	522.62
302.669	542.62
302.9	520.62
303.13	502.62
303.36	517.62
303.59	496.62
303.82	520.62
304.051	521.62
304.281	531.62
304.511	497.62
304.741	516.62
304.971	507.62
305.201	514.62
305.431	514.62
305.661	505.62
305.891	517.62
306.121	522.62
306.352	526.62
306.582	472.62
306.812	498.62
307.042	509.62
307.272	509.62
307.502	516.62
307.731	490.62
307.961	538.62
308.191	527.62
308.421	487.62
308.651	487.62
308.881	521.62
309.111	517.62
309.341	504.62
309.571	511.62
309.8	494.62
310.03	498.62
310.26	519.62
310.49	527.62
310.72	513.62
310.949	499.62
311.179	533.62
311.409	521.62
311.639	531.62
311.868	524.62
312.098	503.62
312.328	533.62
312.557	548.62
312.787	522.62
313.017	525.62
313.246	528.62
313.476	530.62
313.706	557.62
313.935	557.62
314.165	550.62
314.394	549.62
314.624	562.62
314.853	551.62
315.083	560.62
315.312	536.62
315.542	538.62
315.771	549.62
316.001	546.62
316.23	534.62
316.46	523.62
316.689	533.62
316.919	530.62
317.148	531.62
317.377	574.62
317.607	525.62
317.836	526.62
318.065	545.62
318.295	540.62
318.524	552.62
318.753	553.62
318.983	548.62
319.212	546.62
319.441	549.62
319.67	543.62
319.9	507.62
320.129	539.62
320.358	549.62
320.587	538.62
320.816	550.62
321.046	554.62
321.275	550.62
321.504	524.62
321.733	534.62
321.962	542.62
322.191	540.62
322.42	548.62
322.649	561.62
322.878	546.62
323.108	543.62
323.337	573.62
323.566	570.62
323.795	566.62
324.024	565.62
324.253	540.62
324.482	554.62
324.71	558.62
324.939	568.62
325.168	577.62
325.397	570.62
325.626	584.62
325.855	565.62
326.084	577.62
326.313	591.62
326.542	594.62
326.77	601.62
326.999	603.62
327.228	590.62
327.457	605.62
327.686	614.62
327.914	611.62
328.143	617.62
328.372	570.62
328.6	593.62
328.829	589.62
329.058	579.62
329.287	602.62
329.515	595.62
329.744	625.62
329.972	606.62
330.201	615.62
330.43	625.62
330.658	601.62
330.887	607.62
331.115	633.62
331.344	636.62
331.572	651.62
331.801	673.62
332.03	666.62
332.258	689.62
332.486	684.62
332.715	717.62
332.943	747.62
333.172	776.62
333.4	807.62
333.629	830.62
333.857	828.62
334.085	794.62
334.314	799.62
334.542	778.62
334.771	755.62
334.999	730.62
335.227	727.62
335.455	744.62
335.684	764.62
335.912	736.62
336.14	708.62
336.369	695.62
336.597	738.62
336.825	719.62
337.053	728.62
337.281	700.62
337.51	689.62
337.738	710.62
337.966	675.62
338.194	670.62
338.422	643.62
338.65	638.62
338.878	655.62
339.106	630.62
339.334	646.62
339.562	651.62
339.79	635.62
340.018	621.62
340.246	641.62
340.474	652.62
340.702	610.62
340.93	617.62
341.158	642.62
341.386	638.62
341.614	627.62
341.842	650.62
342.07	613.62
342.298	622.62
342.526	606.62
342.754	622.62
342.981	634.62
343.209	639.62
343.437	682.62
343.665	720.62
343.893	756.62
344.12	791.62
344.348	739.62
344.576	697.62
344.804	674.62
345.031	649.62
345.259	634.62
345.487	661.62
345.714	619.62
345.942	631.62
346.17	593.62
346.397	629.62
346.625	614.62
346.853	605.62
347.08	634.62
347.308	635.62
347.535	635.62
347.763	610.62
347.99	606.62
348.218	613.62
348.445	592.62
348.673	615.62
348.9	603.62
349.128	600.62
349.355	597.62
349.583	592.62
349.81	577.62
350.037	600.62
350.265	601.62
350.492	590.62
350.72	589.62
350.947	575.62
351.174	572.62
351.402	588.62
351.629	599.62
351.856	591.62
352.083	596.62
352.311	587.62
352.538	586.62
352.765	592.62
352.992	586.62
353.22	577.62
353.447	574.62
353.674	568.62
353.901	563.62
354.128	581.62
354.355	569.62
354.583	596.62
354.81	591.62
355.037	597.62
355.264	619.62
355.491	599.62
355.718	580.62
355.945	591.62
356.172	584.62
356.399	599.62
356.626	598.62
356.853	586.62
357.08	571.62
357.307	607.62
357.534	581.62
357.761	601.62
357.988	594.62
358.215	594.62
358.441	597.62
358.668	609.62
358.895	604.62
359.122	589.62
359.349	609.62
359.576	592.62
359.802	586.62
360.029	591.62
360.256	591.62
360.483	591.62
360.709	620.62
360.936	607.62
361.163	589.62
361.39	609.62
361.616	599.62
361.843	598.62
362.07	589.62
362.296	612.62
362.523	590.62
362.749	594.62
362.976	583.62
363.203	594.62
363.429	574.62
363.656	599.62
363.882	595.62
364.109	605.62
364.335	591.62
364.562	567.62
364.788	578.62
365.015	597.62
365.241	601.62
365.468	567.62
365.694	592.62
365.92	571.62
366.147	583.62
366.373	593.62
366.599	584.62
366.826	581.62
367.052	586.62
367.278	611.62
367.505	598.62
367.731	576.62
367.957	582.62
368.184	594.62
368.41	600.62
368.636	604.62
368.862	613.62
369.089	588.62
369.315	601.62
369.541	611.62
369.767	616.62
369.993	611.62
370.219	611.62
370.445	629.62
370.672	626.62
370.898	616.62
371.124	631.62
371.35	649.62
371.576	661.62
371.802	647.62
372.028	652.62
372.254	662.62
372.48	667.62
372.706	654.62
372.932	671.62
373.158	667.62
373.384	679.62
373.61	642.62
373.835	642.62
374.061	644.62
374.287	675.62
374.513	669.62
374.739	679.62
374.965	705.62
375.191	733.62
375.416	711.62
375.642	681.62
375.868	667.62
376.094	680.62
376.319	653.62
376.545	666.62
376.771	635.62
376.997	633.62
377.222	671.62
377.448	639.62
377.674	651.62
377.899	640.62
378.125	637.62
378.35	642.62
378.576	658.62
378.802	639.62
379.027	643.62
379.253	653.62
379.478	636.62
379.704	621.62
379.929	635.62
380.155	649.62
380.38	643.62
380.606	614.62
380.831	639.62
381.057	617.62
381.282	631.62
381.507	615.62
381.733	622.62
381.958	672.62
382.184	681.62
382.409	682.62
382.634	665.62
382.86	684.62
383.085	689.62
383.31	694.62
383.535	695.62
383.761	750.62
383.986	740.62
384.211	748.62
384.436	774.62
384.662	765.62
384.887	783.62
385.112	759.62
385.337	803.62
385.562	804.62
385.787	816.62
386.013	780.62
386.238	801.62
386.463	761.62
386.688	796.62
386.913	796.62
387.138	751.62
387.363	770.62
387.588	773.62
387.813	777.62
388.038	766.62
388.263	775.62
388.488	798.62
388.713	777.62
388.938	766.62
389.163	760.62
389.387	758.62
389.612	718.62
389.837	783.62
390.062	759.62
390.287	777.62
390.512	746.62
390.736	769.62
390.961	772.62
391.186	796.62
391.411	813.62
391.636	865.62
391.86	868.62
392.085	895.62
392.31	887.62
392.534	870.62
392.759	835.62
392.984	809.62
393.208	819.62
393.433	817.62
393.658	829.62
393.882	874.62
394.107	816.62
394.331	843.62
394.556	845.62
394.78	841.62
395.005	865.62
395.229	849.62
395.454	890.62
395.678	889.62
395.903	889.62
396.127	874.62
396.352	833.62
396.576	817.62
396.801	828.62
397.025	829.62
397.249	813.62
397.474	889.62
397.698	858.62
397.922	834.62
398.147	875.62
398.371	900.62
398.595	919.62
398.82	954.62
399.044	1004.62
399.268	1146.62
399.492	1351.62
399.717	1529.62
399.941	1479.62
400.165	1305.62
400.389	1142.62
400.613	1065.62
400.837	1006.62
401.062	984.62
401.286	965.62
401.51	991.62
401.734	951.62
401.958	983.62
402.182	1009.62
402.406	982.62
402.63	1030.62
402.854	1040.62
403.078	1073.62
403.302	1092.62
403.526	1115.62
403.75	1146.62
403.974	1165.62
404.198	1162.62
404.422	1148.62
404.645	1154.62
404.869	1107.62
405.093	1141.62
405.317	1102.62
405.541	1049.62
405.765	1083.62
405.988	1054.62
406.212	1082.62
406.436	1078.62
406.66	1104.62
406.883	1133.62
407.107	1201.62
407.331	1218.62
407.555	1247.62
407.778	1271.62
408.002	1209.62
408.226	1198.62
408.449	1189.62
408.673	1137.62
408.896	1093.62
409.12	1070.62
409.344	1085.62
409.567	1124.62
409.791	1122.62
410.014	1098.62
410.238	1109.62
410.461	1100.62
410.685	1100.62
410.908	1059.62
411.132	1030.62
411.355	1038.62
411.578	1019.62
411.802	1033.62
412.025	1003.62
412.249	1019.62
412.472	1005.62
412.695	996.62
412.919	974.62
413.142	987.62
413.365	970.62
413.589	991.62
413.812	970.62
414.035	963.62
414.258	956.62
414.482	966.62
414.705	1011.62
414.928	1015.62
415.151	974.62
415.374	991.62
415.597	988.62
415.821	954.62
416.044	939.62
416.267	932.62
416.49	937.62
416.713	945.62
416.936	933.62
417.159	953.62
417.382	950.62
417.605	956.62
417.828	959.62
418.051	983.62
418.274	999.62
418.497	953.62
418.72	993.62
418.943	995.62
419.166	1030.62
419.389	1102.62
419.611	1061.62
419.834	1053.62
420.057	1022.62
420.28	995.62
420.503	951.62
420.726	964.62
420.948	971.62
421.171	946.62
421.394	943.62
421.617	921.62
421.839	963.62
422.062	945.62
422.285	974.62
422.507	972.62
422.73	1004.62
422.953	1016.62
423.175	988.62
423.398	1039.62
423.621	998.62
423.843	1036.62
424.066	1040.62
424.288	1052.62
424.511	1004.62
424.733	986.62
424.956	1022.62
425.178	987.62
425.401	954.62
425.623	956.62
425.846	926.62
426.068	935.62
426.291	903.62
426.513	906.62
426.735	896.62
426.958	884.62
427.18	888.62
427.402	880.62
427.625	833.62
427.847	834.62
428.069	857.62
428.292	859.62
428.514	844.62
428.736	825.62
428.958	861.62
429.181	828.62
429.403	840.62
429.625	828.62
429.847	844.62
430.069	834.62
430.292	815.62
430.514	808.62
430.736	832.62
430.958	836.62
431.18	822.62
431.402	842.62
431.624	843.62
431.846	833.62
432.068	871.62
432.29	870.62
432.512	847.62
432.734	858.62
432.956	847.62
433.178	859.62
433.4	847.62
433.622	823.62
433.844	853.62
434.066	869.62
434.287	900.62
434.509	905.62
434.731	901.62
434.953	972.62
435.175	952.62
435.397	959.62
435.618	897.62
435.84	883.62
436.062	887.62
436.284	822.62
436.505	852.62
436.727	855.62
436.949	867.62
437.17	854.62
437.392	855.62
437.614	836.62
437.835	811.62
438.057	825.62
438.278	803.62
438.5	802.62
438.721	790.62
438.943	825.62
439.165	849.62
439.386	820.62
439.608	843.62
439.829	861.62
440.05	846.62
440.272	850.62
440.493	843.62
440.715	875.62
440.936	880.62
441.158	908.62
441.379	911.62
441.6	986.62
441.822	951.62
442.043	938.62
442.264	938.62
442.486	920.62
442.707	950.62
442.928	948.62
443.149	968.62
443.371	929.62
443.592	930.62
443.813	961.62
444.034	973.62
444.255	1006.62
444.476	1044.62
444.698	1103.62
444.919	1155.62
445.14	1207.62
445.361	1073.62
445.582	984.62
445.803	974.62
446.024	897.62
446.245	881.62
446.466	872.62
446.687	858.62
446.908	847.62
447.129	842.62
447.35	824.62
447.571	822.62
447.792	789.62
448.013	817.62
448.234	793.62
448.455	784.62
448.675	782.62
448.896	802.62
449.117	764.62
449.338	787.62
449.559	785.62
449.779	794.62
450	791.62
450.221	792.62
450.442	781.62
450.662	769.62
450.883	811.62
451.104	814.62
451.324	819.62
451.545	804.62
451.766	777.62
451.986	765.62
452.207	783.62
452.428	775.62
452.648	779.62
452.869	767.62
453.089	773.62
453.31	769.62
453.53	756.62
453.751	759.62
453.971	756.62
454.192	768.62
454.412	738.62
454.633	764.62
454.853	748.62
455.073	758.62
455.294	752.62
455.514	737.62
455.734	733.62
455.955	701.62
456.175	718.62
456.395	730.62
456.616	696.62
456.836	721.62
457.056	745.62
457.276	693.62
457.497	746.62
457.717	718.62
457.937	712.62
458.157	739.62
458.377	752.62
458.598	767.62
458.818	787.62
459.038	800.62
459.258	819.62
459.478	867.62
459.698	889.62
459.918	901.62
460.138	929.62
460.358	991.62
460.578	1011.62
460.798	1027.62
461.018	1033.62
461.238	1020.62
461.458	989.62
461.678	1010.62
461.898	1003.62
462.118	1024.62
462.338	1102.62
462.558	1112.62
462.777	1173.62
462.997	1231.62
463.217	1371.62
463.437	1432.62
463.657	1237.62
463.876	1181.62
464.096	1181.62
464.316	1153.62
464.536	1140.62
464.755	1158.62
464.975	1099.62
465.195	1024.62
465.414	976.62
465.634	900.62
465.854	882.62
466.073	881.62
466.293	850.62
466.512	839.62
466.732	835.62
466.951	831.62
467.171	814.62
467.391	823.62
467.61	808.62
467.829	797.62
468.049	782.62
468.268	806.62
468.488	788.62
468.707	778.62
468.927	803.62
469.146	794.62
469.365	792.62
469.585	772.62
469.804	815.62
470.023	830.62
470.243	821.62
470.462	821.62
470.681	847.62
470.901	836.62
471.12	833.62
471.339	823.62
471.558	818.62
471.777	775.62
471.997	796.62
472.216	785.62
472.435	776.62
472.654	770.62
472.873	773.62
473.092	764.62
473.311	766.62
473.53	737.62
473.749	750.62
473.968	754.62
474.187	750.62
474.406	755.62
474.625	766.62
474.844	761.62
475.063	775.62
475.282	771.62
475.501	766.62
475.72	787.62
475.939	763.62
476.158	784.62
476.377	802.62
476.596	784.62
476.814	798.62
477.033	790.62
477.252	814.62
477.471	814.62
477.69	850.62
477.908	908.62
478.127	885.62
478.346	899.62
478.564	920.62
478.783	976.62
479.002	938.62
479.22	957.62
479.439	947.62
479.658	921.62
479.876	948.62
480.095	981.62
480.313	991.62
480.532	1026.62
480.751	1045.62
480.969	971.62
481.188	945.62
481.406	927.62
481.624	896.62
481.843	878.62
482.061	866.62
482.28	842.62
482.498	849.62
482.717	852.62
482.935	825.62
483.153	858.62
483.372	844.62
483.59	834.62
483.808	853.62
484.027	848.62
484.245	870.62
484.463	841.62
484.681	883.62
484.9	917.62
485.118	904.62
485.336	908.62
485.554	892.62
485.772	897.62
485.99	941.62
486.209	915.62
486.427	919.62
486.645	926.62
486.863	901.62
487.081	899.62
487.299	906.62
487.517	909.62
487.735	901.62
487.953	912.62
488.171	894.62
488.389	902.62
488.607	896.62
488.825	903.62
489.043	920.62
489.261	892.62
489.479	907.62
489.696	920.62
489.914	895.62
490.132	898.62
490.35	905.62
490.568	898.62
490.786	891.62
491.003	921.62
491.221	912.62
491.439	894.62
491.657	928.62
491.874	933.62
492.092	914.62
492.31	931.62
492.527	946.62
492.745	904.62
492.963	925.62
493.18	958.62
493.398	914.62
493.615	936.62
493.833	974.62
494.05	950.62
494.268	945.62
494.485	929.62
494.703	970.62
494.92	973.62
495.138	947.62
495.355	936.62
495.573	958.62
495.79	969.62
496.008	966.62
496.225	967.62
496.442	995.62
496.66	1027.62
496.877	1000.62
497.094	999.62
497.312	1037.62
497.529	1060.62
497.746	1090.62
497.963	1086.62
498.181	1161.62
498.398	1225.62
498.615	1306.62
498.832	1402.62
499.049	1499.62
499.267	1618.62
499.484	1766.62
499.701	1954.62
499.918	2146.62
