Data from Ni(NO3)2@0.125M.TitratingCurve.Agarose3%dH2O.NegLispCup.LampEnergy10.LIBS07252019_HRD10591_18-08-59-567.txt Node
Date: Thu Jul 25 18:08:59 EDT 2019
User: cochatt
Spectrometer: HR+D1059
Trigger mode: 1
Integration Time (sec): 1.000000E-1
Scans to average: 1
Electric dark correction enabled: true
Nonlinearity correction enabled: false
Boxcar width: 0
XAxis mode: Wavelengths
Number of Pixels in Spectrum: 2048
>>>>>Begin Spectral Data<<<<<
223.165	-17.25
223.4	-17.25
223.635	-17.25
223.869	-22.25
224.104	-9.25
224.338	-19.25
224.573	-11.25
224.808	-11.25
225.042	-12.25
225.277	-6.25
225.511	-8.25
225.746	5.75
225.98	16.75
226.215	6.75
226.449	7.75
226.683	14.75
226.918	33.75
227.152	31.75
227.387	39.75
227.621	39.75
227.856	53.75
228.09	39.75
228.324	49.75
228.559	57.75
228.793	64.75
229.027	96.75
229.262	106.75
229.496	111.75
229.73	122.75
229.964	132.75
230.199	148.75
230.433	145.75
230.667	146.75
230.901	149.75
231.136	131.75
231.37	109.75
231.604	136.75
231.838	147.75
232.072	157.75
232.306	150.75
232.541	146.75
232.775	134.75
233.009	137.75
233.243	141.75
233.477	138.75
233.711	145.75
233.945	150.75
234.179	148.75
234.413	163.75
234.647	161.75
234.881	161.75
235.115	150.75
235.349	156.75
235.583	143.75
235.817	135.75
236.051	151.75
236.285	148.75
236.519	138.75
236.753	156.75
236.987	138.75
237.221	154.75
237.455	153.75
237.689	151.75
237.922	178.75
238.156	162.75
238.39	152.75
238.624	156.75
238.858	170.75
239.091	168.75
239.325	157.75
239.559	165.75
239.793	164.75
240.027	156.75
240.26	168.75
240.494	170.75
240.728	163.75
240.961	171.75
241.195	175.75
241.429	167.75
241.662	194.75
241.896	189.75
242.13	201.75
242.363	193.75
242.597	188.75
242.83	176.75
243.064	196.75
243.298	182.75
243.531	175.75
243.765	197.75
243.998	181.75
244.232	196.75
244.465	196.75
244.699	196.75
244.932	221.75
245.166	206.75
245.399	200.75
245.633	206.75
245.866	201.75
246.099	195.75
246.333	214.75
246.566	206.75
246.8	209.75
247.033	217.75
247.266	219.75
247.5	225.75
247.733	232.75
247.966	235.75
248.2	230.75
248.433	223.75
248.666	225.75
248.899	212.75
249.133	222.75
249.366	213.75
249.599	232.75
249.832	232.75
250.066	221.75
250.299	228.75
250.532	250.75
250.765	257.75
250.998	267.75
251.231	248.75
251.465	259.75
251.698	245.75
251.931	244.75
252.164	254.75
252.397	256.75
252.63	266.75
252.863	259.75
253.096	262.75
253.329	268.75
253.562	255.75
253.795	273.75
254.028	271.75
254.261	266.75
254.494	269.75
254.727	277.75
254.96	264.75
255.193	280.75
255.426	277.75
255.659	288.75
255.892	258.75
256.124	281.75
256.357	281.75
256.59	286.75
256.823	278.75
257.056	295.75
257.289	291.75
257.521	287.75
257.754	300.75
257.987	296.75
258.22	292.75
258.452	285.75
258.685	303.75
258.918	299.75
259.151	303.75
259.383	321.75
259.616	303.75
259.849	309.75
260.081	306.75
260.314	312.75
260.547	303.75
260.779	310.75
261.012	321.75
261.244	329.75
261.477	314.75
261.71	309.75
261.942	316.75
262.175	322.75
262.407	299.75
262.64	304.75
262.872	320.75
263.105	333.75
263.337	326.75
263.57	333.75
263.802	318.75
264.035	325.75
264.267	335.75
264.499	332.75
264.732	341.75
264.964	337.75
265.197	340.75
265.429	347.75
265.661	344.75
265.894	353.75
266.126	352.75
266.358	369.75
266.591	347.75
266.823	357.75
267.055	348.75
267.287	367.75
267.52	367.75
267.752	362.75
267.984	358.75
268.216	353.75
268.448	361.75
268.681	370.75
268.913	369.75
269.145	357.75
269.377	363.75
269.609	353.75
269.841	364.75
270.073	352.75
270.306	376.75
270.538	372.75
270.77	365.75
271.002	371.75
271.234	358.75
271.466	379.75
271.698	371.75
271.93	388.75
272.162	368.75
272.394	395.75
272.626	367.75
272.858	384.75
273.09	393.75
273.322	414.75
273.553	407.75
273.785	390.75
274.017	409.75
274.249	361.75
274.481	393.75
274.713	397.75
274.945	403.75
275.176	406.75
275.408	420.75
275.64	396.75
275.872	399.75
276.104	410.75
276.335	410.75
276.567	374.75
276.799	397.75
277.031	411.75
277.262	405.75
277.494	415.75
277.726	428.75
277.957	421.75
278.189	420.75
278.421	416.75
278.652	422.75
278.884	420.75
279.115	423.75
279.347	402.75
279.579	415.75
279.81	416.75
280.042	423.75
280.273	428.75
280.505	440.75
280.736	431.75
280.968	435.75
281.199	450.75
281.431	447.75
281.662	461.75
281.894	418.75
282.125	451.75
282.356	467.75
282.588	445.75
282.819	465.75
283.051	456.75
283.282	442.75
283.513	452.75
283.745	455.75
283.976	474.75
284.207	443.75
284.439	447.75
284.67	461.75
284.901	472.75
285.132	485.75
285.364	457.75
285.595	461.75
285.826	470.75
286.057	491.75
286.288	467.75
286.52	466.75
286.751	489.75
286.982	480.75
287.213	495.75
287.444	497.75
287.675	484.75
287.906	499.75
288.138	500.75
288.369	498.75
288.6	492.75
288.831	524.75
289.062	487.75
289.293	482.75
289.524	495.75
289.755	516.75
289.986	502.75
290.217	495.75
290.448	452.75
290.679	480.75
290.91	499.75
291.141	511.75
291.371	513.75
291.602	509.75
291.833	497.75
292.064	490.75
292.295	501.75
292.526	481.75
292.757	474.75
292.987	514.75
293.218	486.75
293.449	503.75
293.68	507.75
293.91	531.75
294.141	496.75
294.372	518.75
294.603	497.75
294.833	499.75
295.064	525.75
295.295	500.75
295.525	489.75
295.756	498.75
295.987	507.75
296.217	534.75
296.448	523.75
296.679	521.75
296.909	519.75
297.14	541.75
297.37	543.75
297.601	512.75
297.831	552.75
298.062	535.75
298.292	571.75
298.523	567.75
298.753	588.75
298.984	544.75
299.214	560.75
299.445	559.75
299.675	553.75
299.905	572.75
300.136	541.75
300.366	590.75
300.597	584.75
300.827	564.75
301.057	578.75
301.288	583.75
301.518	579.75
301.748	584.75
301.979	550.75
302.209	587.75
302.439	571.75
302.669	588.75
302.9	551.75
303.13	562.75
303.36	567.75
303.59	554.75
303.82	580.75
304.051	579.75
304.281	566.75
304.511	572.75
304.741	572.75
304.971	560.75
305.201	559.75
305.431	571.75
305.661	583.75
305.891	549.75
306.121	548.75
306.352	580.75
306.582	551.75
306.812	562.75
307.042	550.75
307.272	556.75
307.502	560.75
307.731	549.75
307.961	571.75
308.191	569.75
308.421	566.75
308.651	554.75
308.881	561.75
309.111	575.75
309.341	570.75
309.571	550.75
309.8	537.75
310.03	567.75
310.26	547.75
310.49	565.75
310.72	560.75
310.949	556.75
311.179	556.75
311.409	550.75
311.639	567.75
311.868	572.75
312.098	588.75
312.328	562.75
312.557	561.75
312.787	546.75
313.017	589.75
313.246	595.75
313.476	581.75
313.706	606.75
313.935	603.75
314.165	598.75
314.394	601.75
314.624	624.75
314.853	580.75
315.083	597.75
315.312	601.75
315.542	597.75
315.771	587.75
316.001	585.75
316.23	616.75
316.46	598.75
316.689	593.75
316.919	565.75
317.148	576.75
317.377	589.75
317.607	552.75
317.836	574.75
318.065	611.75
318.295	577.75
318.524	574.75
318.753	588.75
318.983	592.75
319.212	580.75
319.441	588.75
319.67	597.75
319.9	576.75
320.129	580.75
320.358	573.75
320.587	598.75
320.816	595.75
321.046	575.75
321.275	578.75
321.504	602.75
321.733	613.75
321.962	583.75
322.191	581.75
322.42	598.75
322.649	610.75
322.878	593.75
323.108	623.75
323.337	623.75
323.566	625.75
323.795	604.75
324.024	609.75
324.253	625.75
324.482	602.75
324.71	607.75
324.939	619.75
325.168	625.75
325.397	631.75
325.626	638.75
325.855	649.75
326.084	668.75
326.313	682.75
326.542	652.75
326.77	679.75
326.999	644.75
327.228	641.75
327.457	659.75
327.686	672.75
327.914	668.75
328.143	666.75
328.372	660.75
328.6	670.75
328.829	673.75
329.058	657.75
329.287	653.75
329.515	666.75
329.744	686.75
329.972	671.75
330.201	658.75
330.43	679.75
330.658	666.75
330.887	684.75
331.115	711.75
331.344	702.75
331.572	723.75
331.801	723.75
332.03	712.75
332.258	737.75
332.486	742.75
332.715	789.75
332.943	837.75
333.172	863.75
333.4	892.75
333.629	940.75
333.857	901.75
334.085	913.75
334.314	874.75
334.542	887.75
334.771	855.75
334.999	836.75
335.227	852.75
335.455	826.75
335.684	827.75
335.912	807.75
336.14	789.75
336.369	805.75
336.597	817.75
336.825	828.75
337.053	837.75
337.281	800.75
337.51	795.75
337.738	769.75
337.966	731.75
338.194	748.75
338.422	731.75
338.65	748.75
338.878	701.75
339.106	743.75
339.334	714.75
339.562	737.75
339.79	699.75
340.018	711.75
340.246	684.75
340.474	697.75
340.702	680.75
340.93	703.75
341.158	717.75
341.386	746.75
341.614	755.75
341.842	729.75
342.07	693.75
342.298	708.75
342.526	709.75
342.754	732.75
342.981	706.75
343.209	725.75
343.437	746.75
343.665	801.75
343.893	841.75
344.12	880.75
344.348	852.75
344.576	797.75
344.804	777.75
345.031	737.75
345.259	730.75
345.487	713.75
345.714	704.75
345.942	711.75
346.17	724.75
346.397	695.75
346.625	694.75
346.853	681.75
347.08	712.75
347.308	703.75
347.535	693.75
347.763	713.75
347.99	698.75
348.218	707.75
348.445	682.75
348.673	701.75
348.9	697.75
349.128	695.75
349.355	672.75
349.583	693.75
349.81	675.75
350.037	656.75
350.265	672.75
350.492	668.75
350.72	665.75
350.947	651.75
351.174	671.75
351.402	659.75
351.629	693.75
351.856	684.75
352.083	662.75
352.311	656.75
352.538	674.75
352.765	681.75
352.992	628.75
353.22	650.75
353.447	647.75
353.674	664.75
353.901	632.75
354.128	651.75
354.355	633.75
354.583	666.75
354.81	650.75
355.037	672.75
355.264	680.75
355.491	649.75
355.718	645.75
355.945	664.75
356.172	679.75
356.399	662.75
356.626	677.75
356.853	669.75
357.08	644.75
357.307	667.75
357.534	652.75
357.761	676.75
357.988	663.75
358.215	659.75
358.441	661.75
358.668	641.75
358.895	666.75
359.122	631.75
359.349	671.75
359.576	642.75
359.802	678.75
360.029	654.75
360.256	664.75
360.483	658.75
360.709	654.75
360.936	651.75
361.163	648.75
361.39	654.75
361.616	645.75
361.843	669.75
362.07	669.75
362.296	671.75
362.523	671.75
362.749	665.75
362.976	671.75
363.203	635.75
363.429	630.75
363.656	639.75
363.882	646.75
364.109	642.75
364.335	667.75
364.562	663.75
364.788	660.75
365.015	668.75
365.241	651.75
365.468	642.75
365.694	632.75
365.92	615.75
366.147	630.75
366.373	628.75
366.599	638.75
366.826	641.75
367.052	650.75
367.278	647.75
367.505	660.75
367.731	649.75
367.957	670.75
368.184	669.75
368.41	676.75
368.636	656.75
368.862	676.75
369.089	663.75
369.315	670.75
369.541	667.75
369.767	681.75
369.993	670.75
370.219	681.75
370.445	671.75
370.672	666.75
370.898	691.75
371.124	675.75
371.35	700.75
371.576	707.75
371.802	710.75
372.028	691.75
372.254	691.75
372.48	712.75
372.706	716.75
372.932	736.75
373.158	734.75
373.384	702.75
373.61	711.75
373.835	711.75
374.061	682.75
374.287	706.75
374.513	728.75
374.739	739.75
374.965	786.75
375.191	810.75
375.416	800.75
375.642	778.75
375.868	767.75
376.094	723.75
376.319	720.75
376.545	699.75
376.771	722.75
376.997	700.75
377.222	695.75
377.448	719.75
377.674	696.75
377.899	673.75
378.125	703.75
378.35	723.75
378.576	702.75
378.802	713.75
379.027	711.75
379.253	700.75
379.478	675.75
379.704	683.75
379.929	699.75
380.155	699.75
380.38	696.75
380.606	691.75
380.831	688.75
381.057	720.75
381.282	701.75
381.507	692.75
381.733	673.75
381.958	691.75
382.184	719.75
382.409	714.75
382.634	734.75
382.86	732.75
383.085	738.75
383.31	733.75
383.535	755.75
383.761	800.75
383.986	781.75
384.211	807.75
384.436	824.75
384.662	821.75
384.887	831.75
385.112	832.75
385.337	839.75
385.562	840.75
385.787	839.75
386.013	844.75
386.238	860.75
386.463	858.75
386.688	852.75
386.913	841.75
387.138	820.75
387.363	826.75
387.588	827.75
387.813	833.75
388.038	832.75
388.263	802.75
388.488	835.75
388.713	792.75
388.938	818.75
389.163	833.75
389.387	819.75
389.612	826.75
389.837	808.75
390.062	796.75
390.287	809.75
390.512	798.75
390.736	828.75
390.961	835.75
391.186	860.75
391.411	887.75
391.636	875.75
391.86	915.75
392.085	969.75
392.31	942.75
392.534	906.75
392.759	927.75
392.984	905.75
393.208	871.75
393.433	869.75
393.658	872.75
393.882	884.75
394.107	915.75
394.331	889.75
394.556	903.75
394.78	901.75
395.005	896.75
395.229	896.75
395.454	914.75
395.678	950.75
395.903	923.75
396.127	906.75
396.352	899.75
396.576	868.75
396.801	881.75
397.025	880.75
397.249	906.75
397.474	919.75
397.698	928.75
397.922	932.75
398.147	899.75
398.371	908.75
398.595	976.75
398.82	1026.75
399.044	1056.75
399.268	1166.75
399.492	1369.75
399.717	1625.75
399.941	1619.75
400.165	1425.75
400.389	1243.75
400.613	1148.75
400.837	1088.75
401.062	1043.75
401.286	1025.75
401.51	1009.75
401.734	1010.75
401.958	1074.75
402.182	1084.75
402.406	1103.75
402.63	1094.75
402.854	1135.75
403.078	1143.75
403.302	1180.75
403.526	1179.75
403.75	1223.75
403.974	1223.75
404.198	1228.75
404.422	1256.75
404.645	1256.75
404.869	1190.75
405.093	1203.75
405.317	1213.75
405.541	1155.75
405.765	1170.75
405.988	1127.75
406.212	1125.75
406.436	1132.75
406.66	1171.75
406.883	1192.75
407.107	1270.75
407.331	1305.75
407.555	1405.75
407.778	1377.75
408.002	1328.75
408.226	1291.75
408.449	1292.75
408.673	1188.75
408.896	1195.75
409.12	1198.75
409.344	1209.75
409.567	1232.75
409.791	1247.75
410.014	1254.75
410.238	1206.75
410.461	1191.75
410.685	1175.75
410.908	1135.75
411.132	1141.75
411.355	1115.75
411.578	1091.75
411.802	1093.75
412.025	1099.75
412.249	1125.75
412.472	1129.75
412.695	1087.75
412.919	1073.75
413.142	1047.75
413.365	1040.75
413.589	1067.75
413.812	1045.75
414.035	1043.75
414.258	1029.75
414.482	1031.75
414.705	1082.75
414.928	1068.75
415.151	1069.75
415.374	1057.75
415.597	1062.75
415.821	1058.75
416.044	1051.75
416.267	1036.75
416.49	1042.75
416.713	1026.75
416.936	1054.75
417.159	1033.75
417.382	1028.75
417.605	1048.75
417.828	1075.75
418.051	1064.75
418.274	1057.75
418.497	1040.75
418.72	1076.75
418.943	1104.75
419.166	1171.75
419.389	1232.75
419.611	1213.75
419.834	1163.75
420.057	1098.75
420.28	1064.75
420.503	1044.75
420.726	1060.75
420.948	1053.75
421.171	1038.75
421.394	1057.75
421.617	1027.75
421.839	1065.75
422.062	1083.75
422.285	1030.75
422.507	1099.75
422.73	1089.75
422.953	1089.75
423.175	1125.75
423.398	1132.75
423.621	1129.75
423.843	1151.75
424.066	1142.75
424.288	1138.75
424.511	1149.75
424.733	1131.75
424.956	1089.75
425.178	1067.75
425.401	1060.75
425.623	1064.75
425.846	1043.75
426.068	1034.75
426.291	1049.75
426.513	975.75
426.735	1016.75
426.958	983.75
427.18	961.75
427.402	961.75
427.625	964.75
427.847	936.75
428.069	968.75
428.292	981.75
428.514	947.75
428.736	961.75
428.958	961.75
429.181	900.75
429.403	950.75
429.625	944.75
429.847	930.75
430.069	953.75
430.292	919.75
430.514	922.75
430.736	952.75
430.958	933.75
431.18	915.75
431.402	923.75
431.624	953.75
431.846	951.75
432.068	967.75
432.29	972.75
432.512	944.75
432.734	969.75
432.956	939.75
433.178	964.75
433.4	956.75
433.622	962.75
433.844	966.75
434.066	978.75
434.287	998.75
434.509	1023.75
434.731	1051.75
434.953	1103.75
435.175	1119.75
435.397	1088.75
435.618	1055.75
435.84	1009.75
436.062	961.75
436.284	941.75
436.505	965.75
436.727	981.75
436.949	989.75
437.17	988.75
437.392	957.75
437.614	930.75
437.835	917.75
438.057	925.75
438.278	903.75
438.5	906.75
438.721	928.75
438.943	933.75
439.165	907.75
439.386	960.75
439.608	979.75
439.829	921.75
440.05	966.75
440.272	978.75
440.493	977.75
440.715	990.75
440.936	1015.75
441.158	1056.75
441.379	1009.75
441.6	1145.75
441.822	1122.75
442.043	1102.75
442.264	1083.75
442.486	1083.75
442.707	1078.75
442.928	1084.75
443.149	1067.75
443.371	1080.75
443.592	1089.75
443.813	1111.75
444.034	1104.75
444.255	1135.75
444.476	1194.75
444.698	1293.75
444.919	1333.75
445.14	1449.75
445.361	1243.75
445.582	1138.75
445.803	1026.75
446.024	1009.75
446.245	1020.75
446.466	988.75
446.687	985.75
446.908	978.75
447.129	978.75
447.35	970.75
447.571	946.75
447.792	923.75
448.013	929.75
448.234	909.75
448.455	902.75
448.675	902.75
448.896	920.75
449.117	864.75
449.338	880.75
449.559	872.75
449.779	856.75
450	867.75
450.221	891.75
450.442	897.75
450.662	871.75
450.883	931.75
451.104	937.75
451.324	928.75
451.545	955.75
451.766	925.75
451.986	927.75
452.207	891.75
452.428	904.75
452.648	922.75
452.869	877.75
453.089	865.75
453.31	892.75
453.53	857.75
453.751	885.75
453.971	849.75
454.192	859.75
454.412	851.75
454.633	838.75
454.853	865.75
455.073	850.75
455.294	850.75
455.514	850.75
455.734	859.75
455.955	857.75
456.175	827.75
456.395	839.75
456.616	824.75
456.836	841.75
457.056	809.75
457.276	824.75
457.497	840.75
457.717	808.75
457.937	816.75
458.157	843.75
458.377	861.75
458.598	857.75
458.818	891.75
459.038	895.75
459.258	907.75
459.478	985.75
459.698	1062.75
459.918	1036.75
460.138	1097.75
460.358	1158.75
460.578	1141.75
460.798	1145.75
461.018	1167.75
461.238	1156.75
461.458	1141.75
461.678	1120.75
461.898	1147.75
462.118	1150.75
462.338	1213.75
462.558	1263.75
462.777	1274.75
462.997	1401.75
463.217	1574.75
463.437	1608.75
463.657	1439.75
463.876	1376.75
464.096	1375.75
464.316	1372.75
464.536	1376.75
464.755	1299.75
464.975	1222.75
465.195	1193.75
465.414	1114.75
465.634	1043.75
465.854	1022.75
466.073	979.75
466.293	999.75
466.512	965.75
466.732	940.75
466.951	934.75
467.171	930.75
467.391	958.75
467.61	953.75
467.829	959.75
468.049	943.75
468.268	864.75
468.488	885.75
468.707	860.75
468.927	887.75
469.146	879.75
469.365	931.75
469.585	919.75
469.804	918.75
470.023	939.75
470.243	932.75
470.462	980.75
470.681	953.75
470.901	968.75
471.12	970.75
471.339	939.75
471.558	918.75
471.777	927.75
471.997	895.75
472.216	864.75
472.435	894.75
472.654	894.75
472.873	850.75
473.092	845.75
473.311	868.75
473.53	887.75
473.749	871.75
473.968	857.75
474.187	848.75
474.406	857.75
474.625	876.75
474.844	870.75
475.063	860.75
475.282	881.75
475.501	873.75
475.72	871.75
475.939	876.75
476.158	882.75
476.377	935.75
476.596	906.75
476.814	916.75
477.033	904.75
477.252	963.75
477.471	972.75
477.69	996.75
477.908	1004.75
478.127	1053.75
478.346	1034.75
478.564	1058.75
478.783	1080.75
479.002	1131.75
479.22	1135.75
479.439	1113.75
479.658	1100.75
479.876	1078.75
480.095	1096.75
480.313	1132.75
480.532	1213.75
480.751	1183.75
480.969	1115.75
481.188	1089.75
481.406	1044.75
481.624	1023.75
481.843	1007.75
482.061	1010.75
482.28	1020.75
482.498	1010.75
482.717	986.75
482.935	992.75
483.153	1027.75
483.372	1033.75
483.59	1004.75
483.808	1010.75
484.027	995.75
484.245	1007.75
484.463	1006.75
484.681	1036.75
484.9	1051.75
485.118	1030.75
485.336	1048.75
485.554	1044.75
485.772	1064.75
485.99	1079.75
486.209	1100.75
486.427	1073.75
486.645	1077.75
486.863	1062.75
487.081	1075.75
487.299	1090.75
487.517	1074.75
487.735	1076.75
487.953	1069.75
488.171	1059.75
488.389	1025.75
488.607	1045.75
488.825	1050.75
489.043	1047.75
489.261	1046.75
489.479	1052.75
489.696	1059.75
489.914	1041.75
490.132	1081.75
490.35	1076.75
490.568	1037.75
490.786	1047.75
491.003	1066.75
491.221	1055.75
491.439	1087.75
491.657	1082.75
491.874	1075.75
492.092	1079.75
492.31	1082.75
492.527	1107.75
492.745	1110.75
492.963	1123.75
493.18	1066.75
493.398	1127.75
493.615	1100.75
493.833	1127.75
494.05	1106.75
494.268	1140.75
494.485	1136.75
494.703	1136.75
494.92	1124.75
495.138	1131.75
495.355	1124.75
495.573	1152.75
495.79	1123.75
496.008	1143.75
496.225	1127.75
496.442	1151.75
496.66	1148.75
496.877	1153.75
497.094	1189.75
497.312	1199.75
497.529	1205.75
497.746	1226.75
