Data from Ni(NO3)2@0.5M.TitratingCurve.Agarose3%dH2O.NegLispCup.LampEnergy10.LIBS07252019_HRD10591_17-59-24-564.txt Node
Date: Thu Jul 25 17:59:24 EDT 2019
User: cochatt
Spectrometer: HR+D1059
Trigger mode: 1
Integration Time (sec): 1.000000E-1
Scans to average: 1
Electric dark correction enabled: true
Nonlinearity correction enabled: false
Boxcar width: 0
XAxis mode: Wavelengths
Number of Pixels in Spectrum: 2048
>>>>>Begin Spectral Data<<<<<
223.165	-31.75
223.4	-31.75
223.635	-31.75
223.869	-13.75
224.104	-22.75
224.338	-12.75
224.573	-13.75
224.808	-20.75
225.042	14.25
225.277	-0.75
225.511	-0.75
225.746	0.25
225.98	2.25
226.215	7.25
226.449	7.25
226.683	6.25
226.918	37.25
227.152	42.25
227.387	32.25
227.621	31.25
227.856	48.25
228.09	42.25
228.324	53.25
228.559	62.25
228.793	67.25
229.027	139.25
229.262	142.25
229.496	147.25
229.73	142.25
229.964	178.25
230.199	225.25
230.433	230.25
230.667	188.25
230.901	195.25
231.136	168.25
231.37	163.25
231.604	187.25
231.838	195.25
232.072	212.25
232.306	210.25
232.541	185.25
232.775	185.25
233.009	169.25
233.243	169.25
233.477	164.25
233.711	169.25
233.945	173.25
234.179	188.25
234.413	184.25
234.647	179.25
234.881	169.25
235.115	183.25
235.349	183.25
235.583	166.25
235.817	167.25
236.051	168.25
236.285	161.25
236.519	165.25
236.753	182.25
236.987	161.25
237.221	175.25
237.455	157.25
237.689	175.25
237.922	178.25
238.156	188.25
238.39	172.25
238.624	187.25
238.858	191.25
239.091	181.25
239.325	210.25
239.559	203.25
239.793	218.25
240.027	229.25
240.26	195.25
240.494	199.25
240.728	205.25
240.961	194.25
241.195	192.25
241.429	214.25
241.662	205.25
241.896	243.25
242.13	252.25
242.363	226.25
242.597	231.25
242.83	207.25
243.064	215.25
243.298	227.25
243.531	225.25
243.765	241.25
243.998	251.25
244.232	240.25
244.465	239.25
244.699	226.25
244.932	236.25
245.166	239.25
245.399	243.25
245.633	233.25
245.866	258.25
246.099	240.25
246.333	240.25
246.566	250.25
246.8	257.25
247.033	241.25
247.266	251.25
247.5	269.25
247.733	245.25
247.966	255.25
248.2	255.25
248.433	249.25
248.666	263.25
248.899	252.25
249.133	274.25
249.366	260.25
249.599	268.25
249.832	274.25
250.066	281.25
250.299	274.25
250.532	279.25
250.765	278.25
250.998	282.25
251.231	317.25
251.465	319.25
251.698	309.25
251.931	313.25
252.164	299.25
252.397	298.25
252.63	296.25
252.863	301.25
253.096	294.25
253.329	299.25
253.562	294.25
253.795	291.25
254.028	296.25
254.261	309.25
254.494	322.25
254.727	311.25
254.96	325.25
255.193	317.25
255.426	321.25
255.659	320.25
255.892	316.25
256.124	310.25
256.357	304.25
256.59	337.25
256.823	340.25
257.056	326.25
257.289	323.25
257.521	327.25
257.754	323.25
257.987	338.25
258.22	348.25
258.452	331.25
258.685	339.25
258.918	344.25
259.151	362.25
259.383	367.25
259.616	347.25
259.849	361.25
260.081	355.25
260.314	375.25
260.547	376.25
260.779	363.25
261.012	364.25
261.244	372.25
261.477	392.25
261.71	376.25
261.942	359.25
262.175	371.25
262.407	386.25
262.64	376.25
262.872	348.25
263.105	376.25
263.337	383.25
263.57	386.25
263.802	386.25
264.035	398.25
264.267	392.25
264.499	408.25
264.732	393.25
264.964	405.25
265.197	418.25
265.429	417.25
265.661	400.25
265.894	389.25
266.126	401.25
266.358	413.25
266.591	418.25
266.823	420.25
267.055	420.25
267.287	405.25
267.52	425.25
267.752	421.25
267.984	421.25
268.216	436.25
268.448	407.25
268.681	425.25
268.913	436.25
269.145	407.25
269.377	416.25
269.609	435.25
269.841	424.25
270.073	419.25
270.306	410.25
270.538	443.25
270.77	420.25
271.002	439.25
271.234	456.25
271.466	442.25
271.698	441.25
271.93	464.25
272.162	427.25
272.394	450.25
272.626	426.25
272.858	463.25
273.09	472.25
273.322	460.25
273.553	469.25
273.785	467.25
274.017	440.25
274.249	471.25
274.481	436.25
274.713	460.25
274.945	468.25
275.176	465.25
275.408	489.25
275.64	483.25
275.872	476.25
276.104	461.25
276.335	492.25
276.567	479.25
276.799	466.25
277.031	491.25
277.262	492.25
277.494	496.25
277.726	491.25
277.957	525.25
278.189	497.25
278.421	511.25
278.652	504.25
278.884	498.25
279.115	515.25
279.347	528.25
279.579	513.25
279.81	519.25
280.042	539.25
280.273	521.25
280.505	506.25
280.736	530.25
280.968	531.25
281.199	516.25
281.431	521.25
281.662	543.25
281.894	524.25
282.125	513.25
282.356	508.25
282.588	555.25
282.819	526.25
283.051	522.25
283.282	515.25
283.513	531.25
283.745	564.25
283.976	543.25
284.207	541.25
284.439	550.25
284.67	564.25
284.901	554.25
285.132	564.25
285.364	546.25
285.595	548.25
285.826	531.25
286.057	546.25
286.288	544.25
286.52	563.25
286.751	568.25
286.982	562.25
287.213	569.25
287.444	570.25
287.675	573.25
287.906	590.25
288.138	577.25
288.369	551.25
288.6	585.25
288.831	580.25
289.062	575.25
289.293	567.25
289.524	583.25
289.755	572.25
289.986	593.25
290.217	561.25
290.448	584.25
290.679	596.25
290.91	582.25
291.141	602.25
291.371	619.25
291.602	589.25
291.833	579.25
292.064	583.25
292.295	570.25
292.526	571.25
292.757	583.25
292.987	583.25
293.218	594.25
293.449	602.25
293.68	605.25
293.91	552.25
294.141	553.25
294.372	581.25
294.603	602.25
294.833	594.25
295.064	599.25
295.295	604.25
295.525	587.25
295.756	599.25
295.987	586.25
296.217	613.25
296.448	617.25
296.679	612.25
296.909	616.25
297.14	623.25
297.37	634.25
297.601	635.25
297.831	601.25
298.062	624.25
298.292	637.25
298.523	634.25
298.753	639.25
298.984	649.25
299.214	627.25
299.445	628.25
299.675	663.25
299.905	651.25
300.136	657.25
300.366	684.25
300.597	691.25
300.827	660.25
301.057	668.25
301.288	709.25
301.518	694.25
301.748	669.25
301.979	684.25
302.209	663.25
302.439	670.25
302.669	665.25
302.9	674.25
303.13	637.25
303.36	663.25
303.59	697.25
303.82	689.25
304.051	704.25
304.281	694.25
304.511	673.25
304.741	691.25
304.971	705.25
305.201	706.25
305.431	700.25
305.661	703.25
305.891	695.25
306.121	692.25
306.352	684.25
306.582	703.25
306.812	685.25
307.042	675.25
307.272	681.25
307.502	683.25
307.731	690.25
307.961	649.25
308.191	660.25
308.421	676.25
308.651	700.25
308.881	686.25
309.111	676.25
309.341	659.25
309.571	689.25
309.8	714.25
310.03	729.25
310.26	753.25
310.49	735.25
310.72	733.25
310.949	695.25
311.179	705.25
311.409	695.25
311.639	713.25
311.868	728.25
312.098	699.25
312.328	741.25
312.557	718.25
312.787	717.25
313.017	737.25
313.246	755.25
313.476	759.25
313.706	772.25
313.935	770.25
314.165	722.25
314.394	720.25
314.624	731.25
314.853	752.25
315.083	740.25
315.312	743.25
315.542	763.25
315.771	758.25
316.001	745.25
316.23	743.25
316.46	747.25
316.689	732.25
316.919	753.25
317.148	770.25
317.377	752.25
317.607	761.25
317.836	736.25
318.065	732.25
318.295	765.25
318.524	787.25
318.753	760.25
318.983	772.25
319.212	775.25
319.441	764.25
319.67	779.25
319.9	778.25
320.129	753.25
320.358	767.25
320.587	771.25
320.816	791.25
321.046	781.25
321.275	782.25
321.504	767.25
321.733	772.25
321.962	786.25
322.191	761.25
322.42	801.25
322.649	800.25
322.878	796.25
323.108	788.25
323.337	806.25
323.566	808.25
323.795	781.25
324.024	799.25
324.253	811.25
324.482	809.25
324.71	820.25
324.939	840.25
325.168	831.25
325.397	796.25
325.626	825.25
325.855	857.25
326.084	845.25
326.313	842.25
326.542	854.25
326.77	859.25
326.999	820.25
327.228	845.25
327.457	808.25
327.686	825.25
327.914	813.25
328.143	839.25
328.372	867.25
328.6	838.25
328.829	839.25
329.058	836.25
329.287	831.25
329.515	863.25
329.744	863.25
329.972	835.25
330.201	872.25
330.43	853.25
330.658	880.25
330.887	879.25
331.115	896.25
331.344	888.25
331.572	879.25
331.801	891.25
332.03	877.25
332.258	901.25
332.486	934.25
332.715	917.25
332.943	933.25
333.172	953.25
333.4	964.25
333.629	953.25
333.857	977.25
334.085	964.25
334.314	1013.25
334.542	977.25
334.771	1009.25
334.999	993.25
335.227	995.25
335.455	997.25
335.684	983.25
335.912	992.25
336.14	983.25
336.369	1007.25
336.597	999.25
336.825	997.25
337.053	1014.25
337.281	996.25
337.51	970.25
337.738	955.25
337.966	993.25
338.194	1019.25
338.422	970.25
338.65	953.25
338.878	944.25
339.106	954.25
339.334	956.25
339.562	950.25
339.79	949.25
340.018	935.25
340.246	913.25
340.474	936.25
340.702	921.25
340.93	917.25
341.158	972.25
341.386	966.25
341.614	1000.25
341.842	962.25
342.07	925.25
342.298	899.25
342.526	913.25
342.754	933.25
342.981	914.25
343.209	952.25
343.437	949.25
343.665	979.25
343.893	979.25
344.12	993.25
344.348	987.25
344.576	1011.25
344.804	978.25
345.031	974.25
345.259	951.25
345.487	936.25
345.714	962.25
345.942	991.25
346.17	999.25
346.397	967.25
346.625	914.25
346.853	907.25
347.08	910.25
347.308	909.25
347.535	905.25
347.763	883.25
347.99	875.25
348.218	889.25
348.445	911.25
348.673	886.25
348.9	890.25
349.128	885.25
349.355	908.25
349.583	921.25
349.81	880.25
350.037	858.25
350.265	892.25
350.492	869.25
350.72	876.25
350.947	879.25
351.174	911.25
351.402	924.25
351.629	921.25
351.856	906.25
352.083	897.25
352.311	904.25
352.538	957.25
352.765	932.25
352.992	891.25
353.22	854.25
353.447	842.25
353.674	863.25
353.901	863.25
354.128	825.25
354.355	846.25
354.583	887.25
354.81	858.25
355.037	868.25
355.264	857.25
355.491	853.25
355.718	839.25
355.945	877.25
356.172	850.25
356.399	908.25
356.626	918.25
356.853	919.25
357.08	888.25
357.307	869.25
357.534	873.25
357.761	869.25
357.988	874.25
358.215	866.25
358.441	877.25
358.668	848.25
358.895	862.25
359.122	856.25
359.349	867.25
359.576	874.25
359.802	856.25
360.029	851.25
360.256	884.25
360.483	879.25
360.709	860.25
360.936	907.25
361.163	889.25
361.39	887.25
361.616	872.25
361.843	911.25
362.07	961.25
362.296	934.25
362.523	872.25
362.749	869.25
362.976	899.25
363.203	863.25
363.429	869.25
363.656	867.25
363.882	856.25
364.109	872.25
364.335	845.25
364.562	898.25
364.788	905.25
365.015	879.25
365.241	889.25
365.468	865.25
365.694	864.25
365.92	865.25
366.147	874.25
366.373	882.25
366.599	879.25
366.826	853.25
367.052	888.25
367.278	849.25
367.505	900.25
367.731	897.25
367.957	887.25
368.184	900.25
368.41	885.25
368.636	866.25
368.862	887.25
369.089	889.25
369.315	908.25
369.541	902.25
369.767	891.25
369.993	905.25
370.219	887.25
370.445	897.25
370.672	904.25
370.898	923.25
371.124	907.25
371.35	929.25
371.576	961.25
371.802	932.25
372.028	914.25
372.254	933.25
372.48	944.25
372.706	927.25
372.932	908.25
373.158	958.25
373.384	938.25
373.61	925.25
373.835	948.25
374.061	945.25
374.287	923.25
374.513	967.25
374.739	949.25
374.965	977.25
375.191	963.25
375.416	993.25
375.642	962.25
375.868	966.25
376.094	959.25
376.319	939.25
376.545	968.25
376.771	923.25
376.997	906.25
377.222	934.25
377.448	916.25
377.674	948.25
377.899	909.25
378.125	899.25
378.35	914.25
378.576	929.25
378.802	912.25
379.027	924.25
379.253	899.25
379.478	891.25
379.704	905.25
379.929	896.25
380.155	932.25
380.38	901.25
380.606	917.25
380.831	902.25
381.057	925.25
381.282	903.25
381.507	915.25
381.733	929.25
381.958	909.25
382.184	933.25
382.409	917.25
382.634	956.25
382.86	945.25
383.085	994.25
383.31	940.25
383.535	936.25
383.761	990.25
383.986	982.25
384.211	975.25
384.436	972.25
384.662	1003.25
384.887	1008.25
385.112	1004.25
385.337	1030.25
385.562	1016.25
385.787	1028.25
386.013	1077.25
386.238	1064.25
386.463	1041.25
386.688	1054.25
386.913	1020.25
387.138	1063.25
387.363	1045.25
387.588	1064.25
387.813	1066.25
388.038	1015.25
388.263	1044.25
388.488	1047.25
388.713	1027.25
388.938	1028.25
389.163	1067.25
389.387	1066.25
389.612	1034.25
389.837	1048.25
390.062	1025.25
390.287	1040.25
390.512	1050.25
390.736	1051.25
390.961	1050.25
391.186	1079.25
391.411	1097.25
391.636	1075.25
391.86	1111.25
392.085	1119.25
392.31	1106.25
392.534	1074.25
392.759	1096.25
392.984	1082.25
393.208	1082.25
393.433	1110.25
393.658	1096.25
393.882	1081.25
394.107	1067.25
394.331	1082.25
394.556	1089.25
394.78	1060.25
395.005	1104.25
395.229	1120.25
395.454	1113.25
395.678	1130.25
395.903	1109.25
396.127	1117.25
396.352	1131.25
396.576	1114.25
396.801	1155.25
397.025	1120.25
397.249	1151.25
397.474	1158.25
397.698	1170.25
397.922	1160.25
398.147	1178.25
398.371	1183.25
398.595	1223.25
398.82	1213.25
399.044	1256.25
399.268	1308.25
399.492	1369.25
399.717	1402.25
399.941	1413.25
400.165	1399.25
400.389	1372.25
400.613	1338.25
400.837	1272.25
401.062	1264.25
401.286	1261.25
401.51	1259.25
401.734	1226.25
401.958	1193.25
402.182	1242.25
402.406	1240.25
402.63	1231.25
402.854	1258.25
403.078	1291.25
403.302	1224.25
403.526	1243.25
403.75	1256.25
403.974	1223.25
404.198	1277.25
404.422	1275.25
404.645	1247.25
404.869	1256.25
405.093	1282.25
405.317	1266.25
405.541	1283.25
405.765	1268.25
405.988	1319.25
406.212	1323.25
406.436	1303.25
406.66	1364.25
406.883	1336.25
407.107	1355.25
407.331	1426.25
407.555	1417.25
407.778	1429.25
408.002	1416.25
408.226	1396.25
408.449	1394.25
408.673	1376.25
408.896	1369.25
409.12	1389.25
409.344	1351.25
409.567	1325.25
409.791	1336.25
410.014	1364.25
410.238	1298.25
410.461	1314.25
410.685	1308.25
410.908	1280.25
411.132	1305.25
411.355	1298.25
411.578	1267.25
411.802	1282.25
412.025	1283.25
412.249	1301.25
412.472	1291.25
412.695	1301.25
412.919	1265.25
413.142	1278.25
413.365	1251.25
413.589	1264.25
413.812	1220.25
414.035	1237.25
414.258	1234.25
414.482	1231.25
414.705	1206.25
414.928	1259.25
415.151	1237.25
415.374	1260.25
415.597	1252.25
415.821	1212.25
416.044	1209.25
416.267	1216.25
416.49	1221.25
416.713	1199.25
416.936	1200.25
417.159	1186.25
417.382	1203.25
417.605	1189.25
417.828	1175.25
418.051	1199.25
418.274	1192.25
418.497	1186.25
418.72	1204.25
418.943	1196.25
419.166	1244.25
419.389	1313.25
419.611	1274.25
419.834	1242.25
420.057	1235.25
420.28	1183.25
420.503	1175.25
420.726	1178.25
420.948	1177.25
421.171	1138.25
421.394	1171.25
421.617	1176.25
421.839	1184.25
422.062	1179.25
422.285	1183.25
422.507	1212.25
422.73	1154.25
422.953	1185.25
423.175	1203.25
423.398	1194.25
423.621	1173.25
423.843	1173.25
424.066	1192.25
424.288	1176.25
424.511	1201.25
424.733	1215.25
424.956	1166.25
425.178	1151.25
425.401	1177.25
425.623	1202.25
425.846	1161.25
426.068	1173.25
426.291	1175.25
426.513	1177.25
426.735	1158.25
426.958	1169.25
427.18	1128.25
427.402	1152.25
427.625	1136.25
427.847	1092.25
428.069	1139.25
428.292	1160.25
428.514	1143.25
428.736	1137.25
428.958	1157.25
429.181	1130.25
429.403	1131.25
429.625	1161.25
429.847	1161.25
430.069	1096.25
430.292	1144.25
430.514	1102.25
430.736	1119.25
430.958	1131.25
431.18	1131.25
431.402	1130.25
431.624	1114.25
431.846	1106.25
432.068	1140.25
432.29	1162.25
432.512	1147.25
432.734	1165.25
432.956	1148.25
433.178	1185.25
433.4	1194.25
433.622	1179.25
433.844	1168.25
434.066	1207.25
434.287	1176.25
434.509	1188.25
434.731	1186.25
434.953	1183.25
435.175	1235.25
435.397	1263.25
435.618	1207.25
435.84	1194.25
436.062	1158.25
436.284	1155.25
436.505	1149.25
436.727	1128.25
436.949	1135.25
437.17	1191.25
437.392	1122.25
437.614	1126.25
437.835	1077.25
438.057	1114.25
438.278	1092.25
438.5	1103.25
438.721	1101.25
438.943	1127.25
439.165	1098.25
439.386	1105.25
439.608	1097.25
439.829	1144.25
440.05	1135.25
440.272	1137.25
440.493	1148.25
440.715	1129.25
440.936	1145.25
441.158	1150.25
441.379	1159.25
441.6	1177.25
441.822	1218.25
442.043	1201.25
442.264	1199.25
442.486	1175.25
442.707	1178.25
442.928	1193.25
443.149	1208.25
443.371	1217.25
443.592	1307.25
443.813	1248.25
444.034	1217.25
444.255	1230.25
444.476	1291.25
444.698	1283.25
444.919	1309.25
445.14	1382.25
445.361	1347.25
445.582	1215.25
445.803	1179.25
446.024	1159.25
446.245	1178.25
446.466	1171.25
446.687	1139.25
446.908	1137.25
447.129	1122.25
447.35	1088.25
447.571	1087.25
447.792	1048.25
448.013	1082.25
448.234	1057.25
448.455	1021.25
448.675	1060.25
448.896	1059.25
449.117	1048.25
449.338	1007.25
449.559	1048.25
449.779	1025.25
450	1054.25
450.221	1035.25
450.442	1052.25
450.662	1036.25
450.883	1050.25
451.104	1083.25
451.324	1064.25
451.545	1048.25
451.766	1043.25
451.986	1045.25
452.207	1041.25
452.428	1006.25
452.648	997.25
452.869	1001.25
453.089	1039.25
453.31	1036.25
453.53	1009.25
453.751	1001.25
453.971	1033.25
454.192	1037.25
454.412	1040.25
454.633	1029.25
454.853	977.25
455.073	972.25
455.294	1020.25
455.514	1010.25
455.734	1061.25
455.955	1058.25
456.175	1010.25
456.395	985.25
456.616	1002.25
456.836	966.25
457.056	1004.25
457.276	988.25
457.497	1011.25
457.717	1054.25
457.937	1046.25
458.157	1027.25
458.377	1020.25
458.598	1066.25
458.818	1068.25
459.038	1067.25
459.258	1120.25
459.478	1193.25
459.698	1271.25
459.918	1296.25
460.138	1232.25
460.358	1237.25
460.578	1228.25
460.798	1272.25
461.018	1301.25
461.238	1244.25
461.458	1193.25
461.678	1196.25
461.898	1288.25
462.118	1235.25
462.338	1297.25
462.558	1340.25
462.777	1381.25
462.997	1410.25
463.217	1492.25
463.437	1537.25
463.657	1443.25
463.876	1370.25
464.096	1397.25
464.316	1369.25
464.536	1319.25
464.755	1306.25
464.975	1282.25
465.195	1270.25
465.414	1226.25
465.634	1135.25
465.854	1139.25
466.073	1130.25
466.293	1126.25
466.512	1119.25
466.732	1129.25
466.951	1100.25
467.171	1113.25
467.391	1129.25
467.61	1122.25
467.829	1080.25
468.049	1096.25
468.268	1095.25
468.488	1099.25
468.707	1094.25
468.927	1114.25
469.146	1109.25
469.365	1128.25
469.585	1117.25
469.804	1091.25
470.023	1133.25
470.243	1109.25
470.462	1103.25
470.681	1101.25
470.901	1106.25
471.12	1087.25
471.339	1112.25
471.558	1103.25
471.777	1104.25
471.997	1099.25
472.216	1116.25
472.435	1105.25
472.654	1091.25
472.873	1065.25
473.092	1081.25
473.311	1082.25
473.53	1083.25
473.749	1084.25
473.968	1099.25
474.187	1065.25
474.406	1049.25
474.625	1070.25
474.844	1100.25
475.063	1089.25
475.282	1116.25
475.501	1106.25
475.72	1124.25
475.939	1115.25
476.158	1115.25
476.377	1100.25
476.596	1113.25
476.814	1163.25
477.033	1124.25
477.252	1179.25
477.471	1147.25
477.69	1215.25
477.908	1235.25
478.127	1219.25
478.346	1217.25
478.564	1260.25
478.783	1288.25
479.002	1288.25
479.22	1326.25
479.439	1319.25
479.658	1331.25
479.876	1239.25
480.095	1285.25
480.313	1301.25
480.532	1335.25
480.751	1315.25
480.969	1294.25
481.188	1318.25
481.406	1307.25
481.624	1307.25
481.843	1281.25
482.061	1256.25
482.28	1266.25
482.498	1253.25
482.717	1275.25
482.935	1305.25
483.153	1311.25
483.372	1333.25
483.59	1388.25
483.808	1310.25
484.027	1287.25
484.245	1284.25
484.463	1315.25
484.681	1299.25
484.9	1355.25
485.118	1322.25
485.336	1286.25
485.554	1315.25
485.772	1347.25
485.99	1315.25
486.209	1287.25
486.427	1290.25
486.645	1314.25
486.863	1360.25
487.081	1301.25
487.299	1304.25
487.517	1326.25
487.735	1329.25
487.953	1348.25
488.171	1330.25
488.389	1316.25
488.607	1331.25
488.825	1307.25
489.043	1286.25
489.261	1307.25
489.479	1334.25
489.696	1318.25
489.914	1336.25
490.132	1321.25
490.35	1299.25
490.568	1319.25
490.786	1346.25
491.003	1320.25
491.221	1327.25
491.439	1344.25
491.657	1360.25
491.874	1355.25
492.092	1367.25
492.31	1349.25
492.527	1364.25
492.745	1347.25
492.963	1375.25
493.18	1337.25
493.398	1362.25
493.615	1351.25
493.833	1370.25
494.05	1370.25
494.268	1380.25
494.485	1361.25
494.703	1367.25
