Data from Ni(NO3)2@0.25M.TitratingCurve.Agarose3%dH2O.NegLispCup.LampEnergy10.LIBS07252019_HRD10591_18-04-02-566.txt Node
Date: Thu Jul 25 18:04:02 EDT 2019
User: cochatt
Spectrometer: HR+D1059
Trigger mode: 1
Integration Time (sec): 1.000000E-1
Scans to average: 1
Electric dark correction enabled: true
Nonlinearity correction enabled: false
Boxcar width: 0
XAxis mode: Wavelengths
Number of Pixels in Spectrum: 2048
>>>>>Begin Spectral Data<<<<<
223.165	-21.62
223.4	-21.62
223.635	-21.62
223.869	-18.62
224.104	2.38
224.338	-20.62
224.573	-18.62
224.808	-17.62
225.042	1.38
225.277	0.38
225.511	-1.62
225.746	3.38
225.98	2.38
226.215	6.38
226.449	14.38
226.683	20.38
226.918	26.38
227.152	21.38
227.387	38.38
227.621	35.38
227.856	47.38
228.09	69.38
228.324	30.38
228.559	61.38
228.793	47.38
229.027	93.38
229.262	105.38
229.496	109.38
229.73	116.38
229.964	115.38
230.199	116.38
230.433	117.38
230.667	126.38
230.901	119.38
231.136	128.38
231.37	124.38
231.604	147.38
231.838	136.38
232.072	131.38
232.306	130.38
232.541	142.38
232.775	145.38
233.009	126.38
233.243	142.38
233.477	154.38
233.711	135.38
233.945	136.38
234.179	133.38
234.413	148.38
234.647	119.38
234.881	127.38
235.115	142.38
235.349	133.38
235.583	142.38
235.817	128.38
236.051	135.38
236.285	120.38
236.519	139.38
236.753	144.38
236.987	139.38
237.221	154.38
237.455	150.38
237.689	147.38
237.922	151.38
238.156	146.38
238.39	126.38
238.624	154.38
238.858	147.38
239.091	153.38
239.325	146.38
239.559	153.38
239.793	160.38
240.027	147.38
240.26	154.38
240.494	168.38
240.728	154.38
240.961	153.38
241.195	160.38
241.429	164.38
241.662	167.38
241.896	164.38
242.13	167.38
242.363	171.38
242.597	164.38
242.83	164.38
243.064	175.38
243.298	164.38
243.531	172.38
243.765	161.38
243.998	172.38
244.232	189.38
244.465	174.38
244.699	170.38
244.932	167.38
245.166	175.38
245.399	186.38
245.633	186.38
245.866	185.38
246.099	184.38
246.333	175.38
246.566	192.38
246.8	202.38
247.033	194.38
247.266	182.38
247.5	192.38
247.733	207.38
247.966	183.38
248.2	208.38
248.433	194.38
248.666	201.38
248.899	206.38
249.133	207.38
249.366	190.38
249.599	200.38
249.832	206.38
250.066	229.38
250.299	202.38
250.532	242.38
250.765	209.38
250.998	214.38
251.231	227.38
251.465	220.38
251.698	234.38
251.931	219.38
252.164	219.38
252.397	231.38
252.63	247.38
252.863	239.38
253.096	240.38
253.329	254.38
253.562	237.38
253.795	227.38
254.028	245.38
254.261	252.38
254.494	246.38
254.727	240.38
254.96	222.38
255.193	252.38
255.426	252.38
255.659	249.38
255.892	247.38
256.124	271.38
256.357	254.38
256.59	253.38
256.823	263.38
257.056	265.38
257.289	259.38
257.521	272.38
257.754	273.38
257.987	281.38
258.22	271.38
258.452	261.38
258.685	279.38
258.918	289.38
259.151	265.38
259.383	281.38
259.616	265.38
259.849	275.38
260.081	288.38
260.314	288.38
260.547	286.38
260.779	295.38
261.012	271.38
261.244	307.38
261.477	308.38
261.71	304.38
261.942	292.38
262.175	279.38
262.407	299.38
262.64	305.38
262.872	301.38
263.105	308.38
263.337	324.38
263.57	309.38
263.802	282.38
264.035	303.38
264.267	321.38
264.499	308.38
264.732	320.38
264.964	311.38
265.197	308.38
265.429	307.38
265.661	302.38
265.894	335.38
266.126	329.38
266.358	312.38
266.591	322.38
266.823	330.38
267.055	319.38
267.287	327.38
267.52	329.38
267.752	327.38
267.984	323.38
268.216	322.38
268.448	335.38
268.681	339.38
268.913	317.38
269.145	351.38
269.377	348.38
269.609	342.38
269.841	340.38
270.073	321.38
270.306	343.38
270.538	344.38
270.77	324.38
271.002	340.38
271.234	331.38
271.466	334.38
271.698	353.38
271.93	344.38
272.162	351.38
272.394	361.38
272.626	347.38
272.858	377.38
273.09	338.38
273.322	370.38
273.553	360.38
273.785	348.38
274.017	328.38
274.249	370.38
274.481	362.38
274.713	363.38
274.945	367.38
275.176	375.38
275.408	382.38
275.64	368.38
275.872	362.38
276.104	359.38
276.335	364.38
276.567	362.38
276.799	382.38
277.031	385.38
277.262	361.38
277.494	370.38
277.726	384.38
277.957	383.38
278.189	384.38
278.421	368.38
278.652	404.38
278.884	370.38
279.115	394.38
279.347	381.38
279.579	386.38
279.81	411.38
280.042	403.38
280.273	395.38
280.505	402.38
280.736	401.38
280.968	408.38
281.199	425.38
281.431	404.38
281.662	397.38
281.894	396.38
282.125	396.38
282.356	419.38
282.588	401.38
282.819	414.38
283.051	434.38
283.282	405.38
283.513	415.38
283.745	428.38
283.976	420.38
284.207	419.38
284.439	431.38
284.67	403.38
284.901	400.38
285.132	425.38
285.364	410.38
285.595	423.38
285.826	412.38
286.057	421.38
286.288	422.38
286.52	436.38
286.751	435.38
286.982	448.38
287.213	434.38
287.444	430.38
287.675	446.38
287.906	423.38
288.138	434.38
288.369	440.38
288.6	431.38
288.831	417.38
289.062	426.38
289.293	447.38
289.524	450.38
289.755	440.38
289.986	449.38
290.217	436.38
290.448	432.38
290.679	442.38
290.91	435.38
291.141	444.38
291.371	454.38
291.602	443.38
291.833	441.38
292.064	455.38
292.295	442.38
292.526	442.38
292.757	438.38
292.987	446.38
293.218	462.38
293.449	466.38
293.68	463.38
293.91	467.38
294.141	438.38
294.372	450.38
294.603	441.38
294.833	451.38
295.064	451.38
295.295	446.38
295.525	458.38
295.756	455.38
295.987	456.38
296.217	467.38
296.448	470.38
296.679	464.38
296.909	452.38
297.14	454.38
297.37	475.38
297.601	489.38
297.831	470.38
298.062	480.38
298.292	476.38
298.523	494.38
298.753	515.38
298.984	478.38
299.214	487.38
299.445	498.38
299.675	495.38
299.905	477.38
300.136	507.38
300.366	517.38
300.597	515.38
300.827	516.38
301.057	517.38
301.288	538.38
301.518	533.38
301.748	530.38
301.979	545.38
302.209	509.38
302.439	532.38
302.669	505.38
302.9	510.38
303.13	499.38
303.36	517.38
303.59	524.38
303.82	526.38
304.051	514.38
304.281	497.38
304.511	518.38
304.741	518.38
304.971	528.38
305.201	522.38
305.431	540.38
305.661	529.38
305.891	537.38
306.121	515.38
306.352	528.38
306.582	506.38
306.812	511.38
307.042	515.38
307.272	503.38
307.502	524.38
307.731	518.38
307.961	503.38
308.191	508.38
308.421	511.38
308.651	528.38
308.881	494.38
309.111	529.38
309.341	508.38
309.571	525.38
309.8	523.38
310.03	527.38
310.26	537.38
310.49	530.38
310.72	543.38
310.949	501.38
311.179	505.38
311.409	523.38
311.639	533.38
311.868	538.38
312.098	527.38
312.328	549.38
312.557	543.38
312.787	535.38
313.017	547.38
313.246	544.38
313.476	564.38
313.706	570.38
313.935	559.38
314.165	547.38
314.394	540.38
314.624	561.38
314.853	579.38
315.083	559.38
315.312	565.38
315.542	578.38
315.771	584.38
316.001	565.38
316.23	578.38
316.46	576.38
316.689	562.38
316.919	580.38
317.148	577.38
317.377	580.38
317.607	579.38
317.836	571.38
318.065	557.38
318.295	565.38
318.524	576.38
318.753	583.38
318.983	562.38
319.212	571.38
319.441	550.38
319.67	570.38
319.9	587.38
320.129	599.38
320.358	586.38
320.587	586.38
320.816	572.38
321.046	571.38
321.275	580.38
321.504	587.38
321.733	608.38
321.962	613.38
322.191	595.38
322.42	587.38
322.649	591.38
322.878	583.38
323.108	587.38
323.337	625.38
323.566	630.38
323.795	622.38
324.024	622.38
324.253	622.38
324.482	627.38
324.71	618.38
324.939	611.38
325.168	634.38
325.397	654.38
325.626	650.38
325.855	646.38
326.084	639.38
326.313	628.38
326.542	630.38
326.77	643.38
326.999	644.38
327.228	655.38
327.457	663.38
327.686	666.38
327.914	654.38
328.143	676.38
328.372	656.38
328.6	682.38
328.829	673.38
329.058	671.38
329.287	652.38
329.515	646.38
329.744	688.38
329.972	701.38
330.201	678.38
330.43	690.38
330.658	680.38
330.887	703.38
331.115	712.38
331.344	685.38
331.572	739.38
331.801	720.38
332.03	706.38
332.258	749.38
332.486	741.38
332.715	778.38
332.943	792.38
333.172	808.38
333.4	847.38
333.629	858.38
333.857	894.38
334.085	869.38
334.314	859.38
334.542	850.38
334.771	877.38
334.999	834.38
335.227	825.38
335.455	808.38
335.684	848.38
335.912	823.38
336.14	832.38
336.369	847.38
336.597	831.38
336.825	806.38
337.053	825.38
337.281	836.38
337.51	800.38
337.738	765.38
337.966	796.38
338.194	789.38
338.422	797.38
338.65	768.38
338.878	761.38
339.106	745.38
339.334	785.38
339.562	794.38
339.79	739.38
340.018	747.38
340.246	715.38
340.474	735.38
340.702	734.38
340.93	727.38
341.158	768.38
341.386	726.38
341.614	760.38
341.842	757.38
342.07	732.38
342.298	740.38
342.526	720.38
342.754	722.38
342.981	743.38
343.209	750.38
343.437	788.38
343.665	807.38
343.893	855.38
344.12	879.38
344.348	847.38
344.576	825.38
344.804	798.38
345.031	733.38
345.259	740.38
345.487	751.38
345.714	732.38
345.942	780.38
346.17	740.38
346.397	731.38
346.625	742.38
346.853	730.38
347.08	706.38
347.308	722.38
347.535	714.38
347.763	728.38
347.99	719.38
348.218	703.38
348.445	711.38
348.673	676.38
348.9	702.38
349.128	750.38
349.355	726.38
349.583	680.38
349.81	671.38
350.037	706.38
350.265	672.38
350.492	695.38
350.72	716.38
350.947	679.38
351.174	692.38
351.402	702.38
351.629	714.38
351.856	708.38
352.083	686.38
352.311	707.38
352.538	735.38
352.765	716.38
352.992	683.38
353.22	687.38
353.447	668.38
353.674	660.38
353.901	699.38
354.128	683.38
354.355	663.38
354.583	652.38
354.81	671.38
355.037	655.38
355.264	664.38
355.491	691.38
355.718	691.38
355.945	682.38
356.172	669.38
356.399	668.38
356.626	707.38
356.853	700.38
357.08	661.38
357.307	694.38
357.534	693.38
357.761	676.38
357.988	687.38
358.215	676.38
358.441	665.38
358.668	687.38
358.895	680.38
359.122	682.38
359.349	697.38
359.576	692.38
359.802	657.38
360.029	684.38
360.256	692.38
360.483	678.38
360.709	682.38
360.936	685.38
361.163	692.38
361.39	685.38
361.616	670.38
361.843	698.38
362.07	726.38
362.296	684.38
362.523	676.38
362.749	664.38
362.976	663.38
363.203	666.38
363.429	676.38
363.656	658.38
363.882	676.38
364.109	670.38
364.335	677.38
364.562	655.38
364.788	665.38
365.015	681.38
365.241	681.38
365.468	698.38
365.694	692.38
365.92	707.38
366.147	680.38
366.373	670.38
366.599	680.38
366.826	684.38
367.052	685.38
367.278	682.38
367.505	693.38
367.731	678.38
367.957	663.38
368.184	671.38
368.41	677.38
368.636	679.38
368.862	689.38
369.089	707.38
369.315	703.38
369.541	702.38
369.767	719.38
369.993	688.38
370.219	686.38
370.445	701.38
370.672	695.38
370.898	717.38
371.124	685.38
371.35	727.38
371.576	706.38
371.802	706.38
372.028	715.38
372.254	720.38
372.48	735.38
372.706	757.38
372.932	749.38
373.158	751.38
373.384	727.38
373.61	751.38
373.835	751.38
374.061	710.38
374.287	729.38
374.513	760.38
374.739	780.38
374.965	761.38
375.191	785.38
375.416	799.38
375.642	773.38
375.868	751.38
376.094	739.38
376.319	748.38
376.545	739.38
376.771	693.38
376.997	729.38
377.222	729.38
377.448	735.38
377.674	724.38
377.899	710.38
378.125	718.38
378.35	702.38
378.576	715.38
378.802	714.38
379.027	692.38
379.253	717.38
379.478	712.38
379.704	715.38
379.929	720.38
380.155	713.38
380.38	708.38
380.606	687.38
380.831	720.38
381.057	688.38
381.282	706.38
381.507	747.38
381.733	708.38
381.958	728.38
382.184	716.38
382.409	772.38
382.634	770.38
382.86	739.38
383.085	730.38
383.31	747.38
383.535	755.38
383.761	756.38
383.986	774.38
384.211	796.38
384.436	759.38
384.662	827.38
384.887	807.38
385.112	842.38
385.337	861.38
385.562	818.38
385.787	853.38
386.013	830.38
386.238	840.38
386.463	865.38
386.688	857.38
386.913	851.38
387.138	814.38
387.363	849.38
387.588	834.38
387.813	880.38
388.038	819.38
388.263	832.38
388.488	820.38
388.713	853.38
388.938	834.38
389.163	839.38
389.387	809.38
389.612	815.38
389.837	831.38
390.062	850.38
390.287	846.38
390.512	846.38
390.736	840.38
390.961	850.38
391.186	863.38
391.411	892.38
391.636	912.38
391.86	956.38
392.085	946.38
392.31	928.38
392.534	918.38
392.759	892.38
392.984	886.38
393.208	918.38
393.433	897.38
393.658	910.38
393.882	888.38
394.107	882.38
394.331	910.38
394.556	934.38
394.78	904.38
395.005	901.38
395.229	882.38
395.454	930.38
395.678	921.38
395.903	932.38
396.127	927.38
396.352	910.38
396.576	898.38
396.801	924.38
397.025	895.38
397.249	942.38
397.474	967.38
397.698	970.38
397.922	964.38
398.147	1000.38
398.371	1007.38
398.595	1013.38
398.82	1058.38
399.044	1119.38
399.268	1223.38
399.492	1304.38
399.717	1428.38
399.941	1418.38
400.165	1333.38
400.389	1254.38
400.613	1172.38
400.837	1132.38
401.062	1099.38
401.286	1088.38
401.51	1070.38
401.734	1051.38
401.958	1074.38
402.182	1106.38
402.406	1087.38
402.63	1087.38
402.854	1112.38
403.078	1132.38
403.302	1141.38
403.526	1111.38
403.75	1118.38
403.974	1158.38
404.198	1110.38
404.422	1151.38
404.645	1147.38
404.869	1156.38
405.093	1166.38
405.317	1115.38
405.541	1153.38
405.765	1154.38
405.988	1157.38
406.212	1158.38
406.436	1159.38
406.66	1179.38
406.883	1189.38
407.107	1262.38
407.331	1282.38
407.555	1330.38
407.778	1317.38
408.002	1326.38
408.226	1302.38
408.449	1301.38
408.673	1238.38
408.896	1217.38
409.12	1203.38
409.344	1215.38
409.567	1160.38
409.791	1145.38
410.014	1180.38
410.238	1154.38
410.461	1176.38
410.685	1123.38
410.908	1150.38
411.132	1132.38
411.355	1095.38
411.578	1113.38
411.802	1124.38
412.025	1130.38
412.249	1125.38
412.472	1138.38
412.695	1098.38
412.919	1068.38
413.142	1088.38
413.365	1074.38
413.589	1109.38
413.812	1062.38
414.035	1088.38
414.258	1081.38
414.482	1079.38
414.705	1060.38
414.928	1083.38
415.151	1095.38
415.374	1093.38
415.597	1055.38
415.821	1067.38
416.044	1054.38
416.267	1062.38
416.49	1042.38
416.713	1023.38
416.936	1023.38
417.159	1054.38
417.382	1070.38
417.605	1049.38
417.828	1070.38
418.051	1062.38
418.274	1034.38
418.497	1055.38
418.72	1062.38
418.943	1092.38
419.166	1142.38
419.389	1193.38
419.611	1194.38
419.834	1143.38
420.057	1126.38
420.28	1068.38
420.503	1030.38
420.726	1059.38
420.948	1034.38
421.171	1049.38
421.394	1059.38
421.617	1057.38
421.839	1038.38
422.062	1082.38
422.285	1048.38
422.507	1104.38
422.73	1059.38
422.953	1094.38
423.175	1076.38
423.398	1099.38
423.621	1074.38
423.843	1053.38
424.066	1127.38
424.288	1103.38
424.511	1084.38
424.733	1096.38
424.956	1094.38
425.178	1060.38
425.401	1079.38
425.623	1064.38
425.846	1029.38
426.068	1050.38
426.291	1028.38
426.513	1058.38
426.735	1063.38
426.958	1011.38
427.18	1022.38
427.402	1023.38
427.625	996.38
427.847	981.38
428.069	978.38
428.292	1010.38
428.514	991.38
428.736	960.38
428.958	990.38
429.181	968.38
429.403	936.38
429.625	986.38
429.847	984.38
430.069	968.38
430.292	998.38
430.514	964.38
430.736	955.38
430.958	990.38
431.18	967.38
431.402	983.38
431.624	951.38
431.846	967.38
432.068	998.38
432.29	989.38
432.512	989.38
432.734	986.38
432.956	949.38
433.178	1022.38
433.4	1002.38
433.622	1042.38
433.844	1027.38
434.066	1001.38
434.287	1026.38
434.509	1047.38
434.731	1067.38
434.953	1048.38
435.175	1091.38
435.397	1078.38
435.618	1068.38
435.84	1008.38
436.062	998.38
436.284	976.38
436.505	982.38
436.727	1018.38
436.949	1018.38
437.17	968.38
437.392	948.38
437.614	971.38
437.835	921.38
438.057	964.38
438.278	942.38
438.5	971.38
438.721	971.38
438.943	964.38
439.165	950.38
439.386	984.38
439.608	1001.38
439.829	990.38
440.05	1003.38
440.272	1011.38
440.493	1023.38
440.715	1027.38
440.936	1024.38
441.158	1004.38
441.379	1070.38
441.6	1085.38
441.822	1124.38
442.043	1074.38
442.264	1070.38
442.486	1075.38
442.707	1062.38
442.928	1083.38
443.149	1068.38
443.371	1061.38
443.592	1120.38
443.813	1113.38
444.034	1125.38
444.255	1144.38
444.476	1166.38
444.698	1218.38
444.919	1232.38
445.14	1307.38
445.361	1218.38
445.582	1161.38
445.803	1098.38
446.024	1058.38
446.245	1071.38
446.466	1043.38
446.687	1003.38
446.908	1030.38
447.129	972.38
447.35	940.38
447.571	968.38
447.792	947.38
448.013	962.38
448.234	935.38
448.455	908.38
448.675	916.38
448.896	922.38
449.117	889.38
449.338	904.38
449.559	891.38
449.779	925.38
450	890.38
450.221	936.38
450.442	915.38
450.662	900.38
450.883	932.38
451.104	956.38
451.324	915.38
451.545	915.38
451.766	944.38
451.986	905.38
452.207	874.38
452.428	904.38
452.648	911.38
452.869	876.38
453.089	874.38
453.31	869.38
453.53	854.38
453.751	846.38
453.971	898.38
454.192	846.38
454.412	864.38
454.633	870.38
454.853	883.38
455.073	873.38
455.294	848.38
455.514	887.38
455.734	852.38
455.955	851.38
456.175	843.38
456.395	862.38
456.616	883.38
456.836	852.38
457.056	878.38
457.276	852.38
457.497	845.38
457.717	854.38
457.937	846.38
458.157	896.38
458.377	906.38
458.598	908.38
458.818	901.38
459.038	946.38
459.258	967.38
459.478	984.38
459.698	1042.38
459.918	1084.38
460.138	1097.38
460.358	1090.38
460.578	1133.38
460.798	1162.38
461.018	1179.38
461.238	1148.38
461.458	1148.38
461.678	1153.38
461.898	1172.38
462.118	1211.38
462.338	1259.38
462.558	1225.38
462.777	1292.38
462.997	1368.38
463.217	1405.38
463.437	1460.38
463.657	1371.38
463.876	1318.38
464.096	1304.38
464.316	1305.38
464.536	1284.38
464.755	1260.38
464.975	1208.38
465.195	1170.38
465.414	1114.38
465.634	1075.38
465.854	1046.38
466.073	1030.38
466.293	993.38
466.512	977.38
466.732	952.38
466.951	978.38
467.171	951.38
467.391	940.38
467.61	958.38
467.829	941.38
468.049	952.38
468.268	926.38
468.488	926.38
468.707	909.38
468.927	934.38
469.146	939.38
469.365	956.38
469.585	943.38
469.804	982.38
470.023	958.38
470.243	958.38
470.462	971.38
470.681	976.38
470.901	1003.38
471.12	984.38
471.339	955.38
471.558	982.38
471.777	984.38
471.997	946.38
472.216	912.38
472.435	900.38
472.654	896.38
472.873	913.38
473.092	900.38
473.311	901.38
473.53	896.38
473.749	873.38
473.968	900.38
474.187	910.38
474.406	900.38
474.625	893.38
474.844	917.38
475.063	918.38
475.282	908.38
475.501	916.38
475.72	950.38
475.939	942.38
476.158	921.38
476.377	943.38
476.596	922.38
476.814	953.38
477.033	968.38
477.252	961.38
477.471	993.38
477.69	1007.38
477.908	1036.38
478.127	1044.38
478.346	1086.38
478.564	1104.38
478.783	1109.38
479.002	1122.38
479.22	1134.38
479.439	1144.38
479.658	1119.38
479.876	1122.38
480.095	1116.38
480.313	1146.38
480.532	1199.38
480.751	1166.38
480.969	1128.38
481.188	1086.38
481.406	1063.38
481.624	1052.38
481.843	1048.38
482.061	1027.38
482.28	1016.38
482.498	1034.38
482.717	1010.38
482.935	994.38
483.153	1069.38
483.372	1078.38
483.59	1066.38
483.808	1071.38
484.027	1033.38
484.245	1035.38
484.463	1031.38
484.681	1076.38
484.9	1074.38
485.118	1075.38
485.336	1079.38
485.554	1068.38
485.772	1048.38
485.99	1055.38
486.209	1050.38
486.427	1061.38
486.645	1082.38
486.863	1102.38
487.081	1081.38
487.299	1077.38
487.517	1068.38
487.735	1103.38
487.953	1118.38
488.171	1088.38
488.389	1096.38
488.607	1049.38
488.825	1064.38
489.043	1078.38
489.261	1063.38
489.479	1084.38
489.696	1085.38
489.914	1060.38
490.132	1106.38
490.35	1086.38
490.568	1120.38
490.786	1128.38
491.003	1097.38
491.221	1110.38
491.439	1108.38
491.657	1117.38
491.874	1155.38
492.092	1118.38
492.31	1180.38
492.527	1151.38
492.745	1145.38
492.963	1150.38
493.18	1144.38
493.398	1158.38
493.615	1138.38
493.833	1174.38
494.05	1157.38
494.268	1174.38
494.485	1154.38
494.703	1170.38
494.92	1179.38
495.138	1178.38
495.355	1192.38
495.573	1177.38
495.79	1187.38
496.008	1179.38
496.225	1219.38
496.442	1226.38
496.66	1247.38
496.877	1244.38
497.094	1279.38
497.312	1313.38
497.529	1304.38
