Data from Ni(NO3)2Standard.Agarose3%.GreenCap.LampEnergy5.5.E.O_HRD10591_14-42-09-188.txt Node
Date: Mon Jul 22 14:42:09 EDT 2019
User: cochatt
Spectrometer: HR+D1059
Trigger mode: 1
Integration Time (sec): 1.000000E-1
Scans to average: 1
Electric dark correction enabled: true
Nonlinearity correction enabled: false
Boxcar width: 0
XAxis mode: Wavelengths
Number of Pixels in Spectrum: 2048
>>>>>Begin Spectral Data<<<<<
223.165	-12.88
223.4	-12.88
223.635	-12.88
223.869	-20.88
224.104	-23.88
224.338	-14.88
224.573	-16.88
224.808	0.12
225.042	0.12
225.277	-3.88
225.511	-5.88
225.746	-0.88
225.98	16.12
226.215	8.12
226.449	16.12
226.683	16.12
226.918	18.12
227.152	25.12
227.387	32.12
227.621	41.12
227.856	43.12
228.09	52.12
228.324	47.12
228.559	51.12
228.793	39.12
229.027	58.12
229.262	66.12
229.496	65.12
229.73	69.12
229.964	67.12
230.199	76.12
230.433	80.12
230.667	77.12
230.901	74.12
231.136	82.12
231.37	75.12
231.604	83.12
231.838	77.12
232.072	87.12
232.306	61.12
232.541	75.12
232.775	76.12
233.009	71.12
233.243	75.12
233.477	81.12
233.711	77.12
233.945	71.12
234.179	82.12
234.413	99.12
234.647	82.12
234.881	76.12
235.115	86.12
235.349	76.12
235.583	79.12
235.817	72.12
236.051	80.12
236.285	86.12
236.519	91.12
236.753	72.12
236.987	69.12
237.221	70.12
237.455	72.12
237.689	69.12
237.922	72.12
238.156	77.12
238.39	88.12
238.624	82.12
238.858	66.12
239.091	83.12
239.325	73.12
239.559	79.12
239.793	75.12
240.027	75.12
240.26	69.12
240.494	83.12
240.728	65.12
240.961	72.12
241.195	73.12
241.429	72.12
241.662	73.12
241.896	73.12
242.13	78.12
242.363	73.12
242.597	67.12
242.83	73.12
243.064	83.12
243.298	76.12
243.531	62.12
243.765	81.12
243.998	89.12
244.232	82.12
244.465	80.12
244.699	61.12
244.932	68.12
245.166	82.12
245.399	69.12
245.633	73.12
245.866	76.12
246.099	74.12
246.333	71.12
246.566	60.12
246.8	86.12
247.033	73.12
247.266	76.12
247.5	66.12
247.733	63.12
247.966	77.12
248.2	79.12
248.433	73.12
248.666	84.12
248.899	72.12
249.133	77.12
249.366	77.12
249.599	71.12
249.832	73.12
250.066	72.12
250.299	62.12
250.532	88.12
250.765	72.12
250.998	79.12
251.231	66.12
251.465	89.12
251.698	75.12
251.931	81.12
252.164	74.12
252.397	74.12
252.63	83.12
252.863	77.12
253.096	72.12
253.329	67.12
253.562	76.12
253.795	63.12
254.028	73.12
254.261	73.12
254.494	76.12
254.727	80.12
254.96	81.12
255.193	92.12
255.426	94.12
255.659	84.12
255.892	70.12
256.124	74.12
256.357	87.12
256.59	71.12
256.823	79.12
257.056	82.12
257.289	82.12
257.521	81.12
257.754	78.12
257.987	74.12
258.22	74.12
258.452	92.12
258.685	80.12
258.918	84.12
259.151	80.12
259.383	81.12
259.616	84.12
259.849	78.12
260.081	66.12
260.314	79.12
260.547	76.12
260.779	70.12
261.012	84.12
261.244	81.12
261.477	99.12
261.71	83.12
261.942	85.12
262.175	81.12
262.407	82.12
262.64	91.12
262.872	82.12
263.105	84.12
263.337	89.12
263.57	82.12
263.802	81.12
264.035	88.12
264.267	66.12
264.499	86.12
264.732	81.12
264.964	80.12
265.197	77.12
265.429	68.12
265.661	73.12
265.894	98.12
266.126	98.12
266.358	85.12
266.591	71.12
266.823	91.12
267.055	80.12
267.287	87.12
267.52	94.12
267.752	85.12
267.984	78.12
268.216	87.12
268.448	89.12
268.681	75.12
268.913	73.12
269.145	87.12
269.377	76.12
269.609	72.12
269.841	72.12
270.073	76.12
270.306	84.12
270.538	90.12
270.77	83.12
271.002	92.12
271.234	81.12
271.466	102.12
271.698	100.12
271.93	76.12
272.162	87.12
272.394	92.12
272.626	66.12
272.858	91.12
273.09	73.12
273.322	74.12
273.553	78.12
273.785	82.12
274.017	92.12
274.249	92.12
274.481	73.12
274.713	83.12
274.945	73.12
275.176	78.12
275.408	87.12
275.64	95.12
275.872	89.12
276.104	80.12
276.335	80.12
276.567	76.12
276.799	73.12
277.031	82.12
277.262	63.12
277.494	75.12
277.726	81.12
277.957	74.12
278.189	76.12
278.421	89.12
278.652	72.12
278.884	67.12
279.115	77.12
279.347	89.12
279.579	67.12
279.81	79.12
280.042	86.12
280.273	90.12
280.505	82.12
280.736	81.12
280.968	87.12
281.199	80.12
281.431	75.12
281.662	77.12
281.894	76.12
282.125	97.12
282.356	85.12
282.588	88.12
282.819	81.12
283.051	77.12
283.282	90.12
283.513	88.12
283.745	80.12
283.976	97.12
284.207	86.12
284.439	83.12
284.67	82.12
284.901	96.12
285.132	88.12
285.364	86.12
285.595	90.12
285.826	92.12
286.057	89.12
286.288	88.12
286.52	83.12
286.751	73.12
286.982	87.12
287.213	84.12
287.444	88.12
287.675	83.12
287.906	73.12
288.138	76.12
288.369	86.12
288.6	92.12
288.831	87.12
289.062	86.12
289.293	84.12
289.524	83.12
289.755	83.12
289.986	84.12
290.217	87.12
290.448	77.12
290.679	81.12
290.91	76.12
291.141	80.12
291.371	88.12
291.602	81.12
291.833	95.12
292.064	95.12
292.295	102.12
292.526	93.12
292.757	95.12
292.987	84.12
293.218	85.12
293.449	86.12
293.68	76.12
293.91	83.12
294.141	85.12
294.372	81.12
294.603	87.12
294.833	82.12
295.064	71.12
295.295	72.12
295.525	81.12
295.756	72.12
295.987	83.12
296.217	95.12
296.448	83.12
296.679	88.12
296.909	88.12
297.14	82.12
297.37	76.12
297.601	68.12
297.831	73.12
298.062	85.12
298.292	92.12
298.523	88.12
298.753	70.12
298.984	91.12
299.214	70.12
299.445	77.12
299.675	87.12
299.905	80.12
300.136	87.12
300.366	88.12
300.597	79.12
300.827	82.12
301.057	81.12
301.288	77.12
301.518	88.12
301.748	81.12
301.979	81.12
302.209	86.12
302.439	83.12
302.669	88.12
302.9	71.12
303.13	87.12
303.36	83.12
303.59	91.12
303.82	89.12
304.051	88.12
304.281	87.12
304.511	90.12
304.741	78.12
304.971	89.12
305.201	90.12
305.431	84.12
305.661	78.12
305.891	86.12
306.121	79.12
306.352	66.12
306.582	76.12
306.812	84.12
307.042	91.12
307.272	91.12
307.502	78.12
307.731	75.12
307.961	92.12
308.191	83.12
308.421	80.12
308.651	86.12
308.881	88.12
309.111	78.12
309.341	80.12
309.571	79.12
309.8	86.12
310.03	78.12
310.26	80.12
310.49	96.12
310.72	75.12
310.949	80.12
311.179	99.12
311.409	87.12
311.639	64.12
311.868	79.12
312.098	92.12
312.328	89.12
312.557	84.12
312.787	90.12
313.017	83.12
313.246	80.12
313.476	81.12
313.706	78.12
313.935	93.12
314.165	81.12
314.394	75.12
314.624	85.12
314.853	93.12
315.083	88.12
315.312	87.12
315.542	77.12
315.771	96.12
316.001	82.12
316.23	98.12
316.46	83.12
316.689	80.12
316.919	99.12
317.148	96.12
317.377	97.12
317.607	88.12
317.836	86.12
318.065	87.12
318.295	74.12
318.524	87.12
318.753	75.12
318.983	89.12
319.212	84.12
319.441	67.12
319.67	72.12
319.9	82.12
320.129	89.12
320.358	81.12
320.587	98.12
320.816	77.12
321.046	88.12
321.275	90.12
321.504	86.12
321.733	83.12
321.962	72.12
322.191	80.12
322.42	82.12
322.649	78.12
322.878	86.12
323.108	87.12
323.337	88.12
323.566	81.12
323.795	77.12
324.024	69.12
324.253	89.12
324.482	86.12
324.71	94.12
324.939	81.12
325.168	92.12
325.397	89.12
325.626	90.12
325.855	89.12
326.084	99.12
326.313	79.12
326.542	84.12
326.77	90.12
326.999	78.12
327.228	83.12
327.457	91.12
327.686	78.12
327.914	94.12
328.143	93.12
328.372	75.12
328.6	85.12
328.829	88.12
329.058	80.12
329.287	110.12
329.515	87.12
329.744	84.12
329.972	84.12
330.201	94.12
330.43	79.12
330.658	98.12
330.887	86.12
331.115	89.12
331.344	89.12
331.572	86.12
331.801	69.12
332.03	76.12
332.258	99.12
332.486	89.12
332.715	80.12
332.943	84.12
333.172	84.12
333.4	85.12
333.629	88.12
333.857	77.12
334.085	79.12
334.314	78.12
334.542	82.12
334.771	94.12
334.999	95.12
335.227	88.12
335.455	80.12
335.684	96.12
335.912	73.12
336.14	92.12
336.369	104.12
336.597	85.12
336.825	92.12
337.053	85.12
337.281	78.12
337.51	77.12
337.738	88.12
337.966	90.12
338.194	101.12
338.422	93.12
338.65	99.12
338.878	80.12
339.106	81.12
339.334	79.12
339.562	91.12
339.79	80.12
340.018	84.12
340.246	69.12
340.474	81.12
340.702	71.12
340.93	88.12
341.158	90.12
341.386	77.12
341.614	90.12
341.842	78.12
342.07	79.12
342.298	82.12
342.526	88.12
342.754	97.12
342.981	88.12
343.209	86.12
343.437	85.12
343.665	79.12
343.893	72.12
344.12	84.12
344.348	84.12
344.576	87.12
344.804	86.12
345.031	68.12
345.259	71.12
345.487	88.12
345.714	89.12
345.942	84.12
346.17	94.12
346.397	92.12
346.625	76.12
346.853	92.12
347.08	84.12
347.308	96.12
347.535	83.12
347.763	74.12
347.99	86.12
348.218	83.12
348.445	97.12
348.673	97.12
348.9	91.12
349.128	82.12
349.355	83.12
349.583	69.12
349.81	77.12
350.037	97.12
350.265	92.12
350.492	72.12
350.72	93.12
350.947	84.12
351.174	94.12
351.402	87.12
351.629	85.12
351.856	81.12
352.083	92.12
352.311	89.12
352.538	72.12
352.765	80.12
352.992	84.12
353.22	97.12
353.447	78.12
353.674	83.12
353.901	84.12
354.128	75.12
354.355	86.12
354.583	72.12
354.81	73.12
355.037	79.12
355.264	78.12
355.491	87.12
355.718	84.12
355.945	92.12
356.172	78.12
356.399	82.12
356.626	84.12
356.853	96.12
357.08	99.12
357.307	85.12
357.534	81.12
357.761	84.12
357.988	94.12
358.215	75.12
358.441	81.12
358.668	81.12
358.895	80.12
359.122	86.12
359.349	89.12
359.576	78.12
359.802	75.12
360.029	89.12
360.256	82.12
360.483	96.12
360.709	84.12
360.936	102.12
361.163	79.12
361.39	86.12
361.616	90.12
361.843	91.12
362.07	75.12
362.296	81.12
362.523	77.12
362.749	90.12
362.976	95.12
363.203	87.12
363.429	82.12
363.656	92.12
363.882	82.12
364.109	88.12
364.335	73.12
364.562	93.12
364.788	93.12
365.015	87.12
365.241	88.12
365.468	91.12
365.694	73.12
365.92	83.12
366.147	84.12
366.373	96.12
366.599	85.12
366.826	65.12
367.052	85.12
367.278	95.12
367.505	76.12
367.731	78.12
367.957	82.12
368.184	77.12
368.41	83.12
368.636	82.12
368.862	98.12
369.089	89.12
369.315	83.12
369.541	76.12
369.767	81.12
369.993	91.12
370.219	83.12
370.445	82.12
370.672	91.12
370.898	81.12
371.124	81.12
371.35	77.12
371.576	77.12
371.802	77.12
372.028	86.12
372.254	93.12
372.48	79.12
372.706	71.12
372.932	93.12
373.158	99.12
373.384	105.12
373.61	77.12
373.835	84.12
374.061	93.12
374.287	84.12
374.513	83.12
374.739	76.12
374.965	74.12
375.191	77.12
375.416	79.12
375.642	84.12
375.868	89.12
376.094	87.12
376.319	91.12
376.545	82.12
376.771	67.12
376.997	75.12
377.222	89.12
377.448	80.12
377.674	86.12
377.899	95.12
378.125	75.12
378.35	83.12
378.576	72.12
378.802	85.12
379.027	75.12
379.253	78.12
379.478	86.12
379.704	77.12
379.929	79.12
380.155	86.12
380.38	83.12
380.606	89.12
380.831	74.12
381.057	75.12
381.282	82.12
381.507	79.12
381.733	81.12
381.958	80.12
382.184	90.12
382.409	96.12
382.634	80.12
382.86	91.12
383.085	92.12
383.31	81.12
383.535	77.12
383.761	80.12
383.986	85.12
384.211	90.12
384.436	80.12
384.662	78.12
384.887	77.12
385.112	88.12
385.337	77.12
385.562	93.12
385.787	89.12
386.013	91.12
386.238	81.12
386.463	100.12
386.688	81.12
386.913	95.12
387.138	94.12
387.363	87.12
387.588	71.12
387.813	86.12
388.038	86.12
388.263	75.12
388.488	95.12
388.713	91.12
388.938	91.12
389.163	87.12
389.387	79.12
389.612	84.12
389.837	72.12
390.062	77.12
390.287	86.12
390.512	77.12
390.736	85.12
390.961	88.12
391.186	88.12
391.411	81.12
391.636	102.12
391.86	98.12
392.085	85.12
392.31	91.12
392.534	77.12
392.759	91.12
392.984	93.12
393.208	84.12
393.433	80.12
393.658	84.12
393.882	85.12
394.107	78.12
394.331	72.12
394.556	85.12
394.78	85.12
395.005	96.12
395.229	78.12
395.454	101.12
395.678	81.12
395.903	90.12
396.127	85.12
396.352	85.12
396.576	88.12
396.801	82.12
397.025	85.12
397.249	94.12
397.474	98.12
397.698	84.12
397.922	75.12
398.147	57.12
398.371	75.12
398.595	80.12
398.82	77.12
399.044	85.12
399.268	102.12
399.492	89.12
399.717	73.12
399.941	83.12
400.165	91.12
400.389	82.12
400.613	95.12
400.837	76.12
401.062	77.12
401.286	94.12
401.51	95.12
401.734	91.12
401.958	75.12
402.182	74.12
402.406	88.12
402.63	82.12
402.854	99.12
403.078	91.12
403.302	86.12
403.526	76.12
403.75	76.12
403.974	82.12
404.198	88.12
404.422	81.12
404.645	100.12
404.869	92.12
405.093	88.12
405.317	96.12
405.541	87.12
405.765	93.12
405.988	89.12
406.212	74.12
406.436	93.12
406.66	92.12
406.883	79.12
407.107	74.12
407.331	87.12
407.555	82.12
407.778	85.12
408.002	78.12
408.226	87.12
408.449	73.12
408.673	85.12
408.896	83.12
409.12	93.12
409.344	89.12
409.567	91.12
409.791	81.12
410.014	81.12
410.238	77.12
410.461	85.12
410.685	76.12
410.908	81.12
411.132	84.12
411.355	88.12
411.578	79.12
411.802	85.12
412.025	84.12
412.249	77.12
412.472	75.12
412.695	85.12
412.919	96.12
413.142	87.12
413.365	89.12
413.589	79.12
413.812	77.12
414.035	90.12
414.258	74.12
414.482	88.12
414.705	87.12
414.928	86.12
415.151	90.12
415.374	88.12
415.597	83.12
415.821	83.12
416.044	89.12
416.267	89.12
416.49	76.12
416.713	97.12
416.936	78.12
417.159	80.12
417.382	78.12
417.605	72.12
417.828	74.12
418.051	82.12
418.274	83.12
418.497	88.12
418.72	89.12
418.943	83.12
419.166	91.12
419.389	95.12
419.611	96.12
419.834	63.12
420.057	92.12
420.28	79.12
420.503	87.12
420.726	85.12
420.948	90.12
421.171	82.12
421.394	77.12
421.617	82.12
421.839	90.12
422.062	80.12
422.285	95.12
422.507	84.12
422.73	90.12
422.953	83.12
423.175	93.12
423.398	82.12
423.621	95.12
423.843	85.12
424.066	81.12
424.288	75.12
424.511	92.12
424.733	91.12
424.956	87.12
425.178	92.12
425.401	80.12
425.623	85.12
425.846	90.12
426.068	87.12
426.291	90.12
426.513	76.12
426.735	91.12
426.958	91.12
427.18	90.12
427.402	74.12
427.625	104.12
427.847	81.12
428.069	93.12
428.292	83.12
428.514	87.12
428.736	87.12
428.958	74.12
429.181	87.12
429.403	90.12
429.625	83.12
429.847	94.12
430.069	97.12
430.292	86.12
430.514	90.12
430.736	90.12
430.958	87.12
431.18	85.12
431.402	72.12
431.624	79.12
431.846	64.12
432.068	93.12
432.29	81.12
432.512	84.12
432.734	88.12
432.956	93.12
433.178	77.12
433.4	85.12
433.622	101.12
433.844	89.12
434.066	90.12
434.287	78.12
434.509	76.12
434.731	77.12
434.953	87.12
435.175	63.12
435.397	91.12
435.618	73.12
435.84	71.12
436.062	82.12
436.284	84.12
436.505	80.12
436.727	84.12
436.949	85.12
437.17	94.12
437.392	88.12
437.614	84.12
437.835	84.12
438.057	88.12
438.278	85.12
438.5	83.12
438.721	98.12
438.943	91.12
439.165	93.12
439.386	94.12
439.608	90.12
439.829	92.12
440.05	90.12
440.272	83.12
440.493	87.12
440.715	81.12
440.936	90.12
441.158	86.12
441.379	80.12
441.6	77.12
441.822	88.12
442.043	74.12
442.264	100.12
442.486	86.12
442.707	82.12
442.928	84.12
443.149	90.12
443.371	81.12
443.592	79.12
443.813	72.12
444.034	81.12
444.255	85.12
444.476	86.12
444.698	95.12
444.919	93.12
445.14	234.12
445.361	160.12
445.582	94.12
445.803	77.12
446.024	80.12
446.245	95.12
446.466	100.12
446.687	73.12
446.908	84.12
447.129	90.12
447.35	96.12
447.571	80.12
447.792	78.12
448.013	74.12
448.234	89.12
448.455	81.12
448.675	81.12
448.896	77.12
449.117	81.12
449.338	90.12
449.559	84.12
449.779	73.12
450	81.12
450.221	89.12
450.442	96.12
450.662	82.12
450.883	101.12
451.104	81.12
451.324	76.12
451.545	76.12
451.766	91.12
451.986	83.12
452.207	86.12
452.428	85.12
452.648	85.12
452.869	87.12
453.089	72.12
453.31	78.12
453.53	89.12
453.751	88.12
453.971	86.12
454.192	85.12
454.412	79.12
454.633	79.12
454.853	73.12
455.073	89.12
455.294	96.12
455.514	85.12
455.734	71.12
455.955	80.12
456.175	98.12
456.395	84.12
456.616	84.12
456.836	87.12
457.056	87.12
457.276	96.12
457.497	81.12
457.717	80.12
457.937	87.12
458.157	94.12
458.377	81.12
458.598	73.12
458.818	96.12
459.038	81.12
459.258	88.12
459.478	82.12
459.698	74.12
459.918	80.12
460.138	81.12
460.358	94.12
460.578	103.12
460.798	85.12
461.018	81.12
461.238	73.12
461.458	88.12
461.678	85.12
461.898	83.12
462.118	94.12
462.338	96.12
462.558	88.12
462.777	70.12
462.997	89.12
463.217	78.12
463.437	88.12
463.657	87.12
463.876	77.12
464.096	77.12
464.316	90.12
464.536	91.12
464.755	76.12
464.975	96.12
465.195	72.12
465.414	103.12
465.634	89.12
465.854	87.12
466.073	91.12
466.293	93.12
466.512	80.12
466.732	93.12
466.951	95.12
467.171	91.12
467.391	89.12
467.61	94.12
467.829	98.12
468.049	74.12
468.268	89.12
468.488	95.12
468.707	84.12
468.927	88.12
469.146	87.12
469.365	86.12
469.585	91.12
469.804	87.12
470.023	96.12
470.243	92.12
470.462	82.12
470.681	90.12
470.901	87.12
471.12	91.12
471.339	84.12
471.558	81.12
471.777	98.12
471.997	72.12
472.216	94.12
472.435	85.12
472.654	78.12
472.873	73.12
473.092	93.12
473.311	92.12
473.53	84.12
473.749	88.12
473.968	80.12
474.187	91.12
474.406	89.12
474.625	78.12
474.844	95.12
475.063	92.12
475.282	74.12
475.501	83.12
475.72	81.12
475.939	101.12
476.158	95.12
476.377	81.12
476.596	86.12
476.814	88.12
477.033	88.12
477.252	100.12
477.471	86.12
477.69	92.12
477.908	93.12
478.127	112.12
478.346	84.12
478.564	84.12
478.783	83.12
479.002	79.12
479.22	88.12
479.439	95.12
479.658	87.12
479.876	58.12
480.095	76.12
480.313	85.12
480.532	95.12
480.751	91.12
480.969	85.12
481.188	78.12
481.406	100.12
481.624	89.12
481.843	106.12
482.061	102.12
482.28	81.12
482.498	81.12
482.717	81.12
482.935	104.12
483.153	87.12
483.372	90.12
483.59	90.12
483.808	83.12
484.027	79.12
484.245	95.12
484.463	88.12
484.681	94.12
484.9	95.12
485.118	95.12
485.336	88.12
485.554	81.12
485.772	96.12
485.99	72.12
486.209	90.12
486.427	94.12
486.645	76.12
486.863	92.12
487.081	90.12
487.299	100.12
487.517	94.12
487.735	95.12
487.953	82.12
488.171	102.12
488.389	91.12
488.607	80.12
488.825	83.12
489.043	94.12
489.261	103.12
489.479	102.12
489.696	92.12
489.914	81.12
490.132	99.12
490.35	91.12
490.568	85.12
490.786	97.12
491.003	97.12
491.221	92.12
491.439	95.12
491.657	95.12
491.874	96.12
492.092	100.12
492.31	97.12
492.527	97.12
492.745	101.12
492.963	99.12
493.18	97.12
493.398	88.12
493.615	89.12
493.833	89.12
494.05	93.12
494.268	89.12
494.485	91.12
494.703	86.12
494.92	98.12
495.138	90.12
495.355	106.12
495.573	88.12
495.79	108.12
496.008	91.12
496.225	92.12
496.442	93.12
496.66	105.12
496.877	94.12
497.094	98.12
497.312	109.12
497.529	103.12
497.746	96.12
497.963	101.12
498.181	88.12
498.398	105.12
498.615	99.12
498.832	97.12
499.049	100.12
499.267	98.12
499.484	108.12
499.701	100.12
499.918	119.12
500.135	104.12
500.352	111.12
500.569	111.12
500.786	118.12
501.003	107.12
501.22	115.12
501.437	103.12
501.654	91.12
501.871	96.12
502.088	114.12
502.305	92.12
502.522	93.12
502.739	104.12
502.956	88.12
503.172	106.12
503.389	84.12
503.606	91.12
503.823	114.12
504.04	96.12
504.256	85.12
504.473	98.12
504.69	91.12
504.907	93.12
505.123	100.12
505.34	103.12
505.557	100.12
505.773	107.12
505.99	97.12
506.207	100.12
506.423	98.12
506.64	96.12
506.856	100.12
507.073	114.12
507.289	92.12
507.506	80.12
507.722	107.12
507.939	99.12
508.155	85.12
508.372	90.12
508.588	99.12
508.805	84.12
509.021	89.12
509.238	86.12
509.454	92.12
509.67	97.12
509.887	95.12
510.103	97.12
510.319	91.12
510.536	93.12
510.752	80.12
510.968	83.12
511.184	88.12
511.401	89.12
511.617	81.12
511.833	82.12
512.049	97.12
512.265	97.12
512.481	94.12
512.698	88.12
512.914	91.12
513.13	96.12
513.346	88.12
513.562	91.12
513.778	95.12
513.994	86.12
514.21	96.12
514.426	89.12
514.642	102.12
514.858	84.12
515.074	91.12
515.29	73.12
515.506	89.12
515.721	95.12
515.937	84.12
516.153	91.12
516.369	78.12
516.585	76.12
516.801	80.12
517.016	92.12
517.232	89.12
517.448	93.12
517.664	93.12
517.879	87.12
518.095	86.12
518.311	108.12
518.527	89.12
