Data from Ni(NO3)2Standard.Agarose3%.GreenCap.LampEnergy5.5.E.O_HRD10591_14-40-12-188.txt Node
Date: Mon Jul 22 14:40:12 EDT 2019
User: cochatt
Spectrometer: HR+D1059
Trigger mode: 1
Integration Time (sec): 1.000000E-1
Scans to average: 1
Electric dark correction enabled: true
Nonlinearity correction enabled: false
Boxcar width: 0
XAxis mode: Wavelengths
Number of Pixels in Spectrum: 2048
>>>>>Begin Spectral Data<<<<<
223.165	-16.69
223.4	-16.69
223.635	-16.69
223.869	-4.69
224.104	-14.69
224.338	-13.69
224.573	-11.69
224.808	-11.69
225.042	-5.69
225.277	-24.69
225.511	-5.69
225.746	7.31
225.98	7.31
226.215	3.31
226.449	11.31
226.683	25.31
226.918	23.31
227.152	31.31
227.387	28.31
227.621	38.31
227.856	40.31
228.09	42.31
228.324	46.31
228.559	42.31
228.793	50.31
229.027	56.31
229.262	55.31
229.496	63.31
229.73	53.31
229.964	72.31
230.199	59.31
230.433	70.31
230.667	82.31
230.901	88.31
231.136	75.31
231.37	73.31
231.604	74.31
231.838	83.31
232.072	85.31
232.306	86.31
232.541	68.31
232.775	85.31
233.009	87.31
233.243	66.31
233.477	79.31
233.711	81.31
233.945	76.31
234.179	89.31
234.413	73.31
234.647	84.31
234.881	85.31
235.115	84.31
235.349	91.31
235.583	78.31
235.817	83.31
236.051	79.31
236.285	83.31
236.519	80.31
236.753	89.31
236.987	79.31
237.221	87.31
237.455	71.31
237.689	76.31
237.922	85.31
238.156	74.31
238.39	70.31
238.624	72.31
238.858	69.31
239.091	85.31
239.325	84.31
239.559	69.31
239.793	76.31
240.027	64.31
240.26	61.31
240.494	75.31
240.728	87.31
240.961	67.31
241.195	78.31
241.429	87.31
241.662	70.31
241.896	89.31
242.13	88.31
242.363	77.31
242.597	85.31
242.83	66.31
243.064	67.31
243.298	76.31
243.531	86.31
243.765	74.31
243.998	70.31
244.232	82.31
244.465	67.31
244.699	77.31
244.932	74.31
245.166	79.31
245.399	93.31
245.633	75.31
245.866	73.31
246.099	91.31
246.333	86.31
246.566	71.31
246.8	89.31
247.033	82.31
247.266	83.31
247.5	86.31
247.733	86.31
247.966	76.31
248.2	61.31
248.433	85.31
248.666	66.31
248.899	83.31
249.133	80.31
249.366	85.31
249.599	75.31
249.832	85.31
250.066	91.31
250.299	73.31
250.532	79.31
250.765	85.31
250.998	83.31
251.231	79.31
251.465	77.31
251.698	78.31
251.931	82.31
252.164	68.31
252.397	74.31
252.63	79.31
252.863	70.31
253.096	82.31
253.329	80.31
253.562	85.31
253.795	102.31
254.028	78.31
254.261	94.31
254.494	76.31
254.727	89.31
254.96	90.31
255.193	90.31
255.426	77.31
255.659	86.31
255.892	81.31
256.124	76.31
256.357	69.31
256.59	61.31
256.823	70.31
257.056	67.31
257.289	91.31
257.521	94.31
257.754	85.31
257.987	65.31
258.22	88.31
258.452	83.31
258.685	85.31
258.918	85.31
259.151	86.31
259.383	85.31
259.616	83.31
259.849	90.31
260.081	77.31
260.314	87.31
260.547	95.31
260.779	73.31
261.012	94.31
261.244	74.31
261.477	80.31
261.71	65.31
261.942	78.31
262.175	80.31
262.407	101.31
262.64	85.31
262.872	88.31
263.105	93.31
263.337	92.31
263.57	83.31
263.802	82.31
264.035	74.31
264.267	80.31
264.499	75.31
264.732	74.31
264.964	63.31
265.197	85.31
265.429	84.31
265.661	72.31
265.894	88.31
266.126	82.31
266.358	78.31
266.591	102.31
266.823	87.31
267.055	69.31
267.287	88.31
267.52	94.31
267.752	85.31
267.984	92.31
268.216	91.31
268.448	101.31
268.681	86.31
268.913	86.31
269.145	74.31
269.377	84.31
269.609	79.31
269.841	96.31
270.073	86.31
270.306	96.31
270.538	83.31
270.77	90.31
271.002	82.31
271.234	102.31
271.466	77.31
271.698	87.31
271.93	73.31
272.162	77.31
272.394	91.31
272.626	85.31
272.858	84.31
273.09	68.31
273.322	90.31
273.553	82.31
273.785	70.31
274.017	85.31
274.249	79.31
274.481	78.31
274.713	93.31
274.945	67.31
275.176	72.31
275.408	99.31
275.64	62.31
275.872	76.31
276.104	86.31
276.335	79.31
276.567	75.31
276.799	82.31
277.031	93.31
277.262	88.31
277.494	100.31
277.726	80.31
277.957	86.31
278.189	89.31
278.421	82.31
278.652	85.31
278.884	84.31
279.115	87.31
279.347	82.31
279.579	86.31
279.81	82.31
280.042	87.31
280.273	92.31
280.505	81.31
280.736	73.31
280.968	88.31
281.199	89.31
281.431	79.31
281.662	102.31
281.894	81.31
282.125	75.31
282.356	93.31
282.588	87.31
282.819	90.31
283.051	87.31
283.282	68.31
283.513	89.31
283.745	85.31
283.976	82.31
284.207	95.31
284.439	81.31
284.67	78.31
284.901	81.31
285.132	83.31
285.364	97.31
285.595	80.31
285.826	70.31
286.057	90.31
286.288	81.31
286.52	94.31
286.751	83.31
286.982	95.31
287.213	81.31
287.444	89.31
287.675	91.31
287.906	90.31
288.138	86.31
288.369	84.31
288.6	94.31
288.831	94.31
289.062	87.31
289.293	83.31
289.524	86.31
289.755	76.31
289.986	74.31
290.217	76.31
290.448	89.31
290.679	99.31
290.91	87.31
291.141	99.31
291.371	86.31
291.602	92.31
291.833	78.31
292.064	85.31
292.295	69.31
292.526	75.31
292.757	89.31
292.987	79.31
293.218	87.31
293.449	91.31
293.68	89.31
293.91	92.31
294.141	100.31
294.372	74.31
294.603	80.31
294.833	82.31
295.064	93.31
295.295	103.31
295.525	95.31
295.756	89.31
295.987	85.31
296.217	80.31
296.448	92.31
296.679	90.31
296.909	98.31
297.14	87.31
297.37	98.31
297.601	81.31
297.831	80.31
298.062	80.31
298.292	88.31
298.523	83.31
298.753	88.31
298.984	79.31
299.214	106.31
299.445	104.31
299.675	70.31
299.905	83.31
300.136	84.31
300.366	94.31
300.597	78.31
300.827	79.31
301.057	83.31
301.288	76.31
301.518	86.31
301.748	89.31
301.979	75.31
302.209	80.31
302.439	98.31
302.669	91.31
302.9	86.31
303.13	73.31
303.36	86.31
303.59	93.31
303.82	86.31
304.051	76.31
304.281	86.31
304.511	87.31
304.741	87.31
304.971	89.31
305.201	89.31
305.431	83.31
305.661	90.31
305.891	96.31
306.121	100.31
306.352	92.31
306.582	88.31
306.812	82.31
307.042	90.31
307.272	95.31
307.502	86.31
307.731	77.31
307.961	93.31
308.191	82.31
308.421	99.31
308.651	93.31
308.881	94.31
309.111	94.31
309.341	86.31
309.571	81.31
309.8	88.31
310.03	92.31
310.26	95.31
310.49	95.31
310.72	85.31
310.949	84.31
311.179	86.31
311.409	84.31
311.639	77.31
311.868	78.31
312.098	83.31
312.328	81.31
312.557	88.31
312.787	90.31
313.017	84.31
313.246	89.31
313.476	85.31
313.706	89.31
313.935	87.31
314.165	77.31
314.394	81.31
314.624	86.31
314.853	84.31
315.083	87.31
315.312	93.31
315.542	87.31
315.771	98.31
316.001	96.31
316.23	83.31
316.46	91.31
316.689	79.31
316.919	84.31
317.148	81.31
317.377	94.31
317.607	89.31
317.836	87.31
318.065	87.31
318.295	79.31
318.524	86.31
318.753	93.31
318.983	92.31
319.212	85.31
319.441	73.31
319.67	90.31
319.9	91.31
320.129	79.31
320.358	112.31
320.587	94.31
320.816	79.31
321.046	86.31
321.275	83.31
321.504	84.31
321.733	92.31
321.962	76.31
322.191	77.31
322.42	108.31
322.649	79.31
322.878	87.31
323.108	98.31
323.337	86.31
323.566	83.31
323.795	91.31
324.024	75.31
324.253	94.31
324.482	85.31
324.71	82.31
324.939	92.31
325.168	84.31
325.397	97.31
325.626	92.31
325.855	93.31
326.084	83.31
326.313	71.31
326.542	85.31
326.77	90.31
326.999	81.31
327.228	89.31
327.457	87.31
327.686	100.31
327.914	87.31
328.143	97.31
328.372	87.31
328.6	79.31
328.829	81.31
329.058	89.31
329.287	81.31
329.515	91.31
329.744	70.31
329.972	74.31
330.201	70.31
330.43	85.31
330.658	80.31
330.887	79.31
331.115	85.31
331.344	102.31
331.572	83.31
331.801	79.31
332.03	93.31
332.258	73.31
332.486	86.31
332.715	89.31
332.943	73.31
333.172	74.31
333.4	93.31
333.629	91.31
333.857	85.31
334.085	71.31
334.314	93.31
334.542	75.31
334.771	82.31
334.999	88.31
335.227	94.31
335.455	78.31
335.684	97.31
335.912	97.31
336.14	90.31
336.369	88.31
336.597	82.31
336.825	83.31
337.053	83.31
337.281	92.31
337.51	98.31
337.738	87.31
337.966	87.31
338.194	81.31
338.422	83.31
338.65	96.31
338.878	92.31
339.106	87.31
339.334	89.31
339.562	95.31
339.79	82.31
340.018	76.31
340.246	87.31
340.474	90.31
340.702	101.31
340.93	87.31
341.158	87.31
341.386	87.31
341.614	76.31
341.842	95.31
342.07	90.31
342.298	102.31
342.526	89.31
342.754	83.31
342.981	100.31
343.209	87.31
343.437	99.31
343.665	70.31
343.893	92.31
344.12	102.31
344.348	86.31
344.576	81.31
344.804	82.31
345.031	73.31
345.259	78.31
345.487	88.31
345.714	91.31
345.942	86.31
346.17	100.31
346.397	98.31
346.625	90.31
346.853	102.31
347.08	87.31
347.308	88.31
347.535	95.31
347.763	96.31
347.99	90.31
348.218	97.31
348.445	90.31
348.673	103.31
348.9	79.31
349.128	88.31
349.355	85.31
349.583	86.31
349.81	82.31
350.037	94.31
350.265	86.31
350.492	93.31
350.72	92.31
350.947	75.31
351.174	85.31
351.402	97.31
351.629	87.31
351.856	81.31
352.083	82.31
352.311	90.31
352.538	71.31
352.765	79.31
352.992	85.31
353.22	92.31
353.447	90.31
353.674	104.31
353.901	80.31
354.128	86.31
354.355	82.31
354.583	76.31
354.81	81.31
355.037	93.31
355.264	86.31
355.491	73.31
355.718	86.31
355.945	80.31
356.172	79.31
356.399	90.31
356.626	79.31
356.853	89.31
357.08	83.31
357.307	91.31
357.534	98.31
357.761	86.31
357.988	70.31
358.215	86.31
358.441	70.31
358.668	76.31
358.895	94.31
359.122	92.31
359.349	82.31
359.576	79.31
359.802	93.31
360.029	89.31
360.256	72.31
360.483	76.31
360.709	99.31
360.936	100.31
361.163	90.31
361.39	84.31
361.616	82.31
361.843	82.31
362.07	90.31
362.296	80.31
362.523	85.31
362.749	90.31
362.976	90.31
363.203	86.31
363.429	78.31
363.656	94.31
363.882	90.31
364.109	93.31
364.335	88.31
364.562	89.31
364.788	73.31
365.015	91.31
365.241	85.31
365.468	89.31
365.694	82.31
365.92	79.31
366.147	94.31
366.373	83.31
366.599	79.31
366.826	87.31
367.052	87.31
367.278	89.31
367.505	90.31
367.731	95.31
367.957	85.31
368.184	85.31
368.41	84.31
368.636	84.31
368.862	79.31
369.089	83.31
369.315	78.31
369.541	77.31
369.767	91.31
369.993	85.31
370.219	92.31
370.445	84.31
370.672	92.31
370.898	84.31
371.124	85.31
371.35	84.31
371.576	83.31
371.802	92.31
372.028	76.31
372.254	86.31
372.48	85.31
372.706	86.31
372.932	94.31
373.158	85.31
373.384	80.31
373.61	90.31
373.835	92.31
374.061	86.31
374.287	90.31
374.513	95.31
374.739	93.31
374.965	83.31
375.191	87.31
375.416	83.31
375.642	79.31
375.868	71.31
376.094	70.31
376.319	73.31
376.545	76.31
376.771	79.31
376.997	89.31
377.222	84.31
377.448	90.31
377.674	90.31
377.899	92.31
378.125	93.31
378.35	84.31
378.576	91.31
378.802	95.31
379.027	99.31
379.253	91.31
379.478	85.31
379.704	89.31
379.929	75.31
380.155	94.31
380.38	87.31
380.606	79.31
380.831	71.31
381.057	90.31
381.282	85.31
381.507	93.31
381.733	88.31
381.958	92.31
382.184	76.31
382.409	83.31
382.634	87.31
382.86	95.31
383.085	82.31
383.31	74.31
383.535	83.31
383.761	84.31
383.986	86.31
384.211	93.31
384.436	81.31
384.662	92.31
384.887	96.31
385.112	88.31
385.337	93.31
385.562	85.31
385.787	87.31
386.013	100.31
386.238	89.31
386.463	82.31
386.688	84.31
386.913	93.31
387.138	89.31
387.363	94.31
387.588	99.31
387.813	81.31
388.038	76.31
388.263	88.31
388.488	86.31
388.713	82.31
388.938	74.31
389.163	79.31
389.387	86.31
389.612	92.31
389.837	79.31
390.062	78.31
390.287	89.31
390.512	79.31
390.736	83.31
390.961	92.31
391.186	90.31
391.411	86.31
391.636	85.31
391.86	77.31
392.085	91.31
392.31	90.31
392.534	78.31
392.759	90.31
392.984	89.31
393.208	91.31
393.433	93.31
393.658	80.31
393.882	89.31
394.107	73.31
394.331	92.31
394.556	80.31
394.78	82.31
395.005	73.31
395.229	89.31
395.454	89.31
395.678	88.31
395.903	97.31
396.127	90.31
396.352	80.31
396.576	94.31
396.801	83.31
397.025	89.31
397.249	90.31
397.474	83.31
397.698	94.31
397.922	76.31
398.147	80.31
398.371	89.31
398.595	82.31
398.82	76.31
399.044	103.31
399.268	91.31
399.492	87.31
399.717	97.31
399.941	93.31
400.165	83.31
400.389	79.31
400.613	93.31
400.837	98.31
401.062	89.31
401.286	82.31
401.51	96.31
401.734	87.31
401.958	87.31
402.182	86.31
402.406	88.31
402.63	87.31
402.854	67.31
403.078	75.31
403.302	72.31
403.526	89.31
403.75	82.31
403.974	82.31
404.198	75.31
404.422	92.31
404.645	79.31
404.869	89.31
405.093	105.31
405.317	94.31
405.541	92.31
405.765	95.31
405.988	75.31
406.212	84.31
406.436	85.31
406.66	82.31
406.883	75.31
407.107	93.31
407.331	97.31
407.555	98.31
407.778	84.31
408.002	84.31
408.226	95.31
408.449	90.31
408.673	92.31
408.896	91.31
409.12	85.31
409.344	88.31
409.567	72.31
409.791	79.31
410.014	100.31
410.238	79.31
410.461	76.31
410.685	87.31
410.908	91.31
411.132	96.31
411.355	84.31
411.578	97.31
411.802	88.31
412.025	92.31
412.249	96.31
412.472	75.31
412.695	91.31
412.919	86.31
413.142	85.31
413.365	88.31
413.589	76.31
413.812	88.31
414.035	69.31
414.258	90.31
414.482	97.31
414.705	87.31
414.928	89.31
415.151	74.31
415.374	90.31
415.597	81.31
415.821	78.31
416.044	92.31
416.267	87.31
416.49	95.31
416.713	97.31
416.936	81.31
417.159	83.31
417.382	83.31
417.605	82.31
417.828	79.31
418.051	80.31
418.274	73.31
418.497	70.31
418.72	67.31
418.943	75.31
419.166	84.31
419.389	87.31
419.611	90.31
419.834	93.31
420.057	82.31
420.28	86.31
420.503	79.31
420.726	98.31
420.948	79.31
421.171	84.31
421.394	88.31
421.617	84.31
421.839	78.31
422.062	97.31
422.285	80.31
422.507	75.31
422.73	88.31
422.953	82.31
423.175	102.31
423.398	82.31
423.621	86.31
423.843	82.31
424.066	90.31
424.288	84.31
424.511	81.31
424.733	90.31
424.956	83.31
425.178	98.31
425.401	94.31
425.623	74.31
425.846	83.31
426.068	76.31
426.291	84.31
426.513	80.31
426.735	89.31
426.958	91.31
427.18	87.31
427.402	91.31
427.625	91.31
427.847	85.31
428.069	90.31
428.292	83.31
428.514	79.31
428.736	82.31
428.958	83.31
429.181	84.31
429.403	86.31
429.625	78.31
429.847	92.31
430.069	102.31
430.292	92.31
430.514	81.31
430.736	76.31
430.958	87.31
431.18	89.31
431.402	104.31
431.624	94.31
431.846	97.31
432.068	91.31
432.29	86.31
432.512	73.31
432.734	89.31
432.956	77.31
433.178	78.31
433.4	98.31
433.622	95.31
433.844	82.31
434.066	105.31
434.287	96.31
434.509	86.31
434.731	91.31
434.953	87.31
435.175	93.31
435.397	93.31
435.618	76.31
435.84	99.31
436.062	99.31
436.284	82.31
436.505	83.31
436.727	74.31
436.949	85.31
437.17	87.31
437.392	93.31
437.614	80.31
437.835	87.31
438.057	103.31
438.278	89.31
438.5	85.31
438.721	100.31
438.943	76.31
439.165	81.31
439.386	77.31
439.608	86.31
439.829	80.31
440.05	81.31
440.272	75.31
440.493	81.31
440.715	79.31
440.936	86.31
441.158	90.31
441.379	76.31
441.6	94.31
441.822	78.31
442.043	93.31
442.264	83.31
442.486	80.31
442.707	84.31
442.928	85.31
443.149	88.31
443.371	85.31
443.592	93.31
443.813	82.31
444.034	76.31
444.255	97.31
444.476	87.31
444.698	99.31
444.919	85.31
445.14	204.31
445.361	147.31
445.582	99.31
445.803	83.31
446.024	81.31
446.245	95.31
446.466	79.31
446.687	97.31
446.908	82.31
447.129	83.31
447.35	77.31
447.571	87.31
447.792	91.31
448.013	89.31
448.234	89.31
448.455	83.31
448.675	77.31
448.896	87.31
449.117	95.31
449.338	76.31
449.559	93.31
449.779	75.31
450	100.31
450.221	99.31
450.442	84.31
450.662	82.31
450.883	100.31
451.104	83.31
451.324	74.31
451.545	78.31
451.766	92.31
451.986	83.31
452.207	79.31
452.428	81.31
452.648	77.31
452.869	89.31
453.089	99.31
453.31	90.31
453.53	92.31
453.751	76.31
453.971	85.31
454.192	83.31
454.412	81.31
454.633	73.31
454.853	86.31
455.073	90.31
455.294	73.31
455.514	91.31
455.734	101.31
455.955	88.31
456.175	99.31
456.395	77.31
456.616	85.31
456.836	72.31
457.056	84.31
457.276	87.31
457.497	87.31
457.717	96.31
457.937	83.31
458.157	81.31
458.377	88.31
458.598	92.31
458.818	91.31
459.038	75.31
459.258	72.31
459.478	82.31
459.698	63.31
459.918	74.31
460.138	90.31
460.358	84.31
460.578	84.31
460.798	93.31
461.018	89.31
461.238	92.31
461.458	92.31
461.678	77.31
461.898	79.31
462.118	113.31
462.338	93.31
462.558	95.31
462.777	92.31
462.997	85.31
463.217	98.31
463.437	84.31
463.657	86.31
463.876	88.31
464.096	87.31
464.316	93.31
464.536	91.31
464.755	104.31
464.975	88.31
465.195	84.31
465.414	92.31
465.634	92.31
465.854	76.31
466.073	81.31
466.293	92.31
466.512	84.31
466.732	87.31
466.951	88.31
467.171	87.31
467.391	93.31
467.61	72.31
467.829	84.31
468.049	91.31
468.268	91.31
468.488	85.31
468.707	89.31
468.927	87.31
469.146	87.31
469.365	87.31
469.585	90.31
469.804	72.31
470.023	77.31
470.243	86.31
470.462	92.31
470.681	90.31
470.901	82.31
471.12	84.31
471.339	74.31
471.558	94.31
471.777	91.31
471.997	94.31
472.216	87.31
472.435	78.31
472.654	84.31
472.873	99.31
473.092	104.31
473.311	90.31
473.53	93.31
473.749	87.31
473.968	96.31
474.187	91.31
474.406	86.31
474.625	85.31
474.844	90.31
475.063	72.31
475.282	91.31
475.501	84.31
475.72	95.31
475.939	101.31
476.158	87.31
476.377	74.31
476.596	91.31
476.814	104.31
477.033	89.31
477.252	75.31
477.471	80.31
477.69	76.31
477.908	85.31
478.127	85.31
478.346	109.31
478.564	114.31
478.783	89.31
479.002	89.31
479.22	99.31
479.439	99.31
479.658	94.31
479.876	94.31
480.095	94.31
480.313	91.31
480.532	90.31
480.751	92.31
480.969	98.31
481.188	105.31
481.406	84.31
481.624	93.31
481.843	94.31
482.061	91.31
482.28	95.31
482.498	91.31
482.717	83.31
482.935	94.31
483.153	94.31
483.372	92.31
483.59	93.31
483.808	93.31
484.027	82.31
484.245	77.31
484.463	85.31
484.681	94.31
484.9	104.31
485.118	95.31
485.336	95.31
485.554	85.31
485.772	93.31
485.99	78.31
486.209	102.31
486.427	81.31
486.645	85.31
486.863	98.31
487.081	83.31
487.299	91.31
487.517	100.31
487.735	89.31
487.953	79.31
488.171	102.31
488.389	84.31
488.607	98.31
488.825	87.31
489.043	76.31
489.261	83.31
489.479	77.31
489.696	91.31
489.914	107.31
490.132	98.31
490.35	94.31
490.568	97.31
490.786	89.31
491.003	93.31
491.221	111.31
491.439	86.31
491.657	86.31
491.874	92.31
492.092	86.31
492.31	89.31
492.527	116.31
492.745	102.31
492.963	83.31
493.18	95.31
493.398	106.31
493.615	106.31
493.833	93.31
494.05	91.31
494.268	83.31
494.485	89.31
494.703	90.31
494.92	74.31
495.138	81.31
495.355	85.31
495.573	97.31
495.79	103.31
496.008	94.31
496.225	93.31
496.442	102.31
496.66	103.31
496.877	106.31
497.094	108.31
497.312	101.31
497.529	108.31
497.746	106.31
497.963	106.31
498.181	98.31
498.398	87.31
498.615	95.31
498.832	90.31
499.049	100.31
499.267	104.31
499.484	108.31
499.701	109.31
499.918	104.31
500.135	106.31
500.352	103.31
500.569	102.31
500.786	113.31
501.003	101.31
501.22	112.31
501.437	93.31
501.654	113.31
501.871	100.31
502.088	100.31
502.305	97.31
502.522	101.31
502.739	88.31
502.956	101.31
503.172	89.31
503.389	97.31
503.606	92.31
503.823	104.31
504.04	93.31
504.256	89.31
504.473	98.31
504.69	87.31
504.907	88.31
505.123	95.31
505.34	86.31
505.557	85.31
505.773	92.31
505.99	88.31
506.207	76.31
506.423	89.31
506.64	79.31
506.856	101.31
507.073	91.31
507.289	103.31
507.506	83.31
507.722	88.31
507.939	99.31
508.155	95.31
508.372	98.31
508.588	87.31
508.805	100.31
509.021	88.31
509.238	100.31
509.454	79.31
509.67	88.31
509.887	80.31
510.103	87.31
510.319	89.31
510.536	87.31
510.752	89.31
510.968	85.31
511.184	88.31
511.401	90.31
511.617	88.31
511.833	95.31
512.049	83.31
512.265	94.31
512.481	91.31
512.698	89.31
512.914	84.31
513.13	108.31
513.346	101.31
513.562	94.31
513.778	91.31
513.994	97.31
514.21	88.31
514.426	77.31
514.642	99.31
514.858	91.31
515.074	91.31
515.29	99.31
515.506	92.31
515.721	81.31
515.937	80.31
516.153	90.31
516.369	96.31
516.585	87.31
516.801	91.31
517.016	95.31
517.232	76.31
517.448	94.31
517.664	83.31
517.879	111.31
518.095	94.31
