Data from Ni(NO3)2Standard.Agarose3%.GreenCap.LampEnergy5.5.E.O_HRD10591_14-40-32-193.txt Node
Date: Mon Jul 22 14:40:32 EDT 2019
User: cochatt
Spectrometer: HR+D1059
Trigger mode: 1
Integration Time (sec): 1.000000E-1
Scans to average: 1
Electric dark correction enabled: true
Nonlinearity correction enabled: false
Boxcar width: 0
XAxis mode: Wavelengths
Number of Pixels in Spectrum: 2048
>>>>>Begin Spectral Data<<<<<
223.165	-17.88
223.4	-17.88
223.635	-17.88
223.869	-15.88
224.104	-13.88
224.338	-12.88
224.573	-15.88
224.808	-14.88
225.042	0.12
225.277	11.12
225.511	-15.88
225.746	-0.88
225.98	6.12
226.215	13.12
226.449	16.12
226.683	13.12
226.918	20.12
227.152	28.12
227.387	26.12
227.621	26.12
227.856	41.12
228.09	49.12
228.324	54.12
228.559	47.12
228.793	32.12
229.027	58.12
229.262	58.12
229.496	60.12
229.73	62.12
229.964	86.12
230.199	62.12
230.433	76.12
230.667	74.12
230.901	77.12
231.136	81.12
231.37	84.12
231.604	85.12
231.838	65.12
232.072	94.12
232.306	77.12
232.541	86.12
232.775	68.12
233.009	78.12
233.243	68.12
233.477	69.12
233.711	74.12
233.945	75.12
234.179	83.12
234.413	88.12
234.647	89.12
234.881	88.12
235.115	88.12
235.349	80.12
235.583	68.12
235.817	64.12
236.051	62.12
236.285	71.12
236.519	71.12
236.753	73.12
236.987	69.12
237.221	71.12
237.455	64.12
237.689	79.12
237.922	81.12
238.156	89.12
238.39	78.12
238.624	82.12
238.858	67.12
239.091	62.12
239.325	77.12
239.559	70.12
239.793	79.12
240.027	84.12
240.26	73.12
240.494	76.12
240.728	74.12
240.961	79.12
241.195	74.12
241.429	82.12
241.662	72.12
241.896	73.12
242.13	66.12
242.363	71.12
242.597	77.12
242.83	77.12
243.064	66.12
243.298	72.12
243.531	67.12
243.765	70.12
243.998	83.12
244.232	55.12
244.465	79.12
244.699	81.12
244.932	71.12
245.166	82.12
245.399	64.12
245.633	88.12
245.866	78.12
246.099	95.12
246.333	93.12
246.566	74.12
246.8	76.12
247.033	79.12
247.266	74.12
247.5	74.12
247.733	80.12
247.966	71.12
248.2	93.12
248.433	87.12
248.666	69.12
248.899	71.12
249.133	88.12
249.366	88.12
249.599	74.12
249.832	74.12
250.066	83.12
250.299	77.12
250.532	65.12
250.765	68.12
250.998	75.12
251.231	61.12
251.465	63.12
251.698	80.12
251.931	92.12
252.164	84.12
252.397	64.12
252.63	77.12
252.863	63.12
253.096	74.12
253.329	78.12
253.562	86.12
253.795	88.12
254.028	79.12
254.261	90.12
254.494	79.12
254.727	88.12
254.96	84.12
255.193	66.12
255.426	80.12
255.659	95.12
255.892	89.12
256.124	67.12
256.357	66.12
256.59	85.12
256.823	81.12
257.056	66.12
257.289	81.12
257.521	69.12
257.754	82.12
257.987	78.12
258.22	79.12
258.452	74.12
258.685	62.12
258.918	80.12
259.151	76.12
259.383	86.12
259.616	76.12
259.849	80.12
260.081	81.12
260.314	80.12
260.547	75.12
260.779	85.12
261.012	80.12
261.244	71.12
261.477	74.12
261.71	79.12
261.942	81.12
262.175	77.12
262.407	78.12
262.64	77.12
262.872	67.12
263.105	69.12
263.337	64.12
263.57	73.12
263.802	87.12
264.035	94.12
264.267	89.12
264.499	81.12
264.732	90.12
264.964	74.12
265.197	80.12
265.429	94.12
265.661	77.12
265.894	64.12
266.126	81.12
266.358	86.12
266.591	82.12
266.823	92.12
267.055	72.12
267.287	91.12
267.52	80.12
267.752	84.12
267.984	85.12
268.216	69.12
268.448	70.12
268.681	91.12
268.913	72.12
269.145	66.12
269.377	96.12
269.609	82.12
269.841	72.12
270.073	86.12
270.306	74.12
270.538	75.12
270.77	84.12
271.002	77.12
271.234	80.12
271.466	73.12
271.698	82.12
271.93	66.12
272.162	68.12
272.394	91.12
272.626	77.12
272.858	81.12
273.09	78.12
273.322	76.12
273.553	80.12
273.785	76.12
274.017	70.12
274.249	66.12
274.481	75.12
274.713	75.12
274.945	81.12
275.176	92.12
275.408	81.12
275.64	82.12
275.872	66.12
276.104	86.12
276.335	95.12
276.567	85.12
276.799	76.12
277.031	74.12
277.262	80.12
277.494	82.12
277.726	82.12
277.957	77.12
278.189	75.12
278.421	84.12
278.652	79.12
278.884	81.12
279.115	90.12
279.347	85.12
279.579	76.12
279.81	71.12
280.042	82.12
280.273	83.12
280.505	88.12
280.736	85.12
280.968	87.12
281.199	73.12
281.431	79.12
281.662	74.12
281.894	74.12
282.125	92.12
282.356	73.12
282.588	82.12
282.819	90.12
283.051	81.12
283.282	97.12
283.513	78.12
283.745	65.12
283.976	76.12
284.207	77.12
284.439	85.12
284.67	77.12
284.901	77.12
285.132	79.12
285.364	74.12
285.595	79.12
285.826	73.12
286.057	85.12
286.288	83.12
286.52	74.12
286.751	83.12
286.982	101.12
287.213	80.12
287.444	86.12
287.675	84.12
287.906	84.12
288.138	70.12
288.369	87.12
288.6	85.12
288.831	74.12
289.062	79.12
289.293	69.12
289.524	89.12
289.755	78.12
289.986	92.12
290.217	94.12
290.448	81.12
290.679	76.12
290.91	78.12
291.141	85.12
291.371	93.12
291.602	93.12
291.833	82.12
292.064	82.12
292.295	86.12
292.526	94.12
292.757	78.12
292.987	87.12
293.218	91.12
293.449	82.12
293.68	82.12
293.91	87.12
294.141	83.12
294.372	94.12
294.603	98.12
294.833	76.12
295.064	74.12
295.295	82.12
295.525	81.12
295.756	89.12
295.987	83.12
296.217	87.12
296.448	88.12
296.679	93.12
296.909	90.12
297.14	82.12
297.37	82.12
297.601	94.12
297.831	80.12
298.062	72.12
298.292	83.12
298.523	81.12
298.753	105.12
298.984	82.12
299.214	73.12
299.445	87.12
299.675	80.12
299.905	83.12
300.136	74.12
300.366	69.12
300.597	97.12
300.827	83.12
301.057	91.12
301.288	93.12
301.518	85.12
301.748	91.12
301.979	84.12
302.209	88.12
302.439	81.12
302.669	88.12
302.9	77.12
303.13	75.12
303.36	92.12
303.59	96.12
303.82	91.12
304.051	77.12
304.281	80.12
304.511	86.12
304.741	77.12
304.971	80.12
305.201	75.12
305.431	77.12
305.661	87.12
305.891	89.12
306.121	70.12
306.352	76.12
306.582	86.12
306.812	75.12
307.042	74.12
307.272	80.12
307.502	77.12
307.731	79.12
307.961	87.12
308.191	79.12
308.421	95.12
308.651	95.12
308.881	83.12
309.111	60.12
309.341	84.12
309.571	84.12
309.8	85.12
310.03	79.12
310.26	75.12
310.49	95.12
310.72	81.12
310.949	90.12
311.179	96.12
311.409	88.12
311.639	84.12
311.868	70.12
312.098	76.12
312.328	88.12
312.557	93.12
312.787	86.12
313.017	82.12
313.246	80.12
313.476	75.12
313.706	73.12
313.935	80.12
314.165	83.12
314.394	76.12
314.624	70.12
314.853	80.12
315.083	96.12
315.312	80.12
315.542	89.12
315.771	77.12
316.001	88.12
316.23	79.12
316.46	79.12
316.689	87.12
316.919	79.12
317.148	85.12
317.377	99.12
317.607	76.12
317.836	91.12
318.065	81.12
318.295	85.12
318.524	64.12
318.753	85.12
318.983	76.12
319.212	99.12
319.441	87.12
319.67	82.12
319.9	81.12
320.129	92.12
320.358	86.12
320.587	89.12
320.816	94.12
321.046	80.12
321.275	93.12
321.504	92.12
321.733	84.12
321.962	74.12
322.191	81.12
322.42	74.12
322.649	82.12
322.878	89.12
323.108	79.12
323.337	95.12
323.566	87.12
323.795	74.12
324.024	79.12
324.253	93.12
324.482	72.12
324.71	79.12
324.939	81.12
325.168	73.12
325.397	76.12
325.626	87.12
325.855	88.12
326.084	77.12
326.313	101.12
326.542	90.12
326.77	80.12
326.999	85.12
327.228	90.12
327.457	92.12
327.686	84.12
327.914	100.12
328.143	101.12
328.372	72.12
328.6	87.12
328.829	96.12
329.058	76.12
329.287	79.12
329.515	86.12
329.744	96.12
329.972	84.12
330.201	85.12
330.43	74.12
330.658	82.12
330.887	85.12
331.115	78.12
331.344	83.12
331.572	89.12
331.801	92.12
332.03	91.12
332.258	96.12
332.486	94.12
332.715	76.12
332.943	79.12
333.172	79.12
333.4	88.12
333.629	80.12
333.857	82.12
334.085	76.12
334.314	97.12
334.542	87.12
334.771	72.12
334.999	82.12
335.227	68.12
335.455	80.12
335.684	83.12
335.912	67.12
336.14	73.12
336.369	81.12
336.597	82.12
336.825	80.12
337.053	88.12
337.281	85.12
337.51	95.12
337.738	92.12
337.966	89.12
338.194	81.12
338.422	87.12
338.65	81.12
338.878	98.12
339.106	94.12
339.334	79.12
339.562	84.12
339.79	83.12
340.018	74.12
340.246	95.12
340.474	86.12
340.702	73.12
340.93	82.12
341.158	79.12
341.386	86.12
341.614	94.12
341.842	82.12
342.07	91.12
342.298	86.12
342.526	81.12
342.754	85.12
342.981	81.12
343.209	95.12
343.437	93.12
343.665	77.12
343.893	87.12
344.12	85.12
344.348	73.12
344.576	97.12
344.804	72.12
345.031	81.12
345.259	74.12
345.487	94.12
345.714	85.12
345.942	91.12
346.17	83.12
346.397	100.12
346.625	95.12
346.853	85.12
347.08	81.12
347.308	87.12
347.535	80.12
347.763	85.12
347.99	91.12
348.218	98.12
348.445	80.12
348.673	87.12
348.9	87.12
349.128	75.12
349.355	86.12
349.583	87.12
349.81	96.12
350.037	85.12
350.265	80.12
350.492	77.12
350.72	72.12
350.947	75.12
351.174	91.12
351.402	95.12
351.629	82.12
351.856	87.12
352.083	94.12
352.311	86.12
352.538	82.12
352.765	95.12
352.992	88.12
353.22	71.12
353.447	83.12
353.674	79.12
353.901	82.12
354.128	84.12
354.355	74.12
354.583	85.12
354.81	77.12
355.037	83.12
355.264	86.12
355.491	78.12
355.718	89.12
355.945	87.12
356.172	79.12
356.399	84.12
356.626	95.12
356.853	102.12
357.08	74.12
357.307	87.12
357.534	86.12
357.761	93.12
357.988	95.12
358.215	89.12
358.441	81.12
358.668	84.12
358.895	78.12
359.122	76.12
359.349	85.12
359.576	72.12
359.802	68.12
360.029	79.12
360.256	89.12
360.483	87.12
360.709	91.12
360.936	82.12
361.163	101.12
361.39	74.12
361.616	93.12
361.843	89.12
362.07	87.12
362.296	81.12
362.523	80.12
362.749	69.12
362.976	85.12
363.203	90.12
363.429	82.12
363.656	71.12
363.882	87.12
364.109	94.12
364.335	83.12
364.562	81.12
364.788	71.12
365.015	85.12
365.241	89.12
365.468	78.12
365.694	85.12
365.92	83.12
366.147	68.12
366.373	84.12
366.599	77.12
366.826	65.12
367.052	70.12
367.278	76.12
367.505	80.12
367.731	88.12
367.957	84.12
368.184	80.12
368.41	77.12
368.636	86.12
368.862	86.12
369.089	89.12
369.315	86.12
369.541	76.12
369.767	100.12
369.993	86.12
370.219	80.12
370.445	83.12
370.672	89.12
370.898	77.12
371.124	92.12
371.35	71.12
371.576	101.12
371.802	91.12
372.028	78.12
372.254	73.12
372.48	76.12
372.706	76.12
372.932	78.12
373.158	85.12
373.384	98.12
373.61	86.12
373.835	88.12
374.061	81.12
374.287	84.12
374.513	81.12
374.739	99.12
374.965	81.12
375.191	90.12
375.416	86.12
375.642	69.12
375.868	86.12
376.094	83.12
376.319	93.12
376.545	77.12
376.771	88.12
376.997	71.12
377.222	89.12
377.448	73.12
377.674	65.12
377.899	85.12
378.125	87.12
378.35	96.12
378.576	81.12
378.802	99.12
379.027	72.12
379.253	73.12
379.478	88.12
379.704	95.12
379.929	83.12
380.155	84.12
380.38	86.12
380.606	77.12
380.831	72.12
381.057	89.12
381.282	78.12
381.507	86.12
381.733	78.12
381.958	81.12
382.184	78.12
382.409	74.12
382.634	96.12
382.86	84.12
383.085	88.12
383.31	82.12
383.535	79.12
383.761	89.12
383.986	90.12
384.211	72.12
384.436	83.12
384.662	105.12
384.887	83.12
385.112	85.12
385.337	101.12
385.562	84.12
385.787	82.12
386.013	73.12
386.238	91.12
386.463	80.12
386.688	91.12
386.913	84.12
387.138	75.12
387.363	81.12
387.588	87.12
387.813	81.12
388.038	88.12
388.263	84.12
388.488	87.12
388.713	91.12
388.938	79.12
389.163	85.12
389.387	85.12
389.612	90.12
389.837	62.12
390.062	99.12
390.287	84.12
390.512	87.12
390.736	92.12
390.961	96.12
391.186	77.12
391.411	89.12
391.636	81.12
391.86	73.12
392.085	83.12
392.31	98.12
392.534	68.12
392.759	82.12
392.984	78.12
393.208	93.12
393.433	93.12
393.658	84.12
393.882	84.12
394.107	71.12
394.331	108.12
394.556	81.12
394.78	109.12
395.005	94.12
395.229	82.12
395.454	80.12
395.678	72.12
395.903	82.12
396.127	83.12
396.352	83.12
396.576	84.12
396.801	90.12
397.025	85.12
397.249	100.12
397.474	84.12
397.698	82.12
397.922	98.12
398.147	87.12
398.371	83.12
398.595	88.12
398.82	85.12
399.044	95.12
399.268	87.12
399.492	95.12
399.717	88.12
399.941	81.12
400.165	88.12
400.389	85.12
400.613	80.12
400.837	77.12
401.062	93.12
401.286	84.12
401.51	74.12
401.734	89.12
401.958	81.12
402.182	84.12
402.406	84.12
402.63	88.12
402.854	78.12
403.078	95.12
403.302	84.12
403.526	81.12
403.75	90.12
403.974	78.12
404.198	80.12
404.422	84.12
404.645	75.12
404.869	80.12
405.093	74.12
405.317	75.12
405.541	90.12
405.765	90.12
405.988	82.12
406.212	103.12
406.436	79.12
406.66	85.12
406.883	87.12
407.107	74.12
407.331	80.12
407.555	87.12
407.778	89.12
408.002	83.12
408.226	77.12
408.449	69.12
408.673	77.12
408.896	85.12
409.12	85.12
409.344	92.12
409.567	83.12
409.791	84.12
410.014	86.12
410.238	80.12
410.461	87.12
410.685	70.12
410.908	96.12
411.132	81.12
411.355	79.12
411.578	71.12
411.802	81.12
412.025	85.12
412.249	80.12
412.472	86.12
412.695	84.12
412.919	78.12
413.142	79.12
413.365	71.12
413.589	80.12
413.812	76.12
414.035	84.12
414.258	89.12
414.482	91.12
414.705	73.12
414.928	85.12
415.151	70.12
415.374	73.12
415.597	83.12
415.821	81.12
416.044	68.12
416.267	87.12
416.49	73.12
416.713	82.12
416.936	73.12
417.159	66.12
417.382	81.12
417.605	87.12
417.828	70.12
418.051	89.12
418.274	85.12
418.497	77.12
418.72	83.12
418.943	95.12
419.166	85.12
419.389	78.12
419.611	87.12
419.834	90.12
420.057	77.12
420.28	83.12
420.503	74.12
420.726	72.12
420.948	65.12
421.171	72.12
421.394	76.12
421.617	72.12
421.839	79.12
422.062	92.12
422.285	81.12
422.507	83.12
422.73	81.12
422.953	76.12
423.175	77.12
423.398	100.12
423.621	88.12
423.843	75.12
424.066	93.12
424.288	92.12
424.511	93.12
424.733	84.12
424.956	81.12
425.178	83.12
425.401	74.12
425.623	84.12
425.846	78.12
426.068	73.12
426.291	89.12
426.513	76.12
426.735	83.12
426.958	73.12
427.18	83.12
427.402	81.12
427.625	77.12
427.847	83.12
428.069	80.12
428.292	82.12
428.514	63.12
428.736	82.12
428.958	83.12
429.181	88.12
429.403	95.12
429.625	85.12
429.847	86.12
430.069	89.12
430.292	74.12
430.514	75.12
430.736	71.12
430.958	68.12
431.18	78.12
431.402	81.12
431.624	86.12
431.846	79.12
432.068	83.12
432.29	93.12
432.512	72.12
432.734	82.12
432.956	94.12
433.178	93.12
433.4	87.12
433.622	86.12
433.844	83.12
434.066	74.12
434.287	84.12
434.509	85.12
434.731	72.12
434.953	75.12
435.175	80.12
435.397	81.12
435.618	81.12
435.84	85.12
436.062	83.12
436.284	86.12
436.505	90.12
436.727	74.12
436.949	85.12
437.17	72.12
437.392	87.12
437.614	96.12
437.835	80.12
438.057	77.12
438.278	93.12
438.5	81.12
438.721	72.12
438.943	88.12
439.165	94.12
439.386	100.12
439.608	87.12
439.829	86.12
440.05	93.12
440.272	79.12
440.493	84.12
440.715	92.12
440.936	91.12
441.158	94.12
441.379	96.12
441.6	93.12
441.822	92.12
442.043	82.12
442.264	78.12
442.486	74.12
442.707	68.12
442.928	80.12
443.149	75.12
443.371	83.12
443.592	71.12
443.813	82.12
444.034	78.12
444.255	96.12
444.476	80.12
444.698	87.12
444.919	96.12
445.14	203.12
445.361	143.12
445.582	90.12
445.803	76.12
446.024	94.12
446.245	83.12
446.466	74.12
446.687	78.12
446.908	75.12
447.129	70.12
447.35	78.12
447.571	95.12
447.792	86.12
448.013	80.12
448.234	80.12
448.455	87.12
448.675	69.12
448.896	90.12
449.117	72.12
449.338	90.12
449.559	84.12
449.779	69.12
450	80.12
450.221	88.12
450.442	78.12
450.662	83.12
450.883	77.12
451.104	85.12
451.324	88.12
451.545	88.12
451.766	86.12
451.986	75.12
452.207	87.12
452.428	71.12
452.648	91.12
452.869	95.12
453.089	94.12
453.31	84.12
453.53	65.12
453.751	76.12
453.971	78.12
454.192	84.12
454.412	73.12
454.633	70.12
454.853	86.12
455.073	81.12
455.294	80.12
455.514	80.12
455.734	85.12
455.955	79.12
456.175	79.12
456.395	76.12
456.616	75.12
456.836	100.12
457.056	77.12
457.276	84.12
457.497	75.12
457.717	76.12
457.937	61.12
458.157	86.12
458.377	80.12
458.598	81.12
458.818	90.12
459.038	69.12
459.258	95.12
459.478	90.12
459.698	88.12
459.918	78.12
460.138	84.12
460.358	93.12
460.578	88.12
460.798	85.12
461.018	90.12
461.238	66.12
461.458	99.12
461.678	88.12
461.898	86.12
462.118	82.12
462.338	77.12
462.558	94.12
462.777	93.12
462.997	93.12
463.217	85.12
463.437	82.12
463.657	82.12
463.876	69.12
464.096	85.12
464.316	73.12
464.536	81.12
464.755	71.12
464.975	85.12
465.195	88.12
465.414	88.12
465.634	82.12
465.854	87.12
466.073	85.12
466.293	104.12
466.512	77.12
466.732	86.12
466.951	86.12
467.171	85.12
467.391	89.12
467.61	82.12
467.829	80.12
468.049	85.12
468.268	77.12
468.488	70.12
468.707	72.12
468.927	90.12
469.146	87.12
469.365	92.12
469.585	91.12
469.804	78.12
470.023	87.12
470.243	83.12
470.462	90.12
470.681	86.12
470.901	88.12
471.12	80.12
471.339	83.12
471.558	98.12
471.777	76.12
471.997	82.12
472.216	81.12
472.435	85.12
472.654	88.12
472.873	84.12
473.092	81.12
473.311	87.12
473.53	75.12
473.749	85.12
473.968	102.12
474.187	93.12
474.406	79.12
474.625	86.12
474.844	108.12
475.063	70.12
475.282	70.12
475.501	87.12
475.72	95.12
475.939	89.12
476.158	89.12
476.377	73.12
476.596	110.12
476.814	92.12
477.033	64.12
477.252	95.12
477.471	83.12
477.69	86.12
477.908	94.12
478.127	76.12
478.346	90.12
478.564	90.12
478.783	92.12
479.002	89.12
479.22	88.12
479.439	95.12
479.658	88.12
479.876	87.12
480.095	84.12
480.313	92.12
480.532	93.12
480.751	93.12
480.969	90.12
481.188	84.12
481.406	89.12
481.624	86.12
481.843	93.12
482.061	77.12
482.28	93.12
482.498	93.12
482.717	85.12
482.935	81.12
483.153	90.12
483.372	99.12
483.59	101.12
483.808	89.12
484.027	95.12
484.245	73.12
484.463	78.12
484.681	94.12
484.9	72.12
485.118	96.12
485.336	93.12
485.554	104.12
485.772	79.12
485.99	89.12
486.209	85.12
486.427	83.12
486.645	85.12
486.863	103.12
487.081	90.12
487.299	85.12
487.517	87.12
487.735	84.12
487.953	84.12
488.171	97.12
488.389	88.12
488.607	88.12
488.825	81.12
489.043	83.12
489.261	87.12
489.479	94.12
489.696	72.12
489.914	86.12
490.132	76.12
490.35	79.12
490.568	75.12
490.786	97.12
491.003	93.12
491.221	93.12
491.439	99.12
491.657	90.12
491.874	94.12
492.092	92.12
492.31	110.12
492.527	109.12
492.745	82.12
492.963	90.12
493.18	90.12
493.398	98.12
493.615	81.12
493.833	89.12
494.05	86.12
494.268	97.12
494.485	80.12
494.703	85.12
494.92	86.12
495.138	97.12
495.355	92.12
495.573	93.12
495.79	88.12
496.008	90.12
496.225	87.12
496.442	88.12
496.66	107.12
496.877	102.12
497.094	95.12
497.312	97.12
497.529	100.12
497.746	91.12
497.963	90.12
498.181	89.12
498.398	109.12
498.615	94.12
498.832	102.12
499.049	104.12
499.267	97.12
499.484	104.12
499.701	104.12
499.918	111.12
500.135	108.12
500.352	100.12
500.569	99.12
500.786	100.12
501.003	102.12
501.22	91.12
501.437	103.12
501.654	111.12
501.871	92.12
502.088	88.12
502.305	88.12
502.522	90.12
502.739	92.12
502.956	97.12
503.172	84.12
503.389	90.12
503.606	93.12
503.823	98.12
504.04	98.12
504.256	88.12
504.473	75.12
504.69	93.12
504.907	102.12
505.123	93.12
505.34	98.12
505.557	103.12
505.773	94.12
505.99	97.12
506.207	81.12
506.423	87.12
506.64	81.12
506.856	87.12
507.073	101.12
507.289	86.12
507.506	86.12
507.722	78.12
507.939	88.12
508.155	100.12
508.372	94.12
508.588	78.12
508.805	84.12
509.021	82.12
509.238	97.12
509.454	92.12
509.67	97.12
509.887	82.12
510.103	81.12
510.319	78.12
510.536	86.12
510.752	88.12
510.968	101.12
511.184	84.12
511.401	93.12
511.617	93.12
511.833	82.12
512.049	86.12
512.265	93.12
512.481	82.12
512.698	84.12
512.914	86.12
513.13	86.12
513.346	90.12
513.562	83.12
513.778	84.12
513.994	82.12
514.21	92.12
514.426	83.12
514.642	102.12
514.858	87.12
515.074	94.12
515.29	89.12
515.506	87.12
515.721	84.12
515.937	94.12
516.153	79.12
516.369	80.12
516.585	86.12
516.801	89.12
517.016	94.12
517.232	92.12
517.448	98.12
517.664	89.12
517.879	96.12
518.095	96.12
518.311	94.12
518.527	85.12
518.742	84.12
