Data from Ni(NO3)2@0.125M.TitratingCurve.Agarose3%dH2O.NegLispCup.LampEnergy10.LIBS07252019_HRD10591_18-10-21-568.txt Node
Date: Thu Jul 25 18:10:21 EDT 2019
User: cochatt
Spectrometer: HR+D1059
Trigger mode: 1
Integration Time (sec): 1.000000E-1
Scans to average: 1
Electric dark correction enabled: true
Nonlinearity correction enabled: false
Boxcar width: 0
XAxis mode: Wavelengths
Number of Pixels in Spectrum: 2048
>>>>>Begin Spectral Data<<<<<
223.165	-12.94
223.4	-12.94
223.635	-12.94
223.869	-23.94
224.104	-12.94
224.338	-8.94
224.573	-13.94
224.808	-20.94
225.042	-2.94
225.277	-18.94
225.511	-4.94
225.746	7.06
225.98	0.06
226.215	28.06
226.449	13.06
226.683	16.06
226.918	26.06
227.152	30.06
227.387	25.06
227.621	43.06
227.856	44.06
228.09	44.06
228.324	45.06
228.559	63.06
228.793	83.06
229.027	96.06
229.262	111.06
229.496	103.06
229.73	102.06
229.964	107.06
230.199	123.06
230.433	115.06
230.667	129.06
230.901	123.06
231.136	117.06
231.37	127.06
231.604	136.06
231.838	129.06
232.072	135.06
232.306	135.06
232.541	128.06
232.775	135.06
233.009	118.06
233.243	135.06
233.477	132.06
233.711	118.06
233.945	126.06
234.179	126.06
234.413	141.06
234.647	143.06
234.881	132.06
235.115	144.06
235.349	119.06
235.583	132.06
235.817	114.06
236.051	144.06
236.285	146.06
236.519	135.06
236.753	148.06
236.987	128.06
237.221	127.06
237.455	139.06
237.689	137.06
237.922	138.06
238.156	151.06
238.39	140.06
238.624	131.06
238.858	150.06
239.091	144.06
239.325	152.06
239.559	153.06
239.793	152.06
240.027	137.06
240.26	157.06
240.494	160.06
240.728	160.06
240.961	152.06
241.195	163.06
241.429	157.06
241.662	156.06
241.896	171.06
242.13	162.06
242.363	150.06
242.597	159.06
242.83	168.06
243.064	155.06
243.298	170.06
243.531	165.06
243.765	173.06
243.998	180.06
244.232	180.06
244.465	175.06
244.699	180.06
244.932	184.06
245.166	159.06
245.399	182.06
245.633	166.06
245.866	174.06
246.099	172.06
246.333	171.06
246.566	208.06
246.8	203.06
247.033	185.06
247.266	193.06
247.5	196.06
247.733	178.06
247.966	202.06
248.2	207.06
248.433	196.06
248.666	198.06
248.899	194.06
249.133	209.06
249.366	206.06
249.599	213.06
249.832	191.06
250.066	215.06
250.299	201.06
250.532	216.06
250.765	211.06
250.998	208.06
251.231	215.06
251.465	211.06
251.698	229.06
251.931	215.06
252.164	211.06
252.397	210.06
252.63	225.06
252.863	209.06
253.096	230.06
253.329	227.06
253.562	242.06
253.795	230.06
254.028	231.06
254.261	216.06
254.494	223.06
254.727	235.06
254.96	240.06
255.193	243.06
255.426	246.06
255.659	221.06
255.892	244.06
256.124	225.06
256.357	243.06
256.59	243.06
256.823	247.06
257.056	242.06
257.289	245.06
257.521	250.06
257.754	254.06
257.987	268.06
258.22	258.06
258.452	245.06
258.685	243.06
258.918	241.06
259.151	235.06
259.383	258.06
259.616	240.06
259.849	260.06
260.081	270.06
260.314	266.06
260.547	283.06
260.779	265.06
261.012	245.06
261.244	261.06
261.477	279.06
261.71	275.06
261.942	259.06
262.175	252.06
262.407	268.06
262.64	251.06
262.872	271.06
263.105	273.06
263.337	275.06
263.57	283.06
263.802	289.06
264.035	277.06
264.267	266.06
264.499	286.06
264.732	303.06
264.964	279.06
265.197	299.06
265.429	285.06
265.661	272.06
265.894	285.06
266.126	311.06
266.358	301.06
266.591	294.06
266.823	281.06
267.055	290.06
267.287	295.06
267.52	290.06
267.752	297.06
267.984	315.06
268.216	306.06
268.448	292.06
268.681	311.06
268.913	298.06
269.145	325.06
269.377	298.06
269.609	302.06
269.841	315.06
270.073	303.06
270.306	295.06
270.538	313.06
270.77	315.06
271.002	297.06
271.234	319.06
271.466	318.06
271.698	308.06
271.93	303.06
272.162	318.06
272.394	310.06
272.626	310.06
272.858	326.06
273.09	298.06
273.322	319.06
273.553	307.06
273.785	317.06
274.017	329.06
274.249	330.06
274.481	323.06
274.713	325.06
274.945	328.06
275.176	331.06
275.408	317.06
275.64	330.06
275.872	350.06
276.104	361.06
276.335	340.06
276.567	339.06
276.799	319.06
277.031	342.06
277.262	334.06
277.494	341.06
277.726	341.06
277.957	336.06
278.189	332.06
278.421	335.06
278.652	362.06
278.884	358.06
279.115	352.06
279.347	361.06
279.579	357.06
279.81	344.06
280.042	365.06
280.273	352.06
280.505	376.06
280.736	349.06
280.968	350.06
281.199	354.06
281.431	388.06
281.662	377.06
281.894	362.06
282.125	379.06
282.356	383.06
282.588	380.06
282.819	390.06
283.051	365.06
283.282	382.06
283.513	378.06
283.745	363.06
283.976	377.06
284.207	382.06
284.439	382.06
284.67	388.06
284.901	388.06
285.132	398.06
285.364	400.06
285.595	374.06
285.826	388.06
286.057	397.06
286.288	411.06
286.52	386.06
286.751	412.06
286.982	408.06
287.213	389.06
287.444	380.06
287.675	408.06
287.906	396.06
288.138	385.06
288.369	422.06
288.6	401.06
288.831	418.06
289.062	407.06
289.293	397.06
289.524	382.06
289.755	423.06
289.986	390.06
290.217	397.06
290.448	393.06
290.679	428.06
290.91	408.06
291.141	418.06
291.371	414.06
291.602	416.06
291.833	427.06
292.064	395.06
292.295	411.06
292.526	401.06
292.757	396.06
292.987	424.06
293.218	423.06
293.449	428.06
293.68	423.06
293.91	428.06
294.141	412.06
294.372	435.06
294.603	421.06
294.833	428.06
295.064	419.06
295.295	434.06
295.525	437.06
295.756	434.06
295.987	430.06
296.217	444.06
296.448	435.06
296.679	426.06
296.909	456.06
297.14	440.06
297.37	459.06
297.601	458.06
297.831	458.06
298.062	455.06
298.292	463.06
298.523	491.06
298.753	470.06
298.984	470.06
299.214	455.06
299.445	452.06
299.675	480.06
299.905	475.06
300.136	453.06
300.366	461.06
300.597	471.06
300.827	480.06
301.057	493.06
301.288	479.06
301.518	470.06
301.748	471.06
301.979	493.06
302.209	476.06
302.439	486.06
302.669	475.06
302.9	477.06
303.13	478.06
303.36	480.06
303.59	456.06
303.82	477.06
304.051	479.06
304.281	468.06
304.511	488.06
304.741	460.06
304.971	460.06
305.201	458.06
305.431	467.06
305.661	480.06
305.891	459.06
306.121	468.06
306.352	459.06
306.582	436.06
306.812	454.06
307.042	461.06
307.272	475.06
307.502	466.06
307.731	457.06
307.961	452.06
308.191	465.06
308.421	464.06
308.651	438.06
308.881	440.06
309.111	474.06
309.341	450.06
309.571	476.06
309.8	464.06
310.03	464.06
310.26	468.06
310.49	464.06
310.72	454.06
310.949	465.06
311.179	458.06
311.409	464.06
311.639	464.06
311.868	463.06
312.098	485.06
312.328	480.06
312.557	485.06
312.787	486.06
313.017	486.06
313.246	480.06
313.476	484.06
313.706	495.06
313.935	516.06
314.165	493.06
314.394	502.06
314.624	499.06
314.853	533.06
315.083	487.06
315.312	494.06
315.542	498.06
315.771	500.06
316.001	497.06
316.23	478.06
316.46	476.06
316.689	488.06
316.919	479.06
317.148	486.06
317.377	486.06
317.607	477.06
317.836	484.06
318.065	475.06
318.295	492.06
318.524	490.06
318.753	459.06
318.983	454.06
319.212	480.06
319.441	498.06
319.67	494.06
319.9	496.06
320.129	481.06
320.358	490.06
320.587	484.06
320.816	506.06
321.046	498.06
321.275	503.06
321.504	490.06
321.733	506.06
321.962	493.06
322.191	482.06
322.42	498.06
322.649	483.06
322.878	486.06
323.108	493.06
323.337	494.06
323.566	502.06
323.795	518.06
324.024	513.06
324.253	497.06
324.482	506.06
324.71	518.06
324.939	539.06
325.168	502.06
325.397	490.06
325.626	509.06
325.855	539.06
326.084	530.06
326.313	546.06
326.542	535.06
326.77	539.06
326.999	541.06
327.228	540.06
327.457	529.06
327.686	553.06
327.914	552.06
328.143	564.06
328.372	522.06
328.6	528.06
328.829	541.06
329.058	531.06
329.287	556.06
329.515	556.06
329.744	540.06
329.972	554.06
330.201	553.06
330.43	548.06
330.658	554.06
330.887	524.06
331.115	576.06
331.344	553.06
331.572	570.06
331.801	582.06
332.03	604.06
332.258	583.06
332.486	623.06
332.715	638.06
332.943	671.06
333.172	710.06
333.4	723.06
333.629	755.06
333.857	748.06
334.085	719.06
334.314	735.06
334.542	700.06
334.771	690.06
334.999	665.06
335.227	655.06
335.455	702.06
335.684	684.06
335.912	688.06
336.14	675.06
336.369	635.06
336.597	661.06
336.825	653.06
337.053	663.06
337.281	647.06
337.51	623.06
337.738	637.06
337.966	617.06
338.194	616.06
338.422	618.06
338.65	576.06
338.878	591.06
339.106	576.06
339.334	594.06
339.562	608.06
339.79	589.06
340.018	587.06
340.246	566.06
340.474	571.06
340.702	564.06
340.93	580.06
341.158	587.06
341.386	568.06
341.614	567.06
341.842	555.06
342.07	574.06
342.298	562.06
342.526	562.06
342.754	565.06
342.981	557.06
343.209	572.06
343.437	633.06
343.665	644.06
343.893	708.06
344.12	727.06
344.348	679.06
344.576	633.06
344.804	605.06
345.031	607.06
345.259	576.06
345.487	597.06
345.714	600.06
345.942	576.06
346.17	581.06
346.397	589.06
346.625	549.06
346.853	567.06
347.08	560.06
347.308	566.06
347.535	551.06
347.763	566.06
347.99	587.06
348.218	582.06
348.445	566.06
348.673	571.06
348.9	560.06
349.128	547.06
349.355	565.06
349.583	554.06
349.81	563.06
350.037	552.06
350.265	537.06
350.492	568.06
350.72	539.06
350.947	523.06
351.174	540.06
351.402	538.06
351.629	538.06
351.856	531.06
352.083	526.06
352.311	540.06
352.538	537.06
352.765	527.06
352.992	536.06
353.22	533.06
353.447	534.06
353.674	532.06
353.901	536.06
354.128	531.06
354.355	530.06
354.583	542.06
354.81	524.06
355.037	546.06
355.264	579.06
355.491	531.06
355.718	526.06
355.945	536.06
356.172	536.06
356.399	549.06
356.626	536.06
356.853	555.06
357.08	519.06
357.307	535.06
357.534	523.06
357.761	526.06
357.988	524.06
358.215	503.06
358.441	503.06
358.668	516.06
358.895	534.06
359.122	520.06
359.349	530.06
359.576	538.06
359.802	535.06
360.029	539.06
360.256	552.06
360.483	517.06
360.709	526.06
360.936	551.06
361.163	546.06
361.39	538.06
361.616	541.06
361.843	549.06
362.07	538.06
362.296	534.06
362.523	528.06
362.749	532.06
362.976	523.06
363.203	524.06
363.429	534.06
363.656	518.06
363.882	547.06
364.109	546.06
364.335	516.06
364.562	512.06
364.788	521.06
365.015	518.06
365.241	528.06
365.468	529.06
365.694	525.06
365.92	527.06
366.147	529.06
366.373	515.06
366.599	519.06
366.826	520.06
367.052	536.06
367.278	541.06
367.505	554.06
367.731	535.06
367.957	541.06
368.184	535.06
368.41	547.06
368.636	518.06
368.862	534.06
369.089	554.06
369.315	526.06
369.541	549.06
369.767	574.06
369.993	535.06
370.219	538.06
370.445	562.06
370.672	567.06
370.898	571.06
371.124	574.06
371.35	581.06
371.576	552.06
371.802	583.06
372.028	549.06
372.254	568.06
372.48	569.06
372.706	607.06
372.932	613.06
373.158	604.06
373.384	601.06
373.61	580.06
373.835	589.06
374.061	573.06
374.287	589.06
374.513	599.06
374.739	613.06
374.965	607.06
375.191	636.06
375.416	663.06
375.642	613.06
375.868	610.06
376.094	597.06
376.319	597.06
376.545	586.06
376.771	581.06
376.997	582.06
377.222	569.06
377.448	566.06
377.674	602.06
377.899	583.06
378.125	575.06
378.35	568.06
378.576	571.06
378.802	538.06
379.027	573.06
379.253	570.06
379.478	582.06
379.704	569.06
379.929	571.06
380.155	574.06
380.38	554.06
380.606	550.06
380.831	565.06
381.057	587.06
381.282	610.06
381.507	585.06
381.733	581.06
381.958	598.06
382.184	590.06
382.409	580.06
382.634	588.06
382.86	598.06
383.085	623.06
383.31	605.06
383.535	677.06
383.761	646.06
383.986	672.06
384.211	655.06
384.436	702.06
384.662	701.06
384.887	723.06
385.112	693.06
385.337	718.06
385.562	694.06
385.787	700.06
386.013	729.06
386.238	695.06
386.463	690.06
386.688	720.06
386.913	700.06
387.138	694.06
387.363	678.06
387.588	666.06
387.813	679.06
388.038	676.06
388.263	692.06
388.488	691.06
388.713	670.06
388.938	680.06
389.163	684.06
389.387	685.06
389.612	671.06
389.837	668.06
390.062	677.06
390.287	668.06
390.512	665.06
390.736	659.06
390.961	690.06
391.186	687.06
391.411	717.06
391.636	748.06
391.86	770.06
392.085	785.06
392.31	796.06
392.534	718.06
392.759	752.06
392.984	723.06
393.208	720.06
393.433	744.06
393.658	728.06
393.882	711.06
394.107	737.06
394.331	730.06
394.556	767.06
394.78	748.06
395.005	749.06
395.229	715.06
395.454	758.06
395.678	800.06
395.903	756.06
396.127	748.06
396.352	734.06
396.576	721.06
396.801	741.06
397.025	738.06
397.249	706.06
397.474	761.06
397.698	769.06
397.922	759.06
398.147	739.06
398.371	759.06
398.595	783.06
398.82	848.06
399.044	891.06
399.268	992.06
399.492	1159.06
399.717	1317.06
399.941	1359.06
400.165	1164.06
400.389	1037.06
400.613	955.06
400.837	902.06
401.062	874.06
401.286	834.06
401.51	867.06
401.734	844.06
401.958	882.06
402.182	896.06
402.406	891.06
402.63	900.06
402.854	918.06
403.078	947.06
403.302	987.06
403.526	993.06
403.75	990.06
403.974	1051.06
404.198	1029.06
404.422	1044.06
404.645	1004.06
404.869	958.06
405.093	1000.06
405.317	971.06
405.541	962.06
405.765	954.06
405.988	962.06
406.212	950.06
406.436	940.06
406.66	990.06
406.883	987.06
407.107	1053.06
407.331	1134.06
407.555	1165.06
407.778	1119.06
408.002	1104.06
408.226	1086.06
408.449	1033.06
408.673	987.06
408.896	984.06
409.12	981.06
409.344	1002.06
409.567	1012.06
409.791	1022.06
410.014	1036.06
410.238	1010.06
410.461	1015.06
410.685	968.06
410.908	974.06
411.132	939.06
411.355	910.06
411.578	895.06
411.802	886.06
412.025	927.06
412.249	926.06
412.472	917.06
412.695	895.06
412.919	846.06
413.142	863.06
413.365	896.06
413.589	890.06
413.812	889.06
414.035	871.06
414.258	861.06
414.482	868.06
414.705	873.06
414.928	919.06
415.151	896.06
415.374	889.06
415.597	884.06
415.821	884.06
416.044	839.06
416.267	854.06
416.49	840.06
416.713	838.06
416.936	870.06
417.159	890.06
417.382	861.06
417.605	850.06
417.828	862.06
418.051	892.06
418.274	888.06
418.497	827.06
418.72	906.06
418.943	892.06
419.166	968.06
419.389	1006.06
419.611	996.06
419.834	942.06
420.057	897.06
420.28	899.06
420.503	870.06
420.726	885.06
420.948	876.06
421.171	880.06
421.394	869.06
421.617	855.06
421.839	884.06
422.062	875.06
422.285	865.06
422.507	890.06
422.73	906.06
422.953	933.06
423.175	904.06
423.398	956.06
423.621	940.06
423.843	966.06
424.066	948.06
424.288	938.06
424.511	919.06
424.733	920.06
424.956	908.06
425.178	897.06
425.401	897.06
425.623	884.06
425.846	844.06
426.068	822.06
426.291	833.06
426.513	836.06
426.735	825.06
426.958	834.06
427.18	796.06
427.402	786.06
427.625	808.06
427.847	793.06
428.069	772.06
428.292	804.06
428.514	766.06
428.736	774.06
428.958	778.06
429.181	749.06
429.403	758.06
429.625	756.06
429.847	734.06
430.069	757.06
430.292	769.06
430.514	742.06
430.736	774.06
430.958	772.06
431.18	789.06
431.402	767.06
431.624	763.06
431.846	789.06
432.068	792.06
432.29	821.06
432.512	782.06
432.734	803.06
432.956	776.06
433.178	814.06
433.4	808.06
433.622	790.06
433.844	805.06
434.066	801.06
434.287	792.06
434.509	836.06
434.731	877.06
434.953	914.06
435.175	934.06
435.397	888.06
435.618	827.06
435.84	822.06
436.062	802.06
436.284	766.06
436.505	822.06
436.727	810.06
436.949	811.06
437.17	810.06
437.392	804.06
437.614	782.06
437.835	746.06
438.057	779.06
438.278	734.06
438.5	761.06
438.721	767.06
438.943	787.06
439.165	758.06
439.386	794.06
439.608	770.06
439.829	800.06
440.05	756.06
440.272	790.06
440.493	810.06
440.715	783.06
440.936	820.06
441.158	845.06
441.379	856.06
441.6	898.06
441.822	910.06
442.043	937.06
442.264	886.06
442.486	869.06
442.707	877.06
442.928	886.06
443.149	910.06
443.371	895.06
443.592	888.06
443.813	873.06
444.034	902.06
444.255	926.06
444.476	968.06
444.698	1034.06
444.919	1094.06
445.14	1171.06
445.361	995.06
445.582	948.06
445.803	857.06
446.024	821.06
446.245	843.06
446.466	836.06
446.687	809.06
446.908	809.06
447.129	773.06
447.35	772.06
447.571	748.06
447.792	770.06
448.013	736.06
448.234	751.06
448.455	779.06
448.675	756.06
448.896	759.06
449.117	710.06
449.338	726.06
449.559	733.06
449.779	740.06
450	734.06
450.221	726.06
450.442	759.06
450.662	738.06
450.883	764.06
451.104	771.06
451.324	773.06
451.545	741.06
451.766	750.06
451.986	730.06
452.207	738.06
452.428	763.06
452.648	720.06
452.869	729.06
453.089	714.06
453.31	754.06
453.53	695.06
453.751	708.06
453.971	703.06
454.192	703.06
454.412	721.06
454.633	706.06
454.853	690.06
455.073	703.06
455.294	700.06
455.514	701.06
455.734	690.06
455.955	691.06
456.175	685.06
456.395	674.06
456.616	676.06
456.836	680.06
457.056	695.06
457.276	671.06
457.497	690.06
457.717	700.06
457.937	720.06
458.157	720.06
458.377	712.06
458.598	712.06
458.818	727.06
459.038	758.06
459.258	778.06
459.478	792.06
459.698	826.06
459.918	844.06
460.138	869.06
460.358	948.06
460.578	956.06
460.798	942.06
461.018	959.06
461.238	930.06
461.458	939.06
461.678	937.06
461.898	960.06
462.118	952.06
462.338	995.06
462.558	1034.06
462.777	1070.06
462.997	1168.06
463.217	1300.06
463.437	1318.06
463.657	1169.06
463.876	1103.06
464.096	1100.06
464.316	1115.06
464.536	1118.06
464.755	1074.06
464.975	1035.06
465.195	999.06
465.414	906.06
465.634	869.06
465.854	832.06
466.073	809.06
466.293	789.06
466.512	812.06
466.732	779.06
466.951	778.06
467.171	784.06
467.391	787.06
467.61	751.06
467.829	761.06
468.049	785.06
468.268	724.06
468.488	754.06
468.707	720.06
468.927	743.06
469.146	733.06
469.365	781.06
469.585	740.06
469.804	774.06
470.023	789.06
470.243	794.06
470.462	811.06
470.681	801.06
470.901	802.06
471.12	789.06
471.339	766.06
471.558	728.06
471.777	757.06
471.997	746.06
472.216	711.06
472.435	734.06
472.654	726.06
472.873	700.06
473.092	718.06
473.311	717.06
473.53	725.06
473.749	708.06
473.968	720.06
474.187	712.06
474.406	709.06
474.625	706.06
474.844	732.06
475.063	703.06
475.282	730.06
475.501	701.06
475.72	719.06
475.939	747.06
476.158	722.06
476.377	731.06
476.596	746.06
476.814	752.06
477.033	744.06
477.252	777.06
477.471	779.06
477.69	792.06
477.908	830.06
478.127	823.06
478.346	833.06
478.564	858.06
478.783	888.06
479.002	894.06
479.22	918.06
479.439	861.06
479.658	894.06
479.876	914.06
480.095	882.06
480.313	938.06
480.532	1003.06
480.751	944.06
480.969	898.06
481.188	872.06
481.406	838.06
481.624	843.06
481.843	804.06
482.061	838.06
482.28	851.06
482.498	804.06
482.717	788.06
482.935	813.06
483.153	836.06
483.372	813.06
483.59	832.06
483.808	832.06
484.027	827.06
484.245	824.06
484.463	807.06
484.681	845.06
484.9	842.06
485.118	860.06
485.336	853.06
485.554	862.06
485.772	868.06
485.99	913.06
486.209	880.06
486.427	900.06
486.645	900.06
486.863	893.06
487.081	879.06
487.299	890.06
487.517	843.06
487.735	854.06
487.953	868.06
488.171	902.06
488.389	869.06
488.607	827.06
488.825	826.06
489.043	845.06
489.261	816.06
489.479	864.06
489.696	871.06
489.914	864.06
490.132	858.06
490.35	864.06
490.568	848.06
490.786	851.06
491.003	855.06
491.221	877.06
491.439	877.06
491.657	890.06
491.874	882.06
492.092	862.06
492.31	871.06
492.527	866.06
492.745	896.06
492.963	896.06
493.18	888.06
493.398	892.06
493.615	893.06
493.833	904.06
494.05	921.06
494.268	941.06
494.485	922.06
494.703	949.06
494.92	933.06
495.138	896.06
495.355	911.06
495.573	921.06
495.79	918.06
496.008	920.06
496.225	920.06
496.442	921.06
496.66	945.06
496.877	926.06
497.094	924.06
497.312	992.06
497.529	984.06
497.746	1004.06
497.963	1041.06
498.181	1074.06
498.398	1147.06
498.615	1188.06
498.832	1248.06
499.049	1361.06
499.267	1480.06
499.484	1624.06
499.701	1805.06
499.918	2035.06
500.135	2330.06
500.352	2706.06
500.569	2862.06
500.786	2872.06
