Data from Ni(NO3)2@0.125M.TitratingCurve.Agarose3%dH2O.NegLispCup.LampEnergy10.LIBS07252019_HRD10591_18-09-13-568.txt Node
Date: Thu Jul 25 18:09:13 EDT 2019
User: cochatt
Spectrometer: HR+D1059
Trigger mode: 1
Integration Time (sec): 1.000000E-1
Scans to average: 1
Electric dark correction enabled: true
Nonlinearity correction enabled: false
Boxcar width: 0
XAxis mode: Wavelengths
Number of Pixels in Spectrum: 2048
>>>>>Begin Spectral Data<<<<<
223.165	-16.25
223.4	-16.25
223.635	-16.25
223.869	-19.25
224.104	-14.25
224.338	-20.25
224.573	-17.25
224.808	-15.25
225.042	-11.25
225.277	-3.25
225.511	-4.25
225.746	12.75
225.98	0.75
226.215	12.75
226.449	17.75
226.683	15.75
226.918	21.75
227.152	39.75
227.387	29.75
227.621	46.75
227.856	39.75
228.09	44.75
228.324	58.75
228.559	49.75
228.793	50.75
229.027	89.75
229.262	82.75
229.496	106.75
229.73	113.75
229.964	111.75
230.199	130.75
230.433	116.75
230.667	124.75
230.901	107.75
231.136	121.75
231.37	107.75
231.604	121.75
231.838	125.75
232.072	135.75
232.306	135.75
232.541	133.75
232.775	109.75
233.009	136.75
233.243	136.75
233.477	114.75
233.711	131.75
233.945	125.75
234.179	130.75
234.413	111.75
234.647	120.75
234.881	109.75
235.115	115.75
235.349	120.75
235.583	136.75
235.817	122.75
236.051	134.75
236.285	136.75
236.519	129.75
236.753	132.75
236.987	118.75
237.221	124.75
237.455	131.75
237.689	132.75
237.922	137.75
238.156	138.75
238.39	127.75
238.624	132.75
238.858	152.75
239.091	124.75
239.325	138.75
239.559	149.75
239.793	157.75
240.027	140.75
240.26	139.75
240.494	150.75
240.728	143.75
240.961	159.75
241.195	152.75
241.429	146.75
241.662	150.75
241.896	148.75
242.13	145.75
242.363	151.75
242.597	137.75
242.83	149.75
243.064	153.75
243.298	168.75
243.531	167.75
243.765	155.75
243.998	176.75
244.232	177.75
244.465	175.75
244.699	161.75
244.932	183.75
245.166	172.75
245.399	165.75
245.633	160.75
245.866	178.75
246.099	147.75
246.333	176.75
246.566	167.75
246.8	164.75
247.033	171.75
247.266	161.75
247.5	165.75
247.733	183.75
247.966	187.75
248.2	191.75
248.433	179.75
248.666	194.75
248.899	200.75
249.133	175.75
249.366	196.75
249.599	194.75
249.832	190.75
250.066	182.75
250.299	183.75
250.532	181.75
250.765	181.75
250.998	179.75
251.231	189.75
251.465	210.75
251.698	208.75
251.931	188.75
252.164	201.75
252.397	205.75
252.63	208.75
252.863	203.75
253.096	207.75
253.329	202.75
253.562	218.75
253.795	215.75
254.028	212.75
254.261	221.75
254.494	214.75
254.727	207.75
254.96	200.75
255.193	210.75
255.426	207.75
255.659	207.75
255.892	216.75
256.124	209.75
256.357	216.75
256.59	211.75
256.823	244.75
257.056	228.75
257.289	213.75
257.521	233.75
257.754	244.75
257.987	231.75
258.22	225.75
258.452	229.75
258.685	233.75
258.918	243.75
259.151	229.75
259.383	232.75
259.616	230.75
259.849	234.75
260.081	228.75
260.314	251.75
260.547	244.75
260.779	243.75
261.012	245.75
261.244	253.75
261.477	259.75
261.71	235.75
261.942	251.75
262.175	243.75
262.407	262.75
262.64	237.75
262.872	240.75
263.105	247.75
263.337	244.75
263.57	253.75
263.802	245.75
264.035	253.75
264.267	263.75
264.499	263.75
264.732	258.75
264.964	256.75
265.197	259.75
265.429	245.75
265.661	275.75
265.894	254.75
266.126	268.75
266.358	275.75
266.591	264.75
266.823	291.75
267.055	265.75
267.287	286.75
267.52	255.75
267.752	261.75
267.984	258.75
268.216	269.75
268.448	283.75
268.681	280.75
268.913	267.75
269.145	270.75
269.377	287.75
269.609	284.75
269.841	280.75
270.073	287.75
270.306	278.75
270.538	274.75
270.77	268.75
271.002	276.75
271.234	254.75
271.466	282.75
271.698	292.75
271.93	284.75
272.162	276.75
272.394	298.75
272.626	288.75
272.858	300.75
273.09	284.75
273.322	301.75
273.553	313.75
273.785	295.75
274.017	308.75
274.249	291.75
274.481	289.75
274.713	291.75
274.945	305.75
275.176	306.75
275.408	302.75
275.64	305.75
275.872	301.75
276.104	295.75
276.335	305.75
276.567	311.75
276.799	300.75
277.031	322.75
277.262	310.75
277.494	308.75
277.726	308.75
277.957	318.75
278.189	299.75
278.421	319.75
278.652	340.75
278.884	331.75
279.115	328.75
279.347	334.75
279.579	331.75
279.81	304.75
280.042	309.75
280.273	323.75
280.505	320.75
280.736	324.75
280.968	319.75
281.199	343.75
281.431	328.75
281.662	339.75
281.894	349.75
282.125	334.75
282.356	342.75
282.588	346.75
282.819	348.75
283.051	338.75
283.282	335.75
283.513	349.75
283.745	326.75
283.976	335.75
284.207	340.75
284.439	343.75
284.67	356.75
284.901	345.75
285.132	340.75
285.364	346.75
285.595	350.75
285.826	338.75
286.057	360.75
286.288	362.75
286.52	347.75
286.751	363.75
286.982	376.75
287.213	365.75
287.444	379.75
287.675	362.75
287.906	367.75
288.138	353.75
288.369	368.75
288.6	358.75
288.831	367.75
289.062	374.75
289.293	371.75
289.524	368.75
289.755	379.75
289.986	379.75
290.217	367.75
290.448	372.75
290.679	369.75
290.91	359.75
291.141	379.75
291.371	393.75
291.602	378.75
291.833	373.75
292.064	386.75
292.295	376.75
292.526	375.75
292.757	379.75
292.987	368.75
293.218	361.75
293.449	381.75
293.68	376.75
293.91	373.75
294.141	373.75
294.372	375.75
294.603	370.75
294.833	376.75
295.064	395.75
295.295	395.75
295.525	363.75
295.756	374.75
295.987	397.75
296.217	419.75
296.448	401.75
296.679	377.75
296.909	393.75
297.14	374.75
297.37	400.75
297.601	431.75
297.831	420.75
298.062	409.75
298.292	416.75
298.523	424.75
298.753	410.75
298.984	410.75
299.214	425.75
299.445	408.75
299.675	416.75
299.905	410.75
300.136	405.75
300.366	424.75
300.597	432.75
300.827	443.75
301.057	427.75
301.288	470.75
301.518	442.75
301.748	447.75
301.979	441.75
302.209	422.75
302.439	441.75
302.669	427.75
302.9	413.75
303.13	405.75
303.36	450.75
303.59	421.75
303.82	419.75
304.051	426.75
304.281	416.75
304.511	424.75
304.741	423.75
304.971	429.75
305.201	442.75
305.431	425.75
305.661	415.75
305.891	424.75
306.121	425.75
306.352	418.75
306.582	437.75
306.812	401.75
307.042	416.75
307.272	400.75
307.502	402.75
307.731	414.75
307.961	407.75
308.191	417.75
308.421	411.75
308.651	414.75
308.881	417.75
309.111	407.75
309.341	411.75
309.571	426.75
309.8	426.75
310.03	419.75
310.26	405.75
310.49	435.75
310.72	409.75
310.949	418.75
311.179	416.75
311.409	413.75
311.639	426.75
311.868	427.75
312.098	429.75
312.328	420.75
312.557	436.75
312.787	419.75
313.017	435.75
313.246	448.75
313.476	455.75
313.706	455.75
313.935	439.75
314.165	447.75
314.394	448.75
314.624	472.75
314.853	454.75
315.083	448.75
315.312	452.75
315.542	454.75
315.771	460.75
316.001	450.75
316.23	450.75
316.46	428.75
316.689	454.75
316.919	456.75
317.148	428.75
317.377	427.75
317.607	427.75
317.836	433.75
318.065	425.75
318.295	449.75
318.524	444.75
318.753	446.75
318.983	445.75
319.212	454.75
319.441	430.75
319.67	443.75
319.9	425.75
320.129	434.75
320.358	459.75
320.587	428.75
320.816	426.75
321.046	447.75
321.275	439.75
321.504	445.75
321.733	444.75
321.962	453.75
322.191	470.75
322.42	441.75
322.649	462.75
322.878	455.75
323.108	455.75
323.337	467.75
323.566	445.75
323.795	456.75
324.024	459.75
324.253	480.75
324.482	477.75
324.71	461.75
324.939	471.75
325.168	452.75
325.397	475.75
325.626	465.75
325.855	484.75
326.084	462.75
326.313	490.75
326.542	511.75
326.77	513.75
326.999	489.75
327.228	508.75
327.457	492.75
327.686	490.75
327.914	515.75
328.143	514.75
328.372	515.75
328.6	501.75
328.829	515.75
329.058	513.75
329.287	500.75
329.515	516.75
329.744	527.75
329.972	511.75
330.201	523.75
330.43	500.75
330.658	520.75
330.887	514.75
331.115	513.75
331.344	515.75
331.572	506.75
331.801	539.75
332.03	541.75
332.258	570.75
332.486	581.75
332.715	620.75
332.943	627.75
333.172	649.75
333.4	677.75
333.629	689.75
333.857	682.75
334.085	673.75
334.314	670.75
334.542	652.75
334.771	648.75
334.999	630.75
335.227	601.75
335.455	605.75
335.684	617.75
335.912	609.75
336.14	623.75
336.369	603.75
336.597	631.75
336.825	631.75
337.053	636.75
337.281	597.75
337.51	577.75
337.738	589.75
337.966	563.75
338.194	559.75
338.422	587.75
338.65	545.75
338.878	523.75
339.106	548.75
339.334	546.75
339.562	554.75
339.79	511.75
340.018	545.75
340.246	499.75
340.474	532.75
340.702	508.75
340.93	514.75
341.158	544.75
341.386	557.75
341.614	547.75
341.842	567.75
342.07	538.75
342.298	516.75
342.526	557.75
342.754	529.75
342.981	541.75
343.209	537.75
343.437	569.75
343.665	598.75
343.893	632.75
344.12	665.75
344.348	619.75
344.576	615.75
344.804	587.75
345.031	579.75
345.259	553.75
345.487	562.75
345.714	549.75
345.942	554.75
346.17	533.75
346.397	536.75
346.625	522.75
346.853	536.75
347.08	539.75
347.308	521.75
347.535	534.75
347.763	517.75
347.99	555.75
348.218	559.75
348.445	570.75
348.673	544.75
348.9	498.75
349.128	531.75
349.355	521.75
349.583	532.75
349.81	528.75
350.037	507.75
350.265	489.75
350.492	519.75
350.72	482.75
350.947	506.75
351.174	496.75
351.402	485.75
351.629	523.75
351.856	509.75
352.083	496.75
352.311	520.75
352.538	529.75
352.765	530.75
352.992	516.75
353.22	487.75
353.447	501.75
353.674	504.75
353.901	500.75
354.128	503.75
354.355	475.75
354.583	519.75
354.81	502.75
355.037	508.75
355.264	503.75
355.491	484.75
355.718	502.75
355.945	503.75
356.172	500.75
356.399	495.75
356.626	512.75
356.853	531.75
357.08	495.75
357.307	514.75
357.534	521.75
357.761	508.75
357.988	487.75
358.215	513.75
358.441	481.75
358.668	482.75
358.895	485.75
359.122	498.75
359.349	490.75
359.576	492.75
359.802	491.75
360.029	489.75
360.256	502.75
360.483	513.75
360.709	490.75
360.936	481.75
361.163	524.75
361.39	490.75
361.616	489.75
361.843	484.75
362.07	501.75
362.296	499.75
362.523	502.75
362.749	503.75
362.976	472.75
363.203	474.75
363.429	464.75
363.656	467.75
363.882	483.75
364.109	485.75
364.335	488.75
364.562	489.75
364.788	491.75
365.015	460.75
365.241	491.75
365.468	486.75
365.694	490.75
365.92	488.75
366.147	488.75
366.373	488.75
366.599	498.75
366.826	505.75
367.052	507.75
367.278	510.75
367.505	499.75
367.731	492.75
367.957	488.75
368.184	500.75
368.41	496.75
368.636	486.75
368.862	491.75
369.089	506.75
369.315	502.75
369.541	480.75
369.767	515.75
369.993	526.75
370.219	519.75
370.445	523.75
370.672	522.75
370.898	523.75
371.124	540.75
371.35	548.75
371.576	564.75
371.802	515.75
372.028	521.75
372.254	542.75
372.48	515.75
372.706	553.75
372.932	564.75
373.158	545.75
373.384	545.75
373.61	510.75
373.835	547.75
374.061	555.75
374.287	505.75
374.513	536.75
374.739	570.75
374.965	593.75
375.191	611.75
375.416	583.75
375.642	589.75
375.868	579.75
376.094	554.75
376.319	565.75
376.545	541.75
376.771	536.75
376.997	552.75
377.222	549.75
377.448	536.75
377.674	568.75
377.899	528.75
378.125	531.75
378.35	520.75
378.576	519.75
378.802	507.75
379.027	541.75
379.253	546.75
379.478	525.75
379.704	541.75
379.929	504.75
380.155	526.75
380.38	520.75
380.606	532.75
380.831	532.75
381.057	541.75
381.282	520.75
381.507	517.75
381.733	540.75
381.958	541.75
382.184	565.75
382.409	551.75
382.634	559.75
382.86	543.75
383.085	562.75
383.31	591.75
383.535	582.75
383.761	587.75
383.986	602.75
384.211	597.75
384.436	613.75
384.662	609.75
384.887	633.75
385.112	621.75
385.337	634.75
385.562	616.75
385.787	653.75
386.013	646.75
386.238	643.75
386.463	623.75
386.688	671.75
386.913	632.75
387.138	628.75
387.363	619.75
387.588	612.75
387.813	619.75
388.038	616.75
388.263	638.75
388.488	633.75
388.713	609.75
388.938	613.75
389.163	596.75
389.387	621.75
389.612	612.75
389.837	603.75
390.062	611.75
390.287	625.75
390.512	630.75
390.736	612.75
390.961	648.75
391.186	653.75
391.411	656.75
391.636	670.75
391.86	698.75
392.085	723.75
392.31	714.75
392.534	689.75
392.759	684.75
392.984	683.75
393.208	640.75
393.433	657.75
393.658	665.75
393.882	661.75
394.107	678.75
394.331	676.75
394.556	678.75
394.78	673.75
395.005	664.75
395.229	672.75
395.454	693.75
395.678	700.75
395.903	718.75
396.127	670.75
396.352	673.75
396.576	671.75
396.801	639.75
397.025	683.75
397.249	675.75
397.474	704.75
397.698	705.75
397.922	703.75
398.147	710.75
398.371	723.75
398.595	712.75
398.82	764.75
399.044	820.75
399.268	905.75
399.492	1027.75
399.717	1189.75
399.941	1215.75
400.165	1064.75
400.389	947.75
400.613	859.75
400.837	829.75
401.062	810.75
401.286	799.75
401.51	780.75
401.734	780.75
401.958	769.75
402.182	785.75
402.406	800.75
402.63	854.75
402.854	855.75
403.078	844.75
403.302	868.75
403.526	899.75
403.75	919.75
403.974	929.75
404.198	931.75
404.422	938.75
404.645	904.75
404.869	907.75
405.093	905.75
405.317	864.75
405.541	857.75
405.765	882.75
405.988	849.75
406.212	868.75
406.436	855.75
406.66	908.75
406.883	857.75
407.107	955.75
407.331	1005.75
407.555	1015.75
407.778	1029.75
408.002	1005.75
408.226	1001.75
408.449	973.75
408.673	914.75
408.896	911.75
409.12	899.75
409.344	909.75
409.567	896.75
409.791	920.75
410.014	931.75
410.238	895.75
410.461	904.75
410.685	896.75
410.908	886.75
411.132	848.75
411.355	842.75
411.578	825.75
411.802	853.75
412.025	852.75
412.249	828.75
412.472	841.75
412.695	806.75
412.919	793.75
413.142	774.75
413.365	804.75
413.589	809.75
413.812	776.75
414.035	774.75
414.258	763.75
414.482	808.75
414.705	800.75
414.928	827.75
415.151	804.75
415.374	784.75
415.597	795.75
415.821	775.75
416.044	754.75
416.267	770.75
416.49	772.75
416.713	767.75
416.936	761.75
417.159	788.75
417.382	782.75
417.605	777.75
417.828	811.75
418.051	785.75
418.274	815.75
418.497	815.75
418.72	827.75
418.943	825.75
419.166	845.75
419.389	916.75
419.611	915.75
419.834	874.75
420.057	841.75
420.28	812.75
420.503	799.75
420.726	805.75
420.948	821.75
421.171	804.75
421.394	821.75
421.617	806.75
421.839	777.75
422.062	819.75
422.285	811.75
422.507	833.75
422.73	824.75
422.953	825.75
423.175	838.75
423.398	845.75
423.621	868.75
423.843	857.75
424.066	869.75
424.288	859.75
424.511	869.75
424.733	843.75
424.956	834.75
425.178	843.75
425.401	813.75
425.623	803.75
425.846	771.75
426.068	759.75
426.291	757.75
426.513	744.75
426.735	762.75
426.958	765.75
427.18	747.75
427.402	751.75
427.625	728.75
427.847	749.75
428.069	748.75
428.292	729.75
428.514	723.75
428.736	715.75
428.958	714.75
429.181	696.75
429.403	693.75
429.625	723.75
429.847	714.75
430.069	700.75
430.292	691.75
430.514	700.75
430.736	720.75
430.958	724.75
431.18	707.75
431.402	721.75
431.624	712.75
431.846	698.75
432.068	740.75
432.29	728.75
432.512	745.75
432.734	743.75
432.956	717.75
433.178	732.75
433.4	761.75
433.622	738.75
433.844	752.75
434.066	763.75
434.287	746.75
434.509	767.75
434.731	799.75
434.953	824.75
435.175	838.75
435.397	839.75
435.618	796.75
435.84	764.75
436.062	729.75
436.284	758.75
436.505	749.75
436.727	736.75
436.949	761.75
437.17	741.75
437.392	725.75
437.614	738.75
437.835	706.75
438.057	689.75
438.278	678.75
438.5	707.75
438.721	711.75
438.943	708.75
439.165	720.75
439.386	692.75
439.608	736.75
439.829	737.75
440.05	743.75
440.272	759.75
440.493	776.75
440.715	772.75
440.936	779.75
441.158	782.75
441.379	795.75
441.6	855.75
441.822	869.75
442.043	837.75
442.264	827.75
442.486	804.75
442.707	815.75
442.928	842.75
443.149	829.75
443.371	842.75
443.592	879.75
443.813	839.75
444.034	822.75
444.255	867.75
444.476	900.75
444.698	972.75
444.919	1018.75
445.14	1129.75
445.361	960.75
445.582	871.75
445.803	798.75
446.024	791.75
446.245	792.75
446.466	774.75
446.687	755.75
446.908	748.75
447.129	733.75
447.35	724.75
447.571	706.75
447.792	673.75
448.013	693.75
448.234	699.75
448.455	682.75
448.675	684.75
448.896	699.75
449.117	683.75
449.338	715.75
449.559	689.75
449.779	698.75
450	689.75
450.221	680.75
450.442	715.75
450.662	686.75
450.883	694.75
451.104	737.75
451.324	680.75
451.545	697.75
451.766	713.75
451.986	704.75
452.207	693.75
452.428	711.75
452.648	692.75
452.869	668.75
453.089	672.75
453.31	684.75
453.53	668.75
453.751	648.75
453.971	649.75
454.192	672.75
454.412	665.75
454.633	683.75
454.853	649.75
455.073	627.75
455.294	631.75
455.514	642.75
455.734	665.75
455.955	631.75
456.175	676.75
456.395	629.75
456.616	662.75
456.836	641.75
457.056	640.75
457.276	613.75
457.497	618.75
457.717	648.75
457.937	673.75
458.157	653.75
458.377	639.75
458.598	671.75
458.818	693.75
459.038	696.75
459.258	724.75
459.478	745.75
459.698	783.75
459.918	801.75
460.138	832.75
460.358	879.75
460.578	860.75
460.798	874.75
461.018	883.75
461.238	846.75
461.458	859.75
461.678	849.75
461.898	866.75
462.118	867.75
462.338	921.75
462.558	969.75
462.777	1001.75
462.997	1085.75
463.217	1182.75
463.437	1237.75
463.657	1083.75
463.876	1049.75
464.096	1036.75
464.316	1025.75
464.536	1028.75
464.755	972.75
464.975	947.75
465.195	926.75
465.414	875.75
465.634	787.75
465.854	772.75
466.073	793.75
466.293	770.75
466.512	734.75
466.732	737.75
466.951	722.75
467.171	742.75
467.391	721.75
467.61	703.75
467.829	714.75
468.049	738.75
468.268	695.75
468.488	693.75
468.707	703.75
468.927	695.75
469.146	696.75
469.365	710.75
469.585	705.75
469.804	708.75
470.023	723.75
470.243	763.75
470.462	755.75
470.681	744.75
470.901	744.75
471.12	724.75
471.339	713.75
471.558	720.75
471.777	710.75
471.997	720.75
472.216	699.75
472.435	691.75
472.654	701.75
472.873	674.75
473.092	679.75
473.311	666.75
473.53	675.75
473.749	665.75
473.968	659.75
474.187	680.75
474.406	653.75
474.625	663.75
474.844	663.75
475.063	669.75
475.282	681.75
475.501	676.75
475.72	685.75
475.939	709.75
476.158	709.75
476.377	712.75
476.596	704.75
476.814	717.75
477.033	701.75
477.252	713.75
477.471	735.75
477.69	767.75
477.908	774.75
478.127	787.75
478.346	809.75
478.564	822.75
478.783	807.75
479.002	836.75
479.22	864.75
479.439	818.75
479.658	801.75
479.876	810.75
480.095	838.75
480.313	893.75
480.532	900.75
480.751	909.75
480.969	871.75
481.188	845.75
481.406	806.75
481.624	783.75
481.843	803.75
482.061	784.75
482.28	772.75
482.498	753.75
482.717	772.75
482.935	773.75
483.153	764.75
483.372	803.75
483.59	791.75
483.808	781.75
484.027	788.75
484.245	788.75
484.463	766.75
484.681	787.75
484.9	784.75
485.118	838.75
485.336	841.75
485.554	831.75
485.772	819.75
485.99	837.75
486.209	830.75
486.427	844.75
486.645	816.75
486.863	830.75
487.081	818.75
487.299	807.75
487.517	783.75
487.735	824.75
487.953	837.75
488.171	836.75
488.389	823.75
488.607	801.75
488.825	793.75
489.043	786.75
489.261	792.75
489.479	823.75
489.696	830.75
489.914	831.75
490.132	804.75
490.35	805.75
490.568	820.75
490.786	826.75
491.003	843.75
491.221	850.75
491.439	844.75
491.657	829.75
491.874	820.75
492.092	845.75
492.31	852.75
492.527	837.75
492.745	867.75
492.963	866.75
493.18	851.75
493.398	839.75
493.615	851.75
493.833	850.75
494.05	863.75
494.268	864.75
494.485	888.75
494.703	897.75
494.92	885.75
495.138	844.75
495.355	840.75
495.573	892.75
495.79	859.75
496.008	861.75
496.225	892.75
496.442	859.75
496.66	909.75
496.877	882.75
497.094	931.75
497.312	933.75
497.529	932.75
497.746	973.75
497.963	964.75
498.181	998.75
498.398	1031.75
498.615	1118.75
498.832	1190.75
499.049	1272.75
499.267	1389.75
499.484	1555.75
499.701	1691.75
499.918	1893.75
500.135	2171.75
500.352	2541.75
500.569	2642.75
500.786	2627.75
501.003	2377.75
