Data from Ni(NO3)2Standard.Agarose3%.GreenCap.LampEnergy5.5.E.O_HRD10591_14-39-01-220.txt Node
Date: Mon Jul 22 14:39:01 EDT 2019
User: cochatt
Spectrometer: HR+D1059
Trigger mode: 1
Integration Time (sec): 1.000000E-1
Scans to average: 1
Electric dark correction enabled: true
Nonlinearity correction enabled: false
Boxcar width: 0
XAxis mode: Wavelengths
Number of Pixels in Spectrum: 2048
>>>>>Begin Spectral Data<<<<<
223.165	-13.38
223.4	-13.38
223.635	-13.38
223.869	-23.38
224.104	-6.38
224.338	-17.38
224.573	-10.38
224.808	-25.38
225.042	-9.38
225.277	-11.38
225.511	1.62
225.746	3.62
225.98	14.62
226.215	13.62
226.449	7.62
226.683	14.62
226.918	31.62
227.152	29.62
227.387	35.62
227.621	31.62
227.856	40.62
228.09	50.62
228.324	32.62
228.559	59.62
228.793	60.62
229.027	58.62
229.262	48.62
229.496	60.62
229.73	76.62
229.964	78.62
230.199	74.62
230.433	83.62
230.667	73.62
230.901	78.62
231.136	75.62
231.37	93.62
231.604	79.62
231.838	86.62
232.072	75.62
232.306	87.62
232.541	86.62
232.775	85.62
233.009	85.62
233.243	85.62
233.477	66.62
233.711	75.62
233.945	81.62
234.179	86.62
234.413	93.62
234.647	70.62
234.881	81.62
235.115	68.62
235.349	86.62
235.583	70.62
235.817	72.62
236.051	86.62
236.285	84.62
236.519	81.62
236.753	73.62
236.987	93.62
237.221	81.62
237.455	78.62
237.689	80.62
237.922	67.62
238.156	73.62
238.39	78.62
238.624	73.62
238.858	78.62
239.091	72.62
239.325	78.62
239.559	77.62
239.793	71.62
240.027	84.62
240.26	81.62
240.494	82.62
240.728	84.62
240.961	81.62
241.195	80.62
241.429	84.62
241.662	75.62
241.896	70.62
242.13	82.62
242.363	87.62
242.597	75.62
242.83	82.62
243.064	73.62
243.298	89.62
243.531	76.62
243.765	88.62
243.998	73.62
244.232	85.62
244.465	81.62
244.699	84.62
244.932	72.62
245.166	81.62
245.399	83.62
245.633	77.62
245.866	87.62
246.099	90.62
246.333	87.62
246.566	81.62
246.8	73.62
247.033	79.62
247.266	76.62
247.5	71.62
247.733	72.62
247.966	77.62
248.2	70.62
248.433	84.62
248.666	79.62
248.899	89.62
249.133	90.62
249.366	76.62
249.599	79.62
249.832	84.62
250.066	84.62
250.299	77.62
250.532	82.62
250.765	70.62
250.998	91.62
251.231	82.62
251.465	80.62
251.698	82.62
251.931	82.62
252.164	81.62
252.397	82.62
252.63	88.62
252.863	90.62
253.096	86.62
253.329	70.62
253.562	73.62
253.795	82.62
254.028	88.62
254.261	68.62
254.494	76.62
254.727	89.62
254.96	75.62
255.193	75.62
255.426	80.62
255.659	82.62
255.892	91.62
256.124	72.62
256.357	73.62
256.59	86.62
256.823	65.62
257.056	91.62
257.289	67.62
257.521	75.62
257.754	68.62
257.987	84.62
258.22	89.62
258.452	90.62
258.685	76.62
258.918	97.62
259.151	80.62
259.383	90.62
259.616	91.62
259.849	62.62
260.081	74.62
260.314	76.62
260.547	76.62
260.779	74.62
261.012	84.62
261.244	77.62
261.477	85.62
261.71	89.62
261.942	76.62
262.175	83.62
262.407	91.62
262.64	93.62
262.872	75.62
263.105	77.62
263.337	86.62
263.57	81.62
263.802	82.62
264.035	79.62
264.267	89.62
264.499	83.62
264.732	86.62
264.964	88.62
265.197	84.62
265.429	86.62
265.661	87.62
265.894	89.62
266.126	82.62
266.358	79.62
266.591	88.62
266.823	76.62
267.055	86.62
267.287	85.62
267.52	94.62
267.752	88.62
267.984	89.62
268.216	89.62
268.448	87.62
268.681	78.62
268.913	82.62
269.145	82.62
269.377	90.62
269.609	97.62
269.841	81.62
270.073	78.62
270.306	80.62
270.538	76.62
270.77	81.62
271.002	78.62
271.234	92.62
271.466	82.62
271.698	87.62
271.93	77.62
272.162	78.62
272.394	82.62
272.626	74.62
272.858	82.62
273.09	70.62
273.322	84.62
273.553	93.62
273.785	86.62
274.017	76.62
274.249	91.62
274.481	96.62
274.713	78.62
274.945	87.62
275.176	87.62
275.408	96.62
275.64	93.62
275.872	90.62
276.104	87.62
276.335	84.62
276.567	84.62
276.799	82.62
277.031	90.62
277.262	79.62
277.494	89.62
277.726	94.62
277.957	88.62
278.189	85.62
278.421	75.62
278.652	85.62
278.884	77.62
279.115	91.62
279.347	91.62
279.579	85.62
279.81	78.62
280.042	97.62
280.273	84.62
280.505	73.62
280.736	91.62
280.968	92.62
281.199	81.62
281.431	89.62
281.662	83.62
281.894	92.62
282.125	90.62
282.356	91.62
282.588	86.62
282.819	81.62
283.051	83.62
283.282	92.62
283.513	96.62
283.745	91.62
283.976	85.62
284.207	88.62
284.439	84.62
284.67	84.62
284.901	82.62
285.132	90.62
285.364	85.62
285.595	94.62
285.826	80.62
286.057	91.62
286.288	90.62
286.52	82.62
286.751	93.62
286.982	78.62
287.213	86.62
287.444	95.62
287.675	90.62
287.906	93.62
288.138	90.62
288.369	85.62
288.6	90.62
288.831	95.62
289.062	95.62
289.293	91.62
289.524	91.62
289.755	91.62
289.986	79.62
290.217	86.62
290.448	96.62
290.679	66.62
290.91	76.62
291.141	91.62
291.371	88.62
291.602	87.62
291.833	65.62
292.064	89.62
292.295	101.62
292.526	94.62
292.757	79.62
292.987	82.62
293.218	85.62
293.449	83.62
293.68	81.62
293.91	85.62
294.141	90.62
294.372	79.62
294.603	93.62
294.833	81.62
295.064	76.62
295.295	90.62
295.525	85.62
295.756	95.62
295.987	81.62
296.217	81.62
296.448	77.62
296.679	86.62
296.909	89.62
297.14	89.62
297.37	102.62
297.601	91.62
297.831	77.62
298.062	86.62
298.292	93.62
298.523	90.62
298.753	104.62
298.984	85.62
299.214	96.62
299.445	89.62
299.675	87.62
299.905	81.62
300.136	96.62
300.366	87.62
300.597	84.62
300.827	92.62
301.057	80.62
301.288	96.62
301.518	86.62
301.748	81.62
301.979	82.62
302.209	85.62
302.439	67.62
302.669	73.62
302.9	87.62
303.13	81.62
303.36	98.62
303.59	91.62
303.82	94.62
304.051	92.62
304.281	82.62
304.511	93.62
304.741	76.62
304.971	84.62
305.201	88.62
305.431	82.62
305.661	88.62
305.891	75.62
306.121	95.62
306.352	75.62
306.582	86.62
306.812	108.62
307.042	96.62
307.272	83.62
307.502	78.62
307.731	84.62
307.961	86.62
308.191	87.62
308.421	84.62
308.651	96.62
308.881	83.62
309.111	85.62
309.341	78.62
309.571	88.62
309.8	90.62
310.03	93.62
310.26	92.62
310.49	88.62
310.72	86.62
310.949	84.62
311.179	79.62
311.409	87.62
311.639	71.62
311.868	84.62
312.098	83.62
312.328	88.62
312.557	102.62
312.787	94.62
313.017	104.62
313.246	101.62
313.476	93.62
313.706	89.62
313.935	96.62
314.165	94.62
314.394	85.62
314.624	93.62
314.853	96.62
315.083	89.62
315.312	86.62
315.542	84.62
315.771	83.62
316.001	91.62
316.23	93.62
316.46	87.62
316.689	90.62
316.919	98.62
317.148	86.62
317.377	90.62
317.607	78.62
317.836	83.62
318.065	89.62
318.295	90.62
318.524	87.62
318.753	86.62
318.983	82.62
319.212	94.62
319.441	84.62
319.67	92.62
319.9	71.62
320.129	100.62
320.358	94.62
320.587	94.62
320.816	99.62
321.046	109.62
321.275	91.62
321.504	84.62
321.733	76.62
321.962	88.62
322.191	97.62
322.42	83.62
322.649	87.62
322.878	98.62
323.108	99.62
323.337	88.62
323.566	76.62
323.795	89.62
324.024	81.62
324.253	92.62
324.482	97.62
324.71	96.62
324.939	94.62
325.168	89.62
325.397	84.62
325.626	88.62
325.855	90.62
326.084	100.62
326.313	78.62
326.542	75.62
326.77	96.62
326.999	91.62
327.228	91.62
327.457	89.62
327.686	71.62
327.914	88.62
328.143	89.62
328.372	90.62
328.6	92.62
328.829	89.62
329.058	101.62
329.287	95.62
329.515	84.62
329.744	88.62
329.972	71.62
330.201	84.62
330.43	88.62
330.658	91.62
330.887	84.62
331.115	92.62
331.344	84.62
331.572	94.62
331.801	105.62
332.03	97.62
332.258	81.62
332.486	98.62
332.715	89.62
332.943	85.62
333.172	82.62
333.4	80.62
333.629	93.62
333.857	95.62
334.085	88.62
334.314	85.62
334.542	102.62
334.771	94.62
334.999	78.62
335.227	90.62
335.455	85.62
335.684	86.62
335.912	91.62
336.14	92.62
336.369	76.62
336.597	72.62
336.825	84.62
337.053	98.62
337.281	94.62
337.51	98.62
337.738	90.62
337.966	90.62
338.194	83.62
338.422	83.62
338.65	80.62
338.878	81.62
339.106	80.62
339.334	93.62
339.562	89.62
339.79	96.62
340.018	87.62
340.246	87.62
340.474	99.62
340.702	89.62
340.93	73.62
341.158	93.62
341.386	83.62
341.614	99.62
341.842	73.62
342.07	88.62
342.298	70.62
342.526	70.62
342.754	88.62
342.981	90.62
343.209	95.62
343.437	84.62
343.665	99.62
343.893	78.62
344.12	99.62
344.348	83.62
344.576	85.62
344.804	82.62
345.031	78.62
345.259	97.62
345.487	89.62
345.714	82.62
345.942	96.62
346.17	92.62
346.397	91.62
346.625	76.62
346.853	76.62
347.08	76.62
347.308	93.62
347.535	87.62
347.763	84.62
347.99	90.62
348.218	97.62
348.445	97.62
348.673	87.62
348.9	75.62
349.128	78.62
349.355	86.62
349.583	81.62
349.81	86.62
350.037	76.62
350.265	80.62
350.492	87.62
350.72	94.62
350.947	73.62
351.174	94.62
351.402	79.62
351.629	100.62
351.856	84.62
352.083	96.62
352.311	86.62
352.538	89.62
352.765	95.62
352.992	78.62
353.22	87.62
353.447	93.62
353.674	90.62
353.901	96.62
354.128	92.62
354.355	83.62
354.583	77.62
354.81	92.62
355.037	86.62
355.264	72.62
355.491	89.62
355.718	93.62
355.945	84.62
356.172	86.62
356.399	81.62
356.626	85.62
356.853	84.62
357.08	97.62
357.307	92.62
357.534	84.62
357.761	78.62
357.988	98.62
358.215	87.62
358.441	77.62
358.668	88.62
358.895	98.62
359.122	90.62
359.349	91.62
359.576	89.62
359.802	101.62
360.029	75.62
360.256	80.62
360.483	84.62
360.709	81.62
360.936	98.62
361.163	72.62
361.39	88.62
361.616	86.62
361.843	87.62
362.07	89.62
362.296	85.62
362.523	101.62
362.749	90.62
362.976	100.62
363.203	104.62
363.429	94.62
363.656	76.62
363.882	78.62
364.109	78.62
364.335	93.62
364.562	85.62
364.788	93.62
365.015	85.62
365.241	97.62
365.468	80.62
365.694	89.62
365.92	80.62
366.147	88.62
366.373	72.62
366.599	94.62
366.826	88.62
367.052	91.62
367.278	73.62
367.505	83.62
367.731	95.62
367.957	91.62
368.184	85.62
368.41	105.62
368.636	91.62
368.862	89.62
369.089	91.62
369.315	83.62
369.541	69.62
369.767	93.62
369.993	90.62
370.219	90.62
370.445	101.62
370.672	99.62
370.898	96.62
371.124	79.62
371.35	90.62
371.576	89.62
371.802	90.62
372.028	85.62
372.254	76.62
372.48	85.62
372.706	80.62
372.932	87.62
373.158	87.62
373.384	91.62
373.61	89.62
373.835	94.62
374.061	97.62
374.287	90.62
374.513	73.62
374.739	94.62
374.965	84.62
375.191	91.62
375.416	98.62
375.642	92.62
375.868	83.62
376.094	98.62
376.319	69.62
376.545	83.62
376.771	93.62
376.997	91.62
377.222	91.62
377.448	89.62
377.674	88.62
377.899	78.62
378.125	103.62
378.35	71.62
378.576	72.62
378.802	105.62
379.027	82.62
379.253	92.62
379.478	89.62
379.704	91.62
379.929	82.62
380.155	77.62
380.38	78.62
380.606	78.62
380.831	89.62
381.057	77.62
381.282	78.62
381.507	91.62
381.733	72.62
381.958	72.62
382.184	69.62
382.409	94.62
382.634	97.62
382.86	79.62
383.085	87.62
383.31	75.62
383.535	94.62
383.761	76.62
383.986	91.62
384.211	99.62
384.436	86.62
384.662	85.62
384.887	95.62
385.112	80.62
385.337	100.62
385.562	93.62
385.787	85.62
386.013	92.62
386.238	94.62
386.463	81.62
386.688	84.62
386.913	88.62
387.138	88.62
387.363	80.62
387.588	78.62
387.813	94.62
388.038	78.62
388.263	84.62
388.488	97.62
388.713	98.62
388.938	72.62
389.163	87.62
389.387	99.62
389.612	85.62
389.837	86.62
390.062	86.62
390.287	91.62
390.512	81.62
390.736	83.62
390.961	77.62
391.186	84.62
391.411	91.62
391.636	78.62
391.86	93.62
392.085	86.62
392.31	94.62
392.534	88.62
392.759	91.62
392.984	87.62
393.208	88.62
393.433	69.62
393.658	98.62
393.882	83.62
394.107	77.62
394.331	95.62
394.556	75.62
394.78	89.62
395.005	99.62
395.229	92.62
395.454	89.62
395.678	85.62
395.903	83.62
396.127	95.62
396.352	90.62
396.576	102.62
396.801	90.62
397.025	86.62
397.249	82.62
397.474	98.62
397.698	99.62
397.922	103.62
398.147	88.62
398.371	85.62
398.595	84.62
398.82	94.62
399.044	100.62
399.268	85.62
399.492	90.62
399.717	78.62
399.941	87.62
400.165	90.62
400.389	96.62
400.613	82.62
400.837	87.62
401.062	89.62
401.286	91.62
401.51	86.62
401.734	92.62
401.958	85.62
402.182	66.62
402.406	92.62
402.63	68.62
402.854	88.62
403.078	109.62
403.302	83.62
403.526	81.62
403.75	88.62
403.974	90.62
404.198	91.62
404.422	99.62
404.645	96.62
404.869	71.62
405.093	83.62
405.317	96.62
405.541	102.62
405.765	87.62
405.988	92.62
406.212	92.62
406.436	85.62
406.66	77.62
406.883	88.62
407.107	94.62
407.331	94.62
407.555	85.62
407.778	97.62
408.002	97.62
408.226	81.62
408.449	76.62
408.673	92.62
408.896	98.62
409.12	85.62
409.344	104.62
409.567	99.62
409.791	91.62
410.014	82.62
410.238	78.62
410.461	80.62
410.685	89.62
410.908	91.62
411.132	88.62
411.355	92.62
411.578	82.62
411.802	89.62
412.025	83.62
412.249	86.62
412.472	86.62
412.695	90.62
412.919	76.62
413.142	99.62
413.365	99.62
413.589	86.62
413.812	82.62
414.035	88.62
414.258	80.62
414.482	91.62
414.705	82.62
414.928	95.62
415.151	75.62
415.374	78.62
415.597	87.62
415.821	89.62
416.044	87.62
416.267	88.62
416.49	81.62
416.713	78.62
416.936	79.62
417.159	84.62
417.382	101.62
417.605	107.62
417.828	81.62
418.051	93.62
418.274	105.62
418.497	101.62
418.72	86.62
418.943	78.62
419.166	90.62
419.389	91.62
419.611	102.62
419.834	95.62
420.057	82.62
420.28	84.62
420.503	92.62
420.726	92.62
420.948	83.62
421.171	79.62
421.394	84.62
421.617	66.62
421.839	88.62
422.062	86.62
422.285	89.62
422.507	93.62
422.73	84.62
422.953	95.62
423.175	92.62
423.398	95.62
423.621	82.62
423.843	90.62
424.066	97.62
424.288	76.62
424.511	87.62
424.733	89.62
424.956	98.62
425.178	94.62
425.401	93.62
425.623	100.62
425.846	87.62
426.068	105.62
426.291	84.62
426.513	79.62
426.735	83.62
426.958	94.62
427.18	87.62
427.402	91.62
427.625	92.62
427.847	87.62
428.069	91.62
428.292	85.62
428.514	85.62
428.736	82.62
428.958	80.62
429.181	83.62
429.403	91.62
429.625	93.62
429.847	91.62
430.069	100.62
430.292	80.62
430.514	73.62
430.736	88.62
430.958	96.62
431.18	92.62
431.402	97.62
431.624	80.62
431.846	74.62
432.068	96.62
432.29	86.62
432.512	94.62
432.734	86.62
432.956	77.62
433.178	88.62
433.4	91.62
433.622	77.62
433.844	82.62
434.066	97.62
434.287	89.62
434.509	70.62
434.731	92.62
434.953	94.62
435.175	93.62
435.397	89.62
435.618	88.62
435.84	84.62
436.062	81.62
436.284	106.62
436.505	91.62
436.727	86.62
436.949	83.62
437.17	84.62
437.392	94.62
437.614	101.62
437.835	91.62
438.057	78.62
438.278	94.62
438.5	99.62
438.721	76.62
438.943	94.62
439.165	86.62
439.386	84.62
439.608	89.62
439.829	83.62
440.05	87.62
440.272	85.62
440.493	92.62
440.715	95.62
440.936	92.62
441.158	76.62
441.379	85.62
441.6	107.62
441.822	93.62
442.043	85.62
442.264	89.62
442.486	89.62
442.707	93.62
442.928	97.62
443.149	110.62
443.371	99.62
443.592	89.62
443.813	113.62
444.034	93.62
444.255	96.62
444.476	79.62
444.698	84.62
444.919	87.62
445.14	208.62
445.361	145.62
445.582	85.62
445.803	86.62
446.024	97.62
446.245	71.62
446.466	85.62
446.687	82.62
446.908	97.62
447.129	95.62
447.35	84.62
447.571	96.62
447.792	99.62
448.013	86.62
448.234	92.62
448.455	86.62
448.675	81.62
448.896	98.62
449.117	94.62
449.338	89.62
449.559	80.62
449.779	87.62
450	89.62
450.221	96.62
450.442	99.62
450.662	88.62
450.883	89.62
451.104	80.62
451.324	105.62
451.545	92.62
451.766	89.62
451.986	91.62
452.207	92.62
452.428	90.62
452.648	89.62
452.869	84.62
453.089	88.62
453.31	77.62
453.53	86.62
453.751	76.62
453.971	87.62
454.192	87.62
454.412	82.62
454.633	66.62
454.853	82.62
455.073	90.62
455.294	88.62
455.514	83.62
455.734	81.62
455.955	93.62
456.175	85.62
456.395	87.62
456.616	98.62
456.836	95.62
457.056	88.62
457.276	93.62
457.497	82.62
457.717	70.62
457.937	93.62
458.157	91.62
458.377	83.62
458.598	84.62
458.818	92.62
459.038	80.62
459.258	82.62
459.478	88.62
459.698	90.62
459.918	85.62
460.138	93.62
460.358	85.62
460.578	96.62
460.798	96.62
461.018	80.62
461.238	72.62
461.458	100.62
461.678	95.62
461.898	81.62
462.118	90.62
462.338	92.62
462.558	92.62
462.777	107.62
462.997	99.62
463.217	84.62
463.437	98.62
463.657	88.62
463.876	102.62
464.096	93.62
464.316	86.62
464.536	86.62
464.755	101.62
464.975	83.62
465.195	81.62
465.414	81.62
465.634	86.62
465.854	97.62
466.073	80.62
466.293	103.62
466.512	106.62
466.732	93.62
466.951	101.62
467.171	90.62
467.391	88.62
467.61	96.62
467.829	84.62
468.049	90.62
468.268	81.62
468.488	92.62
468.707	98.62
468.927	95.62
469.146	91.62
469.365	87.62
469.585	83.62
469.804	116.62
470.023	97.62
470.243	88.62
470.462	91.62
470.681	94.62
470.901	97.62
471.12	90.62
471.339	106.62
471.558	90.62
471.777	100.62
471.997	86.62
472.216	101.62
472.435	80.62
472.654	85.62
472.873	98.62
473.092	74.62
473.311	89.62
473.53	95.62
473.749	86.62
473.968	93.62
474.187	97.62
474.406	84.62
474.625	90.62
474.844	87.62
475.063	96.62
475.282	84.62
475.501	91.62
475.72	89.62
475.939	91.62
476.158	85.62
476.377	91.62
476.596	90.62
476.814	91.62
477.033	92.62
477.252	96.62
477.471	89.62
477.69	97.62
477.908	101.62
478.127	105.62
478.346	90.62
478.564	83.62
478.783	89.62
479.002	90.62
479.22	98.62
479.439	99.62
479.658	100.62
479.876	97.62
480.095	104.62
480.313	105.62
480.532	104.62
480.751	81.62
480.969	90.62
481.188	88.62
481.406	96.62
481.624	86.62
481.843	91.62
482.061	100.62
482.28	87.62
482.498	96.62
482.717	91.62
482.935	93.62
483.153	103.62
483.372	103.62
483.59	85.62
483.808	94.62
484.027	105.62
484.245	99.62
484.463	87.62
484.681	104.62
484.9	97.62
485.118	115.62
485.336	103.62
485.554	88.62
485.772	97.62
485.99	98.62
486.209	78.62
486.427	102.62
486.645	91.62
486.863	100.62
487.081	99.62
487.299	92.62
487.517	88.62
487.735	89.62
487.953	104.62
488.171	97.62
488.389	101.62
488.607	99.62
488.825	91.62
489.043	93.62
489.261	103.62
489.479	96.62
489.696	88.62
489.914	107.62
490.132	91.62
490.35	112.62
490.568	97.62
490.786	103.62
491.003	105.62
491.221	93.62
491.439	98.62
491.657	97.62
491.874	106.62
492.092	116.62
492.31	113.62
492.527	109.62
492.745	100.62
492.963	113.62
493.18	108.62
493.398	98.62
493.615	98.62
493.833	103.62
494.05	98.62
494.268	101.62
494.485	102.62
494.703	112.62
494.92	96.62
495.138	96.62
495.355	102.62
495.573	105.62
495.79	109.62
496.008	108.62
496.225	88.62
496.442	96.62
496.66	112.62
496.877	100.62
497.094	115.62
497.312	107.62
497.529	107.62
497.746	117.62
497.963	118.62
498.181	96.62
498.398	93.62
498.615	98.62
498.832	110.62
499.049	101.62
499.267	120.62
499.484	117.62
499.701	116.62
499.918	106.62
500.135	114.62
500.352	133.62
500.569	114.62
500.786	121.62
501.003	107.62
501.22	100.62
501.437	118.62
501.654	102.62
501.871	105.62
502.088	109.62
502.305	108.62
502.522	114.62
502.739	107.62
502.956	99.62
503.172	104.62
503.389	101.62
503.606	90.62
503.823	103.62
504.04	94.62
504.256	94.62
504.473	96.62
504.69	105.62
504.907	107.62
505.123	115.62
505.34	112.62
505.557	99.62
505.773	87.62
505.99	97.62
506.207	102.62
506.423	92.62
506.64	98.62
506.856	98.62
507.073	81.62
507.289	91.62
507.506	102.62
507.722	99.62
507.939	108.62
508.155	110.62
508.372	82.62
508.588	93.62
508.805	101.62
509.021	102.62
509.238	78.62
509.454	105.62
509.67	88.62
509.887	92.62
510.103	98.62
510.319	93.62
510.536	89.62
510.752	107.62
510.968	105.62
511.184	84.62
511.401	87.62
511.617	93.62
511.833	94.62
512.049	93.62
512.265	81.62
512.481	97.62
512.698	94.62
512.914	85.62
513.13	109.62
513.346	91.62
513.562	84.62
513.778	91.62
513.994	93.62
514.21	85.62
514.426	92.62
514.642	97.62
514.858	107.62
515.074	102.62
515.29	108.62
515.506	98.62
515.721	88.62
515.937	99.62
516.153	95.62
516.369	104.62
516.585	109.62
516.801	85.62
517.016	104.62
517.232	104.62
517.448	109.62
