Data from Ni(NO3)2@0.0625M.TitratingCurve.Agarose3%dH2O.NegLispCup.LampEnergy10.LIBS07252019_HRD10591_18-12-59-569.txt Node
Date: Thu Jul 25 18:12:59 EDT 2019
User: cochatt
Spectrometer: HR+D1059
Trigger mode: 1
Integration Time (sec): 1.000000E-1
Scans to average: 1
Electric dark correction enabled: true
Nonlinearity correction enabled: false
Boxcar width: 0
XAxis mode: Wavelengths
Number of Pixels in Spectrum: 2048
>>>>>Begin Spectral Data<<<<<
223.165	-6.38
223.4	-6.38
223.635	-6.38
223.869	-8.38
224.104	-6.38
224.338	-18.38
224.573	-25.38
224.808	-18.38
225.042	-4.38
225.277	-3.38
225.511	3.62
225.746	5.62
225.98	-5.38
226.215	10.62
226.449	12.62
226.683	22.62
226.918	12.62
227.152	28.62
227.387	27.62
227.621	43.62
227.856	33.62
228.09	51.62
228.324	54.62
228.559	59.62
228.793	70.62
229.027	116.62
229.262	110.62
229.496	116.62
229.73	120.62
229.964	114.62
230.199	124.62
230.433	126.62
230.667	123.62
230.901	123.62
231.136	139.62
231.37	122.62
231.604	144.62
231.838	155.62
232.072	148.62
232.306	158.62
232.541	144.62
232.775	132.62
233.009	139.62
233.243	132.62
233.477	134.62
233.711	136.62
233.945	144.62
234.179	160.62
234.413	159.62
234.647	148.62
234.881	160.62
235.115	147.62
235.349	136.62
235.583	155.62
235.817	159.62
236.051	156.62
236.285	149.62
236.519	166.62
236.753	158.62
236.987	152.62
237.221	143.62
237.455	147.62
237.689	162.62
237.922	163.62
238.156	160.62
238.39	159.62
238.624	155.62
238.858	154.62
239.091	163.62
239.325	164.62
239.559	169.62
239.793	148.62
240.027	182.62
240.26	178.62
240.494	172.62
240.728	184.62
240.961	186.62
241.195	175.62
241.429	184.62
241.662	178.62
241.896	192.62
242.13	188.62
242.363	175.62
242.597	196.62
242.83	202.62
243.064	196.62
243.298	194.62
243.531	208.62
243.765	222.62
243.998	197.62
244.232	196.62
244.465	208.62
244.699	199.62
244.932	207.62
245.166	206.62
245.399	215.62
245.633	190.62
245.866	198.62
246.099	204.62
246.333	221.62
246.566	215.62
246.8	209.62
247.033	202.62
247.266	211.62
247.5	214.62
247.733	222.62
247.966	224.62
248.2	225.62
248.433	239.62
248.666	225.62
248.899	234.62
249.133	230.62
249.366	231.62
249.599	244.62
249.832	219.62
250.066	248.62
250.299	237.62
250.532	242.62
250.765	226.62
250.998	253.62
251.231	253.62
251.465	259.62
251.698	250.62
251.931	248.62
252.164	249.62
252.397	261.62
252.63	242.62
252.863	251.62
253.096	247.62
253.329	258.62
253.562	262.62
253.795	264.62
254.028	259.62
254.261	276.62
254.494	267.62
254.727	263.62
254.96	284.62
255.193	274.62
255.426	260.62
255.659	270.62
255.892	280.62
256.124	270.62
256.357	269.62
256.59	272.62
256.823	286.62
257.056	279.62
257.289	290.62
257.521	286.62
257.754	290.62
257.987	288.62
258.22	293.62
258.452	301.62
258.685	298.62
258.918	307.62
259.151	292.62
259.383	276.62
259.616	303.62
259.849	298.62
260.081	299.62
260.314	319.62
260.547	308.62
260.779	318.62
261.012	303.62
261.244	296.62
261.477	324.62
261.71	322.62
261.942	309.62
262.175	317.62
262.407	295.62
262.64	310.62
262.872	320.62
263.105	314.62
263.337	349.62
263.57	326.62
263.802	330.62
264.035	327.62
264.267	328.62
264.499	339.62
264.732	322.62
264.964	330.62
265.197	331.62
265.429	342.62
265.661	334.62
265.894	341.62
266.126	338.62
266.358	343.62
266.591	317.62
266.823	356.62
267.055	336.62
267.287	386.62
267.52	338.62
267.752	350.62
267.984	361.62
268.216	351.62
268.448	354.62
268.681	335.62
268.913	347.62
269.145	348.62
269.377	359.62
269.609	372.62
269.841	372.62
270.073	348.62
270.306	369.62
270.538	348.62
270.77	356.62
271.002	376.62
271.234	378.62
271.466	359.62
271.698	375.62
271.93	384.62
272.162	377.62
272.394	371.62
272.626	370.62
272.858	378.62
273.09	375.62
273.322	379.62
273.553	391.62
273.785	381.62
274.017	396.62
274.249	383.62
274.481	384.62
274.713	389.62
274.945	399.62
275.176	383.62
275.408	398.62
275.64	379.62
275.872	404.62
276.104	404.62
276.335	407.62
276.567	412.62
276.799	402.62
277.031	416.62
277.262	422.62
277.494	381.62
277.726	409.62
277.957	438.62
278.189	416.62
278.421	419.62
278.652	414.62
278.884	430.62
279.115	427.62
279.347	424.62
279.579	438.62
279.81	434.62
280.042	442.62
280.273	427.62
280.505	455.62
280.736	451.62
280.968	450.62
281.199	432.62
281.431	436.62
281.662	448.62
281.894	442.62
282.125	448.62
282.356	461.62
282.588	452.62
282.819	431.62
283.051	468.62
283.282	429.62
283.513	456.62
283.745	455.62
283.976	471.62
284.207	477.62
284.439	475.62
284.67	470.62
284.901	491.62
285.132	471.62
285.364	478.62
285.595	483.62
285.826	464.62
286.057	460.62
286.288	459.62
286.52	482.62
286.751	491.62
286.982	477.62
287.213	471.62
287.444	496.62
287.675	509.62
287.906	506.62
288.138	476.62
288.369	474.62
288.6	519.62
288.831	495.62
289.062	495.62
289.293	501.62
289.524	500.62
289.755	501.62
289.986	505.62
290.217	502.62
290.448	500.62
290.679	500.62
290.91	479.62
291.141	512.62
291.371	516.62
291.602	520.62
291.833	514.62
292.064	484.62
292.295	496.62
292.526	503.62
292.757	522.62
292.987	529.62
293.218	500.62
293.449	530.62
293.68	507.62
293.91	504.62
294.141	507.62
294.372	522.62
294.603	535.62
294.833	529.62
295.064	524.62
295.295	525.62
295.525	514.62
295.756	525.62
295.987	527.62
296.217	519.62
296.448	515.62
296.679	521.62
296.909	526.62
297.14	529.62
297.37	547.62
297.601	535.62
297.831	533.62
298.062	538.62
298.292	548.62
298.523	574.62
298.753	574.62
298.984	564.62
299.214	567.62
299.445	562.62
299.675	566.62
299.905	547.62
300.136	565.62
300.366	566.62
300.597	566.62
300.827	566.62
301.057	582.62
301.288	581.62
301.518	568.62
301.748	589.62
301.979	605.62
302.209	607.62
302.439	600.62
302.669	591.62
302.9	578.62
303.13	596.62
303.36	568.62
303.59	579.62
303.82	576.62
304.051	582.62
304.281	587.62
304.511	584.62
304.741	586.62
304.971	558.62
305.201	578.62
305.431	571.62
305.661	560.62
305.891	590.62
306.121	586.62
306.352	554.62
306.582	594.62
306.812	570.62
307.042	573.62
307.272	567.62
307.502	579.62
307.731	572.62
307.961	564.62
308.191	579.62
308.421	592.62
308.651	569.62
308.881	575.62
309.111	581.62
309.341	566.62
309.571	577.62
309.8	556.62
310.03	572.62
310.26	599.62
310.49	583.62
310.72	566.62
310.949	581.62
311.179	589.62
311.409	581.62
311.639	601.62
311.868	590.62
312.098	577.62
312.328	610.62
312.557	603.62
312.787	592.62
313.017	586.62
313.246	607.62
313.476	596.62
313.706	618.62
313.935	631.62
314.165	635.62
314.394	611.62
314.624	610.62
314.853	620.62
315.083	629.62
315.312	612.62
315.542	622.62
315.771	615.62
316.001	624.62
316.23	599.62
316.46	590.62
316.689	621.62
316.919	616.62
317.148	622.62
317.377	597.62
317.607	607.62
317.836	636.62
318.065	608.62
318.295	607.62
318.524	619.62
318.753	593.62
318.983	608.62
319.212	603.62
319.441	602.62
319.67	603.62
319.9	614.62
320.129	615.62
320.358	610.62
320.587	609.62
320.816	605.62
321.046	611.62
321.275	594.62
321.504	614.62
321.733	623.62
321.962	630.62
322.191	615.62
322.42	636.62
322.649	612.62
322.878	630.62
323.108	609.62
323.337	636.62
323.566	632.62
323.795	626.62
324.024	653.62
324.253	623.62
324.482	639.62
324.71	648.62
324.939	668.62
325.168	656.62
325.397	648.62
325.626	667.62
325.855	652.62
326.084	675.62
326.313	668.62
326.542	672.62
326.77	684.62
326.999	656.62
327.228	692.62
327.457	675.62
327.686	690.62
327.914	671.62
328.143	693.62
328.372	671.62
328.6	678.62
328.829	686.62
329.058	685.62
329.287	691.62
329.515	682.62
329.744	694.62
329.972	697.62
330.201	684.62
330.43	712.62
330.658	714.62
330.887	695.62
331.115	704.62
331.344	720.62
331.572	735.62
331.801	727.62
332.03	748.62
332.258	785.62
332.486	779.62
332.715	803.62
332.943	852.62
333.172	874.62
333.4	876.62
333.629	918.62
333.857	939.62
334.085	923.62
334.314	892.62
334.542	911.62
334.771	888.62
334.999	842.62
335.227	879.62
335.455	876.62
335.684	869.62
335.912	854.62
336.14	820.62
336.369	813.62
336.597	811.62
336.825	813.62
337.053	804.62
337.281	798.62
337.51	796.62
337.738	771.62
337.966	802.62
338.194	759.62
338.422	770.62
338.65	765.62
338.878	766.62
339.106	754.62
339.334	777.62
339.562	716.62
339.79	741.62
340.018	723.62
340.246	719.62
340.474	735.62
340.702	697.62
340.93	699.62
341.158	704.62
341.386	718.62
341.614	738.62
341.842	726.62
342.07	718.62
342.298	696.62
342.526	728.62
342.754	708.62
342.981	703.62
343.209	741.62
343.437	761.62
343.665	818.62
343.893	887.62
344.12	894.62
344.348	852.62
344.576	821.62
344.804	784.62
345.031	766.62
345.259	730.62
345.487	727.62
345.714	703.62
345.942	704.62
346.17	687.62
346.397	700.62
346.625	698.62
346.853	666.62
347.08	695.62
347.308	674.62
347.535	682.62
347.763	701.62
347.99	701.62
348.218	698.62
348.445	706.62
348.673	675.62
348.9	709.62
349.128	671.62
349.355	703.62
349.583	697.62
349.81	681.62
350.037	662.62
350.265	676.62
350.492	675.62
350.72	695.62
350.947	674.62
351.174	659.62
351.402	668.62
351.629	659.62
351.856	664.62
352.083	659.62
352.311	682.62
352.538	658.62
352.765	664.62
352.992	674.62
353.22	663.62
353.447	664.62
353.674	648.62
353.901	645.62
354.128	671.62
354.355	668.62
354.583	679.62
354.81	671.62
355.037	684.62
355.264	660.62
355.491	697.62
355.718	706.62
355.945	667.62
356.172	669.62
356.399	682.62
356.626	679.62
356.853	700.62
357.08	674.62
357.307	694.62
357.534	687.62
357.761	674.62
357.988	684.62
358.215	656.62
358.441	666.62
358.668	676.62
358.895	673.62
359.122	672.62
359.349	694.62
359.576	666.62
359.802	677.62
360.029	657.62
360.256	688.62
360.483	658.62
360.709	676.62
360.936	680.62
361.163	671.62
361.39	666.62
361.616	703.62
361.843	687.62
362.07	670.62
362.296	666.62
362.523	672.62
362.749	661.62
362.976	668.62
363.203	664.62
363.429	640.62
363.656	671.62
363.882	687.62
364.109	672.62
364.335	680.62
364.562	666.62
364.788	672.62
365.015	678.62
365.241	658.62
365.468	662.62
365.694	670.62
365.92	681.62
366.147	667.62
366.373	682.62
366.599	660.62
366.826	683.62
367.052	682.62
367.278	661.62
367.505	658.62
367.731	677.62
367.957	698.62
368.184	664.62
368.41	684.62
368.636	691.62
368.862	719.62
369.089	696.62
369.315	695.62
369.541	709.62
369.767	709.62
369.993	714.62
370.219	715.62
370.445	711.62
370.672	708.62
370.898	693.62
371.124	729.62
371.35	742.62
371.576	744.62
371.802	727.62
372.028	731.62
372.254	747.62
372.48	741.62
372.706	744.62
372.932	777.62
373.158	758.62
373.384	750.62
373.61	747.62
373.835	744.62
374.061	719.62
374.287	752.62
374.513	749.62
374.739	792.62
374.965	802.62
375.191	837.62
375.416	813.62
375.642	784.62
375.868	770.62
376.094	758.62
376.319	773.62
376.545	759.62
376.771	750.62
376.997	725.62
377.222	716.62
377.448	724.62
377.674	738.62
377.899	694.62
378.125	715.62
378.35	737.62
378.576	711.62
378.802	714.62
379.027	716.62
379.253	727.62
379.478	741.62
379.704	744.62
379.929	755.62
380.155	735.62
380.38	733.62
380.606	710.62
380.831	745.62
381.057	751.62
381.282	733.62
381.507	725.62
381.733	740.62
381.958	727.62
382.184	777.62
382.409	742.62
382.634	771.62
382.86	776.62
383.085	792.62
383.31	776.62
383.535	794.62
383.761	830.62
383.986	828.62
384.211	845.62
384.436	874.62
384.662	854.62
384.887	878.62
385.112	876.62
385.337	913.62
385.562	928.62
385.787	906.62
386.013	901.62
386.238	890.62
386.463	906.62
386.688	911.62
386.913	871.62
387.138	897.62
387.363	855.62
387.588	870.62
387.813	886.62
388.038	864.62
388.263	902.62
388.488	890.62
388.713	853.62
388.938	869.62
389.163	874.62
389.387	870.62
389.612	856.62
389.837	857.62
390.062	866.62
390.287	866.62
390.512	869.62
390.736	877.62
390.961	899.62
391.186	885.62
391.411	932.62
391.636	958.62
391.86	989.62
392.085	1031.62
392.31	1004.62
392.534	952.62
392.759	967.62
392.984	950.62
393.208	903.62
393.433	936.62
393.658	945.62
393.882	940.62
394.107	948.62
394.331	980.62
394.556	961.62
394.78	952.62
395.005	941.62
395.229	954.62
395.454	969.62
395.678	1007.62
395.903	996.62
396.127	997.62
396.352	955.62
396.576	942.62
396.801	948.62
397.025	959.62
397.249	972.62
397.474	990.62
397.698	976.62
397.922	1000.62
398.147	978.62
398.371	985.62
398.595	1032.62
398.82	1085.62
399.044	1167.62
399.268	1283.62
399.492	1476.62
399.717	1679.62
399.941	1651.62
400.165	1472.62
400.389	1338.62
400.613	1224.62
400.837	1184.62
401.062	1150.62
401.286	1086.62
401.51	1107.62
401.734	1095.62
401.958	1118.62
402.182	1133.62
402.406	1134.62
402.63	1134.62
402.854	1204.62
403.078	1194.62
403.302	1255.62
403.526	1266.62
403.75	1276.62
403.974	1282.62
404.198	1302.62
404.422	1301.62
404.645	1279.62
404.869	1250.62
405.093	1244.62
405.317	1231.62
405.541	1208.62
405.765	1213.62
405.988	1174.62
406.212	1235.62
406.436	1206.62
406.66	1275.62
406.883	1275.62
407.107	1356.62
407.331	1384.62
407.555	1436.62
407.778	1447.62
408.002	1391.62
408.226	1341.62
408.449	1282.62
408.673	1283.62
408.896	1243.62
409.12	1241.62
409.344	1261.62
409.567	1261.62
409.791	1250.62
410.014	1250.62
410.238	1224.62
410.461	1251.62
410.685	1191.62
410.908	1164.62
411.132	1181.62
411.355	1164.62
411.578	1171.62
411.802	1162.62
412.025	1140.62
412.249	1176.62
412.472	1167.62
412.695	1106.62
412.919	1093.62
413.142	1105.62
413.365	1109.62
413.589	1110.62
413.812	1099.62
414.035	1112.62
414.258	1098.62
414.482	1133.62
414.705	1127.62
414.928	1117.62
415.151	1132.62
415.374	1118.62
415.597	1109.62
415.821	1106.62
416.044	1065.62
416.267	1083.62
416.49	1067.62
416.713	1082.62
416.936	1098.62
417.159	1067.62
417.382	1056.62
417.605	1082.62
417.828	1087.62
418.051	1096.62
418.274	1098.62
418.497	1086.62
418.72	1113.62
418.943	1127.62
419.166	1198.62
419.389	1259.62
419.611	1242.62
419.834	1194.62
420.057	1138.62
420.28	1110.62
420.503	1083.62
420.726	1051.62
420.948	1066.62
421.171	1060.62
421.394	1075.62
421.617	1084.62
421.839	1072.62
422.062	1095.62
422.285	1086.62
422.507	1150.62
422.73	1132.62
422.953	1147.62
423.175	1119.62
423.398	1134.62
423.621	1131.62
423.843	1195.62
424.066	1158.62
424.288	1175.62
424.511	1153.62
424.733	1139.62
424.956	1112.62
425.178	1133.62
425.401	1126.62
425.623	1087.62
425.846	1052.62
426.068	1064.62
426.291	1001.62
426.513	1026.62
426.735	1018.62
426.958	1007.62
427.18	986.62
427.402	991.62
427.625	1006.62
427.847	984.62
428.069	967.62
428.292	1000.62
428.514	961.62
428.736	958.62
428.958	982.62
429.181	922.62
429.403	942.62
429.625	949.62
429.847	926.62
430.069	926.62
430.292	966.62
430.514	908.62
430.736	960.62
430.958	938.62
431.18	939.62
431.402	958.62
431.624	982.62
431.846	958.62
432.068	998.62
432.29	1006.62
432.512	987.62
432.734	980.62
432.956	939.62
433.178	967.62
433.4	957.62
433.622	976.62
433.844	984.62
434.066	982.62
434.287	1022.62
434.509	1021.62
434.731	1061.62
434.953	1104.62
435.175	1124.62
435.397	1090.62
435.618	1037.62
435.84	1018.62
436.062	989.62
436.284	972.62
436.505	945.62
436.727	990.62
436.949	996.62
437.17	969.62
437.392	975.62
437.614	935.62
437.835	904.62
438.057	946.62
438.278	942.62
438.5	934.62
438.721	953.62
438.943	942.62
439.165	937.62
439.386	945.62
439.608	958.62
439.829	968.62
440.05	951.62
440.272	977.62
440.493	961.62
440.715	989.62
440.936	1001.62
441.158	997.62
441.379	1028.62
441.6	1097.62
441.822	1101.62
442.043	1090.62
442.264	1084.62
442.486	1067.62
442.707	1070.62
442.928	1036.62
443.149	1083.62
443.371	1088.62
443.592	1095.62
443.813	1096.62
444.034	1119.62
444.255	1127.62
444.476	1200.62
444.698	1258.62
444.919	1294.62
445.14	1342.62
445.361	1235.62
445.582	1130.62
445.803	1058.62
446.024	1010.62
446.245	1014.62
446.466	1022.62
446.687	994.62
446.908	1017.62
447.129	947.62
447.35	955.62
447.571	928.62
447.792	916.62
448.013	902.62
448.234	946.62
448.455	895.62
448.675	922.62
448.896	874.62
449.117	868.62
449.338	900.62
449.559	888.62
449.779	890.62
450	896.62
450.221	874.62
450.442	914.62
450.662	906.62
450.883	923.62
451.104	919.62
451.324	897.62
451.545	894.62
451.766	911.62
451.986	864.62
452.207	870.62
452.428	874.62
452.648	879.62
452.869	878.62
453.089	859.62
453.31	895.62
453.53	840.62
453.751	862.62
453.971	844.62
454.192	843.62
454.412	821.62
454.633	845.62
454.853	855.62
455.073	822.62
455.294	836.62
455.514	827.62
455.734	839.62
455.955	834.62
456.175	810.62
456.395	812.62
456.616	815.62
456.836	823.62
457.056	848.62
457.276	811.62
457.497	860.62
457.717	848.62
457.937	820.62
458.157	809.62
458.377	854.62
458.598	878.62
458.818	886.62
459.038	917.62
459.258	924.62
459.478	967.62
459.698	982.62
459.918	1036.62
460.138	1084.62
460.358	1135.62
460.578	1123.62
460.798	1131.62
461.018	1158.62
461.238	1137.62
461.458	1122.62
461.678	1148.62
461.898	1140.62
462.118	1154.62
462.338	1262.62
462.558	1271.62
462.777	1308.62
462.997	1411.62
463.217	1528.62
463.437	1550.62
463.657	1396.62
463.876	1346.62
464.096	1317.62
464.316	1348.62
464.536	1365.62
464.755	1302.62
464.975	1244.62
465.195	1180.62
465.414	1123.62
465.634	1070.62
465.854	1013.62
466.073	994.62
466.293	950.62
466.512	957.62
466.732	910.62
466.951	941.62
467.171	922.62
467.391	941.62
467.61	930.62
467.829	912.62
468.049	948.62
468.268	912.62
468.488	862.62
468.707	862.62
468.927	891.62
469.146	884.62
469.365	904.62
469.585	921.62
469.804	906.62
470.023	912.62
470.243	920.62
470.462	977.62
470.681	965.62
470.901	952.62
471.12	930.62
471.339	938.62
471.558	916.62
471.777	900.62
471.997	911.62
472.216	891.62
472.435	868.62
472.654	894.62
472.873	858.62
473.092	860.62
473.311	855.62
473.53	884.62
473.749	862.62
473.968	866.62
474.187	853.62
474.406	871.62
474.625	865.62
474.844	868.62
475.063	886.62
475.282	858.62
475.501	851.62
475.72	887.62
475.939	867.62
476.158	894.62
476.377	907.62
476.596	895.62
476.814	890.62
477.033	912.62
477.252	943.62
477.471	973.62
477.69	972.62
477.908	1008.62
478.127	1047.62
478.346	1029.62
478.564	1065.62
478.783	1074.62
479.002	1082.62
479.22	1093.62
479.439	1091.62
479.658	1074.62
479.876	1059.62
480.095	1107.62
480.313	1131.62
480.532	1171.62
480.751	1164.62
480.969	1131.62
481.188	1067.62
481.406	1048.62
481.624	1039.62
481.843	1018.62
482.061	997.62
482.28	993.62
482.498	985.62
482.717	988.62
482.935	972.62
483.153	996.62
483.372	990.62
483.59	1005.62
483.808	981.62
484.027	958.62
484.245	984.62
484.463	992.62
484.681	990.62
484.9	1020.62
485.118	995.62
485.336	1007.62
485.554	1050.62
485.772	1049.62
485.99	1052.62
486.209	1057.62
486.427	1060.62
486.645	1051.62
486.863	1074.62
487.081	1051.62
487.299	1023.62
487.517	1018.62
487.735	1034.62
487.953	1058.62
488.171	1055.62
488.389	1026.62
488.607	1002.62
488.825	1042.62
489.043	1034.62
489.261	1040.62
489.479	1012.62
489.696	1012.62
489.914	1043.62
490.132	1024.62
490.35	1033.62
490.568	1074.62
490.786	1056.62
491.003	1032.62
491.221	1050.62
491.439	1045.62
491.657	1043.62
491.874	1024.62
492.092	1028.62
492.31	1039.62
492.527	1048.62
492.745	1075.62
492.963	1061.62
493.18	1082.62
493.398	1072.62
493.615	1091.62
493.833	1066.62
494.05	1086.62
494.268	1109.62
494.485	1107.62
494.703	1081.62
494.92	1107.62
495.138	1088.62
495.355	1114.62
495.573	1128.62
495.79	1114.62
496.008	1119.62
496.225	1124.62
496.442	1124.62
496.66	1118.62
496.877	1173.62
497.094	1195.62
497.312	1186.62
497.529	1210.62
497.746	1247.62
