Data from Ni(NO3)2Standard.Agarose3%.GreenCap.LampEnergy5.5.E.O_HRD10591_14-40-44-187.txt Node
Date: Mon Jul 22 14:40:44 EDT 2019
User: cochatt
Spectrometer: HR+D1059
Trigger mode: 1
Integration Time (sec): 1.000000E-1
Scans to average: 1
Electric dark correction enabled: true
Nonlinearity correction enabled: false
Boxcar width: 0
XAxis mode: Wavelengths
Number of Pixels in Spectrum: 2048
>>>>>Begin Spectral Data<<<<<
223.165	-20.81
223.4	-20.81
223.635	-20.81
223.869	-22.81
224.104	-13.81
224.338	-21.81
224.573	-6.81
224.808	-11.81
225.042	-3.81
225.277	-11.81
225.511	-19.81
225.746	3.19
225.98	1.19
226.215	21.19
226.449	20.19
226.683	26.19
226.918	27.19
227.152	34.19
227.387	30.19
227.621	45.19
227.856	47.19
228.09	49.19
228.324	55.19
228.559	54.19
228.793	39.19
229.027	66.19
229.262	62.19
229.496	61.19
229.73	80.19
229.964	76.19
230.199	72.19
230.433	76.19
230.667	59.19
230.901	74.19
231.136	92.19
231.37	74.19
231.604	76.19
231.838	78.19
232.072	78.19
232.306	80.19
232.541	80.19
232.775	88.19
233.009	90.19
233.243	82.19
233.477	78.19
233.711	77.19
233.945	74.19
234.179	70.19
234.413	82.19
234.647	70.19
234.881	82.19
235.115	75.19
235.349	65.19
235.583	82.19
235.817	65.19
236.051	71.19
236.285	80.19
236.519	76.19
236.753	78.19
236.987	86.19
237.221	73.19
237.455	72.19
237.689	80.19
237.922	70.19
238.156	81.19
238.39	80.19
238.624	70.19
238.858	59.19
239.091	76.19
239.325	64.19
239.559	76.19
239.793	72.19
240.027	73.19
240.26	62.19
240.494	76.19
240.728	73.19
240.961	72.19
241.195	85.19
241.429	65.19
241.662	62.19
241.896	71.19
242.13	88.19
242.363	82.19
242.597	65.19
242.83	71.19
243.064	70.19
243.298	73.19
243.531	65.19
243.765	77.19
243.998	77.19
244.232	75.19
244.465	68.19
244.699	77.19
244.932	70.19
245.166	71.19
245.399	81.19
245.633	73.19
245.866	83.19
246.099	77.19
246.333	82.19
246.566	68.19
246.8	79.19
247.033	76.19
247.266	61.19
247.5	85.19
247.733	71.19
247.966	85.19
248.2	85.19
248.433	70.19
248.666	85.19
248.899	86.19
249.133	83.19
249.366	82.19
249.599	82.19
249.832	79.19
250.066	71.19
250.299	69.19
250.532	85.19
250.765	83.19
250.998	97.19
251.231	81.19
251.465	68.19
251.698	70.19
251.931	89.19
252.164	72.19
252.397	78.19
252.63	87.19
252.863	75.19
253.096	82.19
253.329	83.19
253.562	67.19
253.795	92.19
254.028	91.19
254.261	69.19
254.494	67.19
254.727	96.19
254.96	78.19
255.193	92.19
255.426	82.19
255.659	73.19
255.892	77.19
256.124	60.19
256.357	86.19
256.59	86.19
256.823	90.19
257.056	82.19
257.289	85.19
257.521	68.19
257.754	86.19
257.987	78.19
258.22	88.19
258.452	72.19
258.685	91.19
258.918	98.19
259.151	75.19
259.383	80.19
259.616	89.19
259.849	71.19
260.081	71.19
260.314	69.19
260.547	76.19
260.779	72.19
261.012	79.19
261.244	79.19
261.477	78.19
261.71	79.19
261.942	81.19
262.175	78.19
262.407	80.19
262.64	89.19
262.872	74.19
263.105	77.19
263.337	80.19
263.57	89.19
263.802	85.19
264.035	83.19
264.267	98.19
264.499	74.19
264.732	68.19
264.964	88.19
265.197	69.19
265.429	75.19
265.661	81.19
265.894	94.19
266.126	81.19
266.358	88.19
266.591	70.19
266.823	77.19
267.055	85.19
267.287	63.19
267.52	78.19
267.752	86.19
267.984	93.19
268.216	74.19
268.448	88.19
268.681	87.19
268.913	90.19
269.145	90.19
269.377	83.19
269.609	66.19
269.841	83.19
270.073	73.19
270.306	86.19
270.538	87.19
270.77	75.19
271.002	93.19
271.234	83.19
271.466	81.19
271.698	80.19
271.93	76.19
272.162	90.19
272.394	91.19
272.626	88.19
272.858	73.19
273.09	76.19
273.322	84.19
273.553	78.19
273.785	75.19
274.017	79.19
274.249	76.19
274.481	71.19
274.713	76.19
274.945	83.19
275.176	69.19
275.408	83.19
275.64	74.19
275.872	82.19
276.104	96.19
276.335	87.19
276.567	85.19
276.799	89.19
277.031	89.19
277.262	82.19
277.494	88.19
277.726	85.19
277.957	78.19
278.189	90.19
278.421	81.19
278.652	83.19
278.884	87.19
279.115	82.19
279.347	77.19
279.579	90.19
279.81	93.19
280.042	84.19
280.273	65.19
280.505	85.19
280.736	85.19
280.968	82.19
281.199	96.19
281.431	95.19
281.662	86.19
281.894	78.19
282.125	81.19
282.356	87.19
282.588	92.19
282.819	88.19
283.051	88.19
283.282	84.19
283.513	89.19
283.745	81.19
283.976	87.19
284.207	82.19
284.439	95.19
284.67	88.19
284.901	86.19
285.132	95.19
285.364	83.19
285.595	79.19
285.826	82.19
286.057	83.19
286.288	84.19
286.52	96.19
286.751	101.19
286.982	89.19
287.213	77.19
287.444	78.19
287.675	96.19
287.906	80.19
288.138	88.19
288.369	80.19
288.6	89.19
288.831	82.19
289.062	83.19
289.293	76.19
289.524	85.19
289.755	81.19
289.986	86.19
290.217	92.19
290.448	90.19
290.679	81.19
290.91	103.19
291.141	90.19
291.371	81.19
291.602	70.19
291.833	90.19
292.064	92.19
292.295	82.19
292.526	80.19
292.757	74.19
292.987	81.19
293.218	79.19
293.449	75.19
293.68	83.19
293.91	88.19
294.141	81.19
294.372	95.19
294.603	82.19
294.833	83.19
295.064	79.19
295.295	75.19
295.525	85.19
295.756	85.19
295.987	95.19
296.217	88.19
296.448	90.19
296.679	85.19
296.909	97.19
297.14	98.19
297.37	95.19
297.601	75.19
297.831	67.19
298.062	82.19
298.292	84.19
298.523	102.19
298.753	83.19
298.984	90.19
299.214	97.19
299.445	103.19
299.675	84.19
299.905	90.19
300.136	71.19
300.366	90.19
300.597	79.19
300.827	87.19
301.057	89.19
301.288	88.19
301.518	76.19
301.748	74.19
301.979	79.19
302.209	91.19
302.439	89.19
302.669	89.19
302.9	89.19
303.13	83.19
303.36	95.19
303.59	90.19
303.82	93.19
304.051	80.19
304.281	92.19
304.511	99.19
304.741	74.19
304.971	94.19
305.201	75.19
305.431	95.19
305.661	96.19
305.891	86.19
306.121	85.19
306.352	93.19
306.582	82.19
306.812	88.19
307.042	86.19
307.272	85.19
307.502	83.19
307.731	87.19
307.961	79.19
308.191	108.19
308.421	102.19
308.651	91.19
308.881	87.19
309.111	84.19
309.341	90.19
309.571	82.19
309.8	81.19
310.03	77.19
310.26	83.19
310.49	79.19
310.72	88.19
310.949	94.19
311.179	81.19
311.409	74.19
311.639	85.19
311.868	81.19
312.098	89.19
312.328	91.19
312.557	110.19
312.787	89.19
313.017	93.19
313.246	86.19
313.476	86.19
313.706	71.19
313.935	88.19
314.165	88.19
314.394	69.19
314.624	106.19
314.853	93.19
315.083	92.19
315.312	88.19
315.542	89.19
315.771	80.19
316.001	87.19
316.23	91.19
316.46	85.19
316.689	91.19
316.919	87.19
317.148	78.19
317.377	77.19
317.607	97.19
317.836	82.19
318.065	92.19
318.295	82.19
318.524	94.19
318.753	88.19
318.983	100.19
319.212	108.19
319.441	84.19
319.67	88.19
319.9	82.19
320.129	68.19
320.358	69.19
320.587	73.19
320.816	92.19
321.046	86.19
321.275	93.19
321.504	98.19
321.733	97.19
321.962	78.19
322.191	91.19
322.42	83.19
322.649	94.19
322.878	100.19
323.108	87.19
323.337	98.19
323.566	83.19
323.795	82.19
324.024	92.19
324.253	92.19
324.482	96.19
324.71	86.19
324.939	97.19
325.168	84.19
325.397	91.19
325.626	82.19
325.855	76.19
326.084	81.19
326.313	89.19
326.542	84.19
326.77	72.19
326.999	86.19
327.228	98.19
327.457	101.19
327.686	102.19
327.914	87.19
328.143	89.19
328.372	82.19
328.6	69.19
328.829	84.19
329.058	104.19
329.287	79.19
329.515	82.19
329.744	89.19
329.972	84.19
330.201	84.19
330.43	71.19
330.658	95.19
330.887	101.19
331.115	97.19
331.344	99.19
331.572	81.19
331.801	104.19
332.03	80.19
332.258	73.19
332.486	85.19
332.715	86.19
332.943	89.19
333.172	85.19
333.4	89.19
333.629	84.19
333.857	89.19
334.085	79.19
334.314	80.19
334.542	98.19
334.771	90.19
334.999	98.19
335.227	91.19
335.455	90.19
335.684	92.19
335.912	99.19
336.14	84.19
336.369	93.19
336.597	94.19
336.825	84.19
337.053	81.19
337.281	85.19
337.51	84.19
337.738	85.19
337.966	90.19
338.194	82.19
338.422	86.19
338.65	106.19
338.878	95.19
339.106	89.19
339.334	101.19
339.562	84.19
339.79	93.19
340.018	78.19
340.246	74.19
340.474	84.19
340.702	89.19
340.93	76.19
341.158	95.19
341.386	80.19
341.614	113.19
341.842	95.19
342.07	101.19
342.298	97.19
342.526	88.19
342.754	87.19
342.981	93.19
343.209	85.19
343.437	89.19
343.665	88.19
343.893	91.19
344.12	93.19
344.348	90.19
344.576	95.19
344.804	82.19
345.031	95.19
345.259	75.19
345.487	89.19
345.714	76.19
345.942	74.19
346.17	85.19
346.397	88.19
346.625	81.19
346.853	96.19
347.08	74.19
347.308	80.19
347.535	71.19
347.763	92.19
347.99	83.19
348.218	107.19
348.445	97.19
348.673	63.19
348.9	100.19
349.128	96.19
349.355	85.19
349.583	91.19
349.81	90.19
350.037	97.19
350.265	89.19
350.492	77.19
350.72	88.19
350.947	84.19
351.174	92.19
351.402	89.19
351.629	83.19
351.856	90.19
352.083	91.19
352.311	94.19
352.538	84.19
352.765	88.19
352.992	85.19
353.22	82.19
353.447	76.19
353.674	82.19
353.901	87.19
354.128	81.19
354.355	87.19
354.583	98.19
354.81	84.19
355.037	89.19
355.264	82.19
355.491	100.19
355.718	85.19
355.945	81.19
356.172	82.19
356.399	80.19
356.626	87.19
356.853	84.19
357.08	90.19
357.307	100.19
357.534	99.19
357.761	98.19
357.988	75.19
358.215	91.19
358.441	101.19
358.668	90.19
358.895	85.19
359.122	84.19
359.349	93.19
359.576	90.19
359.802	85.19
360.029	87.19
360.256	77.19
360.483	81.19
360.709	78.19
360.936	93.19
361.163	89.19
361.39	89.19
361.616	83.19
361.843	79.19
362.07	75.19
362.296	97.19
362.523	80.19
362.749	84.19
362.976	88.19
363.203	92.19
363.429	85.19
363.656	85.19
363.882	79.19
364.109	92.19
364.335	91.19
364.562	75.19
364.788	98.19
365.015	82.19
365.241	87.19
365.468	97.19
365.694	95.19
365.92	92.19
366.147	85.19
366.373	86.19
366.599	90.19
366.826	82.19
367.052	91.19
367.278	69.19
367.505	82.19
367.731	89.19
367.957	87.19
368.184	82.19
368.41	78.19
368.636	91.19
368.862	78.19
369.089	91.19
369.315	76.19
369.541	71.19
369.767	87.19
369.993	94.19
370.219	85.19
370.445	101.19
370.672	75.19
370.898	79.19
371.124	95.19
371.35	88.19
371.576	87.19
371.802	74.19
372.028	69.19
372.254	89.19
372.48	85.19
372.706	96.19
372.932	87.19
373.158	72.19
373.384	86.19
373.61	80.19
373.835	89.19
374.061	76.19
374.287	89.19
374.513	74.19
374.739	90.19
374.965	83.19
375.191	86.19
375.416	91.19
375.642	79.19
375.868	90.19
376.094	86.19
376.319	78.19
376.545	90.19
376.771	106.19
376.997	85.19
377.222	100.19
377.448	85.19
377.674	101.19
377.899	92.19
378.125	87.19
378.35	87.19
378.576	75.19
378.802	75.19
379.027	85.19
379.253	91.19
379.478	87.19
379.704	93.19
379.929	92.19
380.155	91.19
380.38	84.19
380.606	86.19
380.831	86.19
381.057	99.19
381.282	85.19
381.507	91.19
381.733	86.19
381.958	80.19
382.184	92.19
382.409	90.19
382.634	88.19
382.86	84.19
383.085	84.19
383.31	90.19
383.535	85.19
383.761	95.19
383.986	79.19
384.211	89.19
384.436	85.19
384.662	93.19
384.887	84.19
385.112	85.19
385.337	75.19
385.562	78.19
385.787	86.19
386.013	93.19
386.238	81.19
386.463	79.19
386.688	89.19
386.913	74.19
387.138	84.19
387.363	79.19
387.588	81.19
387.813	86.19
388.038	95.19
388.263	80.19
388.488	91.19
388.713	91.19
388.938	78.19
389.163	74.19
389.387	81.19
389.612	95.19
389.837	84.19
390.062	98.19
390.287	82.19
390.512	101.19
390.736	78.19
390.961	81.19
391.186	77.19
391.411	82.19
391.636	78.19
391.86	88.19
392.085	86.19
392.31	85.19
392.534	91.19
392.759	90.19
392.984	79.19
393.208	80.19
393.433	82.19
393.658	84.19
393.882	86.19
394.107	91.19
394.331	101.19
394.556	86.19
394.78	78.19
395.005	80.19
395.229	75.19
395.454	94.19
395.678	103.19
395.903	85.19
396.127	88.19
396.352	90.19
396.576	85.19
396.801	88.19
397.025	84.19
397.249	97.19
397.474	93.19
397.698	78.19
397.922	76.19
398.147	72.19
398.371	85.19
398.595	74.19
398.82	81.19
399.044	97.19
399.268	94.19
399.492	94.19
399.717	86.19
399.941	94.19
400.165	88.19
400.389	84.19
400.613	67.19
400.837	89.19
401.062	93.19
401.286	72.19
401.51	83.19
401.734	83.19
401.958	70.19
402.182	82.19
402.406	88.19
402.63	99.19
402.854	104.19
403.078	89.19
403.302	78.19
403.526	76.19
403.75	84.19
403.974	87.19
404.198	82.19
404.422	87.19
404.645	83.19
404.869	77.19
405.093	90.19
405.317	96.19
405.541	99.19
405.765	82.19
405.988	82.19
406.212	86.19
406.436	89.19
406.66	89.19
406.883	91.19
407.107	90.19
407.331	82.19
407.555	91.19
407.778	93.19
408.002	97.19
408.226	82.19
408.449	93.19
408.673	89.19
408.896	87.19
409.12	93.19
409.344	98.19
409.567	93.19
409.791	93.19
410.014	92.19
410.238	84.19
410.461	83.19
410.685	79.19
410.908	80.19
411.132	105.19
411.355	95.19
411.578	80.19
411.802	94.19
412.025	92.19
412.249	82.19
412.472	86.19
412.695	82.19
412.919	92.19
413.142	89.19
413.365	97.19
413.589	84.19
413.812	82.19
414.035	82.19
414.258	85.19
414.482	79.19
414.705	90.19
414.928	84.19
415.151	90.19
415.374	90.19
415.597	73.19
415.821	86.19
416.044	76.19
416.267	84.19
416.49	88.19
416.713	87.19
416.936	78.19
417.159	82.19
417.382	78.19
417.605	89.19
417.828	87.19
418.051	82.19
418.274	80.19
418.497	76.19
418.72	81.19
418.943	77.19
419.166	83.19
419.389	79.19
419.611	88.19
419.834	95.19
420.057	79.19
420.28	79.19
420.503	91.19
420.726	83.19
420.948	91.19
421.171	78.19
421.394	94.19
421.617	85.19
421.839	92.19
422.062	96.19
422.285	94.19
422.507	90.19
422.73	82.19
422.953	87.19
423.175	82.19
423.398	92.19
423.621	83.19
423.843	90.19
424.066	81.19
424.288	76.19
424.511	78.19
424.733	85.19
424.956	90.19
425.178	88.19
425.401	82.19
425.623	95.19
425.846	93.19
426.068	86.19
426.291	92.19
426.513	93.19
426.735	84.19
426.958	77.19
427.18	87.19
427.402	78.19
427.625	99.19
427.847	86.19
428.069	84.19
428.292	93.19
428.514	98.19
428.736	86.19
428.958	86.19
429.181	63.19
429.403	78.19
429.625	85.19
429.847	105.19
430.069	96.19
430.292	83.19
430.514	72.19
430.736	84.19
430.958	104.19
431.18	80.19
431.402	83.19
431.624	84.19
431.846	77.19
432.068	93.19
432.29	88.19
432.512	74.19
432.734	83.19
432.956	93.19
433.178	106.19
433.4	86.19
433.622	91.19
433.844	93.19
434.066	66.19
434.287	77.19
434.509	97.19
434.731	89.19
434.953	87.19
435.175	89.19
435.397	89.19
435.618	88.19
435.84	90.19
436.062	88.19
436.284	84.19
436.505	92.19
436.727	79.19
436.949	100.19
437.17	80.19
437.392	87.19
437.614	78.19
437.835	82.19
438.057	78.19
438.278	71.19
438.5	76.19
438.721	84.19
438.943	83.19
439.165	80.19
439.386	87.19
439.608	81.19
439.829	86.19
440.05	74.19
440.272	73.19
440.493	87.19
440.715	82.19
440.936	90.19
441.158	99.19
441.379	93.19
441.6	78.19
441.822	83.19
442.043	83.19
442.264	73.19
442.486	75.19
442.707	82.19
442.928	87.19
443.149	70.19
443.371	74.19
443.592	88.19
443.813	83.19
444.034	74.19
444.255	104.19
444.476	87.19
444.698	92.19
444.919	83.19
445.14	209.19
445.361	137.19
445.582	89.19
445.803	85.19
446.024	79.19
446.245	93.19
446.466	90.19
446.687	77.19
446.908	95.19
447.129	103.19
447.35	86.19
447.571	74.19
447.792	91.19
448.013	70.19
448.234	95.19
448.455	102.19
448.675	93.19
448.896	78.19
449.117	88.19
449.338	80.19
449.559	79.19
449.779	82.19
450	86.19
450.221	77.19
450.442	84.19
450.662	95.19
450.883	83.19
451.104	86.19
451.324	85.19
451.545	78.19
451.766	100.19
451.986	83.19
452.207	90.19
452.428	80.19
452.648	81.19
452.869	87.19
453.089	79.19
453.31	83.19
453.53	77.19
453.751	100.19
453.971	95.19
454.192	91.19
454.412	74.19
454.633	84.19
454.853	84.19
455.073	82.19
455.294	87.19
455.514	99.19
455.734	89.19
455.955	80.19
456.175	91.19
456.395	91.19
456.616	91.19
456.836	86.19
457.056	85.19
457.276	75.19
457.497	84.19
457.717	93.19
457.937	82.19
458.157	93.19
458.377	78.19
458.598	82.19
458.818	80.19
459.038	68.19
459.258	89.19
459.478	95.19
459.698	92.19
459.918	74.19
460.138	87.19
460.358	110.19
460.578	95.19
460.798	73.19
461.018	84.19
461.238	97.19
461.458	85.19
461.678	87.19
461.898	101.19
462.118	87.19
462.338	82.19
462.558	99.19
462.777	89.19
462.997	94.19
463.217	80.19
463.437	80.19
463.657	70.19
463.876	88.19
464.096	93.19
464.316	100.19
464.536	93.19
464.755	99.19
464.975	73.19
465.195	96.19
465.414	95.19
465.634	91.19
465.854	87.19
466.073	85.19
466.293	102.19
466.512	103.19
466.732	85.19
466.951	95.19
467.171	90.19
467.391	97.19
467.61	69.19
467.829	88.19
468.049	100.19
468.268	85.19
468.488	96.19
468.707	84.19
468.927	78.19
469.146	75.19
469.365	72.19
469.585	72.19
469.804	83.19
470.023	86.19
470.243	88.19
470.462	104.19
470.681	90.19
470.901	95.19
471.12	83.19
471.339	81.19
471.558	71.19
471.777	92.19
471.997	87.19
472.216	81.19
472.435	92.19
472.654	90.19
472.873	80.19
473.092	97.19
473.311	100.19
473.53	94.19
473.749	82.19
473.968	95.19
474.187	90.19
474.406	74.19
474.625	88.19
474.844	98.19
475.063	85.19
475.282	89.19
475.501	82.19
475.72	89.19
475.939	100.19
476.158	76.19
476.377	84.19
476.596	87.19
476.814	80.19
477.033	92.19
477.252	101.19
477.471	103.19
477.69	101.19
477.908	98.19
478.127	92.19
478.346	73.19
478.564	92.19
478.783	92.19
479.002	88.19
479.22	86.19
479.439	83.19
479.658	87.19
479.876	93.19
480.095	90.19
480.313	92.19
480.532	95.19
480.751	96.19
480.969	89.19
481.188	96.19
481.406	87.19
481.624	86.19
481.843	86.19
482.061	95.19
482.28	91.19
482.498	86.19
482.717	95.19
482.935	83.19
483.153	87.19
483.372	87.19
483.59	98.19
483.808	90.19
484.027	94.19
484.245	89.19
484.463	102.19
484.681	77.19
484.9	99.19
485.118	102.19
485.336	84.19
485.554	92.19
485.772	97.19
485.99	87.19
486.209	88.19
486.427	99.19
486.645	83.19
486.863	97.19
487.081	84.19
487.299	89.19
487.517	98.19
487.735	110.19
487.953	96.19
488.171	93.19
488.389	84.19
488.607	99.19
488.825	92.19
489.043	90.19
489.261	81.19
489.479	87.19
489.696	92.19
489.914	94.19
490.132	91.19
490.35	93.19
490.568	90.19
490.786	98.19
491.003	100.19
491.221	88.19
491.439	90.19
491.657	88.19
491.874	93.19
492.092	87.19
492.31	109.19
492.527	106.19
492.745	90.19
492.963	95.19
493.18	103.19
493.398	98.19
493.615	101.19
493.833	103.19
494.05	92.19
494.268	101.19
494.485	97.19
494.703	96.19
494.92	80.19
495.138	94.19
495.355	93.19
495.573	105.19
495.79	99.19
496.008	109.19
496.225	94.19
496.442	92.19
496.66	78.19
496.877	116.19
497.094	92.19
497.312	95.19
497.529	95.19
497.746	92.19
497.963	103.19
498.181	110.19
498.398	110.19
498.615	90.19
498.832	107.19
499.049	86.19
499.267	87.19
499.484	101.19
499.701	98.19
499.918	108.19
500.135	115.19
500.352	115.19
500.569	105.19
500.786	109.19
501.003	106.19
501.22	114.19
501.437	99.19
501.654	110.19
501.871	88.19
502.088	118.19
502.305	97.19
502.522	109.19
502.739	88.19
502.956	86.19
503.172	85.19
503.389	109.19
503.606	87.19
503.823	90.19
504.04	97.19
504.256	97.19
504.473	90.19
504.69	96.19
504.907	92.19
505.123	108.19
505.34	93.19
505.557	104.19
505.773	99.19
505.99	77.19
506.207	78.19
506.423	93.19
506.64	96.19
506.856	93.19
507.073	83.19
507.289	86.19
507.506	95.19
507.722	98.19
507.939	95.19
508.155	88.19
508.372	91.19
508.588	82.19
508.805	90.19
509.021	91.19
509.238	91.19
509.454	93.19
509.67	102.19
509.887	100.19
510.103	99.19
510.319	78.19
510.536	104.19
510.752	93.19
510.968	83.19
511.184	88.19
511.401	95.19
511.617	91.19
511.833	90.19
512.049	85.19
512.265	97.19
512.481	89.19
512.698	92.19
512.914	85.19
513.13	103.19
513.346	94.19
513.562	73.19
513.778	90.19
513.994	90.19
514.21	100.19
514.426	96.19
514.642	100.19
514.858	76.19
515.074	80.19
515.29	93.19
515.506	90.19
515.721	82.19
515.937	84.19
516.153	94.19
516.369	89.19
516.585	91.19
516.801	90.19
517.016	89.19
517.232	87.19
517.448	81.19
517.664	89.19
517.879	89.19
518.095	84.19
