Data from Ni(NO3)2@0.125M.TitratingCurve.Agarose3%dH2O.NegLispCup.LampEnergy10.LIBS07252019_HRD10591_18-10-53-568.txt Node
Date: Thu Jul 25 18:10:53 EDT 2019
User: cochatt
Spectrometer: HR+D1059
Trigger mode: 1
Integration Time (sec): 1.000000E-1
Scans to average: 1
Electric dark correction enabled: true
Nonlinearity correction enabled: false
Boxcar width: 0
XAxis mode: Wavelengths
Number of Pixels in Spectrum: 2048
>>>>>Begin Spectral Data<<<<<
223.165	-4.88
223.4	-4.88
223.635	-4.88
223.869	-16.88
224.104	-20.88
224.338	-4.88
224.573	-12.88
224.808	-17.88
225.042	-8.88
225.277	-9.88
225.511	-3.88
225.746	7.12
225.98	-6.88
226.215	1.12
226.449	26.12
226.683	17.12
226.918	23.12
227.152	33.12
227.387	37.12
227.621	44.12
227.856	39.12
228.09	54.12
228.324	62.12
228.559	49.12
228.793	77.12
229.027	90.12
229.262	99.12
229.496	98.12
229.73	124.12
229.964	120.12
230.199	126.12
230.433	111.12
230.667	108.12
230.901	127.12
231.136	99.12
231.37	112.12
231.604	131.12
231.838	125.12
232.072	141.12
232.306	119.12
232.541	134.12
232.775	139.12
233.009	135.12
233.243	123.12
233.477	118.12
233.711	131.12
233.945	144.12
234.179	117.12
234.413	131.12
234.647	144.12
234.881	129.12
235.115	124.12
235.349	109.12
235.583	131.12
235.817	124.12
236.051	132.12
236.285	137.12
236.519	126.12
236.753	127.12
236.987	125.12
237.221	142.12
237.455	124.12
237.689	144.12
237.922	141.12
238.156	128.12
238.39	141.12
238.624	145.12
238.858	130.12
239.091	127.12
239.325	151.12
239.559	148.12
239.793	155.12
240.027	147.12
240.26	140.12
240.494	149.12
240.728	151.12
240.961	136.12
241.195	151.12
241.429	147.12
241.662	146.12
241.896	151.12
242.13	163.12
242.363	152.12
242.597	174.12
242.83	165.12
243.064	173.12
243.298	168.12
243.531	156.12
243.765	154.12
243.998	153.12
244.232	181.12
244.465	175.12
244.699	179.12
244.932	176.12
245.166	176.12
245.399	183.12
245.633	181.12
245.866	167.12
246.099	177.12
246.333	173.12
246.566	166.12
246.8	194.12
247.033	190.12
247.266	189.12
247.5	164.12
247.733	175.12
247.966	181.12
248.2	171.12
248.433	199.12
248.666	186.12
248.899	203.12
249.133	202.12
249.366	195.12
249.599	188.12
249.832	193.12
250.066	190.12
250.299	184.12
250.532	202.12
250.765	203.12
250.998	214.12
251.231	197.12
251.465	191.12
251.698	196.12
251.931	214.12
252.164	210.12
252.397	215.12
252.63	201.12
252.863	217.12
253.096	205.12
253.329	214.12
253.562	218.12
253.795	224.12
254.028	231.12
254.261	205.12
254.494	231.12
254.727	218.12
254.96	218.12
255.193	216.12
255.426	223.12
255.659	232.12
255.892	217.12
256.124	221.12
256.357	233.12
256.59	217.12
256.823	222.12
257.056	233.12
257.289	226.12
257.521	233.12
257.754	236.12
257.987	215.12
258.22	236.12
258.452	240.12
258.685	232.12
258.918	233.12
259.151	245.12
259.383	250.12
259.616	241.12
259.849	261.12
260.081	238.12
260.314	235.12
260.547	251.12
260.779	252.12
261.012	243.12
261.244	228.12
261.477	251.12
261.71	245.12
261.942	245.12
262.175	246.12
262.407	234.12
262.64	241.12
262.872	258.12
263.105	261.12
263.337	259.12
263.57	256.12
263.802	266.12
264.035	258.12
264.267	249.12
264.499	255.12
264.732	269.12
264.964	263.12
265.197	270.12
265.429	261.12
265.661	277.12
265.894	271.12
266.126	295.12
266.358	269.12
266.591	263.12
266.823	275.12
267.055	268.12
267.287	269.12
267.52	272.12
267.752	271.12
267.984	281.12
268.216	278.12
268.448	272.12
268.681	280.12
268.913	288.12
269.145	295.12
269.377	286.12
269.609	267.12
269.841	278.12
270.073	295.12
270.306	279.12
270.538	280.12
270.77	285.12
271.002	280.12
271.234	293.12
271.466	286.12
271.698	282.12
271.93	286.12
272.162	282.12
272.394	309.12
272.626	304.12
272.858	315.12
273.09	298.12
273.322	288.12
273.553	295.12
273.785	304.12
274.017	315.12
274.249	312.12
274.481	309.12
274.713	295.12
274.945	302.12
275.176	292.12
275.408	297.12
275.64	301.12
275.872	315.12
276.104	307.12
276.335	303.12
276.567	319.12
276.799	320.12
277.031	312.12
277.262	317.12
277.494	313.12
277.726	321.12
277.957	313.12
278.189	318.12
278.421	316.12
278.652	324.12
278.884	328.12
279.115	326.12
279.347	320.12
279.579	326.12
279.81	315.12
280.042	338.12
280.273	324.12
280.505	335.12
280.736	318.12
280.968	344.12
281.199	338.12
281.431	360.12
281.662	343.12
281.894	338.12
282.125	331.12
282.356	359.12
282.588	351.12
282.819	362.12
283.051	351.12
283.282	354.12
283.513	350.12
283.745	341.12
283.976	367.12
284.207	363.12
284.439	344.12
284.67	347.12
284.901	364.12
285.132	387.12
285.364	340.12
285.595	349.12
285.826	368.12
286.057	359.12
286.288	362.12
286.52	372.12
286.751	374.12
286.982	376.12
287.213	364.12
287.444	387.12
287.675	363.12
287.906	381.12
288.138	387.12
288.369	393.12
288.6	388.12
288.831	388.12
289.062	383.12
289.293	361.12
289.524	389.12
289.755	398.12
289.986	385.12
290.217	371.12
290.448	367.12
290.679	374.12
290.91	379.12
291.141	378.12
291.371	401.12
291.602	398.12
291.833	395.12
292.064	393.12
292.295	382.12
292.526	377.12
292.757	375.12
292.987	378.12
293.218	378.12
293.449	385.12
293.68	387.12
293.91	412.12
294.141	399.12
294.372	379.12
294.603	382.12
294.833	405.12
295.064	372.12
295.295	384.12
295.525	404.12
295.756	405.12
295.987	400.12
296.217	381.12
296.448	410.12
296.679	401.12
296.909	389.12
297.14	419.12
297.37	416.12
297.601	405.12
297.831	425.12
298.062	421.12
298.292	427.12
298.523	424.12
298.753	419.12
298.984	439.12
299.214	408.12
299.445	433.12
299.675	409.12
299.905	405.12
300.136	430.12
300.366	446.12
300.597	431.12
300.827	421.12
301.057	452.12
301.288	430.12
301.518	433.12
301.748	432.12
301.979	418.12
302.209	442.12
302.439	424.12
302.669	441.12
302.9	446.12
303.13	440.12
303.36	435.12
303.59	413.12
303.82	439.12
304.051	419.12
304.281	445.12
304.511	426.12
304.741	445.12
304.971	444.12
305.201	428.12
305.431	429.12
305.661	437.12
305.891	416.12
306.121	430.12
306.352	432.12
306.582	425.12
306.812	417.12
307.042	429.12
307.272	416.12
307.502	417.12
307.731	430.12
307.961	420.12
308.191	423.12
308.421	420.12
308.651	427.12
308.881	416.12
309.111	397.12
309.341	424.12
309.571	419.12
309.8	424.12
310.03	419.12
310.26	401.12
310.49	413.12
310.72	408.12
310.949	412.12
311.179	417.12
311.409	433.12
311.639	428.12
311.868	435.12
312.098	447.12
312.328	431.12
312.557	446.12
312.787	453.12
313.017	430.12
313.246	446.12
313.476	436.12
313.706	440.12
313.935	451.12
314.165	458.12
314.394	445.12
314.624	446.12
314.853	460.12
315.083	451.12
315.312	444.12
315.542	454.12
315.771	445.12
316.001	447.12
316.23	449.12
316.46	441.12
316.689	459.12
316.919	445.12
317.148	441.12
317.377	462.12
317.607	457.12
317.836	456.12
318.065	449.12
318.295	437.12
318.524	448.12
318.753	451.12
318.983	425.12
319.212	444.12
319.441	430.12
319.67	451.12
319.9	419.12
320.129	438.12
320.358	431.12
320.587	468.12
320.816	445.12
321.046	453.12
321.275	430.12
321.504	426.12
321.733	432.12
321.962	479.12
322.191	453.12
322.42	440.12
322.649	450.12
322.878	449.12
323.108	462.12
323.337	449.12
323.566	461.12
323.795	475.12
324.024	444.12
324.253	436.12
324.482	479.12
324.71	466.12
324.939	455.12
325.168	449.12
325.397	481.12
325.626	475.12
325.855	471.12
326.084	496.12
326.313	504.12
326.542	504.12
326.77	499.12
326.999	492.12
327.228	484.12
327.457	460.12
327.686	484.12
327.914	467.12
328.143	492.12
328.372	482.12
328.6	500.12
328.829	512.12
329.058	502.12
329.287	476.12
329.515	493.12
329.744	484.12
329.972	504.12
330.201	475.12
330.43	497.12
330.658	503.12
330.887	512.12
331.115	505.12
331.344	509.12
331.572	506.12
331.801	522.12
332.03	549.12
332.258	533.12
332.486	548.12
332.715	593.12
332.943	593.12
333.172	612.12
333.4	656.12
333.629	671.12
333.857	647.12
334.085	669.12
334.314	628.12
334.542	635.12
334.771	629.12
334.999	627.12
335.227	622.12
335.455	609.12
335.684	592.12
335.912	606.12
336.14	618.12
336.369	588.12
336.597	605.12
336.825	587.12
337.053	588.12
337.281	575.12
337.51	560.12
337.738	581.12
337.966	539.12
338.194	527.12
338.422	564.12
338.65	540.12
338.878	538.12
339.106	538.12
339.334	542.12
339.562	546.12
339.79	499.12
340.018	503.12
340.246	507.12
340.474	507.12
340.702	517.12
340.93	523.12
341.158	519.12
341.386	512.12
341.614	496.12
341.842	520.12
342.07	497.12
342.298	499.12
342.526	504.12
342.754	513.12
342.981	522.12
343.209	515.12
343.437	539.12
343.665	568.12
343.893	628.12
344.12	635.12
344.348	596.12
344.576	549.12
344.804	525.12
345.031	540.12
345.259	514.12
345.487	525.12
345.714	530.12
345.942	519.12
346.17	515.12
346.397	507.12
346.625	499.12
346.853	507.12
347.08	473.12
347.308	517.12
347.535	520.12
347.763	539.12
347.99	528.12
348.218	517.12
348.445	514.12
348.673	508.12
348.9	516.12
349.128	491.12
349.355	507.12
349.583	486.12
349.81	500.12
350.037	502.12
350.265	480.12
350.492	484.12
350.72	468.12
350.947	483.12
351.174	489.12
351.402	490.12
351.629	485.12
351.856	471.12
352.083	483.12
352.311	501.12
352.538	501.12
352.765	473.12
352.992	485.12
353.22	475.12
353.447	476.12
353.674	478.12
353.901	470.12
354.128	481.12
354.355	491.12
354.583	502.12
354.81	495.12
355.037	494.12
355.264	489.12
355.491	495.12
355.718	472.12
355.945	484.12
356.172	471.12
356.399	492.12
356.626	456.12
356.853	479.12
357.08	482.12
357.307	495.12
357.534	500.12
357.761	500.12
357.988	477.12
358.215	480.12
358.441	484.12
358.668	469.12
358.895	488.12
359.122	487.12
359.349	463.12
359.576	480.12
359.802	461.12
360.029	479.12
360.256	477.12
360.483	468.12
360.709	490.12
360.936	477.12
361.163	480.12
361.39	476.12
361.616	485.12
361.843	481.12
362.07	467.12
362.296	477.12
362.523	473.12
362.749	472.12
362.976	502.12
363.203	488.12
363.429	462.12
363.656	480.12
363.882	474.12
364.109	468.12
364.335	465.12
364.562	459.12
364.788	471.12
365.015	488.12
365.241	478.12
365.468	471.12
365.694	485.12
365.92	495.12
366.147	481.12
366.373	482.12
366.599	491.12
366.826	476.12
367.052	480.12
367.278	475.12
367.505	501.12
367.731	464.12
367.957	485.12
368.184	463.12
368.41	469.12
368.636	487.12
368.862	477.12
369.089	481.12
369.315	481.12
369.541	480.12
369.767	496.12
369.993	493.12
370.219	496.12
370.445	504.12
370.672	518.12
370.898	521.12
371.124	510.12
371.35	501.12
371.576	533.12
371.802	532.12
372.028	499.12
372.254	506.12
372.48	523.12
372.706	532.12
372.932	539.12
373.158	542.12
373.384	552.12
373.61	532.12
373.835	505.12
374.061	511.12
374.287	536.12
374.513	519.12
374.739	564.12
374.965	568.12
375.191	582.12
375.416	572.12
375.642	568.12
375.868	542.12
376.094	561.12
376.319	523.12
376.545	541.12
376.771	533.12
376.997	514.12
377.222	513.12
377.448	504.12
377.674	535.12
377.899	532.12
378.125	509.12
378.35	528.12
378.576	508.12
378.802	504.12
379.027	499.12
379.253	503.12
379.478	530.12
379.704	531.12
379.929	527.12
380.155	531.12
380.38	529.12
380.606	517.12
380.831	497.12
381.057	519.12
381.282	503.12
381.507	523.12
381.733	489.12
381.958	506.12
382.184	533.12
382.409	539.12
382.634	555.12
382.86	564.12
383.085	549.12
383.31	563.12
383.535	587.12
383.761	573.12
383.986	581.12
384.211	594.12
384.436	580.12
384.662	617.12
384.887	609.12
385.112	600.12
385.337	603.12
385.562	605.12
385.787	630.12
386.013	635.12
386.238	627.12
386.463	631.12
386.688	645.12
386.913	618.12
387.138	622.12
387.363	598.12
387.588	584.12
387.813	616.12
388.038	594.12
388.263	622.12
388.488	631.12
388.713	613.12
388.938	630.12
389.163	597.12
389.387	565.12
389.612	587.12
389.837	585.12
390.062	590.12
390.287	582.12
390.512	616.12
390.736	617.12
390.961	637.12
391.186	620.12
391.411	643.12
391.636	655.12
391.86	687.12
392.085	701.12
392.31	680.12
392.534	663.12
392.759	663.12
392.984	661.12
393.208	654.12
393.433	630.12
393.658	644.12
393.882	640.12
394.107	665.12
394.331	669.12
394.556	667.12
394.78	653.12
395.005	669.12
395.229	685.12
395.454	701.12
395.678	701.12
395.903	685.12
396.127	675.12
396.352	659.12
396.576	648.12
396.801	617.12
397.025	656.12
397.249	659.12
397.474	697.12
397.698	693.12
397.922	661.12
398.147	687.12
398.371	701.12
398.595	701.12
398.82	734.12
399.044	791.12
399.268	858.12
399.492	1018.12
399.717	1157.12
399.941	1182.12
400.165	1024.12
400.389	924.12
400.613	834.12
400.837	824.12
401.062	779.12
401.286	785.12
401.51	773.12
401.734	741.12
401.958	775.12
402.182	781.12
402.406	756.12
402.63	825.12
402.854	815.12
403.078	837.12
403.302	859.12
403.526	861.12
403.75	903.12
403.974	885.12
404.198	879.12
404.422	921.12
404.645	880.12
404.869	865.12
405.093	871.12
405.317	855.12
405.541	838.12
405.765	835.12
405.988	845.12
406.212	859.12
406.436	855.12
406.66	847.12
406.883	859.12
407.107	916.12
407.331	977.12
407.555	1023.12
407.778	1014.12
408.002	988.12
408.226	953.12
408.449	933.12
408.673	884.12
408.896	861.12
409.12	867.12
409.344	854.12
409.567	906.12
409.791	888.12
410.014	896.12
410.238	883.12
410.461	896.12
410.685	877.12
410.908	850.12
411.132	819.12
411.355	790.12
411.578	776.12
411.802	794.12
412.025	800.12
412.249	825.12
412.472	808.12
412.695	777.12
412.919	781.12
413.142	783.12
413.365	771.12
413.589	797.12
413.812	748.12
414.035	736.12
414.258	757.12
414.482	786.12
414.705	771.12
414.928	777.12
415.151	801.12
415.374	786.12
415.597	750.12
415.821	738.12
416.044	735.12
416.267	757.12
416.49	766.12
416.713	733.12
416.936	765.12
417.159	756.12
417.382	771.12
417.605	753.12
417.828	774.12
418.051	783.12
418.274	791.12
418.497	763.12
418.72	794.12
418.943	789.12
419.166	832.12
419.389	899.12
419.611	887.12
419.834	851.12
420.057	810.12
420.28	791.12
420.503	773.12
420.726	768.12
420.948	757.12
421.171	757.12
421.394	760.12
421.617	779.12
421.839	782.12
422.062	765.12
422.285	756.12
422.507	797.12
422.73	788.12
422.953	789.12
423.175	848.12
423.398	836.12
423.621	821.12
423.843	829.12
424.066	812.12
424.288	827.12
424.511	805.12
424.733	825.12
424.956	781.12
425.178	771.12
425.401	776.12
425.623	780.12
425.846	767.12
426.068	740.12
426.291	729.12
426.513	730.12
426.735	725.12
426.958	716.12
427.18	700.12
427.402	705.12
427.625	727.12
427.847	679.12
428.069	672.12
428.292	681.12
428.514	693.12
428.736	675.12
428.958	678.12
429.181	644.12
429.403	663.12
429.625	648.12
429.847	669.12
430.069	697.12
430.292	684.12
430.514	663.12
430.736	669.12
430.958	671.12
431.18	673.12
431.402	671.12
431.624	682.12
431.846	700.12
432.068	703.12
432.29	704.12
432.512	684.12
432.734	725.12
432.956	679.12
433.178	672.12
433.4	719.12
433.622	691.12
433.844	701.12
434.066	697.12
434.287	709.12
434.509	735.12
434.731	774.12
434.953	775.12
435.175	792.12
435.397	790.12
435.618	762.12
435.84	702.12
436.062	693.12
436.284	707.12
436.505	673.12
436.727	677.12
436.949	702.12
437.17	695.12
437.392	676.12
437.614	659.12
437.835	676.12
438.057	652.12
438.278	638.12
438.5	675.12
438.721	673.12
438.943	698.12
439.165	691.12
439.386	684.12
439.608	711.12
439.829	715.12
440.05	695.12
440.272	688.12
440.493	715.12
440.715	729.12
440.936	739.12
441.158	718.12
441.379	732.12
441.6	811.12
441.822	814.12
442.043	809.12
442.264	765.12
442.486	772.12
442.707	758.12
442.928	751.12
443.149	787.12
443.371	775.12
443.592	765.12
443.813	778.12
444.034	803.12
444.255	805.12
444.476	852.12
444.698	900.12
444.919	959.12
445.14	1056.12
445.361	895.12
445.582	805.12
445.803	774.12
446.024	752.12
446.245	740.12
446.466	705.12
446.687	713.12
446.908	735.12
447.129	715.12
447.35	691.12
447.571	705.12
447.792	679.12
448.013	680.12
448.234	664.12
448.455	662.12
448.675	672.12
448.896	650.12
449.117	651.12
449.338	642.12
449.559	647.12
449.779	648.12
450	647.12
450.221	631.12
450.442	655.12
450.662	632.12
450.883	680.12
451.104	711.12
451.324	680.12
451.545	666.12
451.766	667.12
451.986	687.12
452.207	653.12
452.428	680.12
452.648	674.12
452.869	644.12
453.089	642.12
453.31	657.12
453.53	643.12
453.751	641.12
453.971	632.12
454.192	605.12
454.412	628.12
454.633	611.12
454.853	619.12
455.073	633.12
455.294	622.12
455.514	596.12
455.734	622.12
455.955	596.12
456.175	624.12
456.395	615.12
456.616	607.12
456.836	615.12
457.056	600.12
457.276	586.12
457.497	617.12
457.717	609.12
457.937	618.12
458.157	635.12
458.377	594.12
458.598	628.12
458.818	666.12
459.038	647.12
459.258	681.12
459.478	706.12
459.698	699.12
459.918	725.12
460.138	745.12
460.358	800.12
460.578	821.12
460.798	850.12
461.018	846.12
461.238	797.12
461.458	824.12
461.678	811.12
461.898	815.12
462.118	815.12
462.338	864.12
462.558	921.12
462.777	923.12
462.997	1003.12
463.217	1136.12
463.437	1152.12
463.657	1050.12
463.876	974.12
464.096	936.12
464.316	970.12
464.536	987.12
464.755	936.12
464.975	917.12
465.195	872.12
465.414	810.12
465.634	766.12
465.854	768.12
466.073	746.12
466.293	720.12
466.512	715.12
466.732	666.12
466.951	685.12
467.171	691.12
467.391	679.12
467.61	683.12
467.829	676.12
468.049	669.12
468.268	634.12
468.488	634.12
468.707	642.12
468.927	636.12
469.146	655.12
469.365	646.12
469.585	671.12
469.804	676.12
470.023	684.12
470.243	675.12
470.462	697.12
470.681	719.12
470.901	709.12
471.12	688.12
471.339	676.12
471.558	677.12
471.777	652.12
471.997	664.12
472.216	657.12
472.435	646.12
472.654	640.12
472.873	620.12
473.092	615.12
473.311	630.12
473.53	628.12
473.749	643.12
473.968	631.12
474.187	607.12
474.406	625.12
474.625	636.12
474.844	638.12
475.063	643.12
475.282	624.12
475.501	621.12
475.72	663.12
475.939	636.12
476.158	629.12
476.377	670.12
476.596	654.12
476.814	674.12
477.033	661.12
477.252	682.12
477.471	693.12
477.69	709.12
477.908	734.12
478.127	734.12
478.346	772.12
478.564	762.12
478.783	759.12
479.002	779.12
479.22	797.12
479.439	783.12
479.658	779.12
479.876	795.12
480.095	761.12
480.313	831.12
480.532	865.12
480.751	812.12
480.969	801.12
481.188	750.12
481.406	758.12
481.624	739.12
481.843	744.12
482.061	715.12
482.28	716.12
482.498	698.12
482.717	709.12
482.935	720.12
483.153	699.12
483.372	723.12
483.59	713.12
483.808	708.12
484.027	712.12
484.245	730.12
484.463	708.12
484.681	735.12
484.9	739.12
485.118	727.12
485.336	738.12
485.554	749.12
485.772	773.12
485.99	755.12
486.209	762.12
486.427	769.12
486.645	759.12
486.863	757.12
487.081	745.12
487.299	732.12
487.517	733.12
487.735	781.12
487.953	759.12
488.171	739.12
488.389	762.12
488.607	757.12
488.825	726.12
489.043	721.12
489.261	732.12
489.479	728.12
489.696	757.12
489.914	716.12
490.132	767.12
490.35	733.12
490.568	771.12
490.786	741.12
491.003	727.12
491.221	760.12
491.439	760.12
491.657	750.12
491.874	719.12
492.092	753.12
492.31	758.12
492.527	764.12
492.745	781.12
492.963	761.12
493.18	779.12
493.398	787.12
493.615	789.12
493.833	769.12
494.05	788.12
494.268	798.12
494.485	811.12
494.703	828.12
494.92	795.12
495.138	762.12
495.355	791.12
495.573	821.12
495.79	788.12
496.008	799.12
496.225	785.12
496.442	820.12
496.66	823.12
496.877	816.12
497.094	863.12
497.312	839.12
497.529	877.12
497.746	879.12
497.963	913.12
498.181	939.12
498.398	981.12
498.615	1023.12
498.832	1123.12
499.049	1195.12
499.267	1275.12
499.484	1421.12
499.701	1595.12
499.918	1732.12
500.135	2028.12
500.352	2345.12
500.569	2498.12
500.786	2467.12
501.003	2262.12
501.22	1989.12
