Data from Ni(NO3)2Standard.Agarose3%.GreenCap.LampEnergy5.5.E.O_HRD10591_14-40-31-189.txt Node
Date: Mon Jul 22 14:40:31 EDT 2019
User: cochatt
Spectrometer: HR+D1059
Trigger mode: 1
Integration Time (sec): 1.000000E-1
Scans to average: 1
Electric dark correction enabled: true
Nonlinearity correction enabled: false
Boxcar width: 0
XAxis mode: Wavelengths
Number of Pixels in Spectrum: 2048
>>>>>Begin Spectral Data<<<<<
223.165	-7.5
223.4	-7.5
223.635	-7.5
223.869	-17.5
224.104	-25.5
224.338	-7.5
224.573	-27.5
224.808	-7.5
225.042	-21.5
225.277	-4.5
225.511	-13.5
225.746	11.5
225.98	4.5
226.215	8.5
226.449	16.5
226.683	29.5
226.918	34.5
227.152	27.5
227.387	40.5
227.621	16.5
227.856	40.5
228.09	59.5
228.324	61.5
228.559	74.5
228.793	52.5
229.027	56.5
229.262	65.5
229.496	71.5
229.73	76.5
229.964	74.5
230.199	80.5
230.433	80.5
230.667	84.5
230.901	85.5
231.136	78.5
231.37	69.5
231.604	67.5
231.838	78.5
232.072	74.5
232.306	89.5
232.541	89.5
232.775	82.5
233.009	71.5
233.243	84.5
233.477	81.5
233.711	82.5
233.945	93.5
234.179	80.5
234.413	85.5
234.647	71.5
234.881	75.5
235.115	81.5
235.349	100.5
235.583	88.5
235.817	82.5
236.051	83.5
236.285	62.5
236.519	83.5
236.753	71.5
236.987	93.5
237.221	90.5
237.455	72.5
237.689	89.5
237.922	81.5
238.156	81.5
238.39	70.5
238.624	72.5
238.858	77.5
239.091	74.5
239.325	70.5
239.559	69.5
239.793	75.5
240.027	86.5
240.26	73.5
240.494	84.5
240.728	73.5
240.961	87.5
241.195	89.5
241.429	66.5
241.662	69.5
241.896	79.5
242.13	86.5
242.363	82.5
242.597	78.5
242.83	85.5
243.064	79.5
243.298	80.5
243.531	82.5
243.765	67.5
243.998	85.5
244.232	77.5
244.465	75.5
244.699	89.5
244.932	89.5
245.166	84.5
245.399	77.5
245.633	72.5
245.866	85.5
246.099	64.5
246.333	72.5
246.566	76.5
246.8	89.5
247.033	78.5
247.266	84.5
247.5	75.5
247.733	78.5
247.966	64.5
248.2	79.5
248.433	77.5
248.666	80.5
248.899	87.5
249.133	87.5
249.366	84.5
249.599	73.5
249.832	66.5
250.066	76.5
250.299	73.5
250.532	76.5
250.765	80.5
250.998	100.5
251.231	97.5
251.465	84.5
251.698	81.5
251.931	85.5
252.164	77.5
252.397	75.5
252.63	89.5
252.863	83.5
253.096	92.5
253.329	101.5
253.562	81.5
253.795	79.5
254.028	86.5
254.261	85.5
254.494	64.5
254.727	80.5
254.96	82.5
255.193	84.5
255.426	74.5
255.659	84.5
255.892	88.5
256.124	77.5
256.357	77.5
256.59	82.5
256.823	81.5
257.056	76.5
257.289	103.5
257.521	80.5
257.754	81.5
257.987	88.5
258.22	99.5
258.452	71.5
258.685	99.5
258.918	91.5
259.151	89.5
259.383	71.5
259.616	80.5
259.849	84.5
260.081	84.5
260.314	75.5
260.547	85.5
260.779	78.5
261.012	83.5
261.244	77.5
261.477	99.5
261.71	68.5
261.942	80.5
262.175	76.5
262.407	76.5
262.64	79.5
262.872	89.5
263.105	78.5
263.337	65.5
263.57	72.5
263.802	76.5
264.035	80.5
264.267	80.5
264.499	92.5
264.732	100.5
264.964	96.5
265.197	89.5
265.429	81.5
265.661	85.5
265.894	94.5
266.126	85.5
266.358	87.5
266.591	81.5
266.823	73.5
267.055	74.5
267.287	83.5
267.52	79.5
267.752	74.5
267.984	80.5
268.216	76.5
268.448	78.5
268.681	69.5
268.913	86.5
269.145	79.5
269.377	83.5
269.609	89.5
269.841	89.5
270.073	83.5
270.306	75.5
270.538	74.5
270.77	68.5
271.002	74.5
271.234	72.5
271.466	82.5
271.698	91.5
271.93	92.5
272.162	89.5
272.394	89.5
272.626	88.5
272.858	72.5
273.09	78.5
273.322	92.5
273.553	81.5
273.785	81.5
274.017	74.5
274.249	85.5
274.481	93.5
274.713	88.5
274.945	89.5
275.176	83.5
275.408	88.5
275.64	93.5
275.872	88.5
276.104	88.5
276.335	89.5
276.567	83.5
276.799	75.5
277.031	88.5
277.262	81.5
277.494	87.5
277.726	85.5
277.957	89.5
278.189	93.5
278.421	77.5
278.652	85.5
278.884	79.5
279.115	85.5
279.347	89.5
279.579	83.5
279.81	79.5
280.042	88.5
280.273	71.5
280.505	94.5
280.736	89.5
280.968	89.5
281.199	86.5
281.431	89.5
281.662	85.5
281.894	79.5
282.125	73.5
282.356	73.5
282.588	75.5
282.819	84.5
283.051	81.5
283.282	100.5
283.513	91.5
283.745	96.5
283.976	82.5
284.207	81.5
284.439	89.5
284.67	81.5
284.901	88.5
285.132	70.5
285.364	75.5
285.595	86.5
285.826	79.5
286.057	78.5
286.288	90.5
286.52	81.5
286.751	99.5
286.982	88.5
287.213	76.5
287.444	98.5
287.675	81.5
287.906	84.5
288.138	80.5
288.369	79.5
288.6	85.5
288.831	86.5
289.062	82.5
289.293	62.5
289.524	91.5
289.755	86.5
289.986	84.5
290.217	107.5
290.448	78.5
290.679	75.5
290.91	96.5
291.141	88.5
291.371	81.5
291.602	83.5
291.833	92.5
292.064	75.5
292.295	78.5
292.526	86.5
292.757	77.5
292.987	87.5
293.218	90.5
293.449	92.5
293.68	84.5
293.91	77.5
294.141	88.5
294.372	93.5
294.603	84.5
294.833	76.5
295.064	85.5
295.295	85.5
295.525	86.5
295.756	86.5
295.987	97.5
296.217	91.5
296.448	99.5
296.679	90.5
296.909	92.5
297.14	94.5
297.37	88.5
297.601	90.5
297.831	85.5
298.062	92.5
298.292	78.5
298.523	82.5
298.753	85.5
298.984	84.5
299.214	79.5
299.445	75.5
299.675	91.5
299.905	78.5
300.136	81.5
300.366	91.5
300.597	90.5
300.827	72.5
301.057	75.5
301.288	78.5
301.518	83.5
301.748	90.5
301.979	85.5
302.209	84.5
302.439	71.5
302.669	92.5
302.9	92.5
303.13	104.5
303.36	73.5
303.59	61.5
303.82	75.5
304.051	98.5
304.281	100.5
304.511	100.5
304.741	91.5
304.971	85.5
305.201	94.5
305.431	76.5
305.661	80.5
305.891	87.5
306.121	85.5
306.352	79.5
306.582	85.5
306.812	84.5
307.042	87.5
307.272	74.5
307.502	92.5
307.731	92.5
307.961	84.5
308.191	86.5
308.421	83.5
308.651	85.5
308.881	69.5
309.111	99.5
309.341	97.5
309.571	83.5
309.8	91.5
310.03	92.5
310.26	85.5
310.49	93.5
310.72	92.5
310.949	85.5
311.179	80.5
311.409	93.5
311.639	94.5
311.868	82.5
312.098	88.5
312.328	88.5
312.557	94.5
312.787	101.5
313.017	84.5
313.246	94.5
313.476	98.5
313.706	84.5
313.935	87.5
314.165	96.5
314.394	78.5
314.624	99.5
314.853	95.5
315.083	92.5
315.312	92.5
315.542	76.5
315.771	78.5
316.001	97.5
316.23	86.5
316.46	87.5
316.689	88.5
316.919	78.5
317.148	75.5
317.377	83.5
317.607	94.5
317.836	77.5
318.065	93.5
318.295	72.5
318.524	77.5
318.753	90.5
318.983	85.5
319.212	88.5
319.441	93.5
319.67	93.5
319.9	71.5
320.129	94.5
320.358	83.5
320.587	89.5
320.816	84.5
321.046	104.5
321.275	84.5
321.504	96.5
321.733	81.5
321.962	89.5
322.191	73.5
322.42	89.5
322.649	75.5
322.878	84.5
323.108	85.5
323.337	97.5
323.566	73.5
323.795	86.5
324.024	78.5
324.253	72.5
324.482	94.5
324.71	87.5
324.939	85.5
325.168	95.5
325.397	76.5
325.626	77.5
325.855	77.5
326.084	77.5
326.313	86.5
326.542	83.5
326.77	85.5
326.999	89.5
327.228	78.5
327.457	71.5
327.686	73.5
327.914	87.5
328.143	84.5
328.372	67.5
328.6	84.5
328.829	84.5
329.058	82.5
329.287	81.5
329.515	77.5
329.744	90.5
329.972	91.5
330.201	89.5
330.43	85.5
330.658	93.5
330.887	93.5
331.115	91.5
331.344	76.5
331.572	81.5
331.801	76.5
332.03	94.5
332.258	86.5
332.486	78.5
332.715	77.5
332.943	83.5
333.172	91.5
333.4	102.5
333.629	82.5
333.857	97.5
334.085	95.5
334.314	88.5
334.542	89.5
334.771	93.5
334.999	83.5
335.227	85.5
335.455	111.5
335.684	86.5
335.912	94.5
336.14	82.5
336.369	91.5
336.597	79.5
336.825	78.5
337.053	107.5
337.281	80.5
337.51	100.5
337.738	93.5
337.966	89.5
338.194	83.5
338.422	83.5
338.65	92.5
338.878	95.5
339.106	91.5
339.334	83.5
339.562	99.5
339.79	79.5
340.018	102.5
340.246	102.5
340.474	88.5
340.702	92.5
340.93	78.5
341.158	87.5
341.386	86.5
341.614	90.5
341.842	86.5
342.07	84.5
342.298	77.5
342.526	86.5
342.754	79.5
342.981	77.5
343.209	80.5
343.437	95.5
343.665	91.5
343.893	76.5
344.12	87.5
344.348	99.5
344.576	90.5
344.804	77.5
345.031	75.5
345.259	94.5
345.487	87.5
345.714	88.5
345.942	77.5
346.17	97.5
346.397	101.5
346.625	82.5
346.853	89.5
347.08	88.5
347.308	86.5
347.535	99.5
347.763	88.5
347.99	80.5
348.218	90.5
348.445	84.5
348.673	99.5
348.9	78.5
349.128	73.5
349.355	90.5
349.583	98.5
349.81	79.5
350.037	85.5
350.265	74.5
350.492	96.5
350.72	84.5
350.947	87.5
351.174	85.5
351.402	81.5
351.629	74.5
351.856	78.5
352.083	67.5
352.311	85.5
352.538	79.5
352.765	85.5
352.992	79.5
353.22	77.5
353.447	98.5
353.674	81.5
353.901	89.5
354.128	96.5
354.355	82.5
354.583	93.5
354.81	68.5
355.037	86.5
355.264	98.5
355.491	74.5
355.718	84.5
355.945	99.5
356.172	86.5
356.399	84.5
356.626	92.5
356.853	92.5
357.08	93.5
357.307	75.5
357.534	90.5
357.761	81.5
357.988	90.5
358.215	91.5
358.441	96.5
358.668	100.5
358.895	91.5
359.122	83.5
359.349	93.5
359.576	96.5
359.802	88.5
360.029	81.5
360.256	79.5
360.483	78.5
360.709	79.5
360.936	87.5
361.163	86.5
361.39	104.5
361.616	86.5
361.843	89.5
362.07	92.5
362.296	82.5
362.523	99.5
362.749	105.5
362.976	94.5
363.203	101.5
363.429	81.5
363.656	86.5
363.882	83.5
364.109	99.5
364.335	91.5
364.562	85.5
364.788	83.5
365.015	76.5
365.241	84.5
365.468	77.5
365.694	89.5
365.92	90.5
366.147	93.5
366.373	92.5
366.599	77.5
366.826	85.5
367.052	99.5
367.278	76.5
367.505	80.5
367.731	81.5
367.957	79.5
368.184	94.5
368.41	106.5
368.636	78.5
368.862	83.5
369.089	80.5
369.315	91.5
369.541	83.5
369.767	91.5
369.993	85.5
370.219	84.5
370.445	85.5
370.672	85.5
370.898	73.5
371.124	86.5
371.35	72.5
371.576	87.5
371.802	83.5
372.028	86.5
372.254	96.5
372.48	79.5
372.706	92.5
372.932	82.5
373.158	87.5
373.384	81.5
373.61	88.5
373.835	105.5
374.061	85.5
374.287	90.5
374.513	89.5
374.739	86.5
374.965	78.5
375.191	83.5
375.416	86.5
375.642	73.5
375.868	80.5
376.094	83.5
376.319	81.5
376.545	75.5
376.771	70.5
376.997	82.5
377.222	76.5
377.448	88.5
377.674	81.5
377.899	103.5
378.125	84.5
378.35	77.5
378.576	83.5
378.802	76.5
379.027	85.5
379.253	84.5
379.478	76.5
379.704	92.5
379.929	87.5
380.155	94.5
380.38	86.5
380.606	88.5
380.831	85.5
381.057	99.5
381.282	89.5
381.507	84.5
381.733	89.5
381.958	84.5
382.184	82.5
382.409	86.5
382.634	74.5
382.86	83.5
383.085	90.5
383.31	85.5
383.535	82.5
383.761	78.5
383.986	90.5
384.211	83.5
384.436	78.5
384.662	80.5
384.887	83.5
385.112	73.5
385.337	92.5
385.562	91.5
385.787	77.5
386.013	96.5
386.238	88.5
386.463	83.5
386.688	92.5
386.913	83.5
387.138	93.5
387.363	88.5
387.588	84.5
387.813	73.5
388.038	84.5
388.263	98.5
388.488	74.5
388.713	67.5
388.938	91.5
389.163	84.5
389.387	87.5
389.612	91.5
389.837	85.5
390.062	83.5
390.287	84.5
390.512	88.5
390.736	86.5
390.961	80.5
391.186	80.5
391.411	89.5
391.636	76.5
391.86	77.5
392.085	84.5
392.31	95.5
392.534	103.5
392.759	88.5
392.984	77.5
393.208	81.5
393.433	73.5
393.658	86.5
393.882	76.5
394.107	79.5
394.331	91.5
394.556	85.5
394.78	85.5
395.005	90.5
395.229	97.5
395.454	81.5
395.678	89.5
395.903	73.5
396.127	103.5
396.352	83.5
396.576	72.5
396.801	93.5
397.025	78.5
397.249	77.5
397.474	85.5
397.698	92.5
397.922	84.5
398.147	99.5
398.371	76.5
398.595	86.5
398.82	85.5
399.044	79.5
399.268	101.5
399.492	94.5
399.717	86.5
399.941	94.5
400.165	87.5
400.389	81.5
400.613	84.5
400.837	88.5
401.062	99.5
401.286	93.5
401.51	69.5
401.734	83.5
401.958	96.5
402.182	85.5
402.406	72.5
402.63	90.5
402.854	82.5
403.078	91.5
403.302	72.5
403.526	84.5
403.75	77.5
403.974	96.5
404.198	82.5
404.422	84.5
404.645	78.5
404.869	66.5
405.093	85.5
405.317	77.5
405.541	72.5
405.765	80.5
405.988	91.5
406.212	92.5
406.436	87.5
406.66	86.5
406.883	87.5
407.107	97.5
407.331	92.5
407.555	84.5
407.778	85.5
408.002	91.5
408.226	78.5
408.449	90.5
408.673	86.5
408.896	91.5
409.12	91.5
409.344	76.5
409.567	87.5
409.791	90.5
410.014	84.5
410.238	79.5
410.461	82.5
410.685	88.5
410.908	84.5
411.132	99.5
411.355	85.5
411.578	83.5
411.802	87.5
412.025	83.5
412.249	79.5
412.472	94.5
412.695	90.5
412.919	95.5
413.142	94.5
413.365	91.5
413.589	89.5
413.812	94.5
414.035	91.5
414.258	94.5
414.482	89.5
414.705	84.5
414.928	73.5
415.151	80.5
415.374	82.5
415.597	72.5
415.821	84.5
416.044	86.5
416.267	81.5
416.49	88.5
416.713	73.5
416.936	91.5
417.159	86.5
417.382	82.5
417.605	88.5
417.828	87.5
418.051	67.5
418.274	81.5
418.497	94.5
418.72	76.5
418.943	89.5
419.166	81.5
419.389	83.5
419.611	73.5
419.834	85.5
420.057	82.5
420.28	94.5
420.503	81.5
420.726	88.5
420.948	89.5
421.171	84.5
421.394	98.5
421.617	90.5
421.839	95.5
422.062	78.5
422.285	91.5
422.507	77.5
422.73	83.5
422.953	82.5
423.175	84.5
423.398	84.5
423.621	96.5
423.843	86.5
424.066	86.5
424.288	98.5
424.511	84.5
424.733	90.5
424.956	90.5
425.178	82.5
425.401	93.5
425.623	86.5
425.846	85.5
426.068	84.5
426.291	80.5
426.513	75.5
426.735	67.5
426.958	84.5
427.18	88.5
427.402	85.5
427.625	88.5
427.847	84.5
428.069	104.5
428.292	79.5
428.514	94.5
428.736	75.5
428.958	74.5
429.181	78.5
429.403	73.5
429.625	78.5
429.847	94.5
430.069	86.5
430.292	83.5
430.514	94.5
430.736	85.5
430.958	80.5
431.18	92.5
431.402	73.5
431.624	89.5
431.846	94.5
432.068	83.5
432.29	81.5
432.512	104.5
432.734	78.5
432.956	70.5
433.178	92.5
433.4	106.5
433.622	88.5
433.844	96.5
434.066	82.5
434.287	92.5
434.509	81.5
434.731	85.5
434.953	87.5
435.175	91.5
435.397	94.5
435.618	110.5
435.84	92.5
436.062	83.5
436.284	73.5
436.505	85.5
436.727	92.5
436.949	86.5
437.17	92.5
437.392	90.5
437.614	85.5
437.835	71.5
438.057	84.5
438.278	74.5
438.5	89.5
438.721	83.5
438.943	90.5
439.165	97.5
439.386	88.5
439.608	81.5
439.829	85.5
440.05	82.5
440.272	92.5
440.493	82.5
440.715	88.5
440.936	88.5
441.158	92.5
441.379	89.5
441.6	79.5
441.822	106.5
442.043	88.5
442.264	63.5
442.486	86.5
442.707	96.5
442.928	82.5
443.149	85.5
443.371	87.5
443.592	83.5
443.813	88.5
444.034	79.5
444.255	98.5
444.476	102.5
444.698	91.5
444.919	87.5
445.14	210.5
445.361	136.5
445.582	82.5
445.803	88.5
446.024	87.5
446.245	86.5
446.466	88.5
446.687	84.5
446.908	88.5
447.129	91.5
447.35	79.5
447.571	89.5
447.792	94.5
448.013	82.5
448.234	80.5
448.455	83.5
448.675	88.5
448.896	79.5
449.117	90.5
449.338	73.5
449.559	72.5
449.779	73.5
450	84.5
450.221	61.5
450.442	91.5
450.662	103.5
450.883	86.5
451.104	83.5
451.324	84.5
451.545	82.5
451.766	87.5
451.986	81.5
452.207	82.5
452.428	78.5
452.648	90.5
452.869	78.5
453.089	91.5
453.31	90.5
453.53	96.5
453.751	89.5
453.971	94.5
454.192	86.5
454.412	85.5
454.633	85.5
454.853	92.5
455.073	72.5
455.294	85.5
455.514	91.5
455.734	77.5
455.955	78.5
456.175	96.5
456.395	83.5
456.616	92.5
456.836	87.5
457.056	96.5
457.276	76.5
457.497	94.5
457.717	80.5
457.937	81.5
458.157	85.5
458.377	82.5
458.598	78.5
458.818	95.5
459.038	88.5
459.258	84.5
459.478	89.5
459.698	90.5
459.918	79.5
460.138	101.5
460.358	94.5
460.578	86.5
460.798	80.5
461.018	78.5
461.238	99.5
461.458	94.5
461.678	88.5
461.898	84.5
462.118	91.5
462.338	98.5
462.558	79.5
462.777	99.5
462.997	77.5
463.217	100.5
463.437	97.5
463.657	89.5
463.876	80.5
464.096	90.5
464.316	90.5
464.536	91.5
464.755	87.5
464.975	87.5
465.195	92.5
465.414	82.5
465.634	86.5
465.854	83.5
466.073	97.5
466.293	85.5
466.512	91.5
466.732	88.5
466.951	86.5
467.171	88.5
467.391	87.5
467.61	78.5
467.829	88.5
468.049	86.5
468.268	94.5
468.488	81.5
468.707	85.5
468.927	88.5
469.146	85.5
469.365	89.5
469.585	84.5
469.804	90.5
470.023	85.5
470.243	88.5
470.462	89.5
470.681	94.5
470.901	87.5
471.12	102.5
471.339	107.5
471.558	71.5
471.777	96.5
471.997	83.5
472.216	83.5
472.435	88.5
472.654	84.5
472.873	86.5
473.092	78.5
473.311	94.5
473.53	85.5
473.749	80.5
473.968	88.5
474.187	80.5
474.406	85.5
474.625	107.5
474.844	87.5
475.063	81.5
475.282	81.5
475.501	67.5
475.72	70.5
475.939	89.5
476.158	90.5
476.377	83.5
476.596	92.5
476.814	83.5
477.033	83.5
477.252	96.5
477.471	96.5
477.69	91.5
477.908	94.5
478.127	95.5
478.346	100.5
478.564	92.5
478.783	95.5
479.002	71.5
479.22	94.5
479.439	90.5
479.658	87.5
479.876	87.5
480.095	90.5
480.313	105.5
480.532	89.5
480.751	102.5
480.969	91.5
481.188	93.5
481.406	93.5
481.624	96.5
481.843	90.5
482.061	85.5
482.28	97.5
482.498	76.5
482.717	82.5
482.935	100.5
483.153	82.5
483.372	76.5
483.59	91.5
483.808	76.5
484.027	88.5
484.245	80.5
484.463	96.5
484.681	100.5
484.9	85.5
485.118	105.5
485.336	104.5
485.554	76.5
485.772	94.5
485.99	89.5
486.209	97.5
486.427	83.5
486.645	94.5
486.863	103.5
487.081	89.5
487.299	93.5
487.517	91.5
487.735	95.5
487.953	95.5
488.171	104.5
488.389	86.5
488.607	78.5
488.825	86.5
489.043	93.5
489.261	96.5
489.479	84.5
489.696	86.5
489.914	86.5
490.132	73.5
490.35	100.5
490.568	93.5
490.786	88.5
491.003	93.5
491.221	89.5
491.439	88.5
491.657	82.5
491.874	98.5
492.092	105.5
492.31	123.5
492.527	95.5
492.745	93.5
492.963	100.5
493.18	92.5
493.398	92.5
493.615	107.5
493.833	83.5
494.05	92.5
494.268	106.5
494.485	103.5
494.703	99.5
494.92	101.5
495.138	94.5
495.355	95.5
495.573	95.5
495.79	112.5
496.008	94.5
496.225	85.5
496.442	90.5
496.66	93.5
496.877	91.5
497.094	112.5
497.312	96.5
497.529	118.5
497.746	84.5
497.963	89.5
498.181	97.5
498.398	88.5
498.615	83.5
498.832	91.5
499.049	105.5
499.267	95.5
499.484	100.5
499.701	107.5
499.918	116.5
500.135	116.5
500.352	106.5
500.569	109.5
500.786	120.5
501.003	112.5
501.22	119.5
501.437	111.5
501.654	87.5
501.871	88.5
502.088	113.5
502.305	110.5
502.522	118.5
502.739	94.5
502.956	96.5
503.172	101.5
503.389	107.5
503.606	102.5
503.823	91.5
504.04	103.5
504.256	91.5
504.473	85.5
504.69	93.5
504.907	99.5
505.123	99.5
505.34	97.5
505.557	97.5
505.773	98.5
505.99	109.5
506.207	89.5
506.423	80.5
506.64	91.5
506.856	90.5
507.073	96.5
507.289	94.5
507.506	93.5
507.722	85.5
507.939	94.5
508.155	78.5
508.372	73.5
508.588	89.5
508.805	86.5
509.021	93.5
509.238	82.5
509.454	96.5
509.67	86.5
509.887	77.5
510.103	92.5
510.319	86.5
510.536	99.5
510.752	102.5
510.968	90.5
511.184	93.5
511.401	86.5
511.617	95.5
511.833	85.5
512.049	85.5
512.265	84.5
512.481	89.5
512.698	87.5
512.914	90.5
513.13	104.5
513.346	93.5
513.562	94.5
513.778	96.5
513.994	89.5
514.21	80.5
514.426	98.5
514.642	91.5
514.858	90.5
515.074	90.5
515.29	90.5
515.506	92.5
515.721	83.5
515.937	114.5
516.153	71.5
516.369	101.5
516.585	91.5
516.801	96.5
517.016	98.5
517.232	97.5
517.448	93.5
517.664	87.5
517.879	95.5
518.095	89.5
518.311	88.5
518.527	91.5
518.742	88.5
518.958	81.5
519.173	91.5
519.389	100.5
519.605	96.5
519.82	76.5
520.036	97.5
520.251	89.5
520.467	88.5
520.682	81.5
520.898	88.5
521.113	86.5
521.329	104.5
521.544	95.5
521.76	92.5
521.975	83.5
522.19	91.5
522.406	101.5
522.621	92.5
522.836	99.5
523.052	106.5
523.267	90.5
523.482	75.5
523.698	86.5
523.913	93.5
524.128	89.5
524.343	96.5
524.559	93.5
524.774	105.5
524.989	94.5
525.204	78.5
525.419	93.5
525.634	91.5
525.849	94.5
526.064	77.5
526.28	91.5
526.495	96.5
526.71	100.5
526.925	114.5
527.14	90.5
527.355	89.5
527.57	93.5
527.785	102.5
527.999	86.5
528.214	99.5
528.429	91.5
528.644	95.5
528.859	100.5
529.074	97.5
529.289	92.5
529.503	101.5
529.718	93.5
529.933	81.5
530.148	94.5
530.363	104.5
530.577	99.5
530.792	98.5
531.007	82.5
531.221	99.5
531.436	85.5
531.651	85.5
531.865	85.5
532.08	73.5
532.295	87.5
532.509	92.5
532.724	84.5
532.938	86.5
533.153	78.5
533.367	93.5
533.582	92.5
533.796	106.5
534.011	98.5
534.225	97.5
534.44	100.5
534.654	87.5
534.868	90.5
535.083	88.5
535.297	76.5
535.511	109.5
535.726	88.5
535.94	77.5
536.154	94.5
536.369	89.5
536.583	80.5
536.797	94.5
537.011	74.5
537.225	76.5
537.44	90.5
537.654	92.5
537.868	98.5
538.082	96.5
538.296	90.5
