Data from Ni(NO3)2@0.25M.TitratingCurve.Agarose3%dH2O.NegLispCup.LampEnergy10.LIBS07252019_HRD10591_18-04-15-566.txt Node
Date: Thu Jul 25 18:04:15 EDT 2019
User: cochatt
Spectrometer: HR+D1059
Trigger mode: 1
Integration Time (sec): 1.000000E-1
Scans to average: 1
Electric dark correction enabled: true
Nonlinearity correction enabled: false
Boxcar width: 0
XAxis mode: Wavelengths
Number of Pixels in Spectrum: 2048
>>>>>Begin Spectral Data<<<<<
223.165	-17.12
223.4	-17.12
223.635	-17.12
223.869	-14.12
224.104	-27.12
224.338	-13.12
224.573	-6.12
224.808	-13.12
225.042	-10.12
225.277	-4.12
225.511	-4.12
225.746	7.88
225.98	-0.12
226.215	20.88
226.449	7.88
226.683	22.88
226.918	23.88
227.152	25.88
227.387	43.88
227.621	29.88
227.856	45.88
228.09	56.88
228.324	55.88
228.559	64.88
228.793	70.88
229.027	122.88
229.262	126.88
229.496	130.88
229.73	134.88
229.964	148.88
230.199	171.88
230.433	161.88
230.667	174.88
230.901	157.88
231.136	155.88
231.37	151.88
231.604	156.88
231.838	167.88
232.072	156.88
232.306	173.88
232.541	191.88
232.775	173.88
233.009	166.88
233.243	168.88
233.477	171.88
233.711	157.88
233.945	169.88
234.179	187.88
234.413	170.88
234.647	179.88
234.881	174.88
235.115	164.88
235.349	174.88
235.583	174.88
235.817	180.88
236.051	185.88
236.285	169.88
236.519	182.88
236.753	190.88
236.987	166.88
237.221	194.88
237.455	174.88
237.689	172.88
237.922	190.88
238.156	185.88
238.39	202.88
238.624	198.88
238.858	196.88
239.091	199.88
239.325	208.88
239.559	206.88
239.793	207.88
240.027	194.88
240.26	209.88
240.494	201.88
240.728	207.88
240.961	187.88
241.195	221.88
241.429	223.88
241.662	224.88
241.896	228.88
242.13	220.88
242.363	232.88
242.597	243.88
242.83	227.88
243.064	224.88
243.298	227.88
243.531	242.88
243.765	227.88
243.998	244.88
244.232	234.88
244.465	217.88
244.699	230.88
244.932	243.88
245.166	247.88
245.399	250.88
245.633	230.88
245.866	249.88
246.099	251.88
246.333	265.88
246.566	265.88
246.8	257.88
247.033	263.88
247.266	261.88
247.5	274.88
247.733	273.88
247.966	276.88
248.2	286.88
248.433	282.88
248.666	264.88
248.899	293.88
249.133	270.88
249.366	290.88
249.599	286.88
249.832	293.88
250.066	299.88
250.299	308.88
250.532	325.88
250.765	321.88
250.998	307.88
251.231	303.88
251.465	322.88
251.698	320.88
251.931	351.88
252.164	339.88
252.397	332.88
252.63	326.88
252.863	321.88
253.096	338.88
253.329	347.88
253.562	329.88
253.795	340.88
254.028	341.88
254.261	356.88
254.494	358.88
254.727	362.88
254.96	336.88
255.193	341.88
255.426	376.88
255.659	383.88
255.892	403.88
256.124	368.88
256.357	379.88
256.59	387.88
256.823	374.88
257.056	372.88
257.289	389.88
257.521	401.88
257.754	382.88
257.987	388.88
258.22	379.88
258.452	390.88
258.685	390.88
258.918	398.88
259.151	402.88
259.383	423.88
259.616	401.88
259.849	429.88
260.081	424.88
260.314	426.88
260.547	405.88
260.779	443.88
261.012	434.88
261.244	402.88
261.477	435.88
261.71	448.88
261.942	439.88
262.175	435.88
262.407	426.88
262.64	427.88
262.872	449.88
263.105	441.88
263.337	426.88
263.57	449.88
263.802	450.88
264.035	458.88
264.267	462.88
264.499	456.88
264.732	427.88
264.964	456.88
265.197	458.88
265.429	458.88
265.661	474.88
265.894	460.88
266.126	458.88
266.358	474.88
266.591	483.88
266.823	477.88
267.055	494.88
267.287	463.88
267.52	481.88
267.752	485.88
267.984	492.88
268.216	511.88
268.448	507.88
268.681	501.88
268.913	497.88
269.145	468.88
269.377	509.88
269.609	494.88
269.841	506.88
270.073	499.88
270.306	497.88
270.538	508.88
270.77	499.88
271.002	502.88
271.234	516.88
271.466	526.88
271.698	515.88
271.93	523.88
272.162	511.88
272.394	521.88
272.626	537.88
272.858	535.88
273.09	531.88
273.322	538.88
273.553	522.88
273.785	533.88
274.017	550.88
274.249	561.88
274.481	555.88
274.713	533.88
274.945	537.88
275.176	559.88
275.408	571.88
275.64	554.88
275.872	567.88
276.104	553.88
276.335	568.88
276.567	563.88
276.799	570.88
277.031	576.88
277.262	587.88
277.494	574.88
277.726	564.88
277.957	555.88
278.189	581.88
278.421	592.88
278.652	591.88
278.884	598.88
279.115	591.88
279.347	586.88
279.579	594.88
279.81	582.88
280.042	598.88
280.273	600.88
280.505	585.88
280.736	597.88
280.968	601.88
281.199	610.88
281.431	600.88
281.662	605.88
281.894	606.88
282.125	619.88
282.356	615.88
282.588	621.88
282.819	617.88
283.051	615.88
283.282	634.88
283.513	614.88
283.745	611.88
283.976	628.88
284.207	613.88
284.439	632.88
284.67	622.88
284.901	622.88
285.132	638.88
285.364	649.88
285.595	617.88
285.826	626.88
286.057	624.88
286.288	638.88
286.52	640.88
286.751	651.88
286.982	656.88
287.213	655.88
287.444	659.88
287.675	669.88
287.906	661.88
288.138	695.88
288.369	665.88
288.6	675.88
288.831	672.88
289.062	674.88
289.293	666.88
289.524	669.88
289.755	652.88
289.986	678.88
290.217	697.88
290.448	675.88
290.679	699.88
290.91	655.88
291.141	656.88
291.371	687.88
291.602	661.88
291.833	670.88
292.064	665.88
292.295	693.88
292.526	702.88
292.757	702.88
292.987	674.88
293.218	681.88
293.449	656.88
293.68	696.88
293.91	687.88
294.141	670.88
294.372	706.88
294.603	669.88
294.833	692.88
295.064	682.88
295.295	717.88
295.525	684.88
295.756	671.88
295.987	701.88
296.217	697.88
296.448	696.88
296.679	703.88
296.909	685.88
297.14	706.88
297.37	702.88
297.601	731.88
297.831	724.88
298.062	731.88
298.292	736.88
298.523	745.88
298.753	771.88
298.984	745.88
299.214	739.88
299.445	734.88
299.675	737.88
299.905	738.88
300.136	742.88
300.366	775.88
300.597	766.88
300.827	758.88
301.057	780.88
301.288	746.88
301.518	773.88
301.748	801.88
301.979	758.88
302.209	759.88
302.439	786.88
302.669	771.88
302.9	779.88
303.13	768.88
303.36	793.88
303.59	758.88
303.82	763.88
304.051	805.88
304.281	745.88
304.511	789.88
304.741	789.88
304.971	781.88
305.201	794.88
305.431	790.88
305.661	815.88
305.891	778.88
306.121	777.88
306.352	777.88
306.582	765.88
306.812	774.88
307.042	797.88
307.272	776.88
307.502	785.88
307.731	785.88
307.961	765.88
308.191	771.88
308.421	786.88
308.651	799.88
308.881	761.88
309.111	757.88
309.341	798.88
309.571	770.88
309.8	789.88
310.03	769.88
310.26	819.88
310.49	823.88
310.72	778.88
310.949	795.88
311.179	811.88
311.409	790.88
311.639	804.88
311.868	798.88
312.098	792.88
312.328	805.88
312.557	812.88
312.787	828.88
313.017	833.88
313.246	840.88
313.476	861.88
313.706	855.88
313.935	859.88
314.165	852.88
314.394	815.88
314.624	845.88
314.853	845.88
315.083	865.88
315.312	870.88
315.542	853.88
315.771	853.88
316.001	863.88
316.23	859.88
316.46	855.88
316.689	859.88
316.919	865.88
317.148	846.88
317.377	862.88
317.607	868.88
317.836	857.88
318.065	877.88
318.295	888.88
318.524	874.88
318.753	869.88
318.983	870.88
319.212	896.88
319.441	891.88
319.67	884.88
319.9	880.88
320.129	887.88
320.358	875.88
320.587	887.88
320.816	883.88
321.046	927.88
321.275	879.88
321.504	881.88
321.733	901.88
321.962	888.88
322.191	895.88
322.42	917.88
322.649	915.88
322.878	915.88
323.108	953.88
323.337	947.88
323.566	917.88
323.795	926.88
324.024	931.88
324.253	898.88
324.482	947.88
324.71	931.88
324.939	958.88
325.168	954.88
325.397	962.88
325.626	984.88
325.855	956.88
326.084	997.88
326.313	999.88
326.542	976.88
326.77	1027.88
326.999	1025.88
327.228	977.88
327.457	1010.88
327.686	976.88
327.914	999.88
328.143	985.88
328.372	1055.88
328.6	1034.88
328.829	991.88
329.058	1031.88
329.287	1030.88
329.515	1005.88
329.744	994.88
329.972	1059.88
330.201	1085.88
330.43	1047.88
330.658	1068.88
330.887	1062.88
331.115	1074.88
331.344	1085.88
331.572	1085.88
331.801	1118.88
332.03	1115.88
332.258	1142.88
332.486	1153.88
332.715	1171.88
332.943	1209.88
333.172	1189.88
333.4	1245.88
333.629	1291.88
333.857	1275.88
334.085	1267.88
334.314	1314.88
334.542	1322.88
334.771	1307.88
334.999	1279.88
335.227	1295.88
335.455	1330.88
335.684	1332.88
335.912	1303.88
336.14	1274.88
336.369	1289.88
336.597	1283.88
336.825	1295.88
337.053	1301.88
337.281	1262.88
337.51	1287.88
337.738	1225.88
337.966	1229.88
338.194	1230.88
338.422	1227.88
338.65	1199.88
338.878	1199.88
339.106	1179.88
339.334	1189.88
339.562	1221.88
339.79	1171.88
340.018	1151.88
340.246	1128.88
340.474	1099.88
340.702	1111.88
340.93	1149.88
341.158	1150.88
341.386	1146.88
341.614	1187.88
341.842	1142.88
342.07	1133.88
342.298	1089.88
342.526	1144.88
342.754	1139.88
342.981	1147.88
343.209	1111.88
343.437	1195.88
343.665	1237.88
343.893	1267.88
344.12	1290.88
344.348	1260.88
344.576	1220.88
344.804	1238.88
345.031	1181.88
345.259	1167.88
345.487	1172.88
345.714	1168.88
345.942	1178.88
346.17	1167.88
346.397	1171.88
346.625	1115.88
346.853	1093.88
347.08	1090.88
347.308	1093.88
347.535	1070.88
347.763	1065.88
347.99	1105.88
348.218	1070.88
348.445	1081.88
348.673	1075.88
348.9	1066.88
349.128	1070.88
349.355	1060.88
349.583	1115.88
349.81	1060.88
350.037	1068.88
350.265	1055.88
350.492	1038.88
350.72	1051.88
350.947	1065.88
351.174	1063.88
351.402	1097.88
351.629	1082.88
351.856	1074.88
352.083	1083.88
352.311	1059.88
352.538	1104.88
352.765	1066.88
352.992	1070.88
353.22	1029.88
353.447	1051.88
353.674	1036.88
353.901	1032.88
354.128	1042.88
354.355	1031.88
354.583	1048.88
354.81	1062.88
355.037	1039.88
355.264	1020.88
355.491	1032.88
355.718	1036.88
355.945	1050.88
356.172	1033.88
356.399	1027.88
356.626	1052.88
356.853	1082.88
357.08	1076.88
357.307	1046.88
357.534	1072.88
357.761	1051.88
357.988	1055.88
358.215	1027.88
358.441	1037.88
358.668	1050.88
358.895	1032.88
359.122	1041.88
359.349	1019.88
359.576	1017.88
359.802	1060.88
360.029	1048.88
360.256	1042.88
360.483	1044.88
360.709	1069.88
360.936	1042.88
361.163	1054.88
361.39	1051.88
361.616	1060.88
361.843	1086.88
362.07	1087.88
362.296	1064.88
362.523	1039.88
362.749	1053.88
362.976	1023.88
363.203	1045.88
363.429	1033.88
363.656	1045.88
363.882	1050.88
364.109	1023.88
364.335	1046.88
364.562	1039.88
364.788	1007.88
365.015	1027.88
365.241	1017.88
365.468	1031.88
365.694	1037.88
365.92	1065.88
366.147	1079.88
366.373	1033.88
366.599	1046.88
366.826	1048.88
367.052	1000.88
367.278	1046.88
367.505	1033.88
367.731	1038.88
367.957	1029.88
368.184	1025.88
368.41	1056.88
368.636	1042.88
368.862	1033.88
369.089	1075.88
369.315	1039.88
369.541	1076.88
369.767	1096.88
369.993	1081.88
370.219	1084.88
370.445	1083.88
370.672	1121.88
370.898	1087.88
371.124	1099.88
371.35	1099.88
371.576	1100.88
371.802	1081.88
372.028	1122.88
372.254	1133.88
372.48	1115.88
372.706	1154.88
372.932	1163.88
373.158	1146.88
373.384	1119.88
373.61	1131.88
373.835	1110.88
374.061	1124.88
374.287	1129.88
374.513	1142.88
374.739	1172.88
374.965	1182.88
375.191	1179.88
375.416	1186.88
375.642	1165.88
375.868	1195.88
376.094	1144.88
376.319	1146.88
376.545	1141.88
376.771	1171.88
376.997	1109.88
377.222	1099.88
377.448	1103.88
377.674	1121.88
377.899	1075.88
378.125	1106.88
378.35	1067.88
378.576	1081.88
378.802	1067.88
379.027	1092.88
379.253	1049.88
379.478	1105.88
379.704	1084.88
379.929	1084.88
380.155	1079.88
380.38	1109.88
380.606	1078.88
380.831	1079.88
381.057	1086.88
381.282	1063.88
381.507	1088.88
381.733	1079.88
381.958	1099.88
382.184	1105.88
382.409	1146.88
382.634	1138.88
382.86	1145.88
383.085	1144.88
383.31	1135.88
383.535	1143.88
383.761	1167.88
383.986	1156.88
384.211	1191.88
384.436	1231.88
384.662	1207.88
384.887	1231.88
385.112	1242.88
385.337	1257.88
385.562	1277.88
385.787	1297.88
386.013	1292.88
386.238	1311.88
386.463	1252.88
386.688	1299.88
386.913	1286.88
387.138	1295.88
387.363	1329.88
387.588	1315.88
387.813	1283.88
388.038	1244.88
388.263	1305.88
388.488	1299.88
388.713	1301.88
388.938	1298.88
389.163	1295.88
389.387	1286.88
389.612	1270.88
389.837	1308.88
390.062	1267.88
390.287	1285.88
390.512	1301.88
390.736	1320.88
390.961	1313.88
391.186	1353.88
391.411	1355.88
391.636	1363.88
391.86	1388.88
392.085	1428.88
392.31	1398.88
392.534	1373.88
392.759	1431.88
392.984	1358.88
393.208	1382.88
393.433	1400.88
393.658	1363.88
393.882	1382.88
394.107	1369.88
394.331	1381.88
394.556	1394.88
394.78	1379.88
395.005	1415.88
395.229	1385.88
395.454	1460.88
395.678	1443.88
395.903	1399.88
396.127	1434.88
396.352	1460.88
396.576	1425.88
396.801	1390.88
397.025	1431.88
397.249	1431.88
397.474	1464.88
397.698	1502.88
397.922	1550.88
398.147	1523.88
398.371	1548.88
398.595	1599.88
398.82	1646.88
399.044	1748.88
399.268	1796.88
399.492	1907.88
399.717	2052.88
399.941	2001.88
400.165	1998.88
400.389	1865.88
400.613	1793.88
400.837	1782.88
401.062	1729.88
401.286	1720.88
401.51	1665.88
401.734	1626.88
401.958	1621.88
402.182	1641.88
402.406	1641.88
402.63	1650.88
402.854	1673.88
403.078	1672.88
403.302	1647.88
403.526	1731.88
403.75	1703.88
403.974	1724.88
404.198	1708.88
404.422	1717.88
404.645	1699.88
404.869	1694.88
405.093	1727.88
405.317	1742.88
405.541	1779.88
405.765	1736.88
405.988	1731.88
406.212	1750.88
406.436	1741.88
406.66	1810.88
406.883	1807.88
407.107	1878.88
407.331	1894.88
407.555	1966.88
407.778	1949.88
408.002	1946.88
408.226	1940.88
408.449	1920.88
408.673	1851.88
408.896	1824.88
409.12	1862.88
409.344	1827.88
409.567	1849.88
409.791	1795.88
410.014	1785.88
410.238	1757.88
410.461	1759.88
410.685	1764.88
410.908	1732.88
411.132	1737.88
411.355	1683.88
411.578	1690.88
411.802	1710.88
412.025	1702.88
412.249	1731.88
412.472	1683.88
412.695	1699.88
412.919	1656.88
413.142	1665.88
413.365	1657.88
413.589	1678.88
413.812	1657.88
414.035	1678.88
414.258	1646.88
414.482	1635.88
414.705	1649.88
414.928	1706.88
415.151	1668.88
415.374	1651.88
415.597	1637.88
415.821	1636.88
416.044	1634.88
416.267	1596.88
416.49	1595.88
416.713	1557.88
416.936	1607.88
417.159	1593.88
417.382	1587.88
417.605	1627.88
417.828	1564.88
418.051	1617.88
418.274	1616.88
418.497	1585.88
418.72	1590.88
418.943	1612.88
419.166	1721.88
419.389	1801.88
419.611	1806.88
419.834	1723.88
420.057	1698.88
420.28	1627.88
420.503	1603.88
420.726	1605.88
420.948	1594.88
421.171	1600.88
421.394	1615.88
421.617	1602.88
421.839	1589.88
422.062	1606.88
422.285	1592.88
422.507	1590.88
422.73	1600.88
422.953	1609.88
423.175	1609.88
423.398	1650.88
423.621	1626.88
423.843	1693.88
424.066	1631.88
424.288	1665.88
424.511	1597.88
424.733	1638.88
424.956	1611.88
425.178	1605.88
425.401	1607.88
425.623	1580.88
425.846	1595.88
426.068	1606.88
426.291	1559.88
426.513	1541.88
426.735	1521.88
426.958	1581.88
427.18	1514.88
427.402	1529.88
427.625	1544.88
427.847	1492.88
428.069	1491.88
428.292	1524.88
428.514	1498.88
428.736	1523.88
428.958	1509.88
429.181	1452.88
429.403	1479.88
429.625	1471.88
429.847	1444.88
430.069	1469.88
430.292	1487.88
430.514	1458.88
430.736	1513.88
430.958	1503.88
431.18	1472.88
431.402	1491.88
431.624	1510.88
431.846	1493.88
432.068	1489.88
432.29	1545.88
432.512	1475.88
432.734	1543.88
432.956	1521.88
433.178	1496.88
433.4	1507.88
433.622	1542.88
433.844	1551.88
434.066	1539.88
434.287	1562.88
434.509	1540.88
434.731	1601.88
434.953	1609.88
435.175	1628.88
435.397	1627.88
435.618	1573.88
435.84	1548.88
436.062	1498.88
436.284	1519.88
436.505	1521.88
436.727	1496.88
436.949	1498.88
437.17	1500.88
437.392	1503.88
437.614	1462.88
437.835	1451.88
438.057	1461.88
438.278	1451.88
438.5	1435.88
438.721	1458.88
438.943	1446.88
439.165	1444.88
439.386	1458.88
439.608	1509.88
439.829	1505.88
440.05	1508.88
440.272	1560.88
440.493	1528.88
440.715	1544.88
440.936	1560.88
441.158	1589.88
441.379	1574.88
441.6	1631.88
441.822	1607.88
442.043	1617.88
442.264	1638.88
442.486	1542.88
442.707	1602.88
442.928	1614.88
443.149	1596.88
443.371	1609.88
443.592	1654.88
443.813	1650.88
444.034	1629.88
444.255	1675.88
444.476	1721.88
444.698	1763.88
444.919	1794.88
445.14	1865.88
445.361	1775.88
445.582	1731.88
445.803	1599.88
446.024	1624.88
446.245	1552.88
446.466	1544.88
446.687	1540.88
446.908	1507.88
447.129	1497.88
447.35	1476.88
447.571	1452.88
447.792	1428.88
448.013	1422.88
448.234	1436.88
448.455	1382.88
448.675	1430.88
448.896	1384.88
449.117	1367.88
449.338	1373.88
449.559	1382.88
449.779	1370.88
450	1346.88
450.221	1342.88
450.442	1378.88
450.662	1398.88
450.883	1366.88
451.104	1397.88
451.324	1366.88
451.545	1381.88
451.766	1380.88
451.986	1341.88
452.207	1357.88
452.428	1351.88
452.648	1361.88
452.869	1313.88
453.089	1324.88
453.31	1361.88
453.53	1293.88
453.751	1308.88
453.971	1303.88
454.192	1333.88
454.412	1316.88
454.633	1299.88
454.853	1294.88
455.073	1326.88
455.294	1336.88
455.514	1271.88
455.734	1316.88
455.955	1327.88
456.175	1298.88
456.395	1291.88
456.616	1252.88
456.836	1305.88
457.056	1324.88
457.276	1289.88
457.497	1268.88
457.717	1301.88
457.937	1351.88
458.157	1349.88
458.377	1319.88
458.598	1381.88
458.818	1394.88
459.038	1420.88
459.258	1486.88
459.478	1507.88
459.698	1534.88
459.918	1583.88
460.138	1559.88
460.358	1671.88
460.578	1661.88
460.798	1670.88
461.018	1726.88
461.238	1707.88
461.458	1715.88
461.678	1682.88
461.898	1722.88
462.118	1759.88
462.338	1854.88
462.558	1853.88
462.777	1909.88
462.997	1921.88
463.217	2061.88
463.437	2052.88
463.657	2000.88
463.876	1953.88
464.096	1941.88
464.316	1918.88
464.536	1915.88
464.755	1851.88
464.975	1796.88
465.195	1703.88
465.414	1688.88
465.634	1599.88
465.854	1585.88
466.073	1525.88
466.293	1489.88
466.512	1465.88
466.732	1483.88
466.951	1458.88
467.171	1449.88
467.391	1443.88
467.61	1413.88
467.829	1412.88
468.049	1427.88
468.268	1362.88
468.488	1383.88
468.707	1393.88
468.927	1384.88
469.146	1387.88
469.365	1432.88
469.585	1400.88
469.804	1423.88
470.023	1449.88
470.243	1468.88
470.462	1469.88
470.681	1413.88
470.901	1490.88
471.12	1426.88
471.339	1439.88
471.558	1440.88
471.777	1438.88
471.997	1426.88
472.216	1410.88
472.435	1403.88
472.654	1391.88
472.873	1382.88
473.092	1394.88
473.311	1371.88
473.53	1367.88
473.749	1389.88
473.968	1379.88
474.187	1377.88
474.406	1342.88
474.625	1363.88
474.844	1374.88
475.063	1401.88
475.282	1390.88
475.501	1411.88
475.72	1419.88
475.939	1415.88
476.158	1434.88
476.377	1417.88
476.596	1462.88
476.814	1485.88
477.033	1460.88
477.252	1495.88
477.471	1498.88
477.69	1525.88
477.908	1574.88
478.127	1610.88
478.346	1592.88
478.564	1614.88
478.783	1623.88
479.002	1715.88
479.22	1689.88
479.439	1706.88
479.658	1688.88
479.876	1685.88
480.095	1671.88
480.313	1729.88
480.532	1728.88
480.751	1730.88
480.969	1690.88
481.188	1623.88
481.406	1649.88
481.624	1579.88
481.843	1629.88
482.061	1609.88
482.28	1603.88
482.498	1586.88
482.717	1567.88
482.935	1578.88
483.153	1597.88
483.372	1600.88
483.59	1602.88
483.808	1612.88
484.027	1603.88
484.245	1593.88
484.463	1591.88
484.681	1644.88
484.9	1624.88
485.118	1661.88
485.336	1619.88
485.554	1611.88
485.772	1619.88
485.99	1641.88
486.209	1622.88
486.427	1653.88
486.645	1635.88
486.863	1653.88
487.081	1659.88
487.299	1609.88
487.517	1653.88
487.735	1680.88
487.953	1690.88
488.171	1652.88
488.389	1670.88
488.607	1643.88
488.825	1628.88
489.043	1606.88
489.261	1644.88
489.479	1622.88
489.696	1620.88
489.914	1692.88
490.132	1635.88
490.35	1669.88
490.568	1685.88
490.786	1692.88
491.003	1650.88
491.221	1708.88
491.439	1702.88
