Data from Ni(NO3)2@0.125M.TitratingCurve.Agarose3%dH2O.NegLispCup.LampEnergy10.LIBS07252019_HRD10591_18-08-49-567.txt Node
Date: Thu Jul 25 18:08:49 EDT 2019
User: cochatt
Spectrometer: HR+D1059
Trigger mode: 1
Integration Time (sec): 1.000000E-1
Scans to average: 1
Electric dark correction enabled: true
Nonlinearity correction enabled: false
Boxcar width: 0
XAxis mode: Wavelengths
Number of Pixels in Spectrum: 2048
>>>>>Begin Spectral Data<<<<<
223.165	-9.38
223.4	-9.38
223.635	-9.38
223.869	-17.38
224.104	-32.38
224.338	-16.38
224.573	-25.38
224.808	-16.38
225.042	10.62
225.277	-2.38
225.511	-3.38
225.746	15.62
225.98	3.62
226.215	18.62
226.449	20.62
226.683	8.62
226.918	16.62
227.152	28.62
227.387	39.62
227.621	33.62
227.856	50.62
228.09	49.62
228.324	47.62
228.559	58.62
228.793	77.62
229.027	121.62
229.262	132.62
229.496	136.62
229.73	135.62
229.964	151.62
230.199	165.62
230.433	162.62
230.667	156.62
230.901	159.62
231.136	159.62
231.37	155.62
231.604	168.62
231.838	163.62
232.072	163.62
232.306	168.62
232.541	174.62
232.775	168.62
233.009	166.62
233.243	170.62
233.477	178.62
233.711	165.62
233.945	174.62
234.179	169.62
234.413	172.62
234.647	170.62
234.881	184.62
235.115	185.62
235.349	177.62
235.583	187.62
235.817	168.62
236.051	180.62
236.285	187.62
236.519	187.62
236.753	183.62
236.987	181.62
237.221	203.62
237.455	174.62
237.689	191.62
237.922	197.62
238.156	199.62
238.39	198.62
238.624	195.62
238.858	199.62
239.091	209.62
239.325	207.62
239.559	212.62
239.793	213.62
240.027	209.62
240.26	213.62
240.494	207.62
240.728	218.62
240.961	229.62
241.195	208.62
241.429	217.62
241.662	232.62
241.896	243.62
242.13	251.62
242.363	245.62
242.597	237.62
242.83	243.62
243.064	237.62
243.298	267.62
243.531	244.62
243.765	255.62
243.998	247.62
244.232	271.62
244.465	256.62
244.699	250.62
244.932	281.62
245.166	261.62
245.399	258.62
245.633	256.62
245.866	263.62
246.099	279.62
246.333	265.62
246.566	269.62
246.8	276.62
247.033	276.62
247.266	288.62
247.5	285.62
247.733	302.62
247.966	293.62
248.2	300.62
248.433	298.62
248.666	285.62
248.899	295.62
249.133	299.62
249.366	304.62
249.599	318.62
249.832	297.62
250.066	294.62
250.299	304.62
250.532	312.62
250.765	323.62
250.998	318.62
251.231	332.62
251.465	320.62
251.698	325.62
251.931	337.62
252.164	346.62
252.397	331.62
252.63	336.62
252.863	319.62
253.096	331.62
253.329	335.62
253.562	346.62
253.795	347.62
254.028	345.62
254.261	361.62
254.494	358.62
254.727	355.62
254.96	344.62
255.193	353.62
255.426	378.62
255.659	353.62
255.892	368.62
256.124	364.62
256.357	379.62
256.59	364.62
256.823	371.62
257.056	372.62
257.289	382.62
257.521	380.62
257.754	370.62
257.987	370.62
258.22	393.62
258.452	372.62
258.685	400.62
258.918	413.62
259.151	395.62
259.383	406.62
259.616	391.62
259.849	407.62
260.081	416.62
260.314	407.62
260.547	384.62
260.779	415.62
261.012	409.62
261.244	420.62
261.477	407.62
261.71	428.62
261.942	425.62
262.175	419.62
262.407	413.62
262.64	392.62
262.872	423.62
263.105	434.62
263.337	417.62
263.57	433.62
263.802	442.62
264.035	441.62
264.267	451.62
264.499	431.62
264.732	442.62
264.964	456.62
265.197	462.62
265.429	450.62
265.661	451.62
265.894	446.62
266.126	436.62
266.358	433.62
266.591	459.62
266.823	456.62
267.055	454.62
267.287	479.62
267.52	461.62
267.752	468.62
267.984	459.62
268.216	480.62
268.448	480.62
268.681	475.62
268.913	485.62
269.145	467.62
269.377	459.62
269.609	490.62
269.841	479.62
270.073	487.62
270.306	467.62
270.538	475.62
270.77	497.62
271.002	491.62
271.234	512.62
271.466	514.62
271.698	489.62
271.93	484.62
272.162	483.62
272.394	497.62
272.626	508.62
272.858	507.62
273.09	504.62
273.322	508.62
273.553	517.62
273.785	526.62
274.017	554.62
274.249	517.62
274.481	505.62
274.713	515.62
274.945	504.62
275.176	531.62
275.408	538.62
275.64	526.62
275.872	529.62
276.104	530.62
276.335	544.62
276.567	573.62
276.799	543.62
277.031	544.62
277.262	555.62
277.494	540.62
277.726	551.62
277.957	572.62
278.189	569.62
278.421	551.62
278.652	574.62
278.884	558.62
279.115	571.62
279.347	586.62
279.579	558.62
279.81	591.62
280.042	577.62
280.273	587.62
280.505	563.62
280.736	585.62
280.968	607.62
281.199	583.62
281.431	588.62
281.662	581.62
281.894	611.62
282.125	603.62
282.356	623.62
282.588	626.62
282.819	590.62
283.051	619.62
283.282	607.62
283.513	606.62
283.745	619.62
283.976	607.62
284.207	614.62
284.439	616.62
284.67	603.62
284.901	627.62
285.132	633.62
285.364	614.62
285.595	627.62
285.826	629.62
286.057	630.62
286.288	639.62
286.52	631.62
286.751	636.62
286.982	665.62
287.213	647.62
287.444	658.62
287.675	660.62
287.906	623.62
288.138	643.62
288.369	659.62
288.6	655.62
288.831	658.62
289.062	649.62
289.293	667.62
289.524	660.62
289.755	675.62
289.986	669.62
290.217	684.62
290.448	682.62
290.679	699.62
290.91	683.62
291.141	675.62
291.371	670.62
291.602	677.62
291.833	662.62
292.064	686.62
292.295	712.62
292.526	669.62
292.757	667.62
292.987	675.62
293.218	674.62
293.449	665.62
293.68	709.62
293.91	681.62
294.141	649.62
294.372	689.62
294.603	694.62
294.833	689.62
295.064	700.62
295.295	694.62
295.525	692.62
295.756	709.62
295.987	691.62
296.217	699.62
296.448	685.62
296.679	729.62
296.909	710.62
297.14	715.62
297.37	709.62
297.601	716.62
297.831	715.62
298.062	723.62
298.292	748.62
298.523	736.62
298.753	735.62
298.984	752.62
299.214	729.62
299.445	763.62
299.675	743.62
299.905	752.62
300.136	732.62
300.366	748.62
300.597	770.62
300.827	750.62
301.057	783.62
301.288	769.62
301.518	793.62
301.748	807.62
301.979	792.62
302.209	767.62
302.439	773.62
302.669	757.62
302.9	744.62
303.13	759.62
303.36	755.62
303.59	775.62
303.82	780.62
304.051	744.62
304.281	756.62
304.511	735.62
304.741	767.62
304.971	764.62
305.201	788.62
305.431	751.62
305.661	776.62
305.891	760.62
306.121	738.62
306.352	752.62
306.582	752.62
306.812	739.62
307.042	757.62
307.272	731.62
307.502	763.62
307.731	741.62
307.961	741.62
308.191	729.62
308.421	738.62
308.651	767.62
308.881	755.62
309.111	750.62
309.341	737.62
309.571	766.62
309.8	751.62
310.03	751.62
310.26	759.62
310.49	767.62
310.72	779.62
310.949	752.62
311.179	739.62
311.409	782.62
311.639	760.62
311.868	767.62
312.098	763.62
312.328	773.62
312.557	810.62
312.787	815.62
313.017	784.62
313.246	816.62
313.476	804.62
313.706	800.62
313.935	817.62
314.165	848.62
314.394	827.62
314.624	823.62
314.853	799.62
315.083	812.62
315.312	822.62
315.542	832.62
315.771	803.62
316.001	800.62
316.23	813.62
316.46	800.62
316.689	792.62
316.919	774.62
317.148	805.62
317.377	830.62
317.607	773.62
317.836	807.62
318.065	786.62
318.295	787.62
318.524	810.62
318.753	791.62
318.983	807.62
319.212	799.62
319.441	773.62
319.67	794.62
319.9	791.62
320.129	815.62
320.358	797.62
320.587	802.62
320.816	811.62
321.046	812.62
321.275	829.62
321.504	825.62
321.733	798.62
321.962	843.62
322.191	814.62
322.42	819.62
322.649	815.62
322.878	824.62
323.108	825.62
323.337	836.62
323.566	866.62
323.795	840.62
324.024	834.62
324.253	845.62
324.482	835.62
324.71	861.62
324.939	865.62
325.168	838.62
325.397	854.62
325.626	858.62
325.855	887.62
326.084	867.62
326.313	909.62
326.542	888.62
326.77	906.62
326.999	899.62
327.228	865.62
327.457	901.62
327.686	860.62
327.914	884.62
328.143	905.62
328.372	901.62
328.6	898.62
328.829	895.62
329.058	915.62
329.287	884.62
329.515	913.62
329.744	913.62
329.972	893.62
330.201	921.62
330.43	916.62
330.658	910.62
330.887	926.62
331.115	934.62
331.344	941.62
331.572	949.62
331.801	991.62
332.03	1002.62
332.258	996.62
332.486	1054.62
332.715	1090.62
332.943	1157.62
333.172	1187.62
333.4	1263.62
333.629	1250.62
333.857	1273.62
334.085	1243.62
334.314	1203.62
334.542	1163.62
334.771	1183.62
334.999	1165.62
335.227	1153.62
335.455	1157.62
335.684	1131.62
335.912	1118.62
336.14	1101.62
336.369	1098.62
336.597	1116.62
336.825	1092.62
337.053	1079.62
337.281	1098.62
337.51	1091.62
337.738	1046.62
337.966	1031.62
338.194	1004.62
338.422	998.62
338.65	987.62
338.878	1007.62
339.106	1019.62
339.334	1000.62
339.562	991.62
339.79	933.62
340.018	928.62
340.246	911.62
340.474	971.62
340.702	963.62
340.93	974.62
341.158	984.62
341.386	980.62
341.614	972.62
341.842	980.62
342.07	942.62
342.298	955.62
342.526	963.62
342.754	924.62
342.981	982.62
343.209	966.62
343.437	1024.62
343.665	1090.62
343.893	1151.62
344.12	1191.62
344.348	1177.62
344.576	1090.62
344.804	1023.62
345.031	992.62
345.259	971.62
345.487	969.62
345.714	939.62
345.942	966.62
346.17	960.62
346.397	961.62
346.625	957.62
346.853	948.62
347.08	947.62
347.308	960.62
347.535	951.62
347.763	947.62
347.99	953.62
348.218	919.62
348.445	953.62
348.673	931.62
348.9	919.62
349.128	924.62
349.355	922.62
349.583	907.62
349.81	887.62
350.037	895.62
350.265	883.62
350.492	878.62
350.72	858.62
350.947	876.62
351.174	918.62
351.402	932.62
351.629	877.62
351.856	891.62
352.083	901.62
352.311	898.62
352.538	872.62
352.765	887.62
352.992	875.62
353.22	875.62
353.447	879.62
353.674	859.62
353.901	892.62
354.128	859.62
354.355	869.62
354.583	887.62
354.81	881.62
355.037	867.62
355.264	884.62
355.491	891.62
355.718	909.62
355.945	921.62
356.172	892.62
356.399	863.62
356.626	874.62
356.853	897.62
357.08	903.62
357.307	895.62
357.534	896.62
357.761	883.62
357.988	889.62
358.215	895.62
358.441	911.62
358.668	895.62
358.895	891.62
359.122	888.62
359.349	893.62
359.576	905.62
359.802	896.62
360.029	920.62
360.256	927.62
360.483	903.62
360.709	881.62
360.936	891.62
361.163	878.62
361.39	867.62
361.616	904.62
361.843	890.62
362.07	911.62
362.296	908.62
362.523	880.62
362.749	891.62
362.976	872.62
363.203	864.62
363.429	869.62
363.656	884.62
363.882	867.62
364.109	877.62
364.335	876.62
364.562	865.62
364.788	873.62
365.015	877.62
365.241	875.62
365.468	883.62
365.694	856.62
365.92	903.62
366.147	874.62
366.373	885.62
366.599	856.62
366.826	897.62
367.052	887.62
367.278	868.62
367.505	909.62
367.731	897.62
367.957	911.62
368.184	875.62
368.41	899.62
368.636	912.62
368.862	904.62
369.089	900.62
369.315	903.62
369.541	908.62
369.767	900.62
369.993	896.62
370.219	907.62
370.445	924.62
370.672	945.62
370.898	933.62
371.124	955.62
371.35	947.62
371.576	949.62
371.802	953.62
372.028	960.62
372.254	988.62
372.48	968.62
372.706	992.62
372.932	1000.62
373.158	1011.62
373.384	985.62
373.61	985.62
373.835	968.62
374.061	961.62
374.287	961.62
374.513	979.62
374.739	1021.62
374.965	1057.62
375.191	1081.62
375.416	1052.62
375.642	1026.62
375.868	1006.62
376.094	975.62
376.319	960.62
376.545	961.62
376.771	951.62
376.997	947.62
377.222	948.62
377.448	949.62
377.674	939.62
377.899	928.62
378.125	974.62
378.35	972.62
378.576	924.62
378.802	943.62
379.027	934.62
379.253	953.62
379.478	936.62
379.704	926.62
379.929	948.62
380.155	934.62
380.38	972.62
380.606	918.62
380.831	963.62
381.057	953.62
381.282	950.62
381.507	947.62
381.733	971.62
381.958	961.62
382.184	979.62
382.409	967.62
382.634	967.62
382.86	1003.62
383.085	1013.62
383.31	1039.62
383.535	1047.62
383.761	1055.62
383.986	1064.62
384.211	1099.62
384.436	1127.62
384.662	1158.62
384.887	1169.62
385.112	1133.62
385.337	1141.62
385.562	1163.62
385.787	1125.62
386.013	1147.62
386.238	1151.62
386.463	1193.62
386.688	1179.62
386.913	1133.62
387.138	1153.62
387.363	1163.62
387.588	1101.62
387.813	1143.62
388.038	1143.62
388.263	1104.62
388.488	1137.62
388.713	1127.62
388.938	1141.62
389.163	1087.62
389.387	1096.62
389.612	1101.62
389.837	1102.62
390.062	1089.62
390.287	1114.62
390.512	1106.62
390.736	1125.62
390.961	1155.62
391.186	1152.62
391.411	1193.62
391.636	1257.62
391.86	1287.62
392.085	1328.62
392.31	1310.62
392.534	1250.62
392.759	1228.62
392.984	1219.62
393.208	1200.62
393.433	1207.62
393.658	1198.62
393.882	1224.62
394.107	1190.62
394.331	1246.62
394.556	1221.62
394.78	1223.62
395.005	1233.62
395.229	1270.62
395.454	1272.62
395.678	1292.62
395.903	1323.62
396.127	1244.62
396.352	1218.62
396.576	1222.62
396.801	1200.62
397.025	1233.62
397.249	1249.62
397.474	1247.62
397.698	1281.62
397.922	1280.62
398.147	1272.62
398.371	1287.62
398.595	1376.62
398.82	1389.62
399.044	1501.62
399.268	1680.62
399.492	1956.62
399.717	2249.62
399.941	2239.62
400.165	1973.62
400.389	1708.62
400.613	1603.62
400.837	1491.62
401.062	1472.62
401.286	1429.62
401.51	1431.62
401.734	1473.62
401.958	1479.62
402.182	1497.62
402.406	1480.62
402.63	1511.62
402.854	1553.62
403.078	1540.62
403.302	1642.62
403.526	1685.62
403.75	1691.62
403.974	1699.62
404.198	1695.62
404.422	1679.62
404.645	1731.62
404.869	1668.62
405.093	1696.62
405.317	1615.62
405.541	1592.62
405.765	1603.62
405.988	1592.62
406.212	1633.62
406.436	1624.62
406.66	1626.62
406.883	1638.62
407.107	1790.62
407.331	1838.62
407.555	1910.62
407.778	1910.62
408.002	1851.62
408.226	1811.62
408.449	1743.62
408.673	1684.62
408.896	1646.62
409.12	1644.62
409.344	1672.62
409.567	1653.62
409.791	1640.62
410.014	1639.62
410.238	1663.62
410.461	1627.62
410.685	1626.62
410.908	1589.62
411.132	1554.62
411.355	1502.62
411.578	1539.62
411.802	1486.62
412.025	1519.62
412.249	1540.62
412.472	1508.62
412.695	1488.62
412.919	1424.62
413.142	1418.62
413.365	1441.62
413.589	1458.62
413.812	1424.62
414.035	1413.62
414.258	1425.62
414.482	1462.62
414.705	1488.62
414.928	1483.62
415.151	1463.62
415.374	1491.62
415.597	1463.62
415.821	1439.62
416.044	1454.62
416.267	1396.62
416.49	1409.62
416.713	1400.62
416.936	1411.62
417.159	1393.62
417.382	1421.62
417.605	1429.62
417.828	1428.62
418.051	1448.62
418.274	1439.62
418.497	1410.62
418.72	1477.62
418.943	1487.62
419.166	1554.62
419.389	1660.62
419.611	1637.62
419.834	1543.62
420.057	1500.62
420.28	1467.62
420.503	1422.62
420.726	1399.62
420.948	1450.62
421.171	1437.62
421.394	1413.62
421.617	1419.62
421.839	1443.62
422.062	1469.62
422.285	1441.62
422.507	1457.62
422.73	1457.62
422.953	1490.62
423.175	1489.62
423.398	1556.62
423.621	1508.62
423.843	1555.62
424.066	1558.62
424.288	1554.62
424.511	1518.62
424.733	1525.62
424.956	1498.62
425.178	1494.62
425.401	1485.62
425.623	1428.62
425.846	1403.62
426.068	1398.62
426.291	1425.62
426.513	1420.62
426.735	1351.62
426.958	1343.62
427.18	1327.62
427.402	1348.62
427.625	1286.62
427.847	1289.62
428.069	1309.62
428.292	1303.62
428.514	1255.62
428.736	1257.62
428.958	1296.62
429.181	1230.62
429.403	1255.62
429.625	1262.62
429.847	1244.62
430.069	1230.62
430.292	1233.62
430.514	1231.62
430.736	1282.62
430.958	1221.62
431.18	1257.62
431.402	1259.62
431.624	1271.62
431.846	1283.62
432.068	1269.62
432.29	1329.62
432.512	1273.62
432.734	1264.62
432.956	1255.62
433.178	1303.62
433.4	1311.62
433.622	1301.62
433.844	1309.62
434.066	1313.62
434.287	1316.62
434.509	1349.62
434.731	1431.62
434.953	1468.62
435.175	1495.62
435.397	1463.62
435.618	1407.62
435.84	1358.62
436.062	1312.62
436.284	1311.62
436.505	1276.62
436.727	1311.62
436.949	1283.62
437.17	1275.62
437.392	1275.62
437.614	1242.62
437.835	1222.62
438.057	1252.62
438.278	1229.62
438.5	1235.62
438.721	1209.62
438.943	1253.62
439.165	1243.62
439.386	1255.62
439.608	1268.62
439.829	1294.62
440.05	1272.62
440.272	1276.62
440.493	1301.62
440.715	1323.62
440.936	1329.62
441.158	1350.62
441.379	1388.62
441.6	1484.62
441.822	1492.62
442.043	1462.62
442.264	1441.62
442.486	1415.62
442.707	1419.62
442.928	1447.62
443.149	1446.62
443.371	1425.62
443.592	1464.62
443.813	1447.62
444.034	1470.62
444.255	1515.62
444.476	1625.62
444.698	1711.62
444.919	1765.62
445.14	1843.62
445.361	1667.62
445.582	1537.62
445.803	1422.62
446.024	1366.62
446.245	1347.62
446.466	1326.62
446.687	1283.62
446.908	1304.62
447.129	1291.62
447.35	1235.62
447.571	1250.62
447.792	1232.62
448.013	1239.62
448.234	1191.62
448.455	1145.62
448.675	1184.62
448.896	1184.62
449.117	1158.62
449.338	1164.62
449.559	1167.62
449.779	1199.62
450	1175.62
450.221	1183.62
450.442	1213.62
450.662	1175.62
450.883	1192.62
451.104	1231.62
451.324	1233.62
451.545	1224.62
451.766	1175.62
451.986	1200.62
452.207	1182.62
452.428	1185.62
452.648	1172.62
452.869	1170.62
453.089	1167.62
453.31	1201.62
453.53	1151.62
453.751	1159.62
453.971	1114.62
454.192	1135.62
454.412	1108.62
454.633	1139.62
454.853	1121.62
455.073	1093.62
455.294	1124.62
455.514	1122.62
455.734	1109.62
455.955	1078.62
456.175	1065.62
456.395	1077.62
456.616	1060.62
456.836	1101.62
457.056	1076.62
457.276	1081.62
457.497	1089.62
457.717	1069.62
457.937	1094.62
458.157	1136.62
458.377	1130.62
458.598	1145.62
458.818	1221.62
459.038	1210.62
459.258	1241.62
459.478	1307.62
459.698	1373.62
459.918	1385.62
460.138	1459.62
460.358	1529.62
460.578	1557.62
460.798	1553.62
461.018	1574.62
461.238	1531.62
461.458	1494.62
461.678	1491.62
461.898	1518.62
462.118	1519.62
462.338	1644.62
462.558	1695.62
462.777	1768.62
462.997	1922.62
463.217	2109.62
463.437	2164.62
463.657	1940.62
463.876	1838.62
464.096	1778.62
464.316	1803.62
464.536	1835.62
464.755	1733.62
464.975	1712.62
465.195	1593.62
465.414	1502.62
465.634	1425.62
465.854	1322.62
466.073	1302.62
466.293	1299.62
466.512	1253.62
466.732	1284.62
466.951	1227.62
467.171	1253.62
467.391	1231.62
467.61	1231.62
467.829	1215.62
468.049	1218.62
468.268	1196.62
468.488	1169.62
468.707	1166.62
468.927	1188.62
469.146	1198.62
469.365	1203.62
469.585	1204.62
469.804	1217.62
470.023	1261.62
470.243	1261.62
470.462	1299.62
470.681	1301.62
470.901	1300.62
471.12	1252.62
471.339	1218.62
471.558	1212.62
471.777	1184.62
471.997	1186.62
472.216	1157.62
472.435	1175.62
472.654	1143.62
472.873	1147.62
473.092	1148.62
473.311	1140.62
473.53	1109.62
473.749	1162.62
473.968	1148.62
474.187	1128.62
474.406	1114.62
474.625	1138.62
474.844	1156.62
475.063	1164.62
475.282	1156.62
475.501	1161.62
475.72	1169.62
475.939	1181.62
476.158	1185.62
476.377	1189.62
476.596	1188.62
476.814	1227.62
477.033	1194.62
477.252	1230.62
477.471	1276.62
477.69	1298.62
477.908	1334.62
478.127	1358.62
478.346	1368.62
478.564	1418.62
478.783	1431.62
479.002	1461.62
479.22	1474.62
479.439	1448.62
479.658	1453.62
479.876	1465.62
480.095	1443.62
480.313	1532.62
480.532	1600.62
480.751	1598.62
480.969	1501.62
481.188	1436.62
481.406	1424.62
481.624	1383.62
481.843	1319.62
482.061	1309.62
482.28	1319.62
482.498	1300.62
482.717	1298.62
482.935	1300.62
483.153	1300.62
483.372	1340.62
483.59	1342.62
483.808	1308.62
484.027	1299.62
484.245	1335.62
484.463	1299.62
484.681	1353.62
484.9	1367.62
485.118	1360.62
485.336	1368.62
485.554	1372.62
485.772	1364.62
485.99	1376.62
486.209	1403.62
486.427	1380.62
486.645	1383.62
486.863	1375.62
487.081	1384.62
487.299	1410.62
487.517	1387.62
487.735	1369.62
487.953	1402.62
488.171	1407.62
488.389	1383.62
488.607	1372.62
488.825	1356.62
489.043	1395.62
489.261	1382.62
489.479	1376.62
489.696	1349.62
489.914	1397.62
490.132	1386.62
490.35	1395.62
490.568	1357.62
490.786	1407.62
491.003	1415.62
491.221	1415.62
491.439	1425.62
491.657	1401.62
491.874	1388.62
492.092	1405.62
492.31	1432.62
492.527	1461.62
492.745	1439.62
492.963	1445.62
493.18	1434.62
493.398	1477.62
493.615	1448.62
493.833	1403.62
494.05	1436.62
