Data from Ni(NO3)2@0.0625M.TitratingCurve.Agarose3%dH2O.NegLispCup.LampEnergy10.LIBS07252019_HRD10591_18-13-36-569.txt Node
Date: Thu Jul 25 18:13:36 EDT 2019
User: cochatt
Spectrometer: HR+D1059
Trigger mode: 1
Integration Time (sec): 1.000000E-1
Scans to average: 1
Electric dark correction enabled: true
Nonlinearity correction enabled: false
Boxcar width: 0
XAxis mode: Wavelengths
Number of Pixels in Spectrum: 2048
>>>>>Begin Spectral Data<<<<<
223.165	-16.94
223.4	-16.94
223.635	-16.94
223.869	-19.94
224.104	-29.94
224.338	-16.94
224.573	-17.94
224.808	-16.94
225.042	-6.94
225.277	-4.94
225.511	-5.94
225.746	13.06
225.98	12.06
226.215	14.06
226.449	17.06
226.683	16.06
226.918	37.06
227.152	27.06
227.387	27.06
227.621	28.06
227.856	44.06
228.09	51.06
228.324	47.06
228.559	56.06
228.793	71.06
229.027	117.06
229.262	125.06
229.496	110.06
229.73	131.06
229.964	139.06
230.199	142.06
230.433	131.06
230.667	135.06
230.901	128.06
231.136	139.06
231.37	137.06
231.604	132.06
231.838	157.06
232.072	150.06
232.306	155.06
232.541	146.06
232.775	155.06
233.009	157.06
233.243	157.06
233.477	164.06
233.711	152.06
233.945	162.06
234.179	156.06
234.413	159.06
234.647	138.06
234.881	148.06
235.115	168.06
235.349	174.06
235.583	163.06
235.817	176.06
236.051	195.06
236.285	151.06
236.519	168.06
236.753	165.06
236.987	169.06
237.221	163.06
237.455	171.06
237.689	181.06
237.922	176.06
238.156	188.06
238.39	174.06
238.624	171.06
238.858	179.06
239.091	181.06
239.325	195.06
239.559	190.06
239.793	184.06
240.027	185.06
240.26	200.06
240.494	196.06
240.728	183.06
240.961	190.06
241.195	213.06
241.429	203.06
241.662	221.06
241.896	220.06
242.13	212.06
242.363	196.06
242.597	200.06
242.83	227.06
243.064	223.06
243.298	216.06
243.531	217.06
243.765	226.06
243.998	217.06
244.232	231.06
244.465	231.06
244.699	227.06
244.932	204.06
245.166	229.06
245.399	240.06
245.633	240.06
245.866	234.06
246.099	236.06
246.333	240.06
246.566	266.06
246.8	235.06
247.033	221.06
247.266	250.06
247.5	247.06
247.733	254.06
247.966	260.06
248.2	256.06
248.433	264.06
248.666	243.06
248.899	256.06
249.133	279.06
249.366	278.06
249.599	261.06
249.832	274.06
250.066	269.06
250.299	259.06
250.532	277.06
250.765	268.06
250.998	265.06
251.231	274.06
251.465	283.06
251.698	287.06
251.931	295.06
252.164	291.06
252.397	292.06
252.63	309.06
252.863	292.06
253.096	275.06
253.329	298.06
253.562	300.06
253.795	293.06
254.028	302.06
254.261	321.06
254.494	310.06
254.727	314.06
254.96	310.06
255.193	305.06
255.426	326.06
255.659	307.06
255.892	324.06
256.124	319.06
256.357	327.06
256.59	320.06
256.823	297.06
257.056	317.06
257.289	322.06
257.521	321.06
257.754	351.06
257.987	323.06
258.22	323.06
258.452	332.06
258.685	323.06
258.918	325.06
259.151	336.06
259.383	341.06
259.616	335.06
259.849	330.06
260.081	348.06
260.314	337.06
260.547	361.06
260.779	344.06
261.012	366.06
261.244	353.06
261.477	356.06
261.71	352.06
261.942	369.06
262.175	357.06
262.407	358.06
262.64	383.06
262.872	345.06
263.105	346.06
263.337	364.06
263.57	365.06
263.802	369.06
264.035	373.06
264.267	376.06
264.499	378.06
264.732	391.06
264.964	378.06
265.197	386.06
265.429	399.06
265.661	378.06
265.894	387.06
266.126	401.06
266.358	381.06
266.591	391.06
266.823	397.06
267.055	384.06
267.287	405.06
267.52	397.06
267.752	381.06
267.984	390.06
268.216	391.06
268.448	412.06
268.681	405.06
268.913	418.06
269.145	410.06
269.377	427.06
269.609	397.06
269.841	423.06
270.073	411.06
270.306	413.06
270.538	421.06
270.77	420.06
271.002	423.06
271.234	436.06
271.466	422.06
271.698	425.06
271.93	410.06
272.162	423.06
272.394	427.06
272.626	419.06
272.858	416.06
273.09	447.06
273.322	424.06
273.553	426.06
273.785	423.06
274.017	443.06
274.249	435.06
274.481	476.06
274.713	438.06
274.945	439.06
275.176	429.06
275.408	457.06
275.64	459.06
275.872	463.06
276.104	456.06
276.335	456.06
276.567	459.06
276.799	457.06
277.031	452.06
277.262	443.06
277.494	437.06
277.726	472.06
277.957	464.06
278.189	479.06
278.421	458.06
278.652	468.06
278.884	503.06
279.115	475.06
279.347	485.06
279.579	469.06
279.81	463.06
280.042	476.06
280.273	497.06
280.505	489.06
280.736	511.06
280.968	487.06
281.199	494.06
281.431	522.06
281.662	499.06
281.894	472.06
282.125	499.06
282.356	517.06
282.588	518.06
282.819	524.06
283.051	499.06
283.282	492.06
283.513	497.06
283.745	507.06
283.976	507.06
284.207	505.06
284.439	510.06
284.67	536.06
284.901	529.06
285.132	503.06
285.364	517.06
285.595	543.06
285.826	545.06
286.057	539.06
286.288	536.06
286.52	539.06
286.751	538.06
286.982	546.06
287.213	554.06
287.444	518.06
287.675	542.06
287.906	544.06
288.138	568.06
288.369	563.06
288.6	586.06
288.831	572.06
289.062	555.06
289.293	565.06
289.524	568.06
289.755	548.06
289.986	561.06
290.217	584.06
290.448	561.06
290.679	546.06
290.91	570.06
291.141	565.06
291.371	572.06
291.602	570.06
291.833	557.06
292.064	559.06
292.295	561.06
292.526	583.06
292.757	571.06
292.987	556.06
293.218	584.06
293.449	596.06
293.68	571.06
293.91	565.06
294.141	556.06
294.372	584.06
294.603	593.06
294.833	564.06
295.064	587.06
295.295	592.06
295.525	586.06
295.756	571.06
295.987	588.06
296.217	572.06
296.448	602.06
296.679	620.06
296.909	603.06
297.14	606.06
297.37	620.06
297.601	608.06
297.831	617.06
298.062	634.06
298.292	633.06
298.523	653.06
298.753	647.06
298.984	635.06
299.214	656.06
299.445	637.06
299.675	623.06
299.905	603.06
300.136	620.06
300.366	638.06
300.597	634.06
300.827	648.06
301.057	637.06
301.288	665.06
301.518	661.06
301.748	649.06
301.979	652.06
302.209	647.06
302.439	657.06
302.669	644.06
302.9	622.06
303.13	626.06
303.36	646.06
303.59	651.06
303.82	653.06
304.051	643.06
304.281	651.06
304.511	672.06
304.741	635.06
304.971	652.06
305.201	639.06
305.431	629.06
305.661	643.06
305.891	661.06
306.121	643.06
306.352	632.06
306.582	609.06
306.812	615.06
307.042	643.06
307.272	641.06
307.502	618.06
307.731	645.06
307.961	621.06
308.191	638.06
308.421	619.06
308.651	630.06
308.881	639.06
309.111	642.06
309.341	647.06
309.571	639.06
309.8	634.06
310.03	635.06
310.26	641.06
310.49	628.06
310.72	637.06
310.949	637.06
311.179	643.06
311.409	617.06
311.639	643.06
311.868	646.06
312.098	625.06
312.328	666.06
312.557	664.06
312.787	633.06
313.017	680.06
313.246	671.06
313.476	678.06
313.706	665.06
313.935	680.06
314.165	679.06
314.394	694.06
314.624	678.06
314.853	681.06
315.083	663.06
315.312	664.06
315.542	653.06
315.771	657.06
316.001	683.06
316.23	656.06
316.46	645.06
316.689	634.06
316.919	650.06
317.148	641.06
317.377	649.06
317.607	651.06
317.836	652.06
318.065	654.06
318.295	657.06
318.524	639.06
318.753	648.06
318.983	656.06
319.212	641.06
319.441	662.06
319.67	655.06
319.9	658.06
320.129	667.06
320.358	647.06
320.587	636.06
320.816	670.06
321.046	670.06
321.275	643.06
321.504	677.06
321.733	677.06
321.962	652.06
322.191	661.06
322.42	673.06
322.649	674.06
322.878	683.06
323.108	640.06
323.337	671.06
323.566	658.06
323.795	681.06
324.024	670.06
324.253	665.06
324.482	652.06
324.71	679.06
324.939	670.06
325.168	672.06
325.397	697.06
325.626	693.06
325.855	689.06
326.084	695.06
326.313	703.06
326.542	717.06
326.77	760.06
326.999	724.06
327.228	744.06
327.457	714.06
327.686	698.06
327.914	721.06
328.143	693.06
328.372	697.06
328.6	718.06
328.829	714.06
329.058	727.06
329.287	739.06
329.515	770.06
329.744	735.06
329.972	744.06
330.201	736.06
330.43	733.06
330.658	750.06
330.887	755.06
331.115	763.06
331.344	741.06
331.572	774.06
331.801	787.06
332.03	797.06
332.258	824.06
332.486	847.06
332.715	886.06
332.943	884.06
333.172	947.06
333.4	991.06
333.629	1003.06
333.857	1016.06
334.085	985.06
334.314	971.06
334.542	923.06
334.771	935.06
334.999	939.06
335.227	909.06
335.455	900.06
335.684	893.06
335.912	896.06
336.14	871.06
336.369	856.06
336.597	845.06
336.825	873.06
337.053	872.06
337.281	857.06
337.51	860.06
337.738	823.06
337.966	825.06
338.194	829.06
338.422	804.06
338.65	810.06
338.878	798.06
339.106	778.06
339.334	809.06
339.562	791.06
339.79	779.06
340.018	766.06
340.246	752.06
340.474	748.06
340.702	728.06
340.93	740.06
341.158	781.06
341.386	733.06
341.614	762.06
341.842	760.06
342.07	760.06
342.298	747.06
342.526	763.06
342.754	748.06
342.981	736.06
343.209	767.06
343.437	808.06
343.665	862.06
343.893	933.06
344.12	970.06
344.348	931.06
344.576	874.06
344.804	852.06
345.031	779.06
345.259	793.06
345.487	745.06
345.714	775.06
345.942	734.06
346.17	729.06
346.397	739.06
346.625	725.06
346.853	733.06
347.08	733.06
347.308	750.06
347.535	737.06
347.763	774.06
347.99	748.06
348.218	782.06
348.445	748.06
348.673	752.06
348.9	739.06
349.128	744.06
349.355	720.06
349.583	749.06
349.81	735.06
350.037	717.06
350.265	737.06
350.492	729.06
350.72	684.06
350.947	706.06
351.174	726.06
351.402	725.06
351.629	711.06
351.856	707.06
352.083	727.06
352.311	718.06
352.538	704.06
352.765	681.06
352.992	702.06
353.22	706.06
353.447	721.06
353.674	695.06
353.901	682.06
354.128	693.06
354.355	688.06
354.583	699.06
354.81	718.06
355.037	720.06
355.264	729.06
355.491	706.06
355.718	724.06
355.945	723.06
356.172	712.06
356.399	730.06
356.626	719.06
356.853	714.06
357.08	717.06
357.307	719.06
357.534	727.06
357.761	729.06
357.988	718.06
358.215	723.06
358.441	702.06
358.668	713.06
358.895	715.06
359.122	727.06
359.349	681.06
359.576	727.06
359.802	730.06
360.029	695.06
360.256	711.06
360.483	725.06
360.709	716.06
360.936	724.06
361.163	722.06
361.39	701.06
361.616	720.06
361.843	727.06
362.07	717.06
362.296	695.06
362.523	688.06
362.749	722.06
362.976	705.06
363.203	717.06
363.429	688.06
363.656	701.06
363.882	707.06
364.109	734.06
364.335	698.06
364.562	712.06
364.788	715.06
365.015	708.06
365.241	691.06
365.468	699.06
365.694	713.06
365.92	720.06
366.147	732.06
366.373	717.06
366.599	726.06
366.826	710.06
367.052	692.06
367.278	706.06
367.505	694.06
367.731	698.06
367.957	703.06
368.184	698.06
368.41	728.06
368.636	709.06
368.862	747.06
369.089	714.06
369.315	728.06
369.541	726.06
369.767	735.06
369.993	726.06
370.219	728.06
370.445	773.06
370.672	755.06
370.898	741.06
371.124	740.06
371.35	774.06
371.576	769.06
371.802	779.06
372.028	762.06
372.254	776.06
372.48	773.06
372.706	791.06
372.932	803.06
373.158	782.06
373.384	760.06
373.61	782.06
373.835	752.06
374.061	769.06
374.287	800.06
374.513	788.06
374.739	822.06
374.965	840.06
375.191	863.06
375.416	868.06
375.642	849.06
375.868	847.06
376.094	804.06
376.319	793.06
376.545	780.06
376.771	791.06
376.997	762.06
377.222	763.06
377.448	775.06
377.674	777.06
377.899	771.06
378.125	779.06
378.35	764.06
378.576	742.06
378.802	784.06
379.027	776.06
379.253	781.06
379.478	778.06
379.704	762.06
379.929	782.06
380.155	765.06
380.38	781.06
380.606	754.06
380.831	772.06
381.057	774.06
381.282	773.06
381.507	781.06
381.733	764.06
381.958	782.06
382.184	790.06
382.409	797.06
382.634	805.06
382.86	816.06
383.085	848.06
383.31	831.06
383.535	861.06
383.761	870.06
383.986	897.06
384.211	895.06
384.436	917.06
384.662	938.06
384.887	954.06
385.112	909.06
385.337	947.06
385.562	928.06
385.787	932.06
386.013	920.06
386.238	947.06
386.463	953.06
386.688	948.06
386.913	912.06
387.138	911.06
387.363	893.06
387.588	929.06
387.813	917.06
388.038	906.06
388.263	916.06
388.488	932.06
388.713	913.06
388.938	902.06
389.163	901.06
389.387	886.06
389.612	894.06
389.837	876.06
390.062	899.06
390.287	914.06
390.512	933.06
390.736	930.06
390.961	944.06
391.186	956.06
391.411	977.06
391.636	1015.06
391.86	1035.06
392.085	1061.06
392.31	1040.06
392.534	1004.06
392.759	997.06
392.984	984.06
393.208	990.06
393.433	951.06
393.658	1002.06
393.882	982.06
394.107	1003.06
394.331	996.06
394.556	1014.06
394.78	982.06
395.005	1015.06
395.229	1006.06
395.454	1025.06
395.678	1059.06
395.903	1036.06
396.127	1032.06
396.352	1001.06
396.576	981.06
396.801	987.06
397.025	975.06
397.249	1005.06
397.474	1026.06
397.698	1034.06
397.922	1023.06
398.147	1037.06
398.371	1054.06
398.595	1102.06
398.82	1135.06
399.044	1219.06
399.268	1344.06
399.492	1565.06
399.717	1821.06
399.941	1863.06
400.165	1604.06
400.389	1399.06
400.613	1307.06
400.837	1233.06
401.062	1154.06
401.286	1167.06
401.51	1159.06
401.734	1139.06
401.958	1168.06
402.182	1197.06
402.406	1191.06
402.63	1222.06
402.854	1251.06
403.078	1284.06
403.302	1299.06
403.526	1342.06
403.75	1384.06
403.974	1366.06
404.198	1384.06
404.422	1363.06
404.645	1388.06
404.869	1370.06
405.093	1344.06
405.317	1291.06
405.541	1305.06
405.765	1271.06
405.988	1288.06
406.212	1295.06
406.436	1269.06
406.66	1332.06
406.883	1274.06
407.107	1405.06
407.331	1445.06
407.555	1504.06
407.778	1537.06
408.002	1480.06
408.226	1448.06
408.449	1410.06
408.673	1345.06
408.896	1337.06
409.12	1311.06
409.344	1339.06
409.567	1321.06
409.791	1344.06
410.014	1309.06
410.238	1329.06
410.461	1320.06
410.685	1305.06
410.908	1292.06
411.132	1235.06
411.355	1219.06
411.578	1241.06
411.802	1212.06
412.025	1219.06
412.249	1237.06
412.472	1230.06
412.695	1181.06
412.919	1152.06
413.142	1153.06
413.365	1156.06
413.589	1165.06
413.812	1169.06
414.035	1137.06
414.258	1147.06
414.482	1150.06
414.705	1224.06
414.928	1193.06
415.151	1191.06
415.374	1192.06
415.597	1137.06
415.821	1147.06
416.044	1129.06
416.267	1115.06
416.49	1118.06
416.713	1149.06
416.936	1134.06
417.159	1105.06
417.382	1144.06
417.605	1152.06
417.828	1153.06
418.051	1165.06
418.274	1144.06
418.497	1148.06
418.72	1196.06
418.943	1197.06
419.166	1268.06
419.389	1330.06
419.611	1315.06
419.834	1241.06
420.057	1225.06
420.28	1172.06
420.503	1132.06
420.726	1150.06
420.948	1179.06
421.171	1142.06
421.394	1146.06
421.617	1157.06
421.839	1144.06
422.062	1175.06
422.285	1159.06
422.507	1162.06
422.73	1187.06
422.953	1191.06
423.175	1241.06
423.398	1239.06
423.621	1242.06
423.843	1246.06
424.066	1258.06
424.288	1229.06
424.511	1260.06
424.733	1175.06
424.956	1194.06
425.178	1174.06
425.401	1181.06
425.623	1144.06
425.846	1153.06
426.068	1121.06
426.291	1114.06
426.513	1093.06
426.735	1075.06
426.958	1060.06
427.18	1040.06
427.402	1029.06
427.625	1031.06
427.847	1017.06
428.069	1022.06
428.292	1057.06
428.514	1009.06
428.736	1013.06
428.958	1024.06
429.181	983.06
429.403	991.06
429.625	998.06
429.847	988.06
430.069	1012.06
430.292	998.06
430.514	986.06
430.736	1002.06
430.958	973.06
431.18	985.06
431.402	992.06
431.624	992.06
431.846	1027.06
432.068	1053.06
432.29	1032.06
432.512	1000.06
432.734	1018.06
432.956	1043.06
433.178	1033.06
433.4	1034.06
433.622	1033.06
433.844	1064.06
434.066	1031.06
434.287	1063.06
434.509	1113.06
434.731	1135.06
434.953	1177.06
435.175	1173.06
435.397	1177.06
435.618	1088.06
435.84	1111.06
436.062	1036.06
436.284	1040.06
436.505	1030.06
436.727	1022.06
436.949	1044.06
437.17	1046.06
437.392	1051.06
437.614	1024.06
437.835	982.06
438.057	985.06
438.278	949.06
438.5	992.06
438.721	976.06
438.943	974.06
439.165	995.06
439.386	981.06
439.608	989.06
439.829	1017.06
440.05	1016.06
440.272	1020.06
440.493	1034.06
440.715	1041.06
440.936	1078.06
441.158	1072.06
441.379	1105.06
441.6	1165.06
441.822	1165.06
442.043	1176.06
442.264	1180.06
442.486	1130.06
442.707	1167.06
442.928	1128.06
443.149	1113.06
443.371	1144.06
443.592	1171.06
443.813	1165.06
444.034	1157.06
444.255	1189.06
444.476	1282.06
444.698	1366.06
444.919	1455.06
445.14	1464.06
445.361	1309.06
445.582	1216.06
445.803	1115.06
446.024	1081.06
446.245	1097.06
446.466	1064.06
446.687	1049.06
446.908	1047.06
447.129	993.06
447.35	1005.06
447.571	991.06
447.792	966.06
448.013	992.06
448.234	959.06
448.455	957.06
448.675	922.06
448.896	967.06
449.117	913.06
449.338	931.06
449.559	935.06
449.779	936.06
450	951.06
450.221	942.06
450.442	944.06
450.662	953.06
450.883	980.06
451.104	1005.06
451.324	966.06
451.545	949.06
451.766	948.06
451.986	940.06
452.207	943.06
452.428	930.06
452.648	972.06
452.869	931.06
453.089	925.06
453.31	948.06
453.53	933.06
453.751	942.06
453.971	918.06
454.192	897.06
454.412	913.06
454.633	921.06
454.853	904.06
455.073	908.06
455.294	905.06
455.514	891.06
455.734	869.06
455.955	878.06
456.175	867.06
456.395	892.06
456.616	865.06
456.836	871.06
457.056	865.06
457.276	886.06
457.497	895.06
457.717	877.06
457.937	887.06
458.157	892.06
458.377	908.06
458.598	953.06
458.818	950.06
459.038	961.06
459.258	1023.06
459.478	1059.06
459.698	1081.06
459.918	1109.06
460.138	1163.06
460.358	1219.06
460.578	1226.06
460.798	1232.06
461.018	1264.06
461.238	1218.06
461.458	1223.06
461.678	1239.06
461.898	1247.06
462.118	1232.06
462.338	1293.06
462.558	1339.06
462.777	1382.06
462.997	1515.06
463.217	1688.06
463.437	1759.06
463.657	1576.06
463.876	1464.06
464.096	1443.06
464.316	1435.06
464.536	1482.06
464.755	1420.06
464.975	1374.06
465.195	1278.06
465.414	1223.06
465.634	1132.06
465.854	1110.06
466.073	1060.06
466.293	1053.06
466.512	1018.06
466.732	1022.06
466.951	1010.06
467.171	979.06
467.391	996.06
467.61	1017.06
467.829	965.06
468.049	966.06
468.268	959.06
468.488	943.06
468.707	966.06
468.927	943.06
469.146	923.06
469.365	947.06
469.585	938.06
469.804	1002.06
470.023	1004.06
470.243	1011.06
470.462	1047.06
470.681	1023.06
470.901	1049.06
471.12	1025.06
471.339	1000.06
471.558	963.06
471.777	972.06
471.997	953.06
472.216	979.06
472.435	958.06
472.654	957.06
472.873	928.06
473.092	921.06
473.311	907.06
473.53	915.06
473.749	917.06
473.968	896.06
474.187	913.06
474.406	919.06
474.625	921.06
474.844	903.06
475.063	925.06
475.282	914.06
475.501	927.06
475.72	950.06
475.939	939.06
476.158	943.06
476.377	957.06
476.596	960.06
476.814	992.06
477.033	959.06
477.252	1002.06
477.471	1042.06
477.69	1017.06
477.908	1068.06
478.127	1117.06
478.346	1096.06
478.564	1120.06
478.783	1141.06
479.002	1184.06
479.22	1184.06
479.439	1170.06
479.658	1132.06
479.876	1130.06
480.095	1165.06
480.313	1237.06
480.532	1247.06
480.751	1274.06
480.969	1220.06
481.188	1155.06
481.406	1128.06
481.624	1096.06
481.843	1053.06
482.061	1056.06
482.28	1049.06
482.498	1037.06
482.717	1053.06
482.935	1042.06
483.153	1053.06
483.372	1045.06
483.59	1062.06
483.808	1045.06
484.027	1038.06
484.245	1075.06
484.463	1053.06
484.681	1098.06
484.9	1090.06
485.118	1081.06
485.336	1092.06
485.554	1115.06
485.772	1104.06
485.99	1109.06
486.209	1113.06
486.427	1114.06
486.645	1142.06
486.863	1141.06
487.081	1107.06
487.299	1122.06
487.517	1101.06
487.735	1113.06
487.953	1096.06
488.171	1120.06
488.389	1099.06
488.607	1111.06
488.825	1072.06
489.043	1096.06
489.261	1087.06
489.479	1065.06
489.696	1094.06
489.914	1100.06
490.132	1120.06
490.35	1114.06
490.568	1103.06
490.786	1114.06
491.003	1094.06
491.221	1136.06
491.439	1120.06
491.657	1148.06
491.874	1116.06
492.092	1112.06
492.31	1123.06
492.527	1114.06
492.745	1172.06
492.963	1141.06
493.18	1157.06
493.398	1130.06
493.615	1175.06
493.833	1126.06
494.05	1181.06
494.268	1161.06
494.485	1176.06
494.703	1153.06
494.92	1152.06
495.138	1150.06
495.355	1159.06
495.573	1140.06
495.79	1162.06
496.008	1192.06
496.225	1202.06
496.442	1195.06
496.66	1217.06
