Data from Ni(NO3)2@0.5M.TitratingCurve.Agarose3%dH2O.NegLispCup.LampEnergy10.LIBS07252019_HRD10591_17-58-18-564.txt Node
Date: Thu Jul 25 17:58:18 EDT 2019
User: cochatt
Spectrometer: HR+D1059
Trigger mode: 1
Integration Time (sec): 1.000000E-1
Scans to average: 1
Electric dark correction enabled: true
Nonlinearity correction enabled: false
Boxcar width: 0
XAxis mode: Wavelengths
Number of Pixels in Spectrum: 2048
>>>>>Begin Spectral Data<<<<<
223.165	-19.31
223.4	-19.31
223.635	-19.31
223.869	-9.31
224.104	-20.31
224.338	-13.31
224.573	-29.31
224.808	-13.31
225.042	-10.31
225.277	-13.31
225.511	4.69
225.746	20.69
225.98	10.69
226.215	19.69
226.449	10.69
226.683	16.69
226.918	10.69
227.152	34.69
227.387	33.69
227.621	43.69
227.856	38.69
228.09	39.69
228.324	42.69
228.559	54.69
228.793	82.69
229.027	139.69
229.262	150.69
229.496	140.69
229.73	161.69
229.964	180.69
230.199	208.69
230.433	208.69
230.667	189.69
230.901	197.69
231.136	166.69
231.37	170.69
231.604	174.69
231.838	219.69
232.072	214.69
232.306	202.69
232.541	208.69
232.775	178.69
233.009	175.69
233.243	183.69
233.477	159.69
233.711	169.69
233.945	178.69
234.179	201.69
234.413	187.69
234.647	195.69
234.881	203.69
235.115	198.69
235.349	184.69
235.583	178.69
235.817	168.69
236.051	170.69
236.285	190.69
236.519	192.69
236.753	181.69
236.987	171.69
237.221	170.69
237.455	205.69
237.689	210.69
237.922	214.69
238.156	197.69
238.39	205.69
238.624	187.69
238.858	199.69
239.091	202.69
239.325	202.69
239.559	218.69
239.793	244.69
240.027	232.69
240.26	194.69
240.494	209.69
240.728	207.69
240.961	209.69
241.195	213.69
241.429	221.69
241.662	219.69
241.896	247.69
242.13	259.69
242.363	224.69
242.597	224.69
242.83	227.69
243.064	215.69
243.298	238.69
243.531	223.69
243.765	228.69
243.998	242.69
244.232	251.69
244.465	262.69
244.699	236.69
244.932	234.69
245.166	230.69
245.399	237.69
245.633	233.69
245.866	256.69
246.099	236.69
246.333	251.69
246.566	264.69
246.8	264.69
247.033	258.69
247.266	268.69
247.5	251.69
247.733	258.69
247.966	285.69
248.2	256.69
248.433	277.69
248.666	280.69
248.899	268.69
249.133	282.69
249.366	294.69
249.599	290.69
249.832	278.69
250.066	307.69
250.299	313.69
250.532	287.69
250.765	320.69
250.998	330.69
251.231	336.69
251.465	367.69
251.698	327.69
251.931	335.69
252.164	326.69
252.397	298.69
252.63	328.69
252.863	328.69
253.096	313.69
253.329	315.69
253.562	332.69
253.795	338.69
254.028	341.69
254.261	342.69
254.494	342.69
254.727	335.69
254.96	374.69
255.193	386.69
255.426	364.69
255.659	343.69
255.892	372.69
256.124	356.69
256.357	356.69
256.59	354.69
256.823	362.69
257.056	362.69
257.289	375.69
257.521	366.69
257.754	374.69
257.987	368.69
258.22	376.69
258.452	382.69
258.685	379.69
258.918	386.69
259.151	376.69
259.383	386.69
259.616	401.69
259.849	382.69
260.081	402.69
260.314	393.69
260.547	414.69
260.779	428.69
261.012	411.69
261.244	414.69
261.477	415.69
261.71	415.69
261.942	425.69
262.175	422.69
262.407	436.69
262.64	423.69
262.872	416.69
263.105	440.69
263.337	440.69
263.57	431.69
263.802	446.69
264.035	424.69
264.267	423.69
264.499	441.69
264.732	460.69
264.964	462.69
265.197	445.69
265.429	456.69
265.661	450.69
265.894	448.69
266.126	456.69
266.358	447.69
266.591	431.69
266.823	454.69
267.055	476.69
267.287	451.69
267.52	463.69
267.752	465.69
267.984	457.69
268.216	473.69
268.448	491.69
268.681	498.69
268.913	492.69
269.145	480.69
269.377	491.69
269.609	467.69
269.841	496.69
270.073	494.69
270.306	460.69
270.538	491.69
270.77	476.69
271.002	500.69
271.234	473.69
271.466	482.69
271.698	484.69
271.93	515.69
272.162	504.69
272.394	504.69
272.626	504.69
272.858	510.69
273.09	510.69
273.322	522.69
273.553	524.69
273.785	522.69
274.017	526.69
274.249	535.69
274.481	522.69
274.713	526.69
274.945	513.69
275.176	520.69
275.408	528.69
275.64	554.69
275.872	550.69
276.104	554.69
276.335	555.69
276.567	559.69
276.799	555.69
277.031	556.69
277.262	563.69
277.494	550.69
277.726	562.69
277.957	568.69
278.189	578.69
278.421	561.69
278.652	589.69
278.884	560.69
279.115	582.69
279.347	575.69
279.579	575.69
279.81	571.69
280.042	568.69
280.273	587.69
280.505	581.69
280.736	590.69
280.968	589.69
281.199	575.69
281.431	589.69
281.662	586.69
281.894	584.69
282.125	587.69
282.356	602.69
282.588	597.69
282.819	589.69
283.051	587.69
283.282	600.69
283.513	600.69
283.745	592.69
283.976	622.69
284.207	633.69
284.439	588.69
284.67	629.69
284.901	605.69
285.132	652.69
285.364	590.69
285.595	624.69
285.826	605.69
286.057	616.69
286.288	608.69
286.52	644.69
286.751	636.69
286.982	646.69
287.213	626.69
287.444	648.69
287.675	643.69
287.906	636.69
288.138	638.69
288.369	616.69
288.6	646.69
288.831	627.69
289.062	614.69
289.293	664.69
289.524	620.69
289.755	658.69
289.986	650.69
290.217	638.69
290.448	643.69
290.679	654.69
290.91	662.69
291.141	638.69
291.371	652.69
291.602	650.69
291.833	654.69
292.064	644.69
292.295	644.69
292.526	667.69
292.757	627.69
292.987	642.69
293.218	651.69
293.449	668.69
293.68	675.69
293.91	672.69
294.141	658.69
294.372	650.69
294.603	666.69
294.833	685.69
295.064	675.69
295.295	663.69
295.525	628.69
295.756	668.69
295.987	674.69
296.217	693.69
296.448	681.69
296.679	657.69
296.909	667.69
297.14	686.69
297.37	692.69
297.601	702.69
297.831	681.69
298.062	672.69
298.292	674.69
298.523	722.69
298.753	693.69
298.984	716.69
299.214	691.69
299.445	733.69
299.675	702.69
299.905	718.69
300.136	709.69
300.366	742.69
300.597	796.69
300.827	728.69
301.057	730.69
301.288	758.69
301.518	744.69
301.748	735.69
301.979	747.69
302.209	754.69
302.439	752.69
302.669	738.69
302.9	731.69
303.13	750.69
303.36	726.69
303.59	755.69
303.82	771.69
304.051	759.69
304.281	748.69
304.511	750.69
304.741	779.69
304.971	798.69
305.201	776.69
305.431	814.69
305.661	796.69
305.891	778.69
306.121	804.69
306.352	759.69
306.582	751.69
306.812	785.69
307.042	744.69
307.272	738.69
307.502	775.69
307.731	772.69
307.961	748.69
308.191	780.69
308.421	751.69
308.651	790.69
308.881	772.69
309.111	773.69
309.341	761.69
309.571	790.69
309.8	799.69
310.03	834.69
310.26	858.69
310.49	853.69
310.72	805.69
310.949	806.69
311.179	803.69
311.409	784.69
311.639	810.69
311.868	813.69
312.098	809.69
312.328	796.69
312.557	819.69
312.787	800.69
313.017	824.69
313.246	837.69
313.476	862.69
313.706	861.69
313.935	838.69
314.165	824.69
314.394	812.69
314.624	851.69
314.853	843.69
315.083	864.69
315.312	843.69
315.542	856.69
315.771	857.69
316.001	863.69
316.23	856.69
316.46	877.69
316.689	870.69
316.919	866.69
317.148	884.69
317.377	860.69
317.607	848.69
317.836	869.69
318.065	888.69
318.295	884.69
318.524	875.69
318.753	868.69
318.983	859.69
319.212	881.69
319.441	890.69
319.67	887.69
319.9	894.69
320.129	922.69
320.358	912.69
320.587	894.69
320.816	897.69
321.046	908.69
321.275	905.69
321.504	901.69
321.733	922.69
321.962	922.69
322.191	935.69
322.42	911.69
322.649	936.69
322.878	910.69
323.108	911.69
323.337	919.69
323.566	939.69
323.795	932.69
324.024	929.69
324.253	950.69
324.482	951.69
324.71	948.69
324.939	1005.69
325.168	931.69
325.397	951.69
325.626	985.69
325.855	965.69
326.084	967.69
326.313	972.69
326.542	977.69
326.77	982.69
326.999	995.69
327.228	986.69
327.457	974.69
327.686	994.69
327.914	1003.69
328.143	1005.69
328.372	1020.69
328.6	1003.69
328.829	1008.69
329.058	990.69
329.287	1008.69
329.515	977.69
329.744	1012.69
329.972	1013.69
330.201	985.69
330.43	1021.69
330.658	1017.69
330.887	1019.69
331.115	1012.69
331.344	1044.69
331.572	1020.69
331.801	1078.69
332.03	1030.69
332.258	1082.69
332.486	1052.69
332.715	1072.69
332.943	1054.69
333.172	1082.69
333.4	1096.69
333.629	1094.69
333.857	1130.69
334.085	1122.69
334.314	1143.69
334.542	1106.69
334.771	1132.69
334.999	1124.69
335.227	1146.69
335.455	1142.69
335.684	1134.69
335.912	1122.69
336.14	1147.69
336.369	1147.69
336.597	1155.69
336.825	1144.69
337.053	1166.69
337.281	1152.69
337.51	1154.69
337.738	1145.69
337.966	1174.69
338.194	1173.69
338.422	1146.69
338.65	1128.69
338.878	1164.69
339.106	1121.69
339.334	1150.69
339.562	1145.69
339.79	1096.69
340.018	1123.69
340.246	1086.69
340.474	1088.69
340.702	1112.69
340.93	1120.69
341.158	1126.69
341.386	1153.69
341.614	1198.69
341.842	1163.69
342.07	1114.69
342.298	1107.69
342.526	1131.69
342.754	1110.69
342.981	1114.69
343.209	1130.69
343.437	1141.69
343.665	1183.69
343.893	1168.69
344.12	1145.69
344.348	1163.69
344.576	1143.69
344.804	1195.69
345.031	1152.69
345.259	1127.69
345.487	1148.69
345.714	1158.69
345.942	1158.69
346.17	1209.69
346.397	1183.69
346.625	1122.69
346.853	1106.69
347.08	1068.69
347.308	1106.69
347.535	1100.69
347.763	1096.69
347.99	1066.69
348.218	1071.69
348.445	1085.69
348.673	1038.69
348.9	1090.69
349.128	1083.69
349.355	1132.69
349.583	1112.69
349.81	1080.69
350.037	1051.69
350.265	1055.69
350.492	1070.69
350.72	1046.69
350.947	1045.69
351.174	1115.69
351.402	1119.69
351.629	1152.69
351.856	1129.69
352.083	1086.69
352.311	1076.69
352.538	1138.69
352.765	1153.69
352.992	1064.69
353.22	1044.69
353.447	1002.69
353.674	1022.69
353.901	1047.69
354.128	1035.69
354.355	1022.69
354.583	1050.69
354.81	1043.69
355.037	1043.69
355.264	1044.69
355.491	1059.69
355.718	1019.69
355.945	1028.69
356.172	1055.69
356.399	1057.69
356.626	1078.69
356.853	1091.69
357.08	1081.69
357.307	1061.69
357.534	1066.69
357.761	1034.69
357.988	1063.69
358.215	1040.69
358.441	1011.69
358.668	1044.69
358.895	1037.69
359.122	1065.69
359.349	1037.69
359.576	1046.69
359.802	1093.69
360.029	1078.69
360.256	1060.69
360.483	1054.69
360.709	1076.69
360.936	1064.69
361.163	1042.69
361.39	1054.69
361.616	1065.69
361.843	1113.69
362.07	1143.69
362.296	1127.69
362.523	1070.69
362.749	1052.69
362.976	1051.69
363.203	1051.69
363.429	1049.69
363.656	1063.69
363.882	1057.69
364.109	1093.69
364.335	1063.69
364.562	1058.69
364.788	1072.69
365.015	1074.69
365.241	1076.69
365.468	1056.69
365.694	1046.69
365.92	1054.69
366.147	1056.69
366.373	1065.69
366.599	1078.69
366.826	1058.69
367.052	1089.69
367.278	1067.69
367.505	1086.69
367.731	1070.69
367.957	1067.69
368.184	1048.69
368.41	1068.69
368.636	1082.69
368.862	1090.69
369.089	1067.69
369.315	1093.69
369.541	1113.69
369.767	1103.69
369.993	1096.69
370.219	1069.69
370.445	1090.69
370.672	1080.69
370.898	1082.69
371.124	1110.69
371.35	1085.69
371.576	1097.69
371.802	1114.69
372.028	1112.69
372.254	1120.69
372.48	1118.69
372.706	1106.69
372.932	1099.69
373.158	1136.69
373.384	1129.69
373.61	1152.69
373.835	1126.69
374.061	1123.69
374.287	1165.69
374.513	1107.69
374.739	1144.69
374.965	1148.69
375.191	1131.69
375.416	1154.69
375.642	1100.69
375.868	1126.69
376.094	1117.69
376.319	1098.69
376.545	1106.69
376.771	1109.69
376.997	1115.69
377.222	1099.69
377.448	1102.69
377.674	1115.69
377.899	1071.69
378.125	1076.69
378.35	1106.69
378.576	1090.69
378.802	1090.69
379.027	1077.69
379.253	1097.69
379.478	1085.69
379.704	1094.69
379.929	1099.69
380.155	1074.69
380.38	1092.69
380.606	1118.69
380.831	1109.69
381.057	1107.69
381.282	1107.69
381.507	1101.69
381.733	1099.69
381.958	1123.69
382.184	1140.69
382.409	1092.69
382.634	1126.69
382.86	1131.69
383.085	1124.69
383.31	1140.69
383.535	1135.69
383.761	1119.69
383.986	1124.69
384.211	1142.69
384.436	1146.69
384.662	1131.69
384.887	1154.69
385.112	1189.69
385.337	1199.69
385.562	1154.69
385.787	1182.69
386.013	1229.69
386.238	1226.69
386.463	1185.69
386.688	1182.69
386.913	1198.69
387.138	1212.69
387.363	1226.69
387.588	1200.69
387.813	1194.69
388.038	1195.69
388.263	1195.69
388.488	1210.69
388.713	1226.69
388.938	1189.69
389.163	1181.69
389.387	1230.69
389.612	1210.69
389.837	1237.69
390.062	1251.69
390.287	1199.69
390.512	1210.69
390.736	1199.69
390.961	1232.69
391.186	1222.69
391.411	1234.69
391.636	1208.69
391.86	1239.69
392.085	1254.69
392.31	1259.69
392.534	1237.69
392.759	1276.69
392.984	1238.69
393.208	1279.69
393.433	1303.69
393.658	1271.69
393.882	1269.69
394.107	1192.69
394.331	1210.69
394.556	1236.69
394.78	1262.69
395.005	1269.69
395.229	1261.69
395.454	1285.69
395.678	1266.69
395.903	1267.69
396.127	1315.69
396.352	1270.69
396.576	1275.69
396.801	1292.69
397.025	1300.69
397.249	1294.69
397.474	1328.69
397.698	1354.69
397.922	1342.69
398.147	1303.69
398.371	1356.69
398.595	1317.69
398.82	1379.69
399.044	1395.69
399.268	1434.69
399.492	1482.69
399.717	1477.69
399.941	1496.69
400.165	1493.69
400.389	1499.69
400.613	1470.69
400.837	1405.69
401.062	1421.69
401.286	1443.69
401.51	1425.69
401.734	1356.69
401.958	1391.69
402.182	1377.69
402.406	1374.69
402.63	1372.69
402.854	1388.69
403.078	1410.69
403.302	1383.69
403.526	1426.69
403.75	1391.69
403.974	1378.69
404.198	1352.69
404.422	1389.69
404.645	1401.69
404.869	1430.69
405.093	1388.69
405.317	1402.69
405.541	1434.69
405.765	1431.69
405.988	1403.69
406.212	1436.69
406.436	1414.69
406.66	1463.69
406.883	1450.69
407.107	1503.69
407.331	1494.69
407.555	1522.69
407.778	1528.69
408.002	1535.69
408.226	1546.69
408.449	1541.69
408.673	1466.69
408.896	1466.69
409.12	1480.69
409.344	1486.69
409.567	1463.69
409.791	1464.69
410.014	1478.69
410.238	1452.69
410.461	1459.69
410.685	1447.69
410.908	1460.69
411.132	1469.69
411.355	1384.69
411.578	1440.69
411.802	1414.69
412.025	1417.69
412.249	1435.69
412.472	1403.69
412.695	1399.69
412.919	1399.69
413.142	1445.69
413.365	1423.69
413.589	1425.69
413.812	1396.69
414.035	1382.69
414.258	1362.69
414.482	1391.69
414.705	1371.69
414.928	1386.69
415.151	1386.69
415.374	1380.69
415.597	1399.69
415.821	1366.69
416.044	1340.69
416.267	1352.69
416.49	1348.69
416.713	1365.69
416.936	1330.69
417.159	1359.69
417.382	1345.69
417.605	1326.69
417.828	1286.69
418.051	1331.69
418.274	1311.69
418.497	1316.69
418.72	1343.69
418.943	1326.69
419.166	1412.69
419.389	1496.69
419.611	1429.69
419.834	1388.69
420.057	1365.69
420.28	1331.69
420.503	1339.69
420.726	1316.69
420.948	1302.69
421.171	1319.69
421.394	1363.69
421.617	1311.69
421.839	1345.69
422.062	1320.69
422.285	1293.69
422.507	1343.69
422.73	1308.69
422.953	1369.69
423.175	1325.69
423.398	1312.69
423.621	1325.69
423.843	1347.69
424.066	1343.69
424.288	1337.69
424.511	1334.69
424.733	1342.69
424.956	1332.69
425.178	1314.69
425.401	1334.69
425.623	1325.69
425.846	1340.69
426.068	1300.69
426.291	1312.69
426.513	1279.69
426.735	1310.69
426.958	1306.69
427.18	1306.69
427.402	1302.69
427.625	1318.69
427.847	1299.69
428.069	1290.69
428.292	1324.69
428.514	1317.69
428.736	1300.69
428.958	1311.69
429.181	1288.69
429.403	1258.69
429.625	1312.69
429.847	1298.69
430.069	1285.69
430.292	1262.69
430.514	1275.69
430.736	1343.69
430.958	1290.69
431.18	1282.69
431.402	1286.69
431.624	1294.69
431.846	1309.69
432.068	1288.69
432.29	1309.69
432.512	1286.69
432.734	1336.69
432.956	1273.69
433.178	1334.69
433.4	1344.69
433.622	1334.69
433.844	1317.69
434.066	1343.69
434.287	1327.69
434.509	1311.69
434.731	1352.69
434.953	1366.69
435.175	1372.69
435.397	1423.69
435.618	1373.69
435.84	1336.69
436.062	1347.69
436.284	1324.69
436.505	1318.69
436.727	1300.69
436.949	1311.69
437.17	1330.69
437.392	1336.69
437.614	1306.69
437.835	1286.69
438.057	1271.69
438.278	1247.69
438.5	1271.69
438.721	1267.69
438.943	1280.69
439.165	1257.69
439.386	1294.69
439.608	1304.69
439.829	1295.69
440.05	1306.69
440.272	1308.69
440.493	1317.69
440.715	1355.69
440.936	1327.69
441.158	1342.69
441.379	1334.69
441.6	1361.69
441.822	1353.69
442.043	1343.69
442.264	1335.69
442.486	1333.69
442.707	1334.69
442.928	1322.69
443.149	1324.69
443.371	1365.69
443.592	1421.69
443.813	1391.69
444.034	1334.69
444.255	1362.69
444.476	1380.69
444.698	1406.69
444.919	1425.69
445.14	1522.69
445.361	1459.69
445.582	1373.69
445.803	1376.69
446.024	1339.69
446.245	1310.69
446.466	1318.69
446.687	1279.69
446.908	1305.69
447.129	1269.69
447.35	1302.69
447.571	1286.69
447.792	1227.69
448.013	1244.69
448.234	1224.69
448.455	1238.69
448.675	1218.69
448.896	1238.69
449.117	1226.69
449.338	1218.69
449.559	1197.69
449.779	1237.69
450	1192.69
450.221	1224.69
450.442	1211.69
450.662	1229.69
450.883	1228.69
451.104	1233.69
451.324	1203.69
451.545	1215.69
451.766	1182.69
451.986	1226.69
452.207	1193.69
452.428	1173.69
452.648	1171.69
452.869	1187.69
453.089	1175.69
453.31	1204.69
453.53	1166.69
453.751	1190.69
453.971	1191.69
454.192	1199.69
454.412	1193.69
454.633	1191.69
454.853	1168.69
455.073	1184.69
455.294	1179.69
455.514	1204.69
455.734	1180.69
455.955	1227.69
456.175	1217.69
456.395	1182.69
456.616	1180.69
456.836	1162.69
457.056	1170.69
457.276	1174.69
457.497	1179.69
457.717	1198.69
457.937	1213.69
458.157	1218.69
458.377	1218.69
458.598	1205.69
458.818	1223.69
459.038	1254.69
459.258	1287.69
459.478	1365.69
459.698	1431.69
459.918	1389.69
460.138	1360.69
460.358	1427.69
460.578	1373.69
460.798	1444.69
461.018	1436.69
461.238	1413.69
461.458	1356.69
461.678	1364.69
461.898	1404.69
462.118	1365.69
462.338	1412.69
462.558	1444.69
462.777	1470.69
462.997	1483.69
463.217	1495.69
463.437	1588.69
463.657	1547.69
463.876	1499.69
464.096	1472.69
464.316	1427.69
464.536	1456.69
464.755	1399.69
464.975	1372.69
465.195	1368.69
465.414	1355.69
465.634	1322.69
465.854	1302.69
466.073	1280.69
466.293	1285.69
466.512	1293.69
466.732	1270.69
466.951	1251.69
467.171	1288.69
467.391	1298.69
467.61	1260.69
467.829	1258.69
468.049	1253.69
468.268	1216.69
468.488	1250.69
468.707	1250.69
468.927	1287.69
469.146	1268.69
469.365	1302.69
469.585	1256.69
469.804	1286.69
470.023	1295.69
470.243	1278.69
470.462	1251.69
470.681	1294.69
470.901	1260.69
471.12	1260.69
471.339	1279.69
471.558	1294.69
471.777	1271.69
471.997	1285.69
472.216	1264.69
472.435	1280.69
472.654	1231.69
472.873	1224.69
473.092	1267.69
473.311	1302.69
473.53	1261.69
473.749	1263.69
473.968	1281.69
474.187	1282.69
474.406	1252.69
474.625	1276.69
474.844	1291.69
475.063	1307.69
475.282	1335.69
475.501	1316.69
475.72	1310.69
475.939	1298.69
476.158	1357.69
476.377	1351.69
476.596	1315.69
476.814	1370.69
477.033	1353.69
477.252	1346.69
477.471	1386.69
477.69	1374.69
477.908	1451.69
478.127	1438.69
478.346	1424.69
478.564	1447.69
478.783	1472.69
479.002	1514.69
479.22	1554.69
479.439	1568.69
479.658	1504.69
479.876	1493.69
480.095	1515.69
480.313	1478.69
480.532	1514.69
480.751	1507.69
480.969	1493.69
481.188	1475.69
481.406	1484.69
481.624	1501.69
481.843	1478.69
482.061	1496.69
482.28	1491.69
482.498	1508.69
482.717	1475.69
482.935	1507.69
483.153	1514.69
483.372	1594.69
483.59	1591.69
483.808	1544.69
484.027	1538.69
484.245	1516.69
484.463	1524.69
484.681	1559.69
484.9	1537.69
485.118	1514.69
485.336	1572.69
485.554	1522.69
485.772	1559.69
485.99	1534.69
486.209	1538.69
486.427	1536.69
486.645	1519.69
486.863	1531.69
487.081	1532.69
487.299	1549.69
487.517	1567.69
487.735	1581.69
487.953	1592.69
488.171	1590.69
488.389	1556.69
488.607	1585.69
488.825	1585.69
489.043	1559.69
489.261	1559.69
489.479	1555.69
489.696	1588.69
489.914	1554.69
490.132	1581.69
490.35	1604.69
490.568	1566.69
490.786	1584.69
491.003	1583.69
491.221	1593.69
491.439	1570.69
