Data from Ni(NO3)2Standard.Agarose3%.GreenCap.LampEnergy5.5.E.O_HRD10591_14-41-28-188.txt Node
Date: Mon Jul 22 14:41:28 EDT 2019
User: cochatt
Spectrometer: HR+D1059
Trigger mode: 1
Integration Time (sec): 1.000000E-1
Scans to average: 1
Electric dark correction enabled: true
Nonlinearity correction enabled: false
Boxcar width: 0
XAxis mode: Wavelengths
Number of Pixels in Spectrum: 2048
>>>>>Begin Spectral Data<<<<<
223.165	-16.88
223.4	-16.88
223.635	-16.88
223.869	-11.88
224.104	-32.88
224.338	-13.88
224.573	-23.88
224.808	-5.88
225.042	-16.88
225.277	-5.88
225.511	-1.88
225.746	4.12
225.98	16.12
226.215	4.12
226.449	12.12
226.683	38.12
226.918	13.12
227.152	42.12
227.387	36.12
227.621	34.12
227.856	37.12
228.09	42.12
228.324	49.12
228.559	60.12
228.793	49.12
229.027	58.12
229.262	74.12
229.496	72.12
229.73	66.12
229.964	70.12
230.199	73.12
230.433	69.12
230.667	94.12
230.901	78.12
231.136	70.12
231.37	74.12
231.604	91.12
231.838	102.12
232.072	77.12
232.306	86.12
232.541	87.12
232.775	88.12
233.009	79.12
233.243	89.12
233.477	81.12
233.711	82.12
233.945	88.12
234.179	83.12
234.413	76.12
234.647	72.12
234.881	65.12
235.115	70.12
235.349	83.12
235.583	88.12
235.817	71.12
236.051	92.12
236.285	89.12
236.519	84.12
236.753	76.12
236.987	78.12
237.221	74.12
237.455	76.12
237.689	90.12
237.922	78.12
238.156	80.12
238.39	78.12
238.624	75.12
238.858	75.12
239.091	78.12
239.325	80.12
239.559	89.12
239.793	66.12
240.027	78.12
240.26	79.12
240.494	72.12
240.728	88.12
240.961	56.12
241.195	80.12
241.429	86.12
241.662	85.12
241.896	79.12
242.13	84.12
242.363	77.12
242.597	63.12
242.83	84.12
243.064	70.12
243.298	89.12
243.531	69.12
243.765	89.12
243.998	76.12
244.232	66.12
244.465	81.12
244.699	70.12
244.932	87.12
245.166	81.12
245.399	77.12
245.633	81.12
245.866	60.12
246.099	83.12
246.333	76.12
246.566	65.12
246.8	75.12
247.033	78.12
247.266	82.12
247.5	71.12
247.733	88.12
247.966	86.12
248.2	91.12
248.433	66.12
248.666	68.12
248.899	81.12
249.133	73.12
249.366	89.12
249.599	84.12
249.832	80.12
250.066	73.12
250.299	86.12
250.532	79.12
250.765	86.12
250.998	88.12
251.231	87.12
251.465	60.12
251.698	83.12
251.931	74.12
252.164	84.12
252.397	87.12
252.63	92.12
252.863	71.12
253.096	74.12
253.329	93.12
253.562	81.12
253.795	83.12
254.028	81.12
254.261	86.12
254.494	84.12
254.727	90.12
254.96	78.12
255.193	66.12
255.426	88.12
255.659	75.12
255.892	98.12
256.124	82.12
256.357	85.12
256.59	84.12
256.823	83.12
257.056	79.12
257.289	81.12
257.521	88.12
257.754	83.12
257.987	84.12
258.22	83.12
258.452	76.12
258.685	80.12
258.918	73.12
259.151	73.12
259.383	78.12
259.616	79.12
259.849	81.12
260.081	89.12
260.314	71.12
260.547	66.12
260.779	77.12
261.012	88.12
261.244	94.12
261.477	85.12
261.71	85.12
261.942	99.12
262.175	90.12
262.407	97.12
262.64	100.12
262.872	87.12
263.105	84.12
263.337	65.12
263.57	80.12
263.802	90.12
264.035	72.12
264.267	90.12
264.499	88.12
264.732	78.12
264.964	83.12
265.197	89.12
265.429	82.12
265.661	84.12
265.894	76.12
266.126	91.12
266.358	79.12
266.591	94.12
266.823	86.12
267.055	77.12
267.287	85.12
267.52	91.12
267.752	87.12
267.984	80.12
268.216	79.12
268.448	89.12
268.681	83.12
268.913	86.12
269.145	75.12
269.377	77.12
269.609	98.12
269.841	80.12
270.073	85.12
270.306	88.12
270.538	81.12
270.77	81.12
271.002	79.12
271.234	81.12
271.466	72.12
271.698	80.12
271.93	68.12
272.162	83.12
272.394	87.12
272.626	72.12
272.858	77.12
273.09	90.12
273.322	94.12
273.553	78.12
273.785	94.12
274.017	84.12
274.249	79.12
274.481	94.12
274.713	83.12
274.945	83.12
275.176	83.12
275.408	93.12
275.64	78.12
275.872	82.12
276.104	81.12
276.335	80.12
276.567	88.12
276.799	87.12
277.031	73.12
277.262	81.12
277.494	80.12
277.726	84.12
277.957	87.12
278.189	92.12
278.421	76.12
278.652	92.12
278.884	84.12
279.115	70.12
279.347	94.12
279.579	91.12
279.81	100.12
280.042	86.12
280.273	76.12
280.505	76.12
280.736	72.12
280.968	78.12
281.199	92.12
281.431	82.12
281.662	87.12
281.894	86.12
282.125	90.12
282.356	83.12
282.588	89.12
282.819	87.12
283.051	87.12
283.282	81.12
283.513	90.12
283.745	88.12
283.976	102.12
284.207	93.12
284.439	98.12
284.67	84.12
284.901	90.12
285.132	88.12
285.364	86.12
285.595	91.12
285.826	79.12
286.057	78.12
286.288	71.12
286.52	80.12
286.751	83.12
286.982	77.12
287.213	92.12
287.444	84.12
287.675	89.12
287.906	92.12
288.138	84.12
288.369	78.12
288.6	91.12
288.831	80.12
289.062	90.12
289.293	95.12
289.524	79.12
289.755	95.12
289.986	76.12
290.217	82.12
290.448	80.12
290.679	86.12
290.91	90.12
291.141	85.12
291.371	88.12
291.602	85.12
291.833	95.12
292.064	93.12
292.295	81.12
292.526	85.12
292.757	78.12
292.987	74.12
293.218	85.12
293.449	91.12
293.68	85.12
293.91	79.12
294.141	82.12
294.372	98.12
294.603	69.12
294.833	98.12
295.064	86.12
295.295	105.12
295.525	85.12
295.756	83.12
295.987	96.12
296.217	97.12
296.448	83.12
296.679	82.12
296.909	89.12
297.14	90.12
297.37	83.12
297.601	74.12
297.831	78.12
298.062	90.12
298.292	81.12
298.523	83.12
298.753	97.12
298.984	75.12
299.214	88.12
299.445	93.12
299.675	87.12
299.905	74.12
300.136	64.12
300.366	92.12
300.597	88.12
300.827	79.12
301.057	88.12
301.288	85.12
301.518	91.12
301.748	88.12
301.979	102.12
302.209	94.12
302.439	93.12
302.669	88.12
302.9	80.12
303.13	84.12
303.36	76.12
303.59	86.12
303.82	77.12
304.051	79.12
304.281	88.12
304.511	75.12
304.741	87.12
304.971	72.12
305.201	96.12
305.431	76.12
305.661	90.12
305.891	87.12
306.121	87.12
306.352	99.12
306.582	89.12
306.812	78.12
307.042	92.12
307.272	88.12
307.502	82.12
307.731	102.12
307.961	89.12
308.191	84.12
308.421	91.12
308.651	93.12
308.881	79.12
309.111	96.12
309.341	77.12
309.571	69.12
309.8	79.12
310.03	81.12
310.26	82.12
310.49	78.12
310.72	81.12
310.949	80.12
311.179	103.12
311.409	82.12
311.639	100.12
311.868	82.12
312.098	96.12
312.328	83.12
312.557	95.12
312.787	93.12
313.017	87.12
313.246	80.12
313.476	83.12
313.706	79.12
313.935	89.12
314.165	95.12
314.394	81.12
314.624	98.12
314.853	92.12
315.083	84.12
315.312	83.12
315.542	99.12
315.771	100.12
316.001	81.12
316.23	82.12
316.46	70.12
316.689	93.12
316.919	83.12
317.148	78.12
317.377	85.12
317.607	89.12
317.836	78.12
318.065	90.12
318.295	84.12
318.524	98.12
318.753	78.12
318.983	82.12
319.212	81.12
319.441	79.12
319.67	78.12
319.9	73.12
320.129	92.12
320.358	98.12
320.587	91.12
320.816	80.12
321.046	85.12
321.275	95.12
321.504	94.12
321.733	106.12
321.962	90.12
322.191	95.12
322.42	86.12
322.649	91.12
322.878	88.12
323.108	91.12
323.337	74.12
323.566	88.12
323.795	84.12
324.024	98.12
324.253	75.12
324.482	81.12
324.71	85.12
324.939	91.12
325.168	93.12
325.397	89.12
325.626	96.12
325.855	83.12
326.084	90.12
326.313	94.12
326.542	102.12
326.77	95.12
326.999	88.12
327.228	83.12
327.457	96.12
327.686	89.12
327.914	90.12
328.143	94.12
328.372	86.12
328.6	96.12
328.829	82.12
329.058	86.12
329.287	85.12
329.515	86.12
329.744	95.12
329.972	88.12
330.201	97.12
330.43	86.12
330.658	90.12
330.887	77.12
331.115	86.12
331.344	94.12
331.572	89.12
331.801	81.12
332.03	86.12
332.258	80.12
332.486	85.12
332.715	90.12
332.943	84.12
333.172	89.12
333.4	76.12
333.629	78.12
333.857	92.12
334.085	83.12
334.314	83.12
334.542	74.12
334.771	80.12
334.999	84.12
335.227	85.12
335.455	86.12
335.684	89.12
335.912	81.12
336.14	93.12
336.369	96.12
336.597	86.12
336.825	78.12
337.053	91.12
337.281	93.12
337.51	92.12
337.738	95.12
337.966	87.12
338.194	86.12
338.422	82.12
338.65	83.12
338.878	86.12
339.106	85.12
339.334	80.12
339.562	77.12
339.79	79.12
340.018	96.12
340.246	86.12
340.474	94.12
340.702	86.12
340.93	83.12
341.158	84.12
341.386	78.12
341.614	67.12
341.842	78.12
342.07	79.12
342.298	87.12
342.526	82.12
342.754	90.12
342.981	88.12
343.209	79.12
343.437	103.12
343.665	98.12
343.893	99.12
344.12	90.12
344.348	84.12
344.576	83.12
344.804	80.12
345.031	84.12
345.259	93.12
345.487	76.12
345.714	80.12
345.942	72.12
346.17	85.12
346.397	92.12
346.625	74.12
346.853	80.12
347.08	76.12
347.308	92.12
347.535	88.12
347.763	91.12
347.99	80.12
348.218	90.12
348.445	92.12
348.673	80.12
348.9	88.12
349.128	90.12
349.355	92.12
349.583	75.12
349.81	79.12
350.037	79.12
350.265	91.12
350.492	96.12
350.72	90.12
350.947	78.12
351.174	92.12
351.402	95.12
351.629	101.12
351.856	91.12
352.083	94.12
352.311	92.12
352.538	79.12
352.765	94.12
352.992	80.12
353.22	84.12
353.447	100.12
353.674	83.12
353.901	98.12
354.128	99.12
354.355	76.12
354.583	81.12
354.81	81.12
355.037	86.12
355.264	81.12
355.491	80.12
355.718	74.12
355.945	94.12
356.172	95.12
356.399	85.12
356.626	91.12
356.853	84.12
357.08	101.12
357.307	88.12
357.534	91.12
357.761	84.12
357.988	83.12
358.215	73.12
358.441	87.12
358.668	90.12
358.895	85.12
359.122	93.12
359.349	71.12
359.576	87.12
359.802	74.12
360.029	96.12
360.256	95.12
360.483	100.12
360.709	74.12
360.936	84.12
361.163	90.12
361.39	85.12
361.616	107.12
361.843	75.12
362.07	87.12
362.296	102.12
362.523	104.12
362.749	92.12
362.976	104.12
363.203	91.12
363.429	86.12
363.656	94.12
363.882	80.12
364.109	91.12
364.335	86.12
364.562	87.12
364.788	90.12
365.015	79.12
365.241	89.12
365.468	78.12
365.694	87.12
365.92	95.12
366.147	87.12
366.373	76.12
366.599	76.12
366.826	80.12
367.052	92.12
367.278	85.12
367.505	84.12
367.731	79.12
367.957	86.12
368.184	81.12
368.41	89.12
368.636	90.12
368.862	92.12
369.089	94.12
369.315	96.12
369.541	83.12
369.767	90.12
369.993	94.12
370.219	88.12
370.445	86.12
370.672	80.12
370.898	84.12
371.124	97.12
371.35	86.12
371.576	86.12
371.802	85.12
372.028	92.12
372.254	83.12
372.48	88.12
372.706	88.12
372.932	91.12
373.158	100.12
373.384	97.12
373.61	81.12
373.835	87.12
374.061	78.12
374.287	83.12
374.513	80.12
374.739	99.12
374.965	87.12
375.191	79.12
375.416	77.12
375.642	86.12
375.868	90.12
376.094	102.12
376.319	86.12
376.545	95.12
376.771	91.12
376.997	80.12
377.222	88.12
377.448	71.12
377.674	98.12
377.899	88.12
378.125	84.12
378.35	83.12
378.576	101.12
378.802	91.12
379.027	82.12
379.253	93.12
379.478	91.12
379.704	80.12
379.929	75.12
380.155	80.12
380.38	92.12
380.606	79.12
380.831	70.12
381.057	84.12
381.282	79.12
381.507	98.12
381.733	92.12
381.958	79.12
382.184	89.12
382.409	87.12
382.634	99.12
382.86	102.12
383.085	100.12
383.31	87.12
383.535	86.12
383.761	76.12
383.986	83.12
384.211	89.12
384.436	95.12
384.662	82.12
384.887	87.12
385.112	87.12
385.337	87.12
385.562	85.12
385.787	108.12
386.013	83.12
386.238	75.12
386.463	95.12
386.688	86.12
386.913	84.12
387.138	86.12
387.363	81.12
387.588	80.12
387.813	80.12
388.038	89.12
388.263	85.12
388.488	82.12
388.713	78.12
388.938	84.12
389.163	77.12
389.387	89.12
389.612	90.12
389.837	76.12
390.062	81.12
390.287	88.12
390.512	87.12
390.736	98.12
390.961	82.12
391.186	81.12
391.411	96.12
391.636	90.12
391.86	87.12
392.085	90.12
392.31	89.12
392.534	83.12
392.759	75.12
392.984	77.12
393.208	86.12
393.433	81.12
393.658	86.12
393.882	86.12
394.107	92.12
394.331	84.12
394.556	95.12
394.78	73.12
395.005	80.12
395.229	79.12
395.454	84.12
395.678	88.12
395.903	73.12
396.127	80.12
396.352	91.12
396.576	96.12
396.801	94.12
397.025	80.12
397.249	91.12
397.474	70.12
397.698	76.12
397.922	92.12
398.147	83.12
398.371	84.12
398.595	87.12
398.82	87.12
399.044	81.12
399.268	83.12
399.492	94.12
399.717	85.12
399.941	82.12
400.165	101.12
400.389	89.12
400.613	91.12
400.837	85.12
401.062	89.12
401.286	88.12
401.51	77.12
401.734	79.12
401.958	78.12
402.182	96.12
402.406	85.12
402.63	77.12
402.854	103.12
403.078	77.12
403.302	88.12
403.526	92.12
403.75	85.12
403.974	86.12
404.198	86.12
404.422	71.12
404.645	91.12
404.869	86.12
405.093	107.12
405.317	96.12
405.541	85.12
405.765	71.12
405.988	67.12
406.212	84.12
406.436	85.12
406.66	77.12
406.883	86.12
407.107	95.12
407.331	91.12
407.555	79.12
407.778	82.12
408.002	86.12
408.226	78.12
408.449	79.12
408.673	80.12
408.896	83.12
409.12	75.12
409.344	97.12
409.567	92.12
409.791	91.12
410.014	90.12
410.238	93.12
410.461	86.12
410.685	72.12
410.908	78.12
411.132	103.12
411.355	88.12
411.578	74.12
411.802	94.12
412.025	81.12
412.249	81.12
412.472	93.12
412.695	80.12
412.919	88.12
413.142	91.12
413.365	82.12
413.589	82.12
413.812	77.12
414.035	87.12
414.258	84.12
414.482	87.12
414.705	86.12
414.928	93.12
415.151	77.12
415.374	88.12
415.597	82.12
415.821	94.12
416.044	91.12
416.267	83.12
416.49	90.12
416.713	88.12
416.936	101.12
417.159	84.12
417.382	99.12
417.605	83.12
417.828	88.12
418.051	102.12
418.274	88.12
418.497	89.12
418.72	84.12
418.943	96.12
419.166	94.12
419.389	79.12
419.611	90.12
419.834	93.12
420.057	100.12
420.28	83.12
420.503	92.12
420.726	88.12
420.948	87.12
421.171	101.12
421.394	72.12
421.617	92.12
421.839	88.12
422.062	90.12
422.285	91.12
422.507	94.12
422.73	88.12
422.953	78.12
423.175	92.12
423.398	68.12
423.621	87.12
423.843	70.12
424.066	100.12
424.288	94.12
424.511	90.12
424.733	85.12
424.956	86.12
425.178	86.12
425.401	77.12
425.623	79.12
425.846	82.12
426.068	73.12
426.291	94.12
426.513	80.12
426.735	81.12
426.958	103.12
427.18	101.12
427.402	74.12
427.625	93.12
427.847	86.12
428.069	79.12
428.292	80.12
428.514	81.12
428.736	94.12
428.958	86.12
429.181	62.12
429.403	82.12
429.625	96.12
429.847	96.12
430.069	76.12
430.292	112.12
430.514	99.12
430.736	90.12
430.958	94.12
431.18	87.12
431.402	93.12
431.624	99.12
431.846	88.12
432.068	91.12
432.29	90.12
432.512	86.12
432.734	90.12
432.956	87.12
433.178	98.12
433.4	84.12
433.622	95.12
433.844	97.12
434.066	90.12
434.287	90.12
434.509	86.12
434.731	85.12
434.953	87.12
435.175	80.12
435.397	88.12
435.618	80.12
435.84	87.12
436.062	78.12
436.284	84.12
436.505	83.12
436.727	82.12
436.949	84.12
437.17	87.12
437.392	75.12
437.614	98.12
437.835	103.12
438.057	91.12
438.278	96.12
438.5	96.12
438.721	84.12
438.943	87.12
439.165	93.12
439.386	80.12
439.608	99.12
439.829	98.12
440.05	83.12
440.272	83.12
440.493	90.12
440.715	95.12
440.936	83.12
441.158	90.12
441.379	89.12
441.6	78.12
441.822	89.12
442.043	83.12
442.264	90.12
442.486	79.12
442.707	99.12
442.928	99.12
443.149	70.12
443.371	89.12
443.592	89.12
443.813	68.12
444.034	83.12
444.255	81.12
444.476	89.12
444.698	83.12
444.919	88.12
445.14	184.12
445.361	141.12
445.582	83.12
445.803	90.12
446.024	89.12
446.245	83.12
446.466	74.12
446.687	88.12
446.908	102.12
447.129	94.12
447.35	88.12
447.571	85.12
447.792	90.12
448.013	93.12
448.234	78.12
448.455	77.12
448.675	86.12
448.896	91.12
449.117	87.12
449.338	90.12
449.559	101.12
449.779	88.12
450	83.12
450.221	86.12
450.442	99.12
450.662	90.12
450.883	81.12
451.104	104.12
451.324	80.12
451.545	83.12
451.766	86.12
451.986	82.12
452.207	79.12
452.428	78.12
452.648	98.12
452.869	79.12
453.089	101.12
453.31	79.12
453.53	71.12
453.751	87.12
453.971	80.12
454.192	98.12
454.412	95.12
454.633	79.12
454.853	90.12
455.073	76.12
455.294	78.12
455.514	76.12
455.734	97.12
455.955	82.12
456.175	95.12
456.395	80.12
456.616	80.12
456.836	93.12
457.056	76.12
457.276	86.12
457.497	68.12
457.717	77.12
457.937	88.12
458.157	95.12
458.377	100.12
458.598	87.12
458.818	74.12
459.038	79.12
459.258	88.12
459.478	90.12
459.698	86.12
459.918	89.12
460.138	89.12
460.358	84.12
460.578	90.12
460.798	84.12
461.018	79.12
461.238	84.12
461.458	100.12
461.678	100.12
461.898	84.12
462.118	91.12
462.338	78.12
462.558	83.12
462.777	85.12
462.997	84.12
463.217	86.12
463.437	89.12
463.657	90.12
463.876	92.12
464.096	91.12
464.316	104.12
464.536	98.12
464.755	93.12
464.975	77.12
465.195	81.12
465.414	86.12
465.634	81.12
465.854	89.12
466.073	89.12
466.293	94.12
466.512	92.12
466.732	93.12
466.951	85.12
467.171	95.12
467.391	84.12
467.61	66.12
467.829	95.12
468.049	80.12
468.268	88.12
468.488	72.12
468.707	90.12
468.927	98.12
469.146	90.12
469.365	92.12
469.585	87.12
469.804	92.12
470.023	85.12
470.243	90.12
470.462	96.12
470.681	96.12
470.901	84.12
471.12	80.12
471.339	87.12
471.558	92.12
471.777	83.12
471.997	115.12
472.216	89.12
472.435	98.12
472.654	105.12
472.873	93.12
473.092	94.12
473.311	92.12
473.53	75.12
473.749	90.12
473.968	88.12
474.187	85.12
474.406	75.12
474.625	93.12
474.844	91.12
475.063	98.12
475.282	87.12
475.501	108.12
475.72	115.12
475.939	91.12
476.158	87.12
476.377	96.12
476.596	97.12
476.814	87.12
477.033	87.12
477.252	89.12
477.471	90.12
477.69	95.12
477.908	92.12
478.127	91.12
478.346	92.12
478.564	79.12
478.783	92.12
479.002	87.12
479.22	91.12
479.439	104.12
479.658	99.12
479.876	93.12
480.095	83.12
480.313	93.12
480.532	85.12
480.751	78.12
480.969	80.12
481.188	101.12
481.406	90.12
481.624	87.12
481.843	85.12
482.061	84.12
482.28	86.12
482.498	96.12
482.717	96.12
482.935	99.12
483.153	85.12
483.372	84.12
483.59	93.12
483.808	82.12
484.027	84.12
484.245	117.12
484.463	86.12
484.681	96.12
484.9	100.12
485.118	94.12
485.336	91.12
485.554	91.12
485.772	82.12
485.99	101.12
486.209	88.12
486.427	86.12
486.645	86.12
486.863	104.12
487.081	102.12
487.299	98.12
487.517	105.12
487.735	95.12
487.953	102.12
488.171	91.12
488.389	96.12
488.607	99.12
488.825	82.12
489.043	101.12
489.261	106.12
489.479	88.12
489.696	111.12
489.914	92.12
490.132	94.12
490.35	82.12
490.568	98.12
490.786	98.12
491.003	83.12
491.221	85.12
491.439	101.12
491.657	107.12
491.874	90.12
492.092	110.12
492.31	104.12
492.527	103.12
492.745	93.12
492.963	102.12
493.18	81.12
493.398	93.12
493.615	88.12
493.833	85.12
494.05	96.12
494.268	97.12
494.485	88.12
494.703	91.12
494.92	110.12
495.138	103.12
495.355	88.12
495.573	109.12
495.79	100.12
496.008	99.12
496.225	85.12
496.442	91.12
496.66	107.12
496.877	96.12
497.094	99.12
497.312	109.12
497.529	105.12
497.746	100.12
497.963	101.12
498.181	91.12
498.398	101.12
498.615	86.12
498.832	118.12
499.049	105.12
499.267	105.12
499.484	91.12
499.701	120.12
499.918	108.12
500.135	120.12
500.352	126.12
500.569	117.12
500.786	115.12
501.003	105.12
501.22	111.12
501.437	117.12
501.654	102.12
501.871	97.12
502.088	108.12
502.305	110.12
502.522	107.12
502.739	97.12
502.956	92.12
503.172	107.12
503.389	95.12
503.606	95.12
503.823	77.12
504.04	105.12
504.256	90.12
504.473	90.12
504.69	89.12
504.907	99.12
505.123	86.12
505.34	99.12
505.557	98.12
505.773	95.12
505.99	96.12
506.207	104.12
506.423	100.12
506.64	99.12
506.856	84.12
507.073	95.12
507.289	103.12
507.506	96.12
507.722	110.12
507.939	89.12
508.155	103.12
508.372	86.12
508.588	103.12
508.805	107.12
509.021	82.12
509.238	90.12
509.454	98.12
509.67	77.12
509.887	80.12
510.103	98.12
510.319	101.12
510.536	80.12
510.752	88.12
510.968	97.12
511.184	93.12
511.401	86.12
511.617	82.12
511.833	90.12
512.049	87.12
512.265	100.12
512.481	81.12
512.698	93.12
512.914	89.12
513.13	98.12
513.346	97.12
513.562	97.12
513.778	95.12
513.994	98.12
514.21	92.12
514.426	86.12
514.642	95.12
514.858	92.12
515.074	103.12
515.29	84.12
515.506	101.12
515.721	94.12
515.937	93.12
516.153	87.12
516.369	94.12
516.585	97.12
516.801	108.12
517.016	90.12
517.232	111.12
517.448	91.12
517.664	91.12
517.879	90.12
