Data from Ni(NO3)2@0.0625M.TitratingCurve.Agarose3%dH2O.NegLispCup.LampEnergy10.LIBS07252019_HRD10591_18-14-16-569.txt Node
Date: Thu Jul 25 18:14:16 EDT 2019
User: cochatt
Spectrometer: HR+D1059
Trigger mode: 1
Integration Time (sec): 1.000000E-1
Scans to average: 1
Electric dark correction enabled: true
Nonlinearity correction enabled: false
Boxcar width: 0
XAxis mode: Wavelengths
Number of Pixels in Spectrum: 2048
>>>>>Begin Spectral Data<<<<<
223.165	-14.62
223.4	-14.62
223.635	-14.62
223.869	-27.62
224.104	-22.62
224.338	-7.62
224.573	-19.62
224.808	-1.62
225.042	-3.62
225.277	-5.62
225.511	6.38
225.746	3.38
225.98	-4.62
226.215	14.38
226.449	20.38
226.683	9.38
226.918	21.38
227.152	32.38
227.387	35.38
227.621	40.38
227.856	46.38
228.09	37.38
228.324	60.38
228.559	54.38
228.793	72.38
229.027	103.38
229.262	116.38
229.496	124.38
229.73	105.38
229.964	130.38
230.199	125.38
230.433	120.38
230.667	142.38
230.901	116.38
231.136	129.38
231.37	142.38
231.604	131.38
231.838	137.38
232.072	135.38
232.306	139.38
232.541	138.38
232.775	148.38
233.009	140.38
233.243	134.38
233.477	135.38
233.711	143.38
233.945	153.38
234.179	156.38
234.413	155.38
234.647	149.38
234.881	136.38
235.115	143.38
235.349	156.38
235.583	144.38
235.817	147.38
236.051	152.38
236.285	161.38
236.519	137.38
236.753	156.38
236.987	150.38
237.221	158.38
237.455	169.38
237.689	153.38
237.922	150.38
238.156	155.38
238.39	159.38
238.624	178.38
238.858	171.38
239.091	164.38
239.325	172.38
239.559	177.38
239.793	171.38
240.027	183.38
240.26	172.38
240.494	174.38
240.728	172.38
240.961	176.38
241.195	185.38
241.429	186.38
241.662	183.38
241.896	182.38
242.13	186.38
242.363	177.38
242.597	181.38
242.83	210.38
243.064	184.38
243.298	180.38
243.531	186.38
243.765	202.38
243.998	187.38
244.232	201.38
244.465	203.38
244.699	230.38
244.932	213.38
245.166	219.38
245.399	215.38
245.633	206.38
245.866	240.38
246.099	211.38
246.333	208.38
246.566	210.38
246.8	209.38
247.033	233.38
247.266	220.38
247.5	230.38
247.733	212.38
247.966	215.38
248.2	249.38
248.433	245.38
248.666	229.38
248.899	214.38
249.133	221.38
249.366	238.38
249.599	233.38
249.832	236.38
250.066	234.38
250.299	239.38
250.532	231.38
250.765	251.38
250.998	250.38
251.231	246.38
251.465	249.38
251.698	254.38
251.931	259.38
252.164	247.38
252.397	266.38
252.63	258.38
252.863	267.38
253.096	253.38
253.329	259.38
253.562	248.38
253.795	263.38
254.028	280.38
254.261	278.38
254.494	278.38
254.727	274.38
254.96	269.38
255.193	266.38
255.426	279.38
255.659	283.38
255.892	281.38
256.124	274.38
256.357	266.38
256.59	284.38
256.823	285.38
257.056	285.38
257.289	294.38
257.521	294.38
257.754	280.38
257.987	302.38
258.22	288.38
258.452	296.38
258.685	284.38
258.918	277.38
259.151	299.38
259.383	301.38
259.616	292.38
259.849	310.38
260.081	310.38
260.314	310.38
260.547	317.38
260.779	308.38
261.012	297.38
261.244	306.38
261.477	309.38
261.71	317.38
261.942	296.38
262.175	326.38
262.407	325.38
262.64	302.38
262.872	320.38
263.105	316.38
263.337	311.38
263.57	323.38
263.802	325.38
264.035	322.38
264.267	334.38
264.499	341.38
264.732	340.38
264.964	344.38
265.197	321.38
265.429	350.38
265.661	353.38
265.894	344.38
266.126	348.38
266.358	335.38
266.591	336.38
266.823	347.38
267.055	346.38
267.287	345.38
267.52	345.38
267.752	371.38
267.984	356.38
268.216	369.38
268.448	361.38
268.681	350.38
268.913	375.38
269.145	372.38
269.377	363.38
269.609	346.38
269.841	352.38
270.073	347.38
270.306	365.38
270.538	360.38
270.77	370.38
271.002	370.38
271.234	377.38
271.466	358.38
271.698	372.38
271.93	371.38
272.162	373.38
272.394	370.38
272.626	387.38
272.858	382.38
273.09	373.38
273.322	360.38
273.553	376.38
273.785	382.38
274.017	388.38
274.249	386.38
274.481	387.38
274.713	396.38
274.945	402.38
275.176	379.38
275.408	426.38
275.64	397.38
275.872	373.38
276.104	417.38
276.335	402.38
276.567	386.38
276.799	404.38
277.031	408.38
277.262	400.38
277.494	388.38
277.726	422.38
277.957	424.38
278.189	413.38
278.421	425.38
278.652	417.38
278.884	419.38
279.115	417.38
279.347	444.38
279.579	434.38
279.81	428.38
280.042	436.38
280.273	418.38
280.505	416.38
280.736	440.38
280.968	428.38
281.199	439.38
281.431	426.38
281.662	409.38
281.894	441.38
282.125	440.38
282.356	450.38
282.588	457.38
282.819	454.38
283.051	459.38
283.282	455.38
283.513	444.38
283.745	459.38
283.976	450.38
284.207	428.38
284.439	425.38
284.67	471.38
284.901	468.38
285.132	478.38
285.364	452.38
285.595	460.38
285.826	452.38
286.057	460.38
286.288	476.38
286.52	477.38
286.751	467.38
286.982	486.38
287.213	466.38
287.444	480.38
287.675	491.38
287.906	489.38
288.138	493.38
288.369	469.38
288.6	491.38
288.831	504.38
289.062	498.38
289.293	509.38
289.524	482.38
289.755	496.38
289.986	491.38
290.217	484.38
290.448	518.38
290.679	514.38
290.91	506.38
291.141	503.38
291.371	493.38
291.602	494.38
291.833	491.38
292.064	494.38
292.295	506.38
292.526	506.38
292.757	503.38
292.987	502.38
293.218	496.38
293.449	520.38
293.68	504.38
293.91	519.38
294.141	514.38
294.372	510.38
294.603	504.38
294.833	501.38
295.064	530.38
295.295	526.38
295.525	520.38
295.756	513.38
295.987	491.38
296.217	527.38
296.448	539.38
296.679	525.38
296.909	541.38
297.14	543.38
297.37	572.38
297.601	557.38
297.831	550.38
298.062	571.38
298.292	562.38
298.523	570.38
298.753	562.38
298.984	561.38
299.214	563.38
299.445	538.38
299.675	554.38
299.905	539.38
300.136	562.38
300.366	552.38
300.597	551.38
300.827	558.38
301.057	568.38
301.288	587.38
301.518	600.38
301.748	576.38
301.979	581.38
302.209	612.38
302.439	572.38
302.669	563.38
302.9	561.38
303.13	552.38
303.36	572.38
303.59	564.38
303.82	544.38
304.051	576.38
304.281	578.38
304.511	572.38
304.741	556.38
304.971	565.38
305.201	550.38
305.431	543.38
305.661	591.38
305.891	551.38
306.121	563.38
306.352	552.38
306.582	530.38
306.812	554.38
307.042	553.38
307.272	539.38
307.502	555.38
307.731	545.38
307.961	562.38
308.191	556.38
308.421	547.38
308.651	541.38
308.881	547.38
309.111	565.38
309.341	547.38
309.571	541.38
309.8	548.38
310.03	554.38
310.26	558.38
310.49	541.38
310.72	537.38
310.949	552.38
311.179	556.38
311.409	557.38
311.639	564.38
311.868	582.38
312.098	568.38
312.328	556.38
312.557	576.38
312.787	557.38
313.017	593.38
313.246	598.38
313.476	604.38
313.706	595.38
313.935	609.38
314.165	630.38
314.394	624.38
314.624	599.38
314.853	581.38
315.083	608.38
315.312	576.38
315.542	588.38
315.771	576.38
316.001	599.38
316.23	578.38
316.46	556.38
316.689	576.38
316.919	581.38
317.148	576.38
317.377	576.38
317.607	577.38
317.836	572.38
318.065	548.38
318.295	571.38
318.524	587.38
318.753	579.38
318.983	597.38
319.212	583.38
319.441	580.38
319.67	566.38
319.9	584.38
320.129	590.38
320.358	584.38
320.587	576.38
320.816	590.38
321.046	584.38
321.275	604.38
321.504	603.38
321.733	579.38
321.962	578.38
322.191	584.38
322.42	585.38
322.649	574.38
322.878	593.38
323.108	568.38
323.337	574.38
323.566	609.38
323.795	593.38
324.024	602.38
324.253	594.38
324.482	606.38
324.71	580.38
324.939	581.38
325.168	612.38
325.397	598.38
325.626	575.38
325.855	623.38
326.084	629.38
326.313	648.38
326.542	638.38
326.77	651.38
326.999	634.38
327.228	608.38
327.457	619.38
327.686	636.38
327.914	656.38
328.143	637.38
328.372	636.38
328.6	619.38
328.829	630.38
329.058	618.38
329.287	616.38
329.515	648.38
329.744	632.38
329.972	647.38
330.201	658.38
330.43	666.38
330.658	645.38
330.887	626.38
331.115	645.38
331.344	665.38
331.572	660.38
331.801	671.38
332.03	686.38
332.258	723.38
332.486	739.38
332.715	762.38
332.943	788.38
333.172	827.38
333.4	851.38
333.629	856.38
333.857	870.38
334.085	862.38
334.314	856.38
334.542	797.38
334.771	828.38
334.999	793.38
335.227	785.38
335.455	808.38
335.684	768.38
335.912	766.38
336.14	745.38
336.369	760.38
336.597	772.38
336.825	791.38
337.053	739.38
337.281	772.38
337.51	730.38
337.738	700.38
337.966	705.38
338.194	716.38
338.422	708.38
338.65	675.38
338.878	681.38
339.106	692.38
339.334	692.38
339.562	700.38
339.79	658.38
340.018	646.38
340.246	640.38
340.474	657.38
340.702	650.38
340.93	657.38
341.158	678.38
341.386	662.38
341.614	669.38
341.842	666.38
342.07	648.38
342.298	650.38
342.526	656.38
342.754	658.38
342.981	657.38
343.209	671.38
343.437	696.38
343.665	743.38
343.893	812.38
344.12	851.38
344.348	786.38
344.576	763.38
344.804	724.38
345.031	698.38
345.259	672.38
345.487	698.38
345.714	675.38
345.942	654.38
346.17	662.38
346.397	676.38
346.625	658.38
346.853	681.38
347.08	634.38
347.308	672.38
347.535	670.38
347.763	684.38
347.99	673.38
348.218	668.38
348.445	688.38
348.673	663.38
348.9	662.38
349.128	622.38
349.355	640.38
349.583	646.38
349.81	640.38
350.037	609.38
350.265	630.38
350.492	618.38
350.72	608.38
350.947	608.38
351.174	626.38
351.402	626.38
351.629	620.38
351.856	624.38
352.083	605.38
352.311	609.38
352.538	624.38
352.765	608.38
352.992	602.38
353.22	615.38
353.447	596.38
353.674	615.38
353.901	619.38
354.128	624.38
354.355	600.38
354.583	644.38
354.81	603.38
355.037	607.38
355.264	624.38
355.491	622.38
355.718	607.38
355.945	605.38
356.172	620.38
356.399	629.38
356.626	638.38
356.853	621.38
357.08	612.38
357.307	625.38
357.534	638.38
357.761	627.38
357.988	636.38
358.215	629.38
358.441	596.38
358.668	619.38
358.895	621.38
359.122	649.38
359.349	610.38
359.576	618.38
359.802	629.38
360.029	621.38
360.256	603.38
360.483	584.38
360.709	631.38
360.936	608.38
361.163	631.38
361.39	628.38
361.616	632.38
361.843	635.38
362.07	630.38
362.296	602.38
362.523	644.38
362.749	626.38
362.976	622.38
363.203	629.38
363.429	610.38
363.656	607.38
363.882	611.38
364.109	600.38
364.335	598.38
364.562	610.38
364.788	633.38
365.015	598.38
365.241	617.38
365.468	612.38
365.694	580.38
365.92	618.38
366.147	615.38
366.373	610.38
366.599	611.38
366.826	633.38
367.052	632.38
367.278	609.38
367.505	624.38
367.731	642.38
367.957	617.38
368.184	610.38
368.41	636.38
368.636	612.38
368.862	613.38
369.089	652.38
369.315	636.38
369.541	637.38
369.767	644.38
369.993	630.38
370.219	646.38
370.445	658.38
370.672	645.38
370.898	648.38
371.124	681.38
371.35	675.38
371.576	692.38
371.802	673.38
372.028	654.38
372.254	676.38
372.48	655.38
372.706	697.38
372.932	702.38
373.158	707.38
373.384	674.38
373.61	666.38
373.835	663.38
374.061	664.38
374.287	697.38
374.513	680.38
374.739	732.38
374.965	709.38
375.191	767.38
375.416	737.38
375.642	724.38
375.868	742.38
376.094	721.38
376.319	700.38
376.545	694.38
376.771	677.38
376.997	686.38
377.222	698.38
377.448	680.38
377.674	661.38
377.899	674.38
378.125	657.38
378.35	670.38
378.576	666.38
378.802	678.38
379.027	674.38
379.253	695.38
379.478	676.38
379.704	674.38
379.929	654.38
380.155	661.38
380.38	684.38
380.606	663.38
380.831	653.38
381.057	654.38
381.282	684.38
381.507	674.38
381.733	680.38
381.958	695.38
382.184	683.38
382.409	695.38
382.634	698.38
382.86	717.38
383.085	725.38
383.31	731.38
383.535	739.38
383.761	726.38
383.986	756.38
384.211	776.38
384.436	813.38
384.662	796.38
384.887	856.38
385.112	828.38
385.337	835.38
385.562	838.38
385.787	812.38
386.013	838.38
386.238	826.38
386.463	812.38
386.688	825.38
386.913	790.38
387.138	825.38
387.363	803.38
387.588	791.38
387.813	787.38
388.038	797.38
388.263	799.38
388.488	801.38
388.713	792.38
388.938	774.38
389.163	780.38
389.387	787.38
389.612	764.38
389.837	780.38
390.062	762.38
390.287	790.38
390.512	802.38
390.736	781.38
390.961	802.38
391.186	836.38
391.411	860.38
391.636	873.38
391.86	892.38
392.085	931.38
392.31	925.38
392.534	890.38
392.759	869.38
392.984	848.38
393.208	844.38
393.433	842.38
393.658	829.38
393.882	830.38
394.107	857.38
394.331	873.38
394.556	876.38
394.78	882.38
395.005	864.38
395.229	876.38
395.454	872.38
395.678	908.38
395.903	908.38
396.127	891.38
396.352	872.38
396.576	858.38
396.801	834.38
397.025	855.38
397.249	896.38
397.474	899.38
397.698	909.38
397.922	883.38
398.147	892.38
398.371	941.38
398.595	924.38
398.82	972.38
399.044	1056.38
399.268	1158.38
399.492	1377.38
399.717	1562.38
399.941	1584.38
400.165	1377.38
400.389	1193.38
400.613	1101.38
400.837	1053.38
401.062	1003.38
401.286	1020.38
401.51	1010.38
401.734	1013.38
401.958	1005.38
402.182	1002.38
402.406	1064.38
402.63	1044.38
402.854	1070.38
403.078	1088.38
403.302	1156.38
403.526	1101.38
403.75	1162.38
403.974	1187.38
404.198	1211.38
404.422	1184.38
404.645	1195.38
404.869	1165.38
405.093	1188.38
405.317	1148.38
405.541	1121.38
405.765	1106.38
405.988	1082.38
406.212	1119.38
406.436	1082.38
406.66	1117.38
406.883	1171.38
407.107	1216.38
407.331	1251.38
407.555	1310.38
407.778	1340.38
408.002	1252.38
408.226	1240.38
408.449	1210.38
408.673	1177.38
408.896	1158.38
409.12	1146.38
409.344	1130.38
409.567	1156.38
409.791	1197.38
410.014	1170.38
410.238	1171.38
410.461	1153.38
410.685	1136.38
410.908	1097.38
411.132	1100.38
411.355	1063.38
411.578	1064.38
411.802	1066.38
412.025	1081.38
412.249	1077.38
412.472	1051.38
412.695	1033.38
412.919	1019.38
413.142	996.38
413.365	996.38
413.589	1026.38
413.812	986.38
414.035	983.38
414.258	1017.38
414.482	989.38
414.705	1006.38
414.928	1011.38
415.151	1032.38
415.374	1046.38
415.597	1005.38
415.821	970.38
416.044	978.38
416.267	988.38
416.49	958.38
416.713	965.38
416.936	989.38
417.159	991.38
417.382	986.38
417.605	997.38
417.828	983.38
418.051	992.38
418.274	1004.38
418.497	993.38
418.72	1038.38
418.943	1028.38
419.166	1089.38
419.389	1172.38
419.611	1132.38
419.834	1088.38
420.057	1069.38
420.28	1020.38
420.503	977.38
420.726	981.38
420.948	995.38
421.171	1034.38
421.394	984.38
421.617	965.38
421.839	982.38
422.062	996.38
422.285	981.38
422.507	1037.38
422.73	1024.38
422.953	1038.38
423.175	1052.38
423.398	1078.38
423.621	1062.38
423.843	1084.38
424.066	1074.38
424.288	1095.38
424.511	1091.38
424.733	1076.38
424.956	1058.38
425.178	1006.38
425.401	1004.38
425.623	994.38
425.846	942.38
426.068	946.38
426.291	926.38
426.513	909.38
426.735	928.38
426.958	952.38
427.18	911.38
427.402	922.38
427.625	896.38
427.847	900.38
428.069	894.38
428.292	918.38
428.514	905.38
428.736	867.38
428.958	918.38
429.181	850.38
429.403	851.38
429.625	842.38
429.847	863.38
430.069	866.38
430.292	882.38
430.514	843.38
430.736	852.38
430.958	872.38
431.18	852.38
431.402	880.38
431.624	864.38
431.846	892.38
432.068	920.38
432.29	916.38
432.512	891.38
432.734	874.38
432.956	864.38
433.178	909.38
433.4	905.38
433.622	894.38
433.844	923.38
434.066	910.38
434.287	900.38
434.509	967.38
434.731	1018.38
434.953	1008.38
435.175	1046.38
435.397	985.38
435.618	932.38
435.84	932.38
436.062	889.38
436.284	921.38
436.505	893.38
436.727	905.38
436.949	892.38
437.17	861.38
437.392	885.38
437.614	887.38
437.835	836.38
438.057	872.38
438.278	855.38
438.5	850.38
438.721	851.38
438.943	851.38
439.165	853.38
439.386	881.38
439.608	867.38
439.829	884.38
440.05	890.38
440.272	901.38
440.493	899.38
440.715	925.38
440.936	925.38
441.158	913.38
441.379	964.38
441.6	1009.38
441.822	1028.38
442.043	1044.38
442.264	1013.38
442.486	997.38
442.707	995.38
442.928	1017.38
443.149	998.38
443.371	1024.38
443.592	1005.38
443.813	1027.38
444.034	1023.38
444.255	1046.38
444.476	1115.38
444.698	1171.38
444.919	1218.38
445.14	1302.38
445.361	1163.38
445.582	1062.38
445.803	991.38
446.024	951.38
446.245	972.38
446.466	924.38
446.687	897.38
446.908	909.38
447.129	887.38
447.35	855.38
447.571	866.38
447.792	840.38
448.013	842.38
448.234	837.38
448.455	827.38
448.675	810.38
448.896	835.38
449.117	800.38
449.338	811.38
449.559	803.38
449.779	819.38
450	818.38
450.221	840.38
450.442	844.38
450.662	855.38
450.883	861.38
451.104	861.38
451.324	895.38
451.545	850.38
451.766	849.38
451.986	881.38
452.207	840.38
452.428	836.38
452.648	810.38
452.869	850.38
453.089	790.38
453.31	849.38
453.53	826.38
453.751	824.38
453.971	817.38
454.192	819.38
454.412	793.38
454.633	808.38
454.853	773.38
455.073	754.38
455.294	794.38
455.514	780.38
455.734	785.38
455.955	743.38
456.175	779.38
456.395	768.38
456.616	765.38
456.836	797.38
457.056	775.38
457.276	760.38
457.497	771.38
457.717	771.38
457.937	777.38
458.157	794.38
458.377	772.38
458.598	811.38
458.818	822.38
459.038	863.38
459.258	873.38
459.478	919.38
459.698	935.38
459.918	989.38
460.138	997.38
460.358	1046.38
460.578	1048.38
460.798	1078.38
461.018	1084.38
461.238	1086.38
461.458	1073.38
461.678	1038.38
461.898	1080.38
462.118	1074.38
462.338	1144.38
462.558	1159.38
462.777	1187.38
462.997	1318.38
463.217	1438.38
463.437	1513.38
463.657	1341.38
463.876	1271.38
464.096	1266.38
464.316	1280.38
464.536	1272.38
464.755	1226.38
464.975	1183.38
465.195	1114.38
465.414	1060.38
465.634	981.38
465.854	936.38
466.073	908.38
466.293	910.38
466.512	911.38
466.732	891.38
466.951	904.38
467.171	887.38
467.391	867.38
467.61	885.38
467.829	864.38
468.049	871.38
468.268	841.38
468.488	833.38
468.707	833.38
468.927	818.38
469.146	816.38
469.365	864.38
469.585	860.38
469.804	892.38
470.023	880.38
470.243	898.38
470.462	917.38
470.681	907.38
470.901	879.38
471.12	874.38
471.339	883.38
471.558	871.38
471.777	852.38
471.997	837.38
472.216	828.38
472.435	837.38
472.654	834.38
472.873	807.38
473.092	797.38
473.311	805.38
473.53	796.38
473.749	790.38
473.968	809.38
474.187	806.38
474.406	807.38
474.625	790.38
474.844	801.38
475.063	808.38
475.282	814.38
475.501	826.38
475.72	812.38
475.939	804.38
476.158	812.38
476.377	825.38
476.596	833.38
476.814	862.38
477.033	867.38
477.252	869.38
477.471	874.38
477.69	897.38
477.908	899.38
478.127	950.38
478.346	935.38
478.564	976.38
478.783	980.38
479.002	993.38
479.22	1022.38
479.439	994.38
479.658	1013.38
479.876	1003.38
480.095	995.38
480.313	1064.38
480.532	1125.38
480.751	1077.38
480.969	1057.38
481.188	1003.38
481.406	987.38
481.624	941.38
481.843	941.38
482.061	924.38
482.28	945.38
482.498	898.38
482.717	890.38
482.935	938.38
483.153	917.38
483.372	918.38
483.59	920.38
483.808	926.38
484.027	893.38
484.245	947.38
484.463	917.38
484.681	952.38
484.9	948.38
485.118	965.38
485.336	948.38
485.554	923.38
485.772	978.38
485.99	991.38
486.209	952.38
486.427	992.38
486.645	995.38
486.863	986.38
487.081	971.38
487.299	969.38
487.517	957.38
487.735	966.38
487.953	964.38
488.171	964.38
488.389	976.38
488.607	924.38
488.825	944.38
489.043	972.38
489.261	953.38
489.479	969.38
489.696	972.38
489.914	985.38
490.132	950.38
490.35	980.38
490.568	964.38
490.786	969.38
491.003	957.38
491.221	971.38
491.439	972.38
491.657	939.38
491.874	922.38
492.092	958.38
492.31	957.38
492.527	970.38
492.745	996.38
492.963	986.38
493.18	981.38
493.398	1008.38
493.615	997.38
493.833	1033.38
494.05	984.38
494.268	1024.38
494.485	1009.38
494.703	1008.38
494.92	1006.38
495.138	1038.38
495.355	1028.38
495.573	1000.38
495.79	1004.38
496.008	1022.38
496.225	1026.38
496.442	1039.38
496.66	1054.38
496.877	1088.38
497.094	1092.38
497.312	1087.38
497.529	1127.38
497.746	1147.38
497.963	1170.38
498.181	1208.38
498.398	1259.38
498.615	1341.38
498.832	1461.38
499.049	1548.38
499.267	1664.38
