Data from Ni(NO3)2@0.25M.TitratingCurve.Agarose3%dH2O.NegLispCup.LampEnergy10.LIBS07252019_HRD10591_18-02-58-565.txt Node
Date: Thu Jul 25 18:02:58 EDT 2019
User: cochatt
Spectrometer: HR+D1059
Trigger mode: 1
Integration Time (sec): 1.000000E-1
Scans to average: 1
Electric dark correction enabled: true
Nonlinearity correction enabled: false
Boxcar width: 0
XAxis mode: Wavelengths
Number of Pixels in Spectrum: 2048
>>>>>Begin Spectral Data<<<<<
223.165	-26.12
223.4	-26.12
223.635	-26.12
223.869	-13.12
224.104	-24.12
224.338	-28.12
224.573	-21.12
224.808	-23.12
225.042	-9.12
225.277	-18.12
225.511	15.88
225.746	-4.12
225.98	30.88
226.215	28.88
226.449	20.88
226.683	12.88
226.918	38.88
227.152	18.88
227.387	44.88
227.621	23.88
227.856	61.88
228.09	36.88
228.324	47.88
228.559	60.88
228.793	70.88
229.027	102.88
229.262	107.88
229.496	85.88
229.73	96.88
229.964	102.88
230.199	118.88
230.433	119.88
230.667	133.88
230.901	108.88
231.136	129.88
231.37	114.88
231.604	119.88
231.838	122.88
232.072	119.88
232.306	130.88
232.541	132.88
232.775	133.88
233.009	125.88
233.243	130.88
233.477	116.88
233.711	122.88
233.945	136.88
234.179	118.88
234.413	121.88
234.647	141.88
234.881	120.88
235.115	130.88
235.349	130.88
235.583	105.88
235.817	117.88
236.051	114.88
236.285	126.88
236.519	119.88
236.753	127.88
236.987	128.88
237.221	121.88
237.455	130.88
237.689	132.88
237.922	114.88
238.156	121.88
238.39	126.88
238.624	124.88
238.858	137.88
239.091	119.88
239.325	114.88
239.559	128.88
239.793	131.88
240.027	139.88
240.26	139.88
240.494	140.88
240.728	130.88
240.961	130.88
241.195	135.88
241.429	135.88
241.662	140.88
241.896	130.88
242.13	144.88
242.363	132.88
242.597	146.88
242.83	157.88
243.064	164.88
243.298	138.88
243.531	131.88
243.765	150.88
243.998	152.88
244.232	146.88
244.465	175.88
244.699	152.88
244.932	164.88
245.166	172.88
245.399	178.88
245.633	170.88
245.866	156.88
246.099	167.88
246.333	159.88
246.566	165.88
246.8	165.88
247.033	176.88
247.266	187.88
247.5	171.88
247.733	183.88
247.966	192.88
248.2	194.88
248.433	180.88
248.666	202.88
248.899	203.88
249.133	220.88
249.366	219.88
249.599	225.88
249.832	231.88
250.066	219.88
250.299	238.88
250.532	239.88
250.765	246.88
250.998	252.88
251.231	258.88
251.465	276.88
251.698	277.88
251.931	269.88
252.164	281.88
252.397	272.88
252.63	279.88
252.863	290.88
253.096	287.88
253.329	300.88
253.562	302.88
253.795	309.88
254.028	336.88
254.261	323.88
254.494	332.88
254.727	341.88
254.96	337.88
255.193	318.88
255.426	345.88
255.659	342.88
255.892	343.88
256.124	344.88
256.357	369.88
256.59	345.88
256.823	356.88
257.056	353.88
257.289	356.88
257.521	382.88
257.754	378.88
257.987	385.88
258.22	386.88
258.452	405.88
258.685	394.88
258.918	402.88
259.151	419.88
259.383	412.88
259.616	405.88
259.849	410.88
260.081	404.88
260.314	424.88
260.547	432.88
260.779	425.88
261.012	429.88
261.244	441.88
261.477	444.88
261.71	403.88
261.942	428.88
262.175	423.88
262.407	438.88
262.64	444.88
262.872	456.88
263.105	440.88
263.337	451.88
263.57	464.88
263.802	470.88
264.035	451.88
264.267	468.88
264.499	459.88
264.732	463.88
264.964	475.88
265.197	459.88
265.429	456.88
265.661	492.88
265.894	477.88
266.126	470.88
266.358	470.88
266.591	459.88
266.823	475.88
267.055	504.88
267.287	482.88
267.52	479.88
267.752	494.88
267.984	489.88
268.216	485.88
268.448	500.88
268.681	476.88
268.913	492.88
269.145	495.88
269.377	488.88
269.609	479.88
269.841	493.88
270.073	477.88
270.306	491.88
270.538	483.88
270.77	482.88
271.002	493.88
271.234	481.88
271.466	488.88
271.698	504.88
271.93	524.88
272.162	507.88
272.394	528.88
272.626	502.88
272.858	493.88
273.09	519.88
273.322	513.88
273.553	512.88
273.785	527.88
274.017	522.88
274.249	507.88
274.481	506.88
274.713	525.88
274.945	521.88
275.176	530.88
275.408	524.88
275.64	506.88
275.872	500.88
276.104	527.88
276.335	520.88
276.567	518.88
276.799	520.88
277.031	523.88
277.262	506.88
277.494	528.88
277.726	540.88
277.957	526.88
278.189	540.88
278.421	550.88
278.652	515.88
278.884	536.88
279.115	527.88
279.347	522.88
279.579	513.88
279.81	533.88
280.042	496.88
280.273	542.88
280.505	540.88
280.736	514.88
280.968	524.88
281.199	531.88
281.431	518.88
281.662	531.88
281.894	528.88
282.125	525.88
282.356	532.88
282.588	532.88
282.819	532.88
283.051	519.88
283.282	522.88
283.513	542.88
283.745	539.88
283.976	534.88
284.207	520.88
284.439	549.88
284.67	544.88
284.901	565.88
285.132	542.88
285.364	536.88
285.595	536.88
285.826	550.88
286.057	545.88
286.288	559.88
286.52	538.88
286.751	540.88
286.982	531.88
287.213	557.88
287.444	544.88
287.675	544.88
287.906	531.88
288.138	551.88
288.369	540.88
288.6	540.88
288.831	527.88
289.062	535.88
289.293	549.88
289.524	539.88
289.755	542.88
289.986	540.88
290.217	541.88
290.448	547.88
290.679	531.88
290.91	554.88
291.141	523.88
291.371	539.88
291.602	556.88
291.833	532.88
292.064	552.88
292.295	543.88
292.526	550.88
292.757	518.88
292.987	541.88
293.218	540.88
293.449	523.88
293.68	531.88
293.91	528.88
294.141	532.88
294.372	525.88
294.603	544.88
294.833	545.88
295.064	546.88
295.295	523.88
295.525	550.88
295.756	559.88
295.987	531.88
296.217	543.88
296.448	555.88
296.679	546.88
296.909	532.88
297.14	543.88
297.37	560.88
297.601	540.88
297.831	519.88
298.062	530.88
298.292	545.88
298.523	563.88
298.753	567.88
298.984	546.88
299.214	540.88
299.445	568.88
299.675	549.88
299.905	534.88
300.136	563.88
300.366	554.88
300.597	571.88
300.827	581.88
301.057	558.88
301.288	572.88
301.518	572.88
301.748	594.88
301.979	592.88
302.209	586.88
302.439	597.88
302.669	580.88
302.9	589.88
303.13	585.88
303.36	591.88
303.59	603.88
303.82	594.88
304.051	612.88
304.281	602.88
304.511	610.88
304.741	610.88
304.971	631.88
305.201	586.88
305.431	623.88
305.661	627.88
305.891	601.88
306.121	609.88
306.352	628.88
306.582	602.88
306.812	630.88
307.042	605.88
307.272	611.88
307.502	618.88
307.731	642.88
307.961	628.88
308.191	639.88
308.421	632.88
308.651	638.88
308.881	666.88
309.111	647.88
309.341	634.88
309.571	635.88
309.8	647.88
310.03	662.88
310.26	664.88
310.49	659.88
310.72	646.88
310.949	666.88
311.179	664.88
311.409	698.88
311.639	687.88
311.868	710.88
312.098	703.88
312.328	714.88
312.557	718.88
312.787	718.88
313.017	728.88
313.246	739.88
313.476	731.88
313.706	749.88
313.935	774.88
314.165	744.88
314.394	761.88
314.624	719.88
314.853	732.88
315.083	773.88
315.312	777.88
315.542	801.88
315.771	796.88
316.001	809.88
316.23	810.88
316.46	814.88
316.689	793.88
316.919	816.88
317.148	851.88
317.377	857.88
317.607	846.88
317.836	859.88
318.065	854.88
318.295	861.88
318.524	861.88
318.753	894.88
318.983	884.88
319.212	892.88
319.441	882.88
319.67	908.88
319.9	916.88
320.129	948.88
320.358	917.88
320.587	942.88
320.816	927.88
321.046	980.88
321.275	983.88
321.504	969.88
321.733	967.88
321.962	992.88
322.191	999.88
322.42	1012.88
322.649	1028.88
322.878	994.88
323.108	1012.88
323.337	1040.88
323.566	1044.88
323.795	1058.88
324.024	1055.88
324.253	1065.88
324.482	1087.88
324.71	1078.88
324.939	1117.88
325.168	1113.88
325.397	1103.88
325.626	1104.88
325.855	1083.88
326.084	1139.88
326.313	1113.88
326.542	1110.88
326.77	1162.88
326.999	1116.88
327.228	1146.88
327.457	1194.88
327.686	1182.88
327.914	1166.88
328.143	1205.88
328.372	1160.88
328.6	1156.88
328.829	1181.88
329.058	1222.88
329.287	1190.88
329.515	1220.88
329.744	1250.88
329.972	1238.88
330.201	1232.88
330.43	1267.88
330.658	1261.88
330.887	1247.88
331.115	1288.88
331.344	1250.88
331.572	1276.88
331.801	1280.88
332.03	1325.88
332.258	1309.88
332.486	1302.88
332.715	1351.88
332.943	1327.88
333.172	1322.88
333.4	1326.88
333.629	1321.88
333.857	1383.88
334.085	1365.88
334.314	1376.88
334.542	1364.88
334.771	1391.88
334.999	1406.88
335.227	1384.88
335.455	1396.88
335.684	1422.88
335.912	1406.88
336.14	1405.88
336.369	1403.88
336.597	1457.88
336.825	1410.88
337.053	1457.88
337.281	1414.88
337.51	1431.88
337.738	1408.88
337.966	1396.88
338.194	1388.88
338.422	1361.88
338.65	1404.88
338.878	1420.88
339.106	1408.88
339.334	1437.88
339.562	1396.88
339.79	1394.88
340.018	1436.88
340.246	1394.88
340.474	1389.88
340.702	1394.88
340.93	1416.88
341.158	1410.88
341.386	1379.88
341.614	1416.88
341.842	1418.88
342.07	1413.88
342.298	1432.88
342.526	1415.88
342.754	1411.88
342.981	1426.88
343.209	1463.88
343.437	1412.88
343.665	1436.88
343.893	1448.88
344.12	1454.88
344.348	1477.88
344.576	1462.88
344.804	1423.88
345.031	1436.88
345.259	1418.88
345.487	1423.88
345.714	1415.88
345.942	1418.88
346.17	1427.88
346.397	1404.88
346.625	1421.88
346.853	1421.88
347.08	1405.88
347.308	1409.88
347.535	1439.88
347.763	1427.88
347.99	1401.88
348.218	1370.88
348.445	1402.88
348.673	1417.88
348.9	1417.88
349.128	1414.88
349.355	1364.88
349.583	1350.88
349.81	1369.88
350.037	1350.88
350.265	1364.88
350.492	1398.88
350.72	1365.88
350.947	1342.88
351.174	1349.88
351.402	1391.88
351.629	1353.88
351.856	1339.88
352.083	1392.88
352.311	1359.88
352.538	1352.88
352.765	1331.88
352.992	1328.88
353.22	1368.88
353.447	1353.88
353.674	1364.88
353.901	1372.88
354.128	1379.88
354.355	1340.88
354.583	1352.88
354.81	1365.88
355.037	1355.88
355.264	1360.88
355.491	1357.88
355.718	1338.88
355.945	1342.88
356.172	1347.88
356.399	1360.88
356.626	1334.88
356.853	1326.88
357.08	1350.88
357.307	1371.88
357.534	1383.88
357.761	1351.88
357.988	1364.88
358.215	1340.88
358.441	1348.88
358.668	1345.88
358.895	1355.88
359.122	1324.88
359.349	1346.88
359.576	1355.88
359.802	1372.88
360.029	1371.88
360.256	1359.88
360.483	1351.88
360.709	1359.88
360.936	1331.88
361.163	1361.88
361.39	1326.88
361.616	1361.88
361.843	1323.88
362.07	1355.88
362.296	1340.88
362.523	1319.88
362.749	1351.88
362.976	1343.88
363.203	1323.88
363.429	1320.88
363.656	1335.88
363.882	1343.88
364.109	1345.88
364.335	1347.88
364.562	1319.88
364.788	1351.88
365.015	1352.88
365.241	1327.88
365.468	1341.88
365.694	1318.88
365.92	1334.88
366.147	1344.88
366.373	1341.88
366.599	1330.88
366.826	1318.88
367.052	1310.88
367.278	1325.88
367.505	1292.88
367.731	1323.88
367.957	1332.88
368.184	1311.88
368.41	1358.88
368.636	1335.88
368.862	1347.88
369.089	1327.88
369.315	1338.88
369.541	1324.88
369.767	1332.88
369.993	1322.88
370.219	1338.88
370.445	1324.88
370.672	1323.88
370.898	1318.88
371.124	1320.88
371.35	1351.88
371.576	1316.88
371.802	1358.88
372.028	1346.88
372.254	1332.88
372.48	1299.88
372.706	1309.88
372.932	1348.88
373.158	1308.88
373.384	1319.88
373.61	1305.88
373.835	1314.88
374.061	1334.88
374.287	1307.88
374.513	1308.88
374.739	1317.88
374.965	1322.88
375.191	1296.88
375.416	1301.88
375.642	1277.88
375.868	1293.88
376.094	1274.88
376.319	1258.88
376.545	1263.88
376.771	1274.88
376.997	1282.88
377.222	1263.88
377.448	1277.88
377.674	1234.88
377.899	1253.88
378.125	1270.88
378.35	1250.88
378.576	1237.88
378.802	1227.88
379.027	1226.88
379.253	1223.88
379.478	1234.88
379.704	1249.88
379.929	1267.88
380.155	1248.88
380.38	1220.88
380.606	1276.88
380.831	1246.88
381.057	1233.88
381.282	1241.88
381.507	1228.88
381.733	1215.88
381.958	1217.88
382.184	1234.88
382.409	1206.88
382.634	1210.88
382.86	1238.88
383.085	1252.88
383.31	1250.88
383.535	1268.88
383.761	1273.88
383.986	1273.88
384.211	1266.88
384.436	1254.88
384.662	1244.88
384.887	1239.88
385.112	1235.88
385.337	1229.88
385.562	1266.88
385.787	1277.88
386.013	1315.88
386.238	1289.88
386.463	1294.88
386.688	1310.88
386.913	1309.88
387.138	1318.88
387.363	1290.88
387.588	1305.88
387.813	1317.88
388.038	1295.88
388.263	1320.88
388.488	1312.88
388.713	1253.88
388.938	1263.88
389.163	1271.88
389.387	1294.88
389.612	1301.88
389.837	1323.88
390.062	1295.88
390.287	1296.88
390.512	1292.88
390.736	1309.88
390.961	1294.88
391.186	1290.88
391.411	1312.88
391.636	1316.88
391.86	1366.88
392.085	1319.88
392.31	1312.88
392.534	1336.88
392.759	1327.88
392.984	1303.88
393.208	1323.88
393.433	1308.88
393.658	1304.88
393.882	1295.88
394.107	1356.88
394.331	1300.88
394.556	1334.88
394.78	1336.88
395.005	1315.88
395.229	1276.88
395.454	1331.88
395.678	1327.88
395.903	1350.88
396.127	1325.88
396.352	1348.88
396.576	1325.88
396.801	1346.88
397.025	1369.88
397.249	1386.88
397.474	1384.88
397.698	1348.88
397.922	1391.88
398.147	1362.88
398.371	1381.88
398.595	1395.88
398.82	1418.88
399.044	1482.88
399.268	1421.88
399.492	1429.88
399.717	1441.88
399.941	1444.88
400.165	1505.88
400.389	1493.88
400.613	1458.88
400.837	1469.88
401.062	1443.88
401.286	1479.88
401.51	1467.88
401.734	1478.88
401.958	1456.88
402.182	1469.88
402.406	1418.88
402.63	1455.88
402.854	1439.88
403.078	1454.88
403.302	1453.88
403.526	1456.88
403.75	1500.88
403.974	1453.88
404.198	1476.88
404.422	1444.88
404.645	1469.88
404.869	1464.88
405.093	1491.88
405.317	1409.88
405.541	1513.88
405.765	1475.88
405.988	1500.88
406.212	1531.88
406.436	1534.88
406.66	1519.88
406.883	1522.88
407.107	1560.88
407.331	1570.88
407.555	1608.88
407.778	1588.88
408.002	1562.88
408.226	1568.88
408.449	1598.88
408.673	1560.88
408.896	1582.88
409.12	1571.88
409.344	1600.88
409.567	1556.88
409.791	1579.88
410.014	1578.88
410.238	1574.88
410.461	1565.88
410.685	1556.88
410.908	1568.88
411.132	1569.88
411.355	1524.88
411.578	1571.88
411.802	1543.88
412.025	1509.88
412.249	1547.88
412.472	1545.88
412.695	1529.88
412.919	1544.88
413.142	1556.88
413.365	1505.88
413.589	1558.88
413.812	1546.88
414.035	1576.88
414.258	1567.88
414.482	1517.88
414.705	1543.88
414.928	1565.88
415.151	1573.88
415.374	1529.88
415.597	1552.88
415.821	1526.88
416.044	1519.88
416.267	1497.88
416.49	1504.88
416.713	1500.88
416.936	1524.88
417.159	1507.88
417.382	1493.88
417.605	1498.88
417.828	1516.88
418.051	1529.88
418.274	1492.88
418.497	1499.88
418.72	1511.88
418.943	1482.88
419.166	1586.88
419.389	1660.88
419.611	1649.88
419.834	1590.88
420.057	1557.88
420.28	1531.88
420.503	1482.88
420.726	1445.88
420.948	1479.88
421.171	1509.88
421.394	1522.88
421.617	1482.88
421.839	1506.88
422.062	1545.88
422.285	1488.88
422.507	1517.88
422.73	1489.88
422.953	1546.88
423.175	1517.88
423.398	1542.88
423.621	1540.88
423.843	1583.88
424.066	1556.88
424.288	1554.88
424.511	1571.88
424.733	1556.88
424.956	1555.88
425.178	1559.88
425.401	1527.88
425.623	1566.88
425.846	1561.88
426.068	1566.88
426.291	1526.88
426.513	1591.88
426.735	1571.88
426.958	1579.88
427.18	1543.88
427.402	1553.88
427.625	1546.88
427.847	1559.88
428.069	1559.88
428.292	1588.88
428.514	1575.88
428.736	1570.88
428.958	1631.88
429.181	1539.88
429.403	1560.88
429.625	1589.88
429.847	1590.88
430.069	1602.88
430.292	1622.88
430.514	1560.88
430.736	1607.88
430.958	1583.88
431.18	1560.88
431.402	1596.88
431.624	1552.88
431.846	1541.88
432.068	1544.88
432.29	1598.88
432.512	1564.88
432.734	1610.88
432.956	1561.88
433.178	1597.88
433.4	1626.88
433.622	1655.88
433.844	1634.88
434.066	1606.88
434.287	1589.88
434.509	1593.88
434.731	1574.88
434.953	1626.88
435.175	1597.88
435.397	1619.88
435.618	1607.88
435.84	1602.88
436.062	1622.88
436.284	1571.88
436.505	1595.88
436.727	1628.88
436.949	1593.88
437.17	1576.88
437.392	1592.88
437.614	1627.88
437.835	1563.88
438.057	1558.88
438.278	1542.88
438.5	1570.88
438.721	1539.88
438.943	1601.88
439.165	1579.88
439.386	1557.88
439.608	1614.88
439.829	1592.88
440.05	1579.88
440.272	1580.88
440.493	1584.88
440.715	1562.88
440.936	1599.88
441.158	1579.88
441.379	1632.88
441.6	1666.88
441.822	1627.88
442.043	1615.88
442.264	1606.88
442.486	1600.88
442.707	1629.88
442.928	1621.88
443.149	1601.88
443.371	1611.88
443.592	1632.88
443.813	1599.88
444.034	1619.88
444.255	1588.88
444.476	1555.88
444.698	1621.88
444.919	1619.88
445.14	1737.88
445.361	1654.88
445.582	1616.88
445.803	1576.88
446.024	1555.88
446.245	1562.88
446.466	1598.88
446.687	1544.88
446.908	1614.88
447.129	1556.88
447.35	1556.88
447.571	1556.88
447.792	1515.88
448.013	1520.88
448.234	1547.88
448.455	1524.88
448.675	1546.88
448.896	1530.88
449.117	1471.88
449.338	1504.88
449.559	1472.88
449.779	1477.88
450	1470.88
450.221	1487.88
450.442	1494.88
450.662	1472.88
450.883	1487.88
451.104	1499.88
451.324	1508.88
451.545	1487.88
451.766	1485.88
451.986	1472.88
452.207	1432.88
452.428	1442.88
452.648	1486.88
452.869	1439.88
453.089	1419.88
453.31	1476.88
453.53	1448.88
453.751	1406.88
453.971	1443.88
454.192	1449.88
454.412	1437.88
454.633	1427.88
454.853	1438.88
455.073	1449.88
455.294	1473.88
455.514	1418.88
455.734	1467.88
455.955	1469.88
456.175	1420.88
456.395	1444.88
456.616	1433.88
456.836	1432.88
457.056	1451.88
457.276	1412.88
457.497	1445.88
457.717	1460.88
457.937	1470.88
458.157	1466.88
458.377	1472.88
458.598	1487.88
458.818	1485.88
459.038	1452.88
459.258	1475.88
459.478	1510.88
459.698	1528.88
459.918	1548.88
460.138	1549.88
460.358	1557.88
460.578	1566.88
460.798	1599.88
461.018	1612.88
461.238	1576.88
461.458	1620.88
461.678	1573.88
461.898	1624.88
462.118	1595.88
462.338	1621.88
462.558	1619.88
462.777	1616.88
462.997	1668.88
463.217	1678.88
463.437	1717.88
463.657	1652.88
463.876	1664.88
464.096	1662.88
464.316	1623.88
464.536	1613.88
464.755	1646.88
464.975	1632.88
465.195	1582.88
465.414	1606.88
465.634	1578.88
465.854	1602.88
466.073	1583.88
466.293	1572.88
466.512	1519.88
466.732	1540.88
466.951	1563.88
467.171	1581.88
467.391	1584.88
467.61	1555.88
467.829	1562.88
468.049	1584.88
468.268	1526.88
468.488	1545.88
468.707	1572.88
468.927	1557.88
469.146	1571.88
469.365	1519.88
469.585	1514.88
469.804	1560.88
470.023	1576.88
470.243	1541.88
470.462	1558.88
470.681	1585.88
470.901	1564.88
471.12	1592.88
471.339	1559.88
471.558	1613.88
471.777	1588.88
471.997	1589.88
472.216	1592.88
472.435	1634.88
472.654	1610.88
472.873	1568.88
473.092	1616.88
473.311	1615.88
473.53	1618.88
473.749	1606.88
473.968	1581.88
474.187	1630.88
474.406	1626.88
474.625	1650.88
474.844	1637.88
475.063	1650.88
475.282	1657.88
475.501	1652.88
475.72	1635.88
475.939	1686.88
476.158	1681.88
476.377	1692.88
476.596	1695.88
476.814	1696.88
477.033	1711.88
477.252	1739.88
477.471	1766.88
477.69	1742.88
477.908	1765.88
478.127	1761.88
478.346	1816.88
478.564	1822.88
478.783	1797.88
479.002	1836.88
479.22	1838.88
479.439	1859.88
479.658	1815.88
479.876	1849.88
480.095	1850.88
480.313	1861.88
480.532	1908.88
480.751	1880.88
480.969	1860.88
481.188	1853.88
481.406	1848.88
481.624	1876.88
481.843	1868.88
482.061	1913.88
482.28	1936.88
482.498	1945.88
482.717	1934.88
482.935	1908.88
483.153	1940.88
483.372	1981.88
483.59	1996.88
483.808	1927.88
484.027	1905.88
484.245	1950.88
484.463	1924.88
484.681	1960.88
484.9	1947.88
485.118	1971.88
485.336	1942.88
485.554	1974.88
485.772	1983.88
485.99	1932.88
486.209	1951.88
486.427	1936.88
486.645	1966.88
486.863	2017.88
487.081	2021.88
487.299	2050.88
487.517	2022.88
487.735	2051.88
487.953	2023.88
488.171	2072.88
488.389	2024.88
488.607	2036.88
488.825	2008.88
489.043	1996.88
489.261	2012.88
489.479	1977.88
489.696	2005.88
489.914	2061.88
490.132	2035.88
490.35	2028.88
490.568	2042.88
490.786	2025.88
491.003	2045.88
491.221	2059.88
