Data from Ni(NO3)2@0.5M.TitratingCurve.Agarose3%dH2O.NegLispCup.LampEnergy10.LIBS07252019_HRD10591_17-58-54-565.txt Node
Date: Thu Jul 25 17:58:54 EDT 2019
User: cochatt
Spectrometer: HR+D1059
Trigger mode: 1
Integration Time (sec): 1.000000E-1
Scans to average: 1
Electric dark correction enabled: true
Nonlinearity correction enabled: false
Boxcar width: 0
XAxis mode: Wavelengths
Number of Pixels in Spectrum: 2048
>>>>>Begin Spectral Data<<<<<
223.165	-8.88
223.4	-8.88
223.635	-8.88
223.869	-1.88
224.104	-12.88
224.338	-21.88
224.573	-21.88
224.808	-9.88
225.042	-2.88
225.277	-11.88
225.511	-13.88
225.746	3.12
225.98	-3.88
226.215	4.12
226.449	18.12
226.683	28.12
226.918	23.12
227.152	33.12
227.387	39.12
227.621	29.12
227.856	42.12
228.09	54.12
228.324	37.12
228.559	58.12
228.793	72.12
229.027	116.12
229.262	142.12
229.496	129.12
229.73	150.12
229.964	178.12
230.199	192.12
230.433	204.12
230.667	178.12
230.901	181.12
231.136	153.12
231.37	165.12
231.604	173.12
231.838	194.12
232.072	180.12
232.306	198.12
232.541	169.12
232.775	154.12
233.009	164.12
233.243	157.12
233.477	151.12
233.711	175.12
233.945	158.12
234.179	157.12
234.413	171.12
234.647	176.12
234.881	179.12
235.115	174.12
235.349	154.12
235.583	143.12
235.817	149.12
236.051	167.12
236.285	160.12
236.519	162.12
236.753	163.12
236.987	163.12
237.221	159.12
237.455	156.12
237.689	155.12
237.922	179.12
238.156	158.12
238.39	161.12
238.624	157.12
238.858	166.12
239.091	180.12
239.325	172.12
239.559	190.12
239.793	216.12
240.027	202.12
240.26	183.12
240.494	170.12
240.728	180.12
240.961	191.12
241.195	187.12
241.429	189.12
241.662	189.12
241.896	226.12
242.13	234.12
242.363	188.12
242.597	200.12
242.83	196.12
243.064	191.12
243.298	207.12
243.531	223.12
243.765	218.12
243.998	204.12
244.232	220.12
244.465	209.12
244.699	195.12
244.932	191.12
245.166	207.12
245.399	203.12
245.633	204.12
245.866	209.12
246.099	198.12
246.333	196.12
246.566	200.12
246.8	208.12
247.033	208.12
247.266	208.12
247.5	203.12
247.733	208.12
247.966	244.12
248.2	256.12
248.433	223.12
248.666	230.12
248.899	238.12
249.133	219.12
249.366	223.12
249.599	235.12
249.832	254.12
250.066	219.12
250.299	238.12
250.532	228.12
250.765	258.12
250.998	263.12
251.231	258.12
251.465	280.12
251.698	277.12
251.931	251.12
252.164	236.12
252.397	262.12
252.63	266.12
252.863	268.12
253.096	275.12
253.329	268.12
253.562	249.12
253.795	283.12
254.028	276.12
254.261	267.12
254.494	291.12
254.727	270.12
254.96	281.12
255.193	290.12
255.426	295.12
255.659	293.12
255.892	281.12
256.124	276.12
256.357	293.12
256.59	290.12
256.823	291.12
257.056	295.12
257.289	284.12
257.521	311.12
257.754	293.12
257.987	303.12
258.22	303.12
258.452	297.12
258.685	281.12
258.918	308.12
259.151	314.12
259.383	319.12
259.616	308.12
259.849	331.12
260.081	313.12
260.314	328.12
260.547	322.12
260.779	332.12
261.012	321.12
261.244	322.12
261.477	317.12
261.71	306.12
261.942	334.12
262.175	323.12
262.407	341.12
262.64	336.12
262.872	328.12
263.105	349.12
263.337	336.12
263.57	351.12
263.802	342.12
264.035	321.12
264.267	348.12
264.499	342.12
264.732	343.12
264.964	346.12
265.197	342.12
265.429	318.12
265.661	356.12
265.894	331.12
266.126	358.12
266.358	340.12
266.591	350.12
266.823	379.12
267.055	356.12
267.287	340.12
267.52	368.12
267.752	358.12
267.984	364.12
268.216	346.12
268.448	371.12
268.681	384.12
268.913	380.12
269.145	376.12
269.377	377.12
269.609	398.12
269.841	366.12
270.073	399.12
270.306	382.12
270.538	362.12
270.77	392.12
271.002	376.12
271.234	371.12
271.466	389.12
271.698	390.12
271.93	391.12
272.162	376.12
272.394	387.12
272.626	392.12
272.858	392.12
273.09	399.12
273.322	405.12
273.553	398.12
273.785	398.12
274.017	384.12
274.249	421.12
274.481	416.12
274.713	408.12
274.945	415.12
275.176	397.12
275.408	408.12
275.64	407.12
275.872	405.12
276.104	436.12
276.335	414.12
276.567	429.12
276.799	438.12
277.031	428.12
277.262	416.12
277.494	416.12
277.726	424.12
277.957	421.12
278.189	457.12
278.421	435.12
278.652	422.12
278.884	442.12
279.115	435.12
279.347	441.12
279.579	462.12
279.81	454.12
280.042	455.12
280.273	452.12
280.505	450.12
280.736	438.12
280.968	454.12
281.199	451.12
281.431	447.12
281.662	444.12
281.894	455.12
282.125	473.12
282.356	462.12
282.588	445.12
282.819	463.12
283.051	443.12
283.282	463.12
283.513	451.12
283.745	471.12
283.976	479.12
284.207	475.12
284.439	471.12
284.67	457.12
284.901	483.12
285.132	476.12
285.364	472.12
285.595	474.12
285.826	474.12
286.057	475.12
286.288	479.12
286.52	485.12
286.751	510.12
286.982	512.12
287.213	501.12
287.444	495.12
287.675	487.12
287.906	485.12
288.138	480.12
288.369	491.12
288.6	516.12
288.831	500.12
289.062	484.12
289.293	496.12
289.524	475.12
289.755	501.12
289.986	510.12
290.217	517.12
290.448	469.12
290.679	503.12
290.91	501.12
291.141	510.12
291.371	504.12
291.602	521.12
291.833	491.12
292.064	520.12
292.295	534.12
292.526	513.12
292.757	510.12
292.987	525.12
293.218	505.12
293.449	534.12
293.68	519.12
293.91	506.12
294.141	510.12
294.372	502.12
294.603	510.12
294.833	515.12
295.064	538.12
295.295	517.12
295.525	520.12
295.756	513.12
295.987	514.12
296.217	546.12
296.448	511.12
296.679	538.12
296.909	526.12
297.14	515.12
297.37	532.12
297.601	535.12
297.831	524.12
298.062	553.12
298.292	574.12
298.523	532.12
298.753	543.12
298.984	526.12
299.214	548.12
299.445	568.12
299.675	563.12
299.905	556.12
300.136	582.12
300.366	608.12
300.597	608.12
300.827	569.12
301.057	598.12
301.288	597.12
301.518	583.12
301.748	598.12
301.979	587.12
302.209	592.12
302.439	575.12
302.669	567.12
302.9	589.12
303.13	574.12
303.36	584.12
303.59	588.12
303.82	595.12
304.051	590.12
304.281	610.12
304.511	593.12
304.741	581.12
304.971	608.12
305.201	637.12
305.431	630.12
305.661	589.12
305.891	628.12
306.121	608.12
306.352	593.12
306.582	610.12
306.812	590.12
307.042	575.12
307.272	581.12
307.502	573.12
307.731	599.12
307.961	586.12
308.191	596.12
308.421	588.12
308.651	606.12
308.881	596.12
309.111	589.12
309.341	596.12
309.571	620.12
309.8	620.12
310.03	636.12
310.26	652.12
310.49	646.12
310.72	639.12
310.949	590.12
311.179	634.12
311.409	630.12
311.639	627.12
311.868	636.12
312.098	638.12
312.328	636.12
312.557	622.12
312.787	638.12
313.017	629.12
313.246	621.12
313.476	676.12
313.706	661.12
313.935	644.12
314.165	637.12
314.394	632.12
314.624	636.12
314.853	634.12
315.083	623.12
315.312	648.12
315.542	635.12
315.771	635.12
316.001	631.12
316.23	666.12
316.46	642.12
316.689	662.12
316.919	656.12
317.148	664.12
317.377	668.12
317.607	647.12
317.836	646.12
318.065	662.12
318.295	661.12
318.524	655.12
318.753	662.12
318.983	660.12
319.212	665.12
319.441	675.12
319.67	670.12
319.9	655.12
320.129	673.12
320.358	681.12
320.587	666.12
320.816	671.12
321.046	659.12
321.275	688.12
321.504	679.12
321.733	692.12
321.962	677.12
322.191	679.12
322.42	681.12
322.649	699.12
322.878	713.12
323.108	681.12
323.337	695.12
323.566	685.12
323.795	700.12
324.024	679.12
324.253	709.12
324.482	724.12
324.71	699.12
324.939	700.12
325.168	731.12
325.397	723.12
325.626	720.12
325.855	726.12
326.084	712.12
326.313	742.12
326.542	727.12
326.77	746.12
326.999	747.12
327.228	731.12
327.457	708.12
327.686	730.12
327.914	742.12
328.143	738.12
328.372	732.12
328.6	758.12
328.829	736.12
329.058	734.12
329.287	719.12
329.515	743.12
329.744	750.12
329.972	758.12
330.201	766.12
330.43	751.12
330.658	776.12
330.887	777.12
331.115	772.12
331.344	782.12
331.572	783.12
331.801	791.12
332.03	789.12
332.258	805.12
332.486	806.12
332.715	796.12
332.943	813.12
333.172	794.12
333.4	808.12
333.629	845.12
333.857	843.12
334.085	874.12
334.314	852.12
334.542	859.12
334.771	839.12
334.999	867.12
335.227	851.12
335.455	861.12
335.684	856.12
335.912	880.12
336.14	873.12
336.369	890.12
336.597	876.12
336.825	856.12
337.053	882.12
337.281	868.12
337.51	863.12
337.738	843.12
337.966	827.12
338.194	847.12
338.422	857.12
338.65	847.12
338.878	808.12
339.106	842.12
339.334	842.12
339.562	844.12
339.79	790.12
340.018	801.12
340.246	780.12
340.474	820.12
340.702	811.12
340.93	811.12
341.158	841.12
341.386	852.12
341.614	902.12
341.842	847.12
342.07	826.12
342.298	816.12
342.526	823.12
342.754	835.12
342.981	835.12
343.209	822.12
343.437	838.12
343.665	849.12
343.893	857.12
344.12	828.12
344.348	844.12
344.576	873.12
344.804	887.12
345.031	860.12
345.259	823.12
345.487	838.12
345.714	842.12
345.942	827.12
346.17	845.12
346.397	859.12
346.625	810.12
346.853	779.12
347.08	801.12
347.308	784.12
347.535	805.12
347.763	785.12
347.99	768.12
348.218	781.12
348.445	783.12
348.673	775.12
348.9	807.12
349.128	799.12
349.355	833.12
349.583	834.12
349.81	769.12
350.037	770.12
350.265	783.12
350.492	776.12
350.72	782.12
350.947	754.12
351.174	807.12
351.402	822.12
351.629	822.12
351.856	822.12
352.083	798.12
352.311	805.12
352.538	857.12
352.765	840.12
352.992	802.12
353.22	752.12
353.447	771.12
353.674	756.12
353.901	742.12
354.128	764.12
354.355	792.12
354.583	752.12
354.81	746.12
355.037	780.12
355.264	751.12
355.491	773.12
355.718	754.12
355.945	774.12
356.172	750.12
356.399	740.12
356.626	810.12
356.853	800.12
357.08	777.12
357.307	770.12
357.534	790.12
357.761	761.12
357.988	775.12
358.215	750.12
358.441	762.12
358.668	781.12
358.895	749.12
359.122	763.12
359.349	764.12
359.576	748.12
359.802	750.12
360.029	784.12
360.256	755.12
360.483	766.12
360.709	772.12
360.936	812.12
361.163	778.12
361.39	791.12
361.616	802.12
361.843	819.12
362.07	834.12
362.296	834.12
362.523	775.12
362.749	781.12
362.976	786.12
363.203	780.12
363.429	740.12
363.656	795.12
363.882	750.12
364.109	754.12
364.335	770.12
364.562	760.12
364.788	791.12
365.015	795.12
365.241	779.12
365.468	789.12
365.694	762.12
365.92	776.12
366.147	790.12
366.373	790.12
366.599	773.12
366.826	782.12
367.052	783.12
367.278	779.12
367.505	791.12
367.731	790.12
367.957	766.12
368.184	792.12
368.41	783.12
368.636	770.12
368.862	794.12
369.089	792.12
369.315	795.12
369.541	808.12
369.767	824.12
369.993	792.12
370.219	806.12
370.445	808.12
370.672	819.12
370.898	820.12
371.124	836.12
371.35	828.12
371.576	821.12
371.802	819.12
372.028	790.12
372.254	836.12
372.48	798.12
372.706	820.12
372.932	841.12
373.158	812.12
373.384	831.12
373.61	822.12
373.835	806.12
374.061	830.12
374.287	830.12
374.513	836.12
374.739	839.12
374.965	837.12
375.191	839.12
375.416	850.12
375.642	808.12
375.868	846.12
376.094	803.12
376.319	820.12
376.545	833.12
376.771	825.12
376.997	802.12
377.222	811.12
377.448	800.12
377.674	823.12
377.899	812.12
378.125	820.12
378.35	824.12
378.576	802.12
378.802	820.12
379.027	799.12
379.253	815.12
379.478	786.12
379.704	822.12
379.929	837.12
380.155	814.12
380.38	813.12
380.606	808.12
380.831	826.12
381.057	839.12
381.282	826.12
381.507	813.12
381.733	781.12
381.958	842.12
382.184	844.12
382.409	851.12
382.634	848.12
382.86	848.12
383.085	845.12
383.31	832.12
383.535	848.12
383.761	853.12
383.986	847.12
384.211	885.12
384.436	868.12
384.662	870.12
384.887	890.12
385.112	884.12
385.337	873.12
385.562	893.12
385.787	911.12
386.013	915.12
386.238	895.12
386.463	935.12
386.688	882.12
386.913	904.12
387.138	912.12
387.363	921.12
387.588	916.12
387.813	942.12
388.038	910.12
388.263	914.12
388.488	925.12
388.713	937.12
388.938	946.12
389.163	927.12
389.387	916.12
389.612	894.12
389.837	936.12
390.062	903.12
390.287	931.12
390.512	922.12
390.736	908.12
390.961	931.12
391.186	948.12
391.411	926.12
391.636	950.12
391.86	971.12
392.085	976.12
392.31	960.12
392.534	944.12
392.759	975.12
392.984	937.12
393.208	917.12
393.433	968.12
393.658	958.12
393.882	955.12
394.107	976.12
394.331	957.12
394.556	954.12
394.78	936.12
395.005	962.12
395.229	955.12
395.454	973.12
395.678	970.12
395.903	949.12
396.127	1001.12
396.352	987.12
396.576	983.12
396.801	963.12
397.025	1000.12
397.249	988.12
397.474	999.12
397.698	983.12
397.922	1062.12
398.147	1027.12
398.371	1044.12
398.595	1057.12
398.82	1051.12
399.044	1084.12
399.268	1132.12
399.492	1157.12
399.717	1223.12
399.941	1252.12
400.165	1182.12
400.389	1200.12
400.613	1163.12
400.837	1133.12
401.062	1096.12
401.286	1094.12
401.51	1079.12
401.734	1080.12
401.958	1070.12
402.182	1080.12
402.406	1075.12
402.63	1066.12
402.854	1042.12
403.078	1066.12
403.302	1085.12
403.526	1063.12
403.75	1111.12
403.974	1124.12
404.198	1107.12
404.422	1102.12
404.645	1086.12
404.869	1085.12
405.093	1105.12
405.317	1088.12
405.541	1111.12
405.765	1111.12
405.988	1125.12
406.212	1158.12
406.436	1108.12
406.66	1184.12
406.883	1165.12
407.107	1210.12
407.331	1209.12
407.555	1229.12
407.778	1228.12
408.002	1251.12
408.226	1193.12
408.449	1219.12
408.673	1179.12
408.896	1169.12
409.12	1162.12
409.344	1152.12
409.567	1131.12
409.791	1148.12
410.014	1152.12
410.238	1117.12
410.461	1116.12
410.685	1119.12
410.908	1145.12
411.132	1136.12
411.355	1103.12
411.578	1123.12
411.802	1129.12
412.025	1116.12
412.249	1084.12
412.472	1107.12
412.695	1097.12
412.919	1074.12
413.142	1115.12
413.365	1087.12
413.589	1122.12
413.812	1094.12
414.035	1076.12
414.258	1081.12
414.482	1094.12
414.705	1056.12
414.928	1069.12
415.151	1096.12
415.374	1074.12
415.597	1068.12
415.821	1058.12
416.044	1061.12
416.267	1051.12
416.49	1024.12
416.713	1028.12
416.936	1054.12
417.159	1061.12
417.382	1026.12
417.605	1028.12
417.828	1039.12
418.051	1023.12
418.274	1040.12
418.497	1029.12
418.72	1040.12
418.943	1037.12
419.166	1063.12
419.389	1158.12
419.611	1137.12
419.834	1110.12
420.057	1067.12
420.28	1076.12
420.503	1026.12
420.726	1067.12
420.948	1024.12
421.171	1027.12
421.394	1010.12
421.617	1027.12
421.839	1032.12
422.062	1062.12
422.285	1013.12
422.507	1058.12
422.73	1018.12
422.953	1023.12
423.175	1027.12
423.398	1061.12
423.621	1031.12
423.843	1011.12
424.066	1034.12
424.288	1003.12
424.511	1031.12
424.733	988.12
424.956	992.12
425.178	1011.12
425.401	1020.12
425.623	1023.12
425.846	1048.12
426.068	1062.12
426.291	1006.12
426.513	1008.12
426.735	1013.12
426.958	1023.12
427.18	1009.12
427.402	1025.12
427.625	1001.12
427.847	1006.12
428.069	1006.12
428.292	1015.12
428.514	1007.12
428.736	1015.12
428.958	1003.12
429.181	987.12
429.403	978.12
429.625	973.12
429.847	973.12
430.069	984.12
430.292	995.12
430.514	974.12
430.736	1014.12
430.958	987.12
431.18	999.12
431.402	1004.12
431.624	974.12
431.846	990.12
432.068	984.12
432.29	1002.12
432.512	983.12
432.734	1026.12
432.956	1034.12
433.178	1053.12
433.4	1063.12
433.622	1061.12
433.844	1077.12
434.066	1053.12
434.287	1026.12
434.509	1050.12
434.731	1040.12
434.953	1056.12
435.175	1059.12
435.397	1050.12
435.618	1023.12
435.84	1010.12
436.062	1023.12
436.284	1014.12
436.505	1005.12
436.727	1015.12
436.949	1020.12
437.17	1019.12
437.392	1022.12
437.614	1016.12
437.835	955.12
438.057	969.12
438.278	934.12
438.5	934.12
438.721	966.12
438.943	1001.12
439.165	964.12
439.386	987.12
439.608	994.12
439.829	994.12
440.05	999.12
440.272	1025.12
440.493	1009.12
440.715	1015.12
440.936	979.12
441.158	1011.12
441.379	1038.12
441.6	1061.12
441.822	1052.12
442.043	1056.12
442.264	1071.12
442.486	1019.12
442.707	1032.12
442.928	1007.12
443.149	1050.12
443.371	1080.12
443.592	1142.12
443.813	1108.12
444.034	1110.12
444.255	1085.12
444.476	1094.12
444.698	1095.12
444.919	1118.12
445.14	1223.12
445.361	1158.12
445.582	1111.12
445.803	1021.12
446.024	1020.12
446.245	1020.12
446.466	1029.12
446.687	989.12
446.908	1003.12
447.129	971.12
447.35	950.12
447.571	959.12
447.792	942.12
448.013	942.12
448.234	913.12
448.455	959.12
448.675	900.12
448.896	946.12
449.117	907.12
449.338	928.12
449.559	949.12
449.779	925.12
450	888.12
450.221	942.12
450.442	924.12
450.662	898.12
450.883	940.12
451.104	951.12
451.324	918.12
451.545	904.12
451.766	934.12
451.986	888.12
452.207	899.12
452.428	924.12
452.648	888.12
452.869	906.12
453.089	891.12
453.31	926.12
453.53	875.12
453.751	879.12
453.971	903.12
454.192	931.12
454.412	916.12
454.633	893.12
454.853	874.12
455.073	855.12
455.294	896.12
455.514	908.12
455.734	905.12
455.955	952.12
456.175	948.12
456.395	892.12
456.616	916.12
456.836	860.12
457.056	884.12
457.276	873.12
457.497	910.12
457.717	936.12
457.937	912.12
458.157	893.12
458.377	898.12
458.598	930.12
458.818	898.12
459.038	946.12
459.258	951.12
459.478	1037.12
459.698	1101.12
459.918	1129.12
460.138	1089.12
460.358	1099.12
460.578	1081.12
460.798	1138.12
461.018	1114.12
461.238	1058.12
461.458	1064.12
461.678	1064.12
461.898	1067.12
462.118	1065.12
462.338	1123.12
462.558	1165.12
462.777	1180.12
462.997	1219.12
463.217	1266.12
463.437	1293.12
463.657	1265.12
463.876	1208.12
464.096	1176.12
464.316	1159.12
464.536	1180.12
464.755	1162.12
464.975	1114.12
465.195	1113.12
465.414	1089.12
465.634	1011.12
465.854	1011.12
466.073	1010.12
466.293	1005.12
466.512	979.12
466.732	983.12
466.951	965.12
467.171	1034.12
467.391	976.12
467.61	963.12
467.829	970.12
468.049	974.12
468.268	949.12
468.488	983.12
468.707	963.12
468.927	965.12
469.146	975.12
469.365	1010.12
469.585	998.12
469.804	956.12
470.023	989.12
470.243	974.12
470.462	962.12
470.681	978.12
470.901	938.12
471.12	966.12
471.339	983.12
471.558	960.12
471.777	968.12
471.997	969.12
472.216	942.12
472.435	932.12
472.654	916.12
472.873	915.12
473.092	945.12
473.311	952.12
473.53	927.12
473.749	960.12
473.968	921.12
474.187	954.12
474.406	948.12
474.625	981.12
474.844	948.12
475.063	996.12
475.282	984.12
475.501	996.12
475.72	972.12
475.939	976.12
476.158	998.12
476.377	999.12
476.596	981.12
476.814	1021.12
477.033	997.12
477.252	1034.12
477.471	1050.12
477.69	1037.12
477.908	1072.12
478.127	1097.12
478.346	1085.12
478.564	1093.12
478.783	1105.12
479.002	1132.12
479.22	1206.12
479.439	1148.12
479.658	1138.12
479.876	1105.12
480.095	1125.12
480.313	1147.12
480.532	1166.12
480.751	1132.12
480.969	1134.12
481.188	1127.12
481.406	1131.12
481.624	1110.12
481.843	1125.12
482.061	1127.12
482.28	1120.12
482.498	1107.12
482.717	1111.12
482.935	1146.12
483.153	1144.12
483.372	1179.12
483.59	1206.12
483.808	1174.12
484.027	1144.12
484.245	1126.12
484.463	1154.12
484.681	1143.12
484.9	1154.12
485.118	1167.12
485.336	1156.12
485.554	1158.12
485.772	1142.12
485.99	1156.12
486.209	1132.12
486.427	1152.12
486.645	1132.12
486.863	1167.12
487.081	1133.12
487.299	1192.12
487.517	1176.12
487.735	1179.12
487.953	1208.12
488.171	1182.12
488.389	1198.12
488.607	1155.12
488.825	1166.12
489.043	1153.12
489.261	1161.12
489.479	1182.12
489.696	1162.12
489.914	1164.12
490.132	1157.12
490.35	1173.12
490.568	1166.12
490.786	1199.12
491.003	1183.12
491.221	1176.12
491.439	1157.12
491.657	1194.12
491.874	1221.12
492.092	1214.12
492.31	1209.12
492.527	1204.12
492.745	1197.12
492.963	1213.12
493.18	1181.12
493.398	1189.12
493.615	1209.12
493.833	1183.12
494.05	1250.12
494.268	1206.12
494.485	1242.12
494.703	1240.12
494.92	1220.12
495.138	1263.12
495.355	1237.12
495.573	1263.12
495.79	1264.12
496.008	1259.12
496.225	1232.12
496.442	1300.12
496.66	1288.12
496.877	1268.12
497.094	1318.12
497.312	1314.12
