Data from Ni(NO3)2Standard.Agarose3%.GreenCap.LampEnergy5.5.E.O_HRD10591_14-43-04-188.txt Node
Date: Mon Jul 22 14:43:04 EDT 2019
User: cochatt
Spectrometer: HR+D1059
Trigger mode: 1
Integration Time (sec): 1.000000E-1
Scans to average: 1
Electric dark correction enabled: true
Nonlinearity correction enabled: false
Boxcar width: 0
XAxis mode: Wavelengths
Number of Pixels in Spectrum: 2048
>>>>>Begin Spectral Data<<<<<
223.165	-13.5
223.4	-13.5
223.635	-13.5
223.869	-19.5
224.104	-11.5
224.338	-12.5
224.573	-23.5
224.808	-2.5
225.042	9.5
225.277	-5.5
225.511	-13.5
225.746	-4.5
225.98	2.5
226.215	8.5
226.449	5.5
226.683	21.5
226.918	25.5
227.152	33.5
227.387	24.5
227.621	35.5
227.856	26.5
228.09	48.5
228.324	45.5
228.559	44.5
228.793	52.5
229.027	83.5
229.262	64.5
229.496	60.5
229.73	73.5
229.964	57.5
230.199	89.5
230.433	83.5
230.667	66.5
230.901	69.5
231.136	74.5
231.37	68.5
231.604	85.5
231.838	81.5
232.072	88.5
232.306	82.5
232.541	89.5
232.775	73.5
233.009	79.5
233.243	81.5
233.477	86.5
233.711	70.5
233.945	92.5
234.179	82.5
234.413	72.5
234.647	77.5
234.881	91.5
235.115	77.5
235.349	80.5
235.583	80.5
235.817	77.5
236.051	84.5
236.285	71.5
236.519	67.5
236.753	86.5
236.987	76.5
237.221	82.5
237.455	82.5
237.689	83.5
237.922	70.5
238.156	66.5
238.39	78.5
238.624	64.5
238.858	68.5
239.091	81.5
239.325	70.5
239.559	85.5
239.793	74.5
240.027	78.5
240.26	73.5
240.494	64.5
240.728	80.5
240.961	73.5
241.195	75.5
241.429	82.5
241.662	74.5
241.896	78.5
242.13	70.5
242.363	78.5
242.597	75.5
242.83	80.5
243.064	78.5
243.298	77.5
243.531	74.5
243.765	86.5
243.998	81.5
244.232	82.5
244.465	68.5
244.699	82.5
244.932	76.5
245.166	75.5
245.399	62.5
245.633	74.5
245.866	73.5
246.099	63.5
246.333	84.5
246.566	63.5
246.8	74.5
247.033	85.5
247.266	84.5
247.5	88.5
247.733	76.5
247.966	84.5
248.2	77.5
248.433	73.5
248.666	82.5
248.899	70.5
249.133	80.5
249.366	76.5
249.599	61.5
249.832	73.5
250.066	92.5
250.299	68.5
250.532	85.5
250.765	82.5
250.998	78.5
251.231	76.5
251.465	84.5
251.698	76.5
251.931	67.5
252.164	82.5
252.397	92.5
252.63	71.5
252.863	83.5
253.096	73.5
253.329	83.5
253.562	76.5
253.795	70.5
254.028	69.5
254.261	73.5
254.494	73.5
254.727	85.5
254.96	82.5
255.193	79.5
255.426	74.5
255.659	75.5
255.892	83.5
256.124	76.5
256.357	70.5
256.59	86.5
256.823	67.5
257.056	76.5
257.289	73.5
257.521	92.5
257.754	73.5
257.987	86.5
258.22	77.5
258.452	78.5
258.685	73.5
258.918	89.5
259.151	84.5
259.383	82.5
259.616	61.5
259.849	83.5
260.081	93.5
260.314	84.5
260.547	88.5
260.779	68.5
261.012	82.5
261.244	78.5
261.477	90.5
261.71	86.5
261.942	77.5
262.175	86.5
262.407	86.5
262.64	88.5
262.872	74.5
263.105	65.5
263.337	81.5
263.57	84.5
263.802	71.5
264.035	84.5
264.267	92.5
264.499	88.5
264.732	74.5
264.964	85.5
265.197	70.5
265.429	74.5
265.661	91.5
265.894	78.5
266.126	84.5
266.358	77.5
266.591	75.5
266.823	78.5
267.055	84.5
267.287	80.5
267.52	74.5
267.752	80.5
267.984	72.5
268.216	91.5
268.448	86.5
268.681	76.5
268.913	86.5
269.145	89.5
269.377	71.5
269.609	72.5
269.841	77.5
270.073	86.5
270.306	83.5
270.538	73.5
270.77	85.5
271.002	73.5
271.234	84.5
271.466	77.5
271.698	86.5
271.93	82.5
272.162	78.5
272.394	69.5
272.626	78.5
272.858	86.5
273.09	80.5
273.322	78.5
273.553	84.5
273.785	75.5
274.017	65.5
274.249	83.5
274.481	75.5
274.713	81.5
274.945	78.5
275.176	84.5
275.408	82.5
275.64	82.5
275.872	83.5
276.104	83.5
276.335	77.5
276.567	84.5
276.799	84.5
277.031	69.5
277.262	80.5
277.494	90.5
277.726	81.5
277.957	87.5
278.189	82.5
278.421	82.5
278.652	91.5
278.884	80.5
279.115	86.5
279.347	71.5
279.579	73.5
279.81	83.5
280.042	78.5
280.273	88.5
280.505	72.5
280.736	71.5
280.968	101.5
281.199	78.5
281.431	77.5
281.662	81.5
281.894	81.5
282.125	80.5
282.356	89.5
282.588	72.5
282.819	80.5
283.051	79.5
283.282	88.5
283.513	88.5
283.745	70.5
283.976	92.5
284.207	90.5
284.439	91.5
284.67	86.5
284.901	88.5
285.132	82.5
285.364	90.5
285.595	77.5
285.826	72.5
286.057	96.5
286.288	96.5
286.52	91.5
286.751	92.5
286.982	89.5
287.213	72.5
287.444	83.5
287.675	82.5
287.906	85.5
288.138	85.5
288.369	76.5
288.6	74.5
288.831	84.5
289.062	90.5
289.293	87.5
289.524	91.5
289.755	91.5
289.986	71.5
290.217	76.5
290.448	85.5
290.679	85.5
290.91	88.5
291.141	77.5
291.371	88.5
291.602	86.5
291.833	70.5
292.064	76.5
292.295	96.5
292.526	80.5
292.757	84.5
292.987	83.5
293.218	84.5
293.449	78.5
293.68	72.5
293.91	75.5
294.141	87.5
294.372	77.5
294.603	89.5
294.833	80.5
295.064	67.5
295.295	85.5
295.525	91.5
295.756	82.5
295.987	87.5
296.217	81.5
296.448	73.5
296.679	83.5
296.909	88.5
297.14	89.5
297.37	75.5
297.601	78.5
297.831	84.5
298.062	75.5
298.292	95.5
298.523	90.5
298.753	79.5
298.984	78.5
299.214	92.5
299.445	80.5
299.675	80.5
299.905	76.5
300.136	66.5
300.366	77.5
300.597	90.5
300.827	101.5
301.057	82.5
301.288	78.5
301.518	74.5
301.748	74.5
301.979	90.5
302.209	79.5
302.439	85.5
302.669	83.5
302.9	78.5
303.13	76.5
303.36	84.5
303.59	88.5
303.82	96.5
304.051	90.5
304.281	79.5
304.511	72.5
304.741	91.5
304.971	76.5
305.201	79.5
305.431	86.5
305.661	82.5
305.891	78.5
306.121	83.5
306.352	100.5
306.582	77.5
306.812	64.5
307.042	91.5
307.272	81.5
307.502	86.5
307.731	86.5
307.961	98.5
308.191	90.5
308.421	67.5
308.651	81.5
308.881	88.5
309.111	93.5
309.341	84.5
309.571	91.5
309.8	83.5
310.03	79.5
310.26	78.5
310.49	77.5
310.72	88.5
310.949	85.5
311.179	81.5
311.409	79.5
311.639	93.5
311.868	95.5
312.098	83.5
312.328	80.5
312.557	84.5
312.787	85.5
313.017	97.5
313.246	96.5
313.476	88.5
313.706	94.5
313.935	90.5
314.165	89.5
314.394	92.5
314.624	91.5
314.853	80.5
315.083	85.5
315.312	84.5
315.542	76.5
315.771	85.5
316.001	91.5
316.23	83.5
316.46	85.5
316.689	86.5
316.919	88.5
317.148	79.5
317.377	100.5
317.607	83.5
317.836	87.5
318.065	84.5
318.295	74.5
318.524	86.5
318.753	81.5
318.983	91.5
319.212	85.5
319.441	86.5
319.67	85.5
319.9	85.5
320.129	86.5
320.358	88.5
320.587	80.5
320.816	78.5
321.046	85.5
321.275	89.5
321.504	85.5
321.733	88.5
321.962	88.5
322.191	79.5
322.42	90.5
322.649	88.5
322.878	92.5
323.108	90.5
323.337	84.5
323.566	95.5
323.795	86.5
324.024	96.5
324.253	87.5
324.482	86.5
324.71	88.5
324.939	100.5
325.168	80.5
325.397	95.5
325.626	88.5
325.855	88.5
326.084	82.5
326.313	85.5
326.542	80.5
326.77	98.5
326.999	88.5
327.228	82.5
327.457	91.5
327.686	87.5
327.914	86.5
328.143	99.5
328.372	82.5
328.6	83.5
328.829	76.5
329.058	90.5
329.287	84.5
329.515	89.5
329.744	94.5
329.972	78.5
330.201	95.5
330.43	86.5
330.658	85.5
330.887	78.5
331.115	77.5
331.344	90.5
331.572	78.5
331.801	102.5
332.03	81.5
332.258	72.5
332.486	76.5
332.715	79.5
332.943	92.5
333.172	74.5
333.4	82.5
333.629	114.5
333.857	89.5
334.085	82.5
334.314	96.5
334.542	92.5
334.771	97.5
334.999	90.5
335.227	82.5
335.455	89.5
335.684	89.5
335.912	81.5
336.14	84.5
336.369	100.5
336.597	81.5
336.825	91.5
337.053	89.5
337.281	86.5
337.51	75.5
337.738	88.5
337.966	77.5
338.194	89.5
338.422	88.5
338.65	87.5
338.878	92.5
339.106	88.5
339.334	99.5
339.562	82.5
339.79	80.5
340.018	65.5
340.246	84.5
340.474	81.5
340.702	86.5
340.93	97.5
341.158	69.5
341.386	92.5
341.614	86.5
341.842	97.5
342.07	85.5
342.298	77.5
342.526	83.5
342.754	100.5
342.981	72.5
343.209	78.5
343.437	93.5
343.665	92.5
343.893	89.5
344.12	89.5
344.348	78.5
344.576	88.5
344.804	92.5
345.031	84.5
345.259	100.5
345.487	85.5
345.714	88.5
345.942	74.5
346.17	99.5
346.397	92.5
346.625	82.5
346.853	92.5
347.08	73.5
347.308	68.5
347.535	82.5
347.763	88.5
347.99	75.5
348.218	103.5
348.445	92.5
348.673	76.5
348.9	81.5
349.128	88.5
349.355	83.5
349.583	94.5
349.81	90.5
350.037	86.5
350.265	110.5
350.492	88.5
350.72	81.5
350.947	84.5
351.174	78.5
351.402	92.5
351.629	95.5
351.856	74.5
352.083	94.5
352.311	83.5
352.538	88.5
352.765	91.5
352.992	90.5
353.22	91.5
353.447	94.5
353.674	82.5
353.901	87.5
354.128	81.5
354.355	77.5
354.583	75.5
354.81	91.5
355.037	89.5
355.264	79.5
355.491	86.5
355.718	77.5
355.945	77.5
356.172	75.5
356.399	95.5
356.626	82.5
356.853	73.5
357.08	88.5
357.307	76.5
357.534	86.5
357.761	97.5
357.988	89.5
358.215	83.5
358.441	84.5
358.668	85.5
358.895	91.5
359.122	91.5
359.349	79.5
359.576	91.5
359.802	73.5
360.029	85.5
360.256	77.5
360.483	81.5
360.709	87.5
360.936	81.5
361.163	95.5
361.39	75.5
361.616	92.5
361.843	79.5
362.07	86.5
362.296	77.5
362.523	86.5
362.749	77.5
362.976	83.5
363.203	85.5
363.429	75.5
363.656	88.5
363.882	75.5
364.109	98.5
364.335	72.5
364.562	94.5
364.788	81.5
365.015	85.5
365.241	92.5
365.468	92.5
365.694	74.5
365.92	87.5
366.147	97.5
366.373	75.5
366.599	77.5
366.826	85.5
367.052	85.5
367.278	92.5
367.505	80.5
367.731	95.5
367.957	89.5
368.184	80.5
368.41	86.5
368.636	80.5
368.862	81.5
369.089	75.5
369.315	93.5
369.541	89.5
369.767	81.5
369.993	87.5
370.219	87.5
370.445	85.5
370.672	84.5
370.898	96.5
371.124	76.5
371.35	92.5
371.576	88.5
371.802	80.5
372.028	97.5
372.254	85.5
372.48	86.5
372.706	85.5
372.932	87.5
373.158	68.5
373.384	90.5
373.61	91.5
373.835	69.5
374.061	89.5
374.287	79.5
374.513	93.5
374.739	88.5
374.965	71.5
375.191	91.5
375.416	84.5
375.642	88.5
375.868	97.5
376.094	86.5
376.319	90.5
376.545	75.5
376.771	83.5
376.997	82.5
377.222	75.5
377.448	90.5
377.674	77.5
377.899	86.5
378.125	83.5
378.35	85.5
378.576	77.5
378.802	80.5
379.027	81.5
379.253	81.5
379.478	99.5
379.704	72.5
379.929	82.5
380.155	96.5
380.38	89.5
380.606	77.5
380.831	98.5
381.057	77.5
381.282	82.5
381.507	83.5
381.733	83.5
381.958	77.5
382.184	101.5
382.409	87.5
382.634	82.5
382.86	85.5
383.085	67.5
383.31	86.5
383.535	94.5
383.761	89.5
383.986	90.5
384.211	75.5
384.436	97.5
384.662	77.5
384.887	79.5
385.112	91.5
385.337	73.5
385.562	76.5
385.787	82.5
386.013	76.5
386.238	75.5
386.463	85.5
386.688	89.5
386.913	84.5
387.138	90.5
387.363	77.5
387.588	84.5
387.813	87.5
388.038	94.5
388.263	84.5
388.488	85.5
388.713	97.5
388.938	94.5
389.163	96.5
389.387	79.5
389.612	74.5
389.837	85.5
390.062	73.5
390.287	88.5
390.512	88.5
390.736	84.5
390.961	92.5
391.186	79.5
391.411	85.5
391.636	91.5
391.86	76.5
392.085	85.5
392.31	92.5
392.534	98.5
392.759	87.5
392.984	80.5
393.208	86.5
393.433	86.5
393.658	79.5
393.882	88.5
394.107	86.5
394.331	96.5
394.556	76.5
394.78	75.5
395.005	78.5
395.229	86.5
395.454	68.5
395.678	82.5
395.903	104.5
396.127	85.5
396.352	77.5
396.576	77.5
396.801	84.5
397.025	87.5
397.249	87.5
397.474	82.5
397.698	84.5
397.922	94.5
398.147	83.5
398.371	91.5
398.595	92.5
398.82	76.5
399.044	84.5
399.268	84.5
399.492	86.5
399.717	97.5
399.941	100.5
400.165	78.5
400.389	89.5
400.613	80.5
400.837	90.5
401.062	95.5
401.286	97.5
401.51	81.5
401.734	78.5
401.958	99.5
402.182	70.5
402.406	76.5
402.63	94.5
402.854	93.5
403.078	88.5
403.302	86.5
403.526	87.5
403.75	92.5
403.974	78.5
404.198	87.5
404.422	77.5
404.645	83.5
404.869	70.5
405.093	67.5
405.317	84.5
405.541	86.5
405.765	93.5
405.988	86.5
406.212	82.5
406.436	90.5
406.66	88.5
406.883	93.5
407.107	89.5
407.331	84.5
407.555	83.5
407.778	75.5
408.002	83.5
408.226	97.5
408.449	64.5
408.673	88.5
408.896	81.5
409.12	83.5
409.344	88.5
409.567	82.5
409.791	81.5
410.014	81.5
410.238	89.5
410.461	98.5
410.685	90.5
410.908	84.5
411.132	74.5
411.355	89.5
411.578	87.5
411.802	82.5
412.025	76.5
412.249	72.5
412.472	81.5
412.695	85.5
412.919	86.5
413.142	87.5
413.365	84.5
413.589	82.5
413.812	86.5
414.035	83.5
414.258	100.5
414.482	87.5
414.705	86.5
414.928	80.5
415.151	83.5
415.374	98.5
415.597	80.5
415.821	79.5
416.044	68.5
416.267	89.5
416.49	93.5
416.713	68.5
416.936	89.5
417.159	74.5
417.382	89.5
417.605	78.5
417.828	77.5
418.051	84.5
418.274	85.5
418.497	84.5
418.72	93.5
418.943	78.5
419.166	91.5
419.389	76.5
419.611	86.5
419.834	77.5
420.057	88.5
420.28	91.5
420.503	89.5
420.726	97.5
420.948	88.5
421.171	91.5
421.394	84.5
421.617	90.5
421.839	95.5
422.062	73.5
422.285	101.5
422.507	84.5
422.73	86.5
422.953	77.5
423.175	76.5
423.398	76.5
423.621	81.5
423.843	82.5
424.066	74.5
424.288	88.5
424.511	84.5
424.733	81.5
424.956	93.5
425.178	85.5
425.401	88.5
425.623	75.5
425.846	74.5
426.068	86.5
426.291	82.5
426.513	71.5
426.735	86.5
426.958	96.5
427.18	81.5
427.402	80.5
427.625	72.5
427.847	73.5
428.069	92.5
428.292	69.5
428.514	88.5
428.736	62.5
428.958	64.5
429.181	85.5
429.403	86.5
429.625	90.5
429.847	76.5
430.069	87.5
430.292	89.5
430.514	62.5
430.736	75.5
430.958	97.5
431.18	82.5
431.402	73.5
431.624	74.5
431.846	91.5
432.068	92.5
432.29	94.5
432.512	76.5
432.734	86.5
432.956	99.5
433.178	84.5
433.4	97.5
433.622	94.5
433.844	77.5
434.066	79.5
434.287	82.5
434.509	102.5
434.731	82.5
434.953	77.5
435.175	95.5
435.397	96.5
435.618	93.5
435.84	83.5
436.062	82.5
436.284	71.5
436.505	91.5
436.727	72.5
436.949	79.5
437.17	82.5
437.392	75.5
437.614	78.5
437.835	83.5
438.057	80.5
438.278	80.5
438.5	75.5
438.721	88.5
438.943	75.5
439.165	98.5
439.386	73.5
439.608	89.5
439.829	89.5
440.05	88.5
440.272	85.5
440.493	84.5
440.715	73.5
440.936	69.5
441.158	83.5
441.379	88.5
441.6	91.5
441.822	93.5
442.043	92.5
442.264	77.5
442.486	86.5
442.707	105.5
442.928	85.5
443.149	90.5
443.371	81.5
443.592	85.5
443.813	87.5
444.034	98.5
444.255	81.5
444.476	86.5
444.698	88.5
444.919	92.5
445.14	192.5
445.361	124.5
445.582	97.5
445.803	86.5
446.024	69.5
446.245	78.5
446.466	92.5
446.687	87.5
446.908	87.5
447.129	89.5
447.35	88.5
447.571	92.5
447.792	94.5
448.013	76.5
448.234	76.5
448.455	83.5
448.675	74.5
448.896	91.5
449.117	77.5
449.338	92.5
449.559	89.5
449.779	74.5
450	88.5
450.221	83.5
450.442	76.5
450.662	84.5
450.883	75.5
451.104	77.5
451.324	86.5
451.545	82.5
451.766	94.5
451.986	79.5
452.207	88.5
452.428	88.5
452.648	76.5
452.869	87.5
453.089	91.5
453.31	80.5
453.53	76.5
453.751	95.5
453.971	95.5
454.192	82.5
454.412	84.5
454.633	85.5
454.853	97.5
455.073	93.5
455.294	79.5
455.514	96.5
455.734	76.5
455.955	77.5
456.175	84.5
456.395	93.5
456.616	68.5
456.836	75.5
457.056	90.5
457.276	80.5
457.497	81.5
457.717	84.5
457.937	89.5
458.157	85.5
458.377	91.5
458.598	90.5
458.818	83.5
459.038	88.5
459.258	92.5
459.478	88.5
459.698	74.5
459.918	73.5
460.138	73.5
460.358	75.5
460.578	86.5
460.798	93.5
461.018	93.5
461.238	101.5
461.458	84.5
461.678	79.5
461.898	75.5
462.118	92.5
462.338	89.5
462.558	76.5
462.777	77.5
462.997	103.5
463.217	90.5
463.437	82.5
463.657	86.5
463.876	86.5
464.096	87.5
464.316	75.5
464.536	83.5
464.755	82.5
464.975	91.5
465.195	91.5
465.414	96.5
465.634	87.5
465.854	96.5
466.073	79.5
466.293	96.5
466.512	78.5
466.732	93.5
466.951	97.5
467.171	93.5
467.391	76.5
467.61	92.5
467.829	81.5
468.049	73.5
468.268	88.5
468.488	73.5
468.707	89.5
468.927	83.5
469.146	67.5
469.365	87.5
469.585	94.5
469.804	92.5
470.023	77.5
470.243	82.5
470.462	88.5
470.681	83.5
470.901	84.5
471.12	73.5
471.339	86.5
471.558	92.5
471.777	78.5
471.997	78.5
472.216	84.5
472.435	82.5
472.654	73.5
472.873	76.5
473.092	86.5
473.311	84.5
473.53	85.5
473.749	82.5
473.968	84.5
474.187	86.5
474.406	76.5
474.625	88.5
474.844	100.5
475.063	76.5
475.282	73.5
475.501	79.5
475.72	87.5
475.939	81.5
476.158	99.5
476.377	76.5
476.596	82.5
476.814	100.5
477.033	102.5
477.252	86.5
477.471	94.5
477.69	79.5
477.908	69.5
478.127	88.5
478.346	89.5
478.564	96.5
478.783	87.5
479.002	90.5
479.22	84.5
479.439	68.5
479.658	84.5
479.876	89.5
480.095	82.5
480.313	87.5
480.532	104.5
480.751	98.5
480.969	79.5
481.188	96.5
481.406	89.5
481.624	82.5
481.843	83.5
482.061	78.5
482.28	90.5
482.498	84.5
482.717	83.5
482.935	86.5
483.153	85.5
483.372	78.5
483.59	88.5
483.808	85.5
484.027	97.5
484.245	94.5
484.463	75.5
484.681	102.5
484.9	99.5
485.118	77.5
485.336	73.5
485.554	83.5
485.772	88.5
485.99	93.5
486.209	88.5
486.427	93.5
486.645	82.5
486.863	83.5
487.081	85.5
487.299	83.5
487.517	104.5
487.735	98.5
487.953	80.5
488.171	102.5
488.389	94.5
488.607	79.5
488.825	85.5
489.043	86.5
489.261	93.5
489.479	85.5
489.696	87.5
489.914	96.5
490.132	92.5
490.35	98.5
490.568	92.5
490.786	97.5
491.003	86.5
491.221	93.5
491.439	91.5
491.657	81.5
491.874	92.5
492.092	73.5
492.31	91.5
492.527	88.5
492.745	94.5
492.963	94.5
493.18	104.5
493.398	101.5
493.615	96.5
493.833	91.5
494.05	78.5
494.268	88.5
494.485	85.5
494.703	88.5
494.92	84.5
495.138	96.5
495.355	91.5
495.573	82.5
495.79	87.5
496.008	104.5
496.225	90.5
496.442	78.5
496.66	93.5
496.877	96.5
497.094	92.5
497.312	95.5
497.529	87.5
497.746	101.5
497.963	99.5
498.181	97.5
498.398	92.5
498.615	99.5
498.832	94.5
499.049	97.5
499.267	94.5
499.484	94.5
499.701	101.5
499.918	93.5
500.135	98.5
500.352	108.5
500.569	116.5
500.786	124.5
501.003	101.5
501.22	85.5
501.437	100.5
501.654	95.5
501.871	96.5
502.088	91.5
502.305	99.5
502.522	89.5
502.739	98.5
502.956	92.5
503.172	97.5
503.389	95.5
503.606	97.5
503.823	106.5
504.04	80.5
504.256	85.5
504.473	96.5
504.69	101.5
504.907	90.5
505.123	85.5
505.34	81.5
505.557	82.5
505.773	77.5
505.99	78.5
506.207	90.5
506.423	112.5
506.64	80.5
506.856	78.5
507.073	88.5
507.289	81.5
507.506	98.5
507.722	81.5
507.939	84.5
508.155	69.5
508.372	92.5
508.588	100.5
508.805	82.5
509.021	74.5
509.238	76.5
509.454	76.5
509.67	88.5
509.887	82.5
510.103	85.5
510.319	88.5
510.536	90.5
510.752	76.5
510.968	91.5
511.184	86.5
511.401	92.5
511.617	96.5
511.833	93.5
512.049	91.5
512.265	86.5
512.481	102.5
512.698	94.5
512.914	97.5
513.13	84.5
513.346	86.5
513.562	96.5
513.778	94.5
513.994	85.5
514.21	84.5
514.426	80.5
514.642	78.5
514.858	96.5
515.074	95.5
515.29	99.5
515.506	89.5
515.721	98.5
515.937	84.5
516.153	94.5
516.369	95.5
516.585	86.5
516.801	91.5
517.016	86.5
517.232	86.5
517.448	85.5
517.664	101.5
517.879	88.5
518.095	90.5
518.311	83.5
518.527	87.5
518.742	98.5
518.958	76.5
519.173	87.5
519.389	102.5
519.605	93.5
519.82	89.5
520.036	90.5
520.251	96.5
520.467	92.5
520.682	82.5
520.898	91.5
521.113	83.5
521.329	94.5
521.544	84.5
521.76	99.5
521.975	85.5
522.19	88.5
522.406	75.5
522.621	90.5
522.836	72.5
523.052	87.5
523.267	96.5
523.482	94.5
523.698	78.5
523.913	86.5
524.128	93.5
524.343	88.5
524.559	102.5
524.774	93.5
524.989	88.5
525.204	87.5
525.419	93.5
525.634	78.5
525.849	82.5
526.064	92.5
526.28	85.5
526.495	88.5
526.71	92.5
526.925	88.5
527.14	80.5
527.355	92.5
527.57	84.5
527.785	94.5
527.999	91.5
528.214	86.5
528.429	96.5
528.644	88.5
528.859	93.5
529.074	87.5
529.289	83.5
529.503	97.5
529.718	93.5
529.933	97.5
530.148	76.5
530.363	82.5
530.577	77.5
530.792	92.5
531.007	91.5
531.221	85.5
531.436	89.5
531.651	78.5
531.865	82.5
532.08	73.5
532.295	90.5
532.509	79.5
532.724	94.5
532.938	83.5
533.153	93.5
533.367	86.5
533.582	93.5
533.796	87.5
534.011	81.5
534.225	79.5
534.44	83.5
534.654	77.5
534.868	88.5
535.083	90.5
535.297	90.5
535.511	85.5
535.726	88.5
535.94	82.5
536.154	101.5
536.369	94.5
536.583	84.5
536.797	92.5
537.011	90.5
537.225	89.5
537.44	81.5
537.654	95.5
537.868	88.5
538.082	81.5
538.296	91.5
538.51	93.5
538.724	106.5
538.938	92.5
539.153	89.5
