Data from Ni(NO3)2@0.5M.TitratingCurve.Agarose3%dH2O.NegLispCup.LampEnergy10.LIBS07252019_HRD10591_17-57-32-564.txt Node
Date: Thu Jul 25 17:57:32 EDT 2019
User: cochatt
Spectrometer: HR+D1059
Trigger mode: 1
Integration Time (sec): 1.000000E-1
Scans to average: 1
Electric dark correction enabled: true
Nonlinearity correction enabled: false
Boxcar width: 0
XAxis mode: Wavelengths
Number of Pixels in Spectrum: 2048
>>>>>Begin Spectral Data<<<<<
223.165	1.88
223.4	1.88
223.635	1.88
223.869	-23.12
224.104	-28.12
224.338	-15.12
224.573	-6.12
224.808	-7.12
225.042	-2.12
225.277	-15.12
225.511	-8.12
225.746	18.88
225.98	1.88
226.215	9.88
226.449	21.88
226.683	6.88
226.918	16.88
227.152	26.88
227.387	37.88
227.621	31.88
227.856	51.88
228.09	39.88
228.324	53.88
228.559	63.88
228.793	65.88
229.027	103.88
229.262	117.88
229.496	115.88
229.73	120.88
229.964	140.88
230.199	167.88
230.433	150.88
230.667	143.88
230.901	151.88
231.136	153.88
231.37	150.88
231.604	171.88
231.838	161.88
232.072	195.88
232.306	178.88
232.541	160.88
232.775	153.88
233.009	166.88
233.243	154.88
233.477	161.88
233.711	150.88
233.945	158.88
234.179	165.88
234.413	175.88
234.647	170.88
234.881	149.88
235.115	187.88
235.349	157.88
235.583	162.88
235.817	162.88
236.051	170.88
236.285	158.88
236.519	191.88
236.753	186.88
236.987	172.88
237.221	168.88
237.455	175.88
237.689	176.88
237.922	175.88
238.156	176.88
238.39	185.88
238.624	170.88
238.858	179.88
239.091	181.88
239.325	209.88
239.559	201.88
239.793	206.88
240.027	211.88
240.26	201.88
240.494	201.88
240.728	221.88
240.961	189.88
241.195	192.88
241.429	210.88
241.662	217.88
241.896	216.88
242.13	232.88
242.363	219.88
242.597	209.88
242.83	216.88
243.064	227.88
243.298	219.88
243.531	235.88
243.765	216.88
243.998	222.88
244.232	255.88
244.465	235.88
244.699	243.88
244.932	231.88
245.166	255.88
245.399	261.88
245.633	239.88
245.866	241.88
246.099	249.88
246.333	259.88
246.566	245.88
246.8	246.88
247.033	252.88
247.266	246.88
247.5	234.88
247.733	266.88
247.966	269.88
248.2	257.88
248.433	270.88
248.666	298.88
248.899	266.88
249.133	258.88
249.366	272.88
249.599	312.88
249.832	296.88
250.066	289.88
250.299	313.88
250.532	305.88
250.765	298.88
250.998	314.88
251.231	313.88
251.465	319.88
251.698	337.88
251.931	317.88
252.164	314.88
252.397	313.88
252.63	338.88
252.863	319.88
253.096	325.88
253.329	328.88
253.562	312.88
253.795	330.88
254.028	345.88
254.261	332.88
254.494	346.88
254.727	356.88
254.96	342.88
255.193	367.88
255.426	360.88
255.659	366.88
255.892	347.88
256.124	373.88
256.357	375.88
256.59	382.88
256.823	378.88
257.056	371.88
257.289	381.88
257.521	377.88
257.754	373.88
257.987	376.88
258.22	385.88
258.452	389.88
258.685	389.88
258.918	386.88
259.151	395.88
259.383	377.88
259.616	396.88
259.849	423.88
260.081	424.88
260.314	437.88
260.547	407.88
260.779	403.88
261.012	419.88
261.244	432.88
261.477	432.88
261.71	421.88
261.942	414.88
262.175	425.88
262.407	440.88
262.64	424.88
262.872	433.88
263.105	462.88
263.337	455.88
263.57	445.88
263.802	441.88
264.035	451.88
264.267	458.88
264.499	444.88
264.732	450.88
264.964	464.88
265.197	438.88
265.429	451.88
265.661	443.88
265.894	461.88
266.126	471.88
266.358	469.88
266.591	481.88
266.823	462.88
267.055	463.88
267.287	485.88
267.52	472.88
267.752	506.88
267.984	485.88
268.216	483.88
268.448	491.88
268.681	504.88
268.913	488.88
269.145	487.88
269.377	486.88
269.609	505.88
269.841	497.88
270.073	506.88
270.306	521.88
270.538	504.88
270.77	507.88
271.002	498.88
271.234	498.88
271.466	528.88
271.698	518.88
271.93	500.88
272.162	505.88
272.394	540.88
272.626	513.88
272.858	514.88
273.09	519.88
273.322	527.88
273.553	540.88
273.785	517.88
274.017	526.88
274.249	539.88
274.481	544.88
274.713	538.88
274.945	547.88
275.176	535.88
275.408	548.88
275.64	549.88
275.872	538.88
276.104	539.88
276.335	569.88
276.567	565.88
276.799	573.88
277.031	557.88
277.262	574.88
277.494	552.88
277.726	571.88
277.957	563.88
278.189	575.88
278.421	549.88
278.652	591.88
278.884	563.88
279.115	562.88
279.347	590.88
279.579	594.88
279.81	593.88
280.042	595.88
280.273	614.88
280.505	587.88
280.736	600.88
280.968	582.88
281.199	608.88
281.431	595.88
281.662	595.88
281.894	606.88
282.125	592.88
282.356	605.88
282.588	601.88
282.819	589.88
283.051	575.88
283.282	601.88
283.513	608.88
283.745	625.88
283.976	594.88
284.207	608.88
284.439	630.88
284.67	599.88
284.901	625.88
285.132	633.88
285.364	635.88
285.595	642.88
285.826	626.88
286.057	616.88
286.288	634.88
286.52	631.88
286.751	639.88
286.982	645.88
287.213	663.88
287.444	633.88
287.675	640.88
287.906	645.88
288.138	634.88
288.369	623.88
288.6	642.88
288.831	640.88
289.062	661.88
289.293	689.88
289.524	671.88
289.755	657.88
289.986	670.88
290.217	647.88
290.448	649.88
290.679	652.88
290.91	653.88
291.141	658.88
291.371	656.88
291.602	683.88
291.833	650.88
292.064	676.88
292.295	653.88
292.526	657.88
292.757	646.88
292.987	632.88
293.218	634.88
293.449	671.88
293.68	682.88
293.91	657.88
294.141	667.88
294.372	658.88
294.603	685.88
294.833	691.88
295.064	623.88
295.295	675.88
295.525	673.88
295.756	675.88
295.987	676.88
296.217	699.88
296.448	681.88
296.679	666.88
296.909	680.88
297.14	687.88
297.37	718.88
297.601	682.88
297.831	687.88
298.062	674.88
298.292	710.88
298.523	707.88
298.753	717.88
298.984	721.88
299.214	714.88
299.445	709.88
299.675	715.88
299.905	718.88
300.136	746.88
300.366	749.88
300.597	743.88
300.827	729.88
301.057	718.88
301.288	738.88
301.518	736.88
301.748	737.88
301.979	754.88
302.209	726.88
302.439	736.88
302.669	745.88
302.9	737.88
303.13	735.88
303.36	757.88
303.59	762.88
303.82	742.88
304.051	773.88
304.281	769.88
304.511	766.88
304.741	765.88
304.971	767.88
305.201	772.88
305.431	778.88
305.661	802.88
305.891	795.88
306.121	789.88
306.352	801.88
306.582	773.88
306.812	789.88
307.042	796.88
307.272	779.88
307.502	769.88
307.731	790.88
307.961	783.88
308.191	782.88
308.421	790.88
308.651	797.88
308.881	798.88
309.111	776.88
309.341	779.88
309.571	769.88
309.8	764.88
310.03	833.88
310.26	835.88
310.49	834.88
310.72	836.88
310.949	797.88
311.179	811.88
311.409	804.88
311.639	811.88
311.868	818.88
312.098	839.88
312.328	829.88
312.557	833.88
312.787	829.88
313.017	829.88
313.246	866.88
313.476	842.88
313.706	856.88
313.935	838.88
314.165	855.88
314.394	850.88
314.624	855.88
314.853	855.88
315.083	828.88
315.312	866.88
315.542	873.88
315.771	877.88
316.001	885.88
316.23	874.88
316.46	868.88
316.689	873.88
316.919	851.88
317.148	877.88
317.377	927.88
317.607	886.88
317.836	887.88
318.065	885.88
318.295	885.88
318.524	891.88
318.753	919.88
318.983	895.88
319.212	924.88
319.441	901.88
319.67	912.88
319.9	954.88
320.129	927.88
320.358	914.88
320.587	928.88
320.816	938.88
321.046	918.88
321.275	933.88
321.504	942.88
321.733	953.88
321.962	956.88
322.191	975.88
322.42	955.88
322.649	961.88
322.878	951.88
323.108	962.88
323.337	953.88
323.566	957.88
323.795	974.88
324.024	985.88
324.253	956.88
324.482	995.88
324.71	997.88
324.939	979.88
325.168	985.88
325.397	989.88
325.626	977.88
325.855	1005.88
326.084	998.88
326.313	1002.88
326.542	1010.88
326.77	1019.88
326.999	1015.88
327.228	1021.88
327.457	1045.88
327.686	1001.88
327.914	1038.88
328.143	1029.88
328.372	993.88
328.6	1020.88
328.829	1039.88
329.058	1042.88
329.287	1037.88
329.515	1049.88
329.744	1012.88
329.972	1021.88
330.201	1069.88
330.43	1053.88
330.658	1025.88
330.887	1074.88
331.115	1055.88
331.344	1050.88
331.572	1069.88
331.801	1081.88
332.03	1108.88
332.258	1096.88
332.486	1110.88
332.715	1114.88
332.943	1094.88
333.172	1121.88
333.4	1115.88
333.629	1124.88
333.857	1135.88
334.085	1116.88
334.314	1145.88
334.542	1123.88
334.771	1108.88
334.999	1151.88
335.227	1155.88
335.455	1145.88
335.684	1175.88
335.912	1190.88
336.14	1153.88
336.369	1163.88
336.597	1168.88
336.825	1159.88
337.053	1167.88
337.281	1157.88
337.51	1194.88
337.738	1190.88
337.966	1168.88
338.194	1184.88
338.422	1114.88
338.65	1145.88
338.878	1163.88
339.106	1147.88
339.334	1192.88
339.562	1162.88
339.79	1144.88
340.018	1150.88
340.246	1120.88
340.474	1119.88
340.702	1113.88
340.93	1151.88
341.158	1149.88
341.386	1147.88
341.614	1159.88
341.842	1155.88
342.07	1136.88
342.298	1147.88
342.526	1174.88
342.754	1120.88
342.981	1133.88
343.209	1145.88
343.437	1170.88
343.665	1132.88
343.893	1149.88
344.12	1146.88
344.348	1165.88
344.576	1178.88
344.804	1180.88
345.031	1138.88
345.259	1160.88
345.487	1189.88
345.714	1178.88
345.942	1162.88
346.17	1173.88
346.397	1169.88
346.625	1116.88
346.853	1114.88
347.08	1119.88
347.308	1105.88
347.535	1115.88
347.763	1121.88
347.99	1092.88
348.218	1124.88
348.445	1108.88
348.673	1106.88
348.9	1111.88
349.128	1116.88
349.355	1121.88
349.583	1131.88
349.81	1115.88
350.037	1097.88
350.265	1081.88
350.492	1094.88
350.72	1095.88
350.947	1108.88
351.174	1133.88
351.402	1143.88
351.629	1129.88
351.856	1126.88
352.083	1066.88
352.311	1115.88
352.538	1135.88
352.765	1144.88
352.992	1085.88
353.22	1112.88
353.447	1091.88
353.674	1105.88
353.901	1086.88
354.128	1107.88
354.355	1089.88
354.583	1077.88
354.81	1099.88
355.037	1098.88
355.264	1072.88
355.491	1086.88
355.718	1073.88
355.945	1064.88
356.172	1065.88
356.399	1105.88
356.626	1114.88
356.853	1105.88
357.08	1105.88
357.307	1107.88
357.534	1083.88
357.761	1101.88
357.988	1082.88
358.215	1064.88
358.441	1080.88
358.668	1074.88
358.895	1078.88
359.122	1074.88
359.349	1081.88
359.576	1080.88
359.802	1107.88
360.029	1096.88
360.256	1104.88
360.483	1092.88
360.709	1088.88
360.936	1071.88
361.163	1073.88
361.39	1087.88
361.616	1061.88
361.843	1098.88
362.07	1114.88
362.296	1102.88
362.523	1093.88
362.749	1081.88
362.976	1079.88
363.203	1087.88
363.429	1089.88
363.656	1113.88
363.882	1097.88
364.109	1089.88
364.335	1081.88
364.562	1115.88
364.788	1098.88
365.015	1103.88
365.241	1065.88
365.468	1067.88
365.694	1120.88
365.92	1121.88
366.147	1088.88
366.373	1107.88
366.599	1113.88
366.826	1111.88
367.052	1116.88
367.278	1102.88
367.505	1087.88
367.731	1089.88
367.957	1113.88
368.184	1110.88
368.41	1121.88
368.636	1115.88
368.862	1090.88
369.089	1121.88
369.315	1121.88
369.541	1118.88
369.767	1127.88
369.993	1099.88
370.219	1100.88
370.445	1117.88
370.672	1110.88
370.898	1106.88
371.124	1144.88
371.35	1164.88
371.576	1147.88
371.802	1141.88
372.028	1119.88
372.254	1130.88
372.48	1128.88
372.706	1126.88
372.932	1134.88
373.158	1119.88
373.384	1106.88
373.61	1137.88
373.835	1161.88
374.061	1129.88
374.287	1142.88
374.513	1135.88
374.739	1120.88
374.965	1130.88
375.191	1146.88
375.416	1128.88
375.642	1131.88
375.868	1144.88
376.094	1137.88
376.319	1115.88
376.545	1098.88
376.771	1152.88
376.997	1121.88
377.222	1123.88
377.448	1084.88
377.674	1094.88
377.899	1114.88
378.125	1121.88
378.35	1106.88
378.576	1099.88
378.802	1088.88
379.027	1118.88
379.253	1136.88
379.478	1103.88
379.704	1103.88
379.929	1095.88
380.155	1103.88
380.38	1088.88
380.606	1100.88
380.831	1079.88
381.057	1097.88
381.282	1083.88
381.507	1129.88
381.733	1112.88
381.958	1097.88
382.184	1080.88
382.409	1125.88
382.634	1122.88
382.86	1111.88
383.085	1111.88
383.31	1110.88
383.535	1129.88
383.761	1139.88
383.986	1115.88
384.211	1169.88
384.436	1169.88
384.662	1144.88
384.887	1161.88
385.112	1123.88
385.337	1126.88
385.562	1161.88
385.787	1173.88
386.013	1191.88
386.238	1184.88
386.463	1171.88
386.688	1183.88
386.913	1179.88
387.138	1150.88
387.363	1187.88
387.588	1205.88
387.813	1157.88
388.038	1184.88
388.263	1207.88
388.488	1177.88
388.713	1161.88
388.938	1205.88
389.163	1178.88
389.387	1146.88
389.612	1209.88
389.837	1222.88
390.062	1194.88
390.287	1218.88
390.512	1191.88
390.736	1184.88
390.961	1194.88
391.186	1177.88
391.411	1190.88
391.636	1186.88
391.86	1183.88
392.085	1188.88
392.31	1218.88
392.534	1225.88
392.759	1215.88
392.984	1189.88
393.208	1204.88
393.433	1249.88
393.658	1220.88
393.882	1221.88
394.107	1196.88
394.331	1203.88
394.556	1194.88
394.78	1240.88
395.005	1225.88
395.229	1186.88
395.454	1209.88
395.678	1240.88
395.903	1263.88
396.127	1245.88
396.352	1239.88
396.576	1242.88
396.801	1247.88
397.025	1259.88
397.249	1242.88
397.474	1235.88
397.698	1239.88
397.922	1250.88
398.147	1252.88
398.371	1255.88
398.595	1262.88
398.82	1285.88
399.044	1323.88
399.268	1329.88
399.492	1352.88
399.717	1370.88
399.941	1365.88
400.165	1379.88
400.389	1403.88
400.613	1382.88
400.837	1366.88
401.062	1353.88
401.286	1322.88
401.51	1331.88
401.734	1311.88
401.958	1333.88
402.182	1314.88
402.406	1301.88
402.63	1319.88
402.854	1313.88
403.078	1320.88
403.302	1318.88
403.526	1326.88
403.75	1282.88
403.974	1335.88
404.198	1322.88
404.422	1329.88
404.645	1306.88
404.869	1306.88
405.093	1336.88
405.317	1351.88
405.541	1365.88
405.765	1347.88
405.988	1333.88
406.212	1360.88
406.436	1366.88
406.66	1417.88
406.883	1385.88
407.107	1365.88
407.331	1409.88
407.555	1449.88
407.778	1413.88
408.002	1423.88
408.226	1425.88
408.449	1437.88
408.673	1399.88
408.896	1394.88
409.12	1382.88
409.344	1407.88
409.567	1379.88
409.791	1407.88
410.014	1405.88
410.238	1412.88
410.461	1366.88
410.685	1367.88
410.908	1338.88
411.132	1326.88
411.355	1355.88
411.578	1301.88
411.802	1332.88
412.025	1353.88
412.249	1334.88
412.472	1379.88
412.695	1308.88
412.919	1323.88
413.142	1337.88
413.365	1345.88
413.589	1350.88
413.812	1327.88
414.035	1289.88
414.258	1305.88
414.482	1304.88
414.705	1297.88
414.928	1283.88
415.151	1315.88
415.374	1279.88
415.597	1301.88
415.821	1296.88
416.044	1291.88
416.267	1306.88
416.49	1286.88
416.713	1263.88
416.936	1305.88
417.159	1265.88
417.382	1314.88
417.605	1272.88
417.828	1273.88
418.051	1265.88
418.274	1254.88
418.497	1276.88
418.72	1262.88
418.943	1230.88
419.166	1291.88
419.389	1354.88
419.611	1381.88
419.834	1349.88
420.057	1317.88
420.28	1260.88
420.503	1258.88
420.726	1253.88
420.948	1275.88
421.171	1259.88
421.394	1258.88
421.617	1270.88
421.839	1280.88
422.062	1304.88
422.285	1230.88
422.507	1283.88
422.73	1291.88
422.953	1256.88
423.175	1273.88
423.398	1273.88
423.621	1254.88
423.843	1251.88
424.066	1297.88
424.288	1255.88
424.511	1253.88
424.733	1265.88
424.956	1272.88
425.178	1272.88
425.401	1282.88
425.623	1261.88
425.846	1239.88
426.068	1274.88
426.291	1232.88
426.513	1235.88
426.735	1249.88
426.958	1270.88
427.18	1237.88
427.402	1290.88
427.625	1269.88
427.847	1288.88
428.069	1268.88
428.292	1257.88
428.514	1251.88
428.736	1212.88
428.958	1267.88
429.181	1254.88
429.403	1250.88
429.625	1262.88
429.847	1259.88
430.069	1263.88
430.292	1265.88
430.514	1266.88
430.736	1280.88
430.958	1263.88
431.18	1241.88
431.402	1264.88
431.624	1267.88
431.846	1242.88
432.068	1250.88
432.29	1269.88
432.512	1209.88
432.734	1271.88
432.956	1256.88
433.178	1293.88
433.4	1263.88
433.622	1287.88
433.844	1302.88
434.066	1241.88
434.287	1279.88
434.509	1284.88
434.731	1281.88
434.953	1274.88
435.175	1299.88
435.397	1316.88
435.618	1292.88
435.84	1277.88
436.062	1263.88
436.284	1227.88
436.505	1243.88
436.727	1254.88
436.949	1277.88
437.17	1272.88
437.392	1245.88
437.614	1235.88
437.835	1204.88
438.057	1250.88
438.278	1233.88
438.5	1232.88
438.721	1192.88
438.943	1226.88
439.165	1205.88
439.386	1222.88
439.608	1275.88
439.829	1236.88
440.05	1270.88
440.272	1254.88
440.493	1248.88
440.715	1254.88
440.936	1256.88
441.158	1262.88
441.379	1266.88
441.6	1315.88
441.822	1313.88
442.043	1275.88
442.264	1301.88
442.486	1262.88
442.707	1279.88
442.928	1262.88
443.149	1329.88
443.371	1277.88
443.592	1323.88
443.813	1322.88
444.034	1313.88
444.255	1293.88
444.476	1288.88
444.698	1306.88
444.919	1288.88
445.14	1417.88
445.361	1354.88
445.582	1291.88
445.803	1283.88
446.024	1235.88
446.245	1251.88
446.466	1237.88
446.687	1243.88
446.908	1228.88
447.129	1175.88
447.35	1214.88
447.571	1210.88
447.792	1172.88
448.013	1217.88
448.234	1199.88
448.455	1181.88
448.675	1191.88
448.896	1165.88
449.117	1170.88
449.338	1159.88
449.559	1160.88
449.779	1155.88
450	1156.88
450.221	1161.88
450.442	1175.88
450.662	1160.88
450.883	1156.88
451.104	1171.88
451.324	1160.88
451.545	1156.88
451.766	1134.88
451.986	1177.88
452.207	1127.88
452.428	1122.88
452.648	1115.88
452.869	1160.88
453.089	1149.88
453.31	1162.88
453.53	1114.88
453.751	1112.88
453.971	1126.88
454.192	1142.88
454.412	1112.88
454.633	1139.88
454.853	1133.88
455.073	1090.88
455.294	1163.88
455.514	1119.88
455.734	1177.88
455.955	1130.88
456.175	1120.88
456.395	1090.88
456.616	1115.88
456.836	1082.88
457.056	1124.88
457.276	1107.88
457.497	1181.88
457.717	1149.88
457.937	1158.88
458.157	1139.88
458.377	1141.88
458.598	1145.88
458.818	1163.88
459.038	1154.88
459.258	1173.88
459.478	1218.88
459.698	1245.88
459.918	1255.88
460.138	1231.88
460.358	1253.88
460.578	1246.88
460.798	1282.88
461.018	1298.88
461.238	1253.88
461.458	1264.88
461.678	1224.88
461.898	1287.88
462.118	1302.88
462.338	1286.88
462.558	1330.88
462.777	1312.88
462.997	1306.88
463.217	1332.88
463.437	1413.88
463.657	1381.88
463.876	1359.88
464.096	1371.88
464.316	1283.88
464.536	1323.88
464.755	1288.88
464.975	1291.88
465.195	1246.88
465.414	1267.88
465.634	1259.88
465.854	1218.88
466.073	1213.88
466.293	1223.88
466.512	1181.88
466.732	1215.88
466.951	1233.88
467.171	1240.88
467.391	1231.88
467.61	1168.88
467.829	1213.88
468.049	1233.88
468.268	1195.88
468.488	1212.88
468.707	1215.88
468.927	1193.88
469.146	1200.88
469.365	1227.88
469.585	1207.88
469.804	1234.88
470.023	1192.88
470.243	1194.88
470.462	1245.88
470.681	1209.88
470.901	1221.88
471.12	1198.88
471.339	1223.88
471.558	1237.88
471.777	1208.88
471.997	1230.88
472.216	1209.88
472.435	1199.88
472.654	1206.88
472.873	1187.88
473.092	1211.88
473.311	1221.88
473.53	1227.88
473.749	1210.88
473.968	1213.88
474.187	1229.88
474.406	1208.88
474.625	1258.88
474.844	1277.88
475.063	1252.88
475.282	1282.88
475.501	1254.88
475.72	1277.88
475.939	1282.88
476.158	1272.88
476.377	1307.88
476.596	1296.88
476.814	1301.88
477.033	1308.88
477.252	1323.88
477.471	1341.88
477.69	1321.88
477.908	1347.88
478.127	1350.88
478.346	1356.88
478.564	1380.88
478.783	1387.88
479.002	1447.88
479.22	1474.88
479.439	1458.88
479.658	1425.88
479.876	1449.88
480.095	1414.88
480.313	1414.88
480.532	1420.88
480.751	1444.88
480.969	1424.88
481.188	1398.88
481.406	1431.88
481.624	1417.88
481.843	1434.88
482.061	1475.88
482.28	1451.88
482.498	1457.88
482.717	1446.88
482.935	1472.88
483.153	1492.88
483.372	1491.88
483.59	1511.88
483.808	1500.88
484.027	1494.88
484.245	1510.88
484.463	1510.88
484.681	1487.88
484.9	1509.88
485.118	1544.88
485.336	1521.88
485.554	1495.88
485.772	1503.88
485.99	1518.88
486.209	1487.88
486.427	1465.88
486.645	1470.88
486.863	1525.88
487.081	1533.88
487.299	1502.88
487.517	1492.88
487.735	1546.88
487.953	1575.88
488.171	1549.88
488.389	1554.88
488.607	1534.88
488.825	1554.88
489.043	1510.88
489.261	1541.88
489.479	1518.88
489.696	1502.88
489.914	1499.88
490.132	1527.88
490.35	1543.88
490.568	1540.88
490.786	1524.88
491.003	1536.88
491.221	1559.88
491.439	1635.88
