Data from Ni(NO3)2@0.0625M.TitratingCurve.Agarose3%dH2O.NegLispCup.LampEnergy10.LIBS07252019_HRD10591_18-14-07-569.txt Node
Date: Thu Jul 25 18:14:07 EDT 2019
User: cochatt
Spectrometer: HR+D1059
Trigger mode: 1
Integration Time (sec): 1.000000E-1
Scans to average: 1
Electric dark correction enabled: true
Nonlinearity correction enabled: false
Boxcar width: 0
XAxis mode: Wavelengths
Number of Pixels in Spectrum: 2048
>>>>>Begin Spectral Data<<<<<
223.165	-23.25
223.4	-23.25
223.635	-23.25
223.869	-16.25
224.104	-8.25
224.338	-23.25
224.573	-22.25
224.808	-21.25
225.042	-21.25
225.277	-6.25
225.511	-1.25
225.746	7.75
225.98	8.75
226.215	17.75
226.449	28.75
226.683	19.75
226.918	32.75
227.152	27.75
227.387	22.75
227.621	39.75
227.856	45.75
228.09	43.75
228.324	56.75
228.559	48.75
228.793	73.75
229.027	112.75
229.262	107.75
229.496	116.75
229.73	126.75
229.964	123.75
230.199	124.75
230.433	130.75
230.667	129.75
230.901	141.75
231.136	144.75
231.37	158.75
231.604	139.75
231.838	153.75
232.072	147.75
232.306	147.75
232.541	143.75
232.775	146.75
233.009	131.75
233.243	145.75
233.477	158.75
233.711	139.75
233.945	141.75
234.179	152.75
234.413	158.75
234.647	144.75
234.881	146.75
235.115	156.75
235.349	148.75
235.583	147.75
235.817	164.75
236.051	163.75
236.285	151.75
236.519	167.75
236.753	146.75
236.987	154.75
237.221	169.75
237.455	162.75
237.689	167.75
237.922	153.75
238.156	162.75
238.39	163.75
238.624	170.75
238.858	176.75
239.091	176.75
239.325	170.75
239.559	187.75
239.793	156.75
240.027	171.75
240.26	179.75
240.494	188.75
240.728	180.75
240.961	187.75
241.195	183.75
241.429	190.75
241.662	170.75
241.896	204.75
242.13	181.75
242.363	194.75
242.597	176.75
242.83	211.75
243.064	202.75
243.298	200.75
243.531	200.75
243.765	216.75
243.998	220.75
244.232	220.75
244.465	193.75
244.699	201.75
244.932	227.75
245.166	219.75
245.399	216.75
245.633	243.75
245.866	222.75
246.099	221.75
246.333	223.75
246.566	230.75
246.8	214.75
247.033	219.75
247.266	234.75
247.5	223.75
247.733	238.75
247.966	237.75
248.2	231.75
248.433	243.75
248.666	242.75
248.899	242.75
249.133	257.75
249.366	255.75
249.599	245.75
249.832	245.75
250.066	257.75
250.299	252.75
250.532	248.75
250.765	258.75
250.998	262.75
251.231	268.75
251.465	263.75
251.698	259.75
251.931	272.75
252.164	260.75
252.397	268.75
252.63	281.75
252.863	259.75
253.096	274.75
253.329	269.75
253.562	294.75
253.795	259.75
254.028	278.75
254.261	294.75
254.494	279.75
254.727	274.75
254.96	265.75
255.193	283.75
255.426	294.75
255.659	297.75
255.892	297.75
256.124	296.75
256.357	305.75
256.59	299.75
256.823	307.75
257.056	294.75
257.289	282.75
257.521	304.75
257.754	304.75
257.987	311.75
258.22	297.75
258.452	306.75
258.685	315.75
258.918	304.75
259.151	298.75
259.383	323.75
259.616	304.75
259.849	330.75
260.081	332.75
260.314	326.75
260.547	319.75
260.779	316.75
261.012	313.75
261.244	305.75
261.477	327.75
261.71	335.75
261.942	327.75
262.175	338.75
262.407	336.75
262.64	346.75
262.872	342.75
263.105	337.75
263.337	344.75
263.57	327.75
263.802	328.75
264.035	335.75
264.267	342.75
264.499	341.75
264.732	362.75
264.964	346.75
265.197	339.75
265.429	346.75
265.661	368.75
265.894	362.75
266.126	360.75
266.358	355.75
266.591	339.75
266.823	358.75
267.055	352.75
267.287	343.75
267.52	358.75
267.752	362.75
267.984	366.75
268.216	374.75
268.448	385.75
268.681	363.75
268.913	367.75
269.145	388.75
269.377	391.75
269.609	372.75
269.841	380.75
270.073	381.75
270.306	393.75
270.538	391.75
270.77	367.75
271.002	388.75
271.234	378.75
271.466	392.75
271.698	374.75
271.93	402.75
272.162	404.75
272.394	374.75
272.626	403.75
272.858	387.75
273.09	392.75
273.322	410.75
273.553	395.75
273.785	412.75
274.017	430.75
274.249	405.75
274.481	404.75
274.713	393.75
274.945	414.75
275.176	402.75
275.408	410.75
275.64	419.75
275.872	423.75
276.104	415.75
276.335	410.75
276.567	425.75
276.799	416.75
277.031	422.75
277.262	423.75
277.494	418.75
277.726	416.75
277.957	433.75
278.189	438.75
278.421	456.75
278.652	441.75
278.884	453.75
279.115	423.75
279.347	461.75
279.579	433.75
279.81	434.75
280.042	441.75
280.273	445.75
280.505	484.75
280.736	456.75
280.968	449.75
281.199	464.75
281.431	438.75
281.662	440.75
281.894	482.75
282.125	467.75
282.356	466.75
282.588	466.75
282.819	475.75
283.051	476.75
283.282	465.75
283.513	458.75
283.745	466.75
283.976	492.75
284.207	497.75
284.439	470.75
284.67	466.75
284.901	491.75
285.132	490.75
285.364	484.75
285.595	503.75
285.826	486.75
286.057	495.75
286.288	496.75
286.52	486.75
286.751	498.75
286.982	491.75
287.213	513.75
287.444	491.75
287.675	504.75
287.906	515.75
288.138	516.75
288.369	491.75
288.6	500.75
288.831	514.75
289.062	508.75
289.293	514.75
289.524	513.75
289.755	524.75
289.986	531.75
290.217	523.75
290.448	525.75
290.679	536.75
290.91	524.75
291.141	524.75
291.371	526.75
291.602	535.75
291.833	510.75
292.064	529.75
292.295	518.75
292.526	531.75
292.757	531.75
292.987	515.75
293.218	510.75
293.449	579.75
293.68	550.75
293.91	534.75
294.141	540.75
294.372	533.75
294.603	512.75
294.833	544.75
295.064	533.75
295.295	528.75
295.525	555.75
295.756	561.75
295.987	546.75
296.217	545.75
296.448	548.75
296.679	554.75
296.909	546.75
297.14	543.75
297.37	576.75
297.601	581.75
297.831	563.75
298.062	566.75
298.292	582.75
298.523	602.75
298.753	610.75
298.984	610.75
299.214	598.75
299.445	568.75
299.675	575.75
299.905	576.75
300.136	571.75
300.366	562.75
300.597	585.75
300.827	597.75
301.057	603.75
301.288	614.75
301.518	617.75
301.748	593.75
301.979	599.75
302.209	601.75
302.439	594.75
302.669	611.75
302.9	584.75
303.13	611.75
303.36	608.75
303.59	568.75
303.82	591.75
304.051	608.75
304.281	594.75
304.511	594.75
304.741	628.75
304.971	592.75
305.201	577.75
305.431	579.75
305.661	587.75
305.891	592.75
306.121	573.75
306.352	590.75
306.582	589.75
306.812	586.75
307.042	585.75
307.272	579.75
307.502	561.75
307.731	560.75
307.961	566.75
308.191	590.75
308.421	602.75
308.651	578.75
308.881	580.75
309.111	583.75
309.341	580.75
309.571	570.75
309.8	585.75
310.03	588.75
310.26	588.75
310.49	575.75
310.72	586.75
310.949	595.75
311.179	597.75
311.409	588.75
311.639	591.75
311.868	577.75
312.098	604.75
312.328	592.75
312.557	595.75
312.787	594.75
313.017	607.75
313.246	628.75
313.476	607.75
313.706	615.75
313.935	636.75
314.165	653.75
314.394	634.75
314.624	622.75
314.853	600.75
315.083	598.75
315.312	613.75
315.542	633.75
315.771	609.75
316.001	602.75
316.23	589.75
316.46	601.75
316.689	601.75
316.919	594.75
317.148	577.75
317.377	596.75
317.607	597.75
317.836	589.75
318.065	606.75
318.295	638.75
318.524	602.75
318.753	570.75
318.983	604.75
319.212	603.75
319.441	582.75
319.67	614.75
319.9	606.75
320.129	596.75
320.358	587.75
320.587	606.75
320.816	635.75
321.046	592.75
321.275	628.75
321.504	603.75
321.733	604.75
321.962	614.75
322.191	609.75
322.42	586.75
322.649	603.75
322.878	632.75
323.108	619.75
323.337	624.75
323.566	624.75
323.795	634.75
324.024	610.75
324.253	598.75
324.482	628.75
324.71	635.75
324.939	617.75
325.168	652.75
325.397	630.75
325.626	637.75
325.855	659.75
326.084	650.75
326.313	672.75
326.542	660.75
326.77	689.75
326.999	672.75
327.228	664.75
327.457	678.75
327.686	677.75
327.914	650.75
328.143	679.75
328.372	667.75
328.6	675.75
328.829	672.75
329.058	657.75
329.287	661.75
329.515	682.75
329.744	681.75
329.972	679.75
330.201	674.75
330.43	701.75
330.658	697.75
330.887	689.75
331.115	701.75
331.344	703.75
331.572	705.75
331.801	712.75
332.03	730.75
332.258	726.75
332.486	763.75
332.715	804.75
332.943	830.75
333.172	843.75
333.4	907.75
333.629	914.75
333.857	911.75
334.085	899.75
334.314	867.75
334.542	859.75
334.771	855.75
334.999	831.75
335.227	852.75
335.455	817.75
335.684	847.75
335.912	840.75
336.14	810.75
336.369	823.75
336.597	786.75
336.825	806.75
337.053	811.75
337.281	779.75
337.51	786.75
337.738	773.75
337.966	756.75
338.194	752.75
338.422	729.75
338.65	726.75
338.878	729.75
339.106	740.75
339.334	724.75
339.562	716.75
339.79	701.75
340.018	718.75
340.246	680.75
340.474	679.75
340.702	694.75
340.93	701.75
341.158	706.75
341.386	665.75
341.614	688.75
341.842	678.75
342.07	677.75
342.298	689.75
342.526	695.75
342.754	707.75
342.981	697.75
343.209	699.75
343.437	747.75
343.665	788.75
343.893	844.75
344.12	883.75
344.348	836.75
344.576	790.75
344.804	754.75
345.031	744.75
345.259	726.75
345.487	702.75
345.714	718.75
345.942	702.75
346.17	700.75
346.397	676.75
346.625	690.75
346.853	690.75
347.08	677.75
347.308	687.75
347.535	693.75
347.763	689.75
347.99	722.75
348.218	683.75
348.445	675.75
348.673	684.75
348.9	675.75
349.128	676.75
349.355	682.75
349.583	692.75
349.81	664.75
350.037	671.75
350.265	664.75
350.492	665.75
350.72	660.75
350.947	667.75
351.174	646.75
351.402	646.75
351.629	634.75
351.856	649.75
352.083	638.75
352.311	620.75
352.538	656.75
352.765	642.75
352.992	625.75
353.22	636.75
353.447	638.75
353.674	656.75
353.901	635.75
354.128	627.75
354.355	628.75
354.583	640.75
354.81	653.75
355.037	627.75
355.264	652.75
355.491	670.75
355.718	652.75
355.945	651.75
356.172	648.75
356.399	656.75
356.626	662.75
356.853	642.75
357.08	662.75
357.307	668.75
357.534	665.75
357.761	668.75
357.988	649.75
358.215	651.75
358.441	637.75
358.668	682.75
358.895	656.75
359.122	634.75
359.349	674.75
359.576	630.75
359.802	641.75
360.029	652.75
360.256	646.75
360.483	656.75
360.709	634.75
360.936	663.75
361.163	655.75
361.39	624.75
361.616	643.75
361.843	637.75
362.07	647.75
362.296	660.75
362.523	662.75
362.749	640.75
362.976	629.75
363.203	665.75
363.429	635.75
363.656	630.75
363.882	661.75
364.109	629.75
364.335	628.75
364.562	638.75
364.788	650.75
365.015	638.75
365.241	644.75
365.468	646.75
365.694	663.75
365.92	643.75
366.147	650.75
366.373	658.75
366.599	622.75
366.826	647.75
367.052	643.75
367.278	649.75
367.505	645.75
367.731	681.75
367.957	649.75
368.184	658.75
368.41	658.75
368.636	644.75
368.862	670.75
369.089	671.75
369.315	687.75
369.541	659.75
369.767	665.75
369.993	689.75
370.219	680.75
370.445	689.75
370.672	682.75
370.898	696.75
371.124	702.75
371.35	718.75
371.576	700.75
371.802	700.75
372.028	687.75
372.254	717.75
372.48	703.75
372.706	733.75
372.932	714.75
373.158	742.75
373.384	714.75
373.61	691.75
373.835	712.75
374.061	692.75
374.287	716.75
374.513	710.75
374.739	727.75
374.965	784.75
375.191	790.75
375.416	781.75
375.642	750.75
375.868	760.75
376.094	763.75
376.319	770.75
376.545	732.75
376.771	752.75
376.997	714.75
377.222	723.75
377.448	728.75
377.674	708.75
377.899	692.75
378.125	691.75
378.35	699.75
378.576	683.75
378.802	704.75
379.027	696.75
379.253	683.75
379.478	701.75
379.704	683.75
379.929	705.75
380.155	714.75
380.38	699.75
380.606	712.75
380.831	698.75
381.057	700.75
381.282	709.75
381.507	722.75
381.733	705.75
381.958	716.75
382.184	715.75
382.409	741.75
382.634	756.75
382.86	733.75
383.085	759.75
383.31	794.75
383.535	778.75
383.761	770.75
383.986	823.75
384.211	834.75
384.436	858.75
384.662	853.75
384.887	873.75
385.112	878.75
385.337	851.75
385.562	867.75
385.787	872.75
386.013	885.75
386.238	872.75
386.463	884.75
386.688	860.75
386.913	841.75
387.138	867.75
387.363	841.75
387.588	820.75
387.813	842.75
388.038	862.75
388.263	843.75
388.488	841.75
388.713	850.75
388.938	818.75
389.163	815.75
389.387	826.75
389.612	837.75
389.837	820.75
390.062	826.75
390.287	833.75
390.512	824.75
390.736	840.75
390.961	835.75
391.186	859.75
391.411	899.75
391.636	944.75
391.86	944.75
392.085	992.75
392.31	960.75
392.534	914.75
392.759	910.75
392.984	902.75
393.208	900.75
393.433	890.75
393.658	906.75
393.882	899.75
394.107	903.75
394.331	921.75
394.556	910.75
394.78	902.75
395.005	917.75
395.229	907.75
395.454	940.75
395.678	931.75
395.903	967.75
396.127	939.75
396.352	881.75
396.576	894.75
396.801	894.75
397.025	889.75
397.249	901.75
397.474	951.75
397.698	920.75
397.922	940.75
398.147	956.75
398.371	963.75
398.595	994.75
398.82	1059.75
399.044	1114.75
399.268	1211.75
399.492	1469.75
399.717	1685.75
399.941	1710.75
400.165	1462.75
400.389	1286.75
400.613	1189.75
400.837	1131.75
401.062	1064.75
401.286	1052.75
401.51	1064.75
401.734	1049.75
401.958	1104.75
402.182	1044.75
402.406	1087.75
402.63	1118.75
402.854	1144.75
403.078	1148.75
403.302	1214.75
403.526	1206.75
403.75	1258.75
403.974	1294.75
404.198	1272.75
404.422	1296.75
404.645	1278.75
404.869	1208.75
405.093	1238.75
405.317	1203.75
405.541	1211.75
405.765	1170.75
405.988	1180.75
406.212	1188.75
406.436	1157.75
406.66	1207.75
406.883	1195.75
407.107	1288.75
407.331	1346.75
407.555	1407.75
407.778	1376.75
408.002	1377.75
408.226	1317.75
408.449	1270.75
408.673	1255.75
408.896	1228.75
409.12	1196.75
409.344	1238.75
409.567	1193.75
409.791	1256.75
410.014	1251.75
410.238	1243.75
410.461	1218.75
410.685	1218.75
410.908	1148.75
411.132	1148.75
411.355	1114.75
411.578	1130.75
411.802	1111.75
412.025	1144.75
412.249	1156.75
412.472	1134.75
412.695	1118.75
412.919	1068.75
413.142	1066.75
413.365	1067.75
413.589	1086.75
413.812	1058.75
414.035	1028.75
414.258	1035.75
414.482	1062.75
414.705	1110.75
414.928	1096.75
415.151	1073.75
415.374	1097.75
415.597	1054.75
415.821	1051.75
416.044	1054.75
416.267	1034.75
416.49	1025.75
416.713	1060.75
416.936	1065.75
417.159	1074.75
417.382	1024.75
417.605	1056.75
417.828	1077.75
418.051	1054.75
418.274	1048.75
418.497	1085.75
418.72	1108.75
418.943	1088.75
419.166	1179.75
419.389	1215.75
419.611	1231.75
419.834	1171.75
420.057	1126.75
420.28	1083.75
420.503	1059.75
420.726	1056.75
420.948	1031.75
421.171	1053.75
421.394	1008.75
421.617	1047.75
421.839	1054.75
422.062	1079.75
422.285	1033.75
422.507	1098.75
422.73	1078.75
422.953	1055.75
423.175	1126.75
423.398	1174.75
423.621	1120.75
423.843	1119.75
424.066	1163.75
424.288	1165.75
424.511	1121.75
424.733	1117.75
424.956	1091.75
425.178	1086.75
425.401	1054.75
425.623	1066.75
425.846	1007.75
426.068	1018.75
426.291	1014.75
426.513	1012.75
426.735	985.75
426.958	991.75
427.18	971.75
427.402	962.75
427.625	965.75
427.847	952.75
428.069	941.75
428.292	950.75
428.514	928.75
428.736	925.75
428.958	930.75
429.181	923.75
429.403	944.75
429.625	944.75
429.847	911.75
430.069	902.75
430.292	934.75
430.514	891.75
430.736	897.75
430.958	932.75
431.18	898.75
431.402	943.75
431.624	922.75
431.846	932.75
432.068	947.75
432.29	981.75
432.512	926.75
432.734	936.75
432.956	936.75
433.178	934.75
433.4	972.75
433.622	956.75
433.844	959.75
434.066	959.75
434.287	951.75
434.509	991.75
434.731	1040.75
434.953	1082.75
435.175	1081.75
435.397	1064.75
435.618	1037.75
435.84	994.75
436.062	987.75
436.284	919.75
436.505	938.75
436.727	962.75
436.949	967.75
437.17	930.75
437.392	901.75
437.614	925.75
437.835	900.75
438.057	926.75
438.278	899.75
438.5	884.75
438.721	919.75
438.943	936.75
439.165	906.75
439.386	910.75
439.608	905.75
439.829	940.75
440.05	928.75
440.272	974.75
440.493	970.75
440.715	946.75
440.936	970.75
441.158	1006.75
441.379	1008.75
441.6	1051.75
441.822	1086.75
442.043	1081.75
442.264	1089.75
442.486	1059.75
442.707	1031.75
442.928	1045.75
443.149	1072.75
443.371	1044.75
443.592	1059.75
443.813	1050.75
444.034	1093.75
444.255	1114.75
444.476	1202.75
444.698	1238.75
444.919	1293.75
445.14	1404.75
445.361	1213.75
445.582	1111.75
445.803	1024.75
446.024	1042.75
446.245	1008.75
446.466	973.75
446.687	954.75
446.908	947.75
447.129	918.75
447.35	913.75
447.571	909.75
447.792	904.75
448.013	908.75
448.234	881.75
448.455	872.75
448.675	859.75
448.896	851.75
449.117	863.75
449.338	861.75
449.559	873.75
449.779	854.75
450	858.75
450.221	879.75
450.442	887.75
450.662	883.75
450.883	907.75
451.104	920.75
451.324	909.75
451.545	920.75
451.766	884.75
451.986	895.75
452.207	883.75
452.428	877.75
452.648	878.75
452.869	870.75
453.089	873.75
453.31	889.75
453.53	884.75
453.751	851.75
453.971	855.75
454.192	852.75
454.412	830.75
454.633	841.75
454.853	826.75
455.073	830.75
455.294	820.75
455.514	830.75
455.734	800.75
455.955	836.75
456.175	821.75
456.395	798.75
456.616	798.75
456.836	804.75
457.056	800.75
457.276	808.75
457.497	820.75
457.717	808.75
457.937	814.75
458.157	829.75
458.377	844.75
458.598	867.75
458.818	883.75
459.038	932.75
459.258	942.75
459.478	964.75
459.698	968.75
459.918	1003.75
460.138	1060.75
460.358	1110.75
460.578	1148.75
460.798	1138.75
461.018	1155.75
461.238	1139.75
461.458	1108.75
461.678	1094.75
461.898	1129.75
462.118	1107.75
462.338	1174.75
462.558	1227.75
462.777	1252.75
462.997	1380.75
463.217	1525.75
463.437	1594.75
463.657	1429.75
463.876	1348.75
464.096	1317.75
464.316	1375.75
464.536	1361.75
464.755	1318.75
464.975	1292.75
465.195	1182.75
465.414	1109.75
465.634	1050.75
465.854	1024.75
466.073	990.75
466.293	932.75
466.512	950.75
466.732	890.75
466.951	921.75
467.171	915.75
467.391	918.75
467.61	919.75
467.829	938.75
468.049	914.75
468.268	893.75
468.488	854.75
468.707	881.75
468.927	863.75
469.146	882.75
469.365	890.75
469.585	879.75
469.804	948.75
470.023	943.75
470.243	930.75
470.462	940.75
470.681	968.75
470.901	944.75
471.12	934.75
471.339	928.75
471.558	892.75
471.777	875.75
471.997	863.75
472.216	878.75
472.435	884.75
472.654	862.75
472.873	864.75
473.092	850.75
473.311	809.75
473.53	852.75
473.749	851.75
473.968	869.75
474.187	849.75
474.406	836.75
474.625	856.75
474.844	858.75
475.063	825.75
475.282	853.75
475.501	871.75
475.72	883.75
475.939	871.75
476.158	890.75
476.377	896.75
476.596	869.75
476.814	887.75
477.033	911.75
477.252	910.75
477.471	931.75
477.69	951.75
477.908	1000.75
478.127	991.75
478.346	1006.75
478.564	1043.75
478.783	1054.75
479.002	1096.75
479.22	1083.75
479.439	1083.75
479.658	1086.75
479.876	1058.75
480.095	1062.75
480.313	1111.75
480.532	1200.75
480.751	1166.75
480.969	1119.75
481.188	1065.75
481.406	1028.75
481.624	1009.75
481.843	995.75
482.061	984.75
482.28	964.75
482.498	976.75
482.717	967.75
482.935	954.75
483.153	975.75
483.372	976.75
483.59	954.75
483.808	979.75
484.027	958.75
484.245	969.75
484.463	995.75
484.681	1042.75
484.9	1023.75
485.118	1024.75
485.336	982.75
485.554	1046.75
485.772	1022.75
485.99	1025.75
486.209	1055.75
486.427	1056.75
486.645	1054.75
486.863	1070.75
487.081	1029.75
487.299	1022.75
487.517	1031.75
487.735	1037.75
487.953	1040.75
488.171	1000.75
488.389	1008.75
488.607	994.75
488.825	977.75
489.043	988.75
489.261	978.75
489.479	995.75
489.696	995.75
489.914	1030.75
490.132	1001.75
490.35	1051.75
490.568	987.75
490.786	993.75
491.003	1002.75
491.221	1038.75
491.439	1062.75
491.657	1042.75
491.874	1020.75
492.092	1017.75
492.31	1035.75
492.527	1042.75
492.745	1044.75
492.963	1028.75
493.18	1048.75
493.398	1047.75
493.615	1055.75
493.833	1072.75
494.05	1064.75
494.268	1083.75
494.485	1080.75
494.703	1107.75
494.92	1072.75
495.138	1084.75
495.355	1079.75
495.573	1080.75
495.79	1066.75
496.008	1086.75
496.225	1080.75
496.442	1114.75
496.66	1137.75
496.877	1119.75
497.094	1136.75
497.312	1168.75
497.529	1183.75
497.746	1226.75
497.963	1279.75
498.181	1312.75
