Data from Ni(NO3)2@0.25M.TitratingCurve.Agarose3%dH2O.NegLispCup.LampEnergy10.LIBS07252019_HRD10591_18-04-03-566.txt Node
Date: Thu Jul 25 18:04:03 EDT 2019
User: cochatt
Spectrometer: HR+D1059
Trigger mode: 1
Integration Time (sec): 1.000000E-1
Scans to average: 1
Electric dark correction enabled: true
Nonlinearity correction enabled: false
Boxcar width: 0
XAxis mode: Wavelengths
Number of Pixels in Spectrum: 2048
>>>>>Begin Spectral Data<<<<<
223.165	-22.88
223.4	-22.88
223.635	-22.88
223.869	-2.88
224.104	-8.88
224.338	-10.88
224.573	-24.88
224.808	-12.88
225.042	-12.88
225.277	-0.88
225.511	5.12
225.746	-6.88
225.98	12.12
226.215	5.12
226.449	11.12
226.683	18.12
226.918	21.12
227.152	31.12
227.387	28.12
227.621	40.12
227.856	33.12
228.09	47.12
228.324	40.12
228.559	57.12
228.793	51.12
229.027	96.12
229.262	104.12
229.496	116.12
229.73	121.12
229.964	131.12
230.199	131.12
230.433	145.12
230.667	133.12
230.901	148.12
231.136	136.12
231.37	153.12
231.604	160.12
231.838	138.12
232.072	139.12
232.306	154.12
232.541	164.12
232.775	143.12
233.009	149.12
233.243	141.12
233.477	149.12
233.711	148.12
233.945	142.12
234.179	140.12
234.413	152.12
234.647	145.12
234.881	148.12
235.115	159.12
235.349	145.12
235.583	138.12
235.817	137.12
236.051	155.12
236.285	151.12
236.519	149.12
236.753	149.12
236.987	147.12
237.221	160.12
237.455	164.12
237.689	151.12
237.922	165.12
238.156	161.12
238.39	155.12
238.624	152.12
238.858	158.12
239.091	148.12
239.325	175.12
239.559	169.12
239.793	173.12
240.027	182.12
240.26	170.12
240.494	179.12
240.728	164.12
240.961	175.12
241.195	177.12
241.429	169.12
241.662	195.12
241.896	200.12
242.13	201.12
242.363	191.12
242.597	179.12
242.83	183.12
243.064	191.12
243.298	178.12
243.531	194.12
243.765	210.12
243.998	209.12
244.232	204.12
244.465	207.12
244.699	207.12
244.932	206.12
245.166	196.12
245.399	221.12
245.633	202.12
245.866	221.12
246.099	203.12
246.333	227.12
246.566	225.12
246.8	225.12
247.033	204.12
247.266	214.12
247.5	219.12
247.733	243.12
247.966	220.12
248.2	243.12
248.433	225.12
248.666	236.12
248.899	239.12
249.133	223.12
249.366	237.12
249.599	235.12
249.832	245.12
250.066	231.12
250.299	228.12
250.532	261.12
250.765	259.12
250.998	261.12
251.231	282.12
251.465	267.12
251.698	273.12
251.931	272.12
252.164	261.12
252.397	288.12
252.63	273.12
252.863	278.12
253.096	263.12
253.329	280.12
253.562	297.12
253.795	283.12
254.028	306.12
254.261	303.12
254.494	297.12
254.727	311.12
254.96	300.12
255.193	303.12
255.426	303.12
255.659	314.12
255.892	305.12
256.124	329.12
256.357	315.12
256.59	342.12
256.823	307.12
257.056	327.12
257.289	328.12
257.521	329.12
257.754	333.12
257.987	325.12
258.22	356.12
258.452	348.12
258.685	352.12
258.918	329.12
259.151	330.12
259.383	352.12
259.616	344.12
259.849	345.12
260.081	359.12
260.314	381.12
260.547	372.12
260.779	370.12
261.012	373.12
261.244	360.12
261.477	387.12
261.71	369.12
261.942	360.12
262.175	375.12
262.407	380.12
262.64	360.12
262.872	389.12
263.105	360.12
263.337	379.12
263.57	409.12
263.802	389.12
264.035	378.12
264.267	403.12
264.499	402.12
264.732	391.12
264.964	396.12
265.197	400.12
265.429	402.12
265.661	403.12
265.894	408.12
266.126	403.12
266.358	395.12
266.591	415.12
266.823	413.12
267.055	422.12
267.287	411.12
267.52	428.12
267.752	393.12
267.984	400.12
268.216	427.12
268.448	452.12
268.681	416.12
268.913	423.12
269.145	409.12
269.377	442.12
269.609	433.12
269.841	432.12
270.073	436.12
270.306	437.12
270.538	436.12
270.77	420.12
271.002	447.12
271.234	437.12
271.466	449.12
271.698	442.12
271.93	446.12
272.162	457.12
272.394	454.12
272.626	451.12
272.858	445.12
273.09	460.12
273.322	482.12
273.553	454.12
273.785	460.12
274.017	456.12
274.249	455.12
274.481	460.12
274.713	469.12
274.945	491.12
275.176	477.12
275.408	490.12
275.64	480.12
275.872	482.12
276.104	494.12
276.335	478.12
276.567	483.12
276.799	484.12
277.031	488.12
277.262	490.12
277.494	489.12
277.726	482.12
277.957	483.12
278.189	478.12
278.421	479.12
278.652	499.12
278.884	496.12
279.115	482.12
279.347	503.12
279.579	511.12
279.81	517.12
280.042	500.12
280.273	536.12
280.505	492.12
280.736	499.12
280.968	517.12
281.199	501.12
281.431	505.12
281.662	519.12
281.894	502.12
282.125	513.12
282.356	533.12
282.588	511.12
282.819	513.12
283.051	531.12
283.282	507.12
283.513	513.12
283.745	523.12
283.976	536.12
284.207	532.12
284.439	524.12
284.67	532.12
284.901	545.12
285.132	540.12
285.364	521.12
285.595	543.12
285.826	527.12
286.057	539.12
286.288	543.12
286.52	539.12
286.751	529.12
286.982	537.12
287.213	537.12
287.444	562.12
287.675	537.12
287.906	549.12
288.138	549.12
288.369	563.12
288.6	568.12
288.831	547.12
289.062	581.12
289.293	550.12
289.524	563.12
289.755	554.12
289.986	553.12
290.217	556.12
290.448	539.12
290.679	563.12
290.91	577.12
291.141	567.12
291.371	566.12
291.602	561.12
291.833	559.12
292.064	570.12
292.295	560.12
292.526	559.12
292.757	548.12
292.987	546.12
293.218	575.12
293.449	580.12
293.68	550.12
293.91	569.12
294.141	557.12
294.372	580.12
294.603	556.12
294.833	569.12
295.064	579.12
295.295	552.12
295.525	567.12
295.756	599.12
295.987	562.12
296.217	583.12
296.448	593.12
296.679	565.12
296.909	561.12
297.14	584.12
297.37	589.12
297.601	607.12
297.831	587.12
298.062	620.12
298.292	611.12
298.523	619.12
298.753	626.12
298.984	623.12
299.214	611.12
299.445	616.12
299.675	614.12
299.905	602.12
300.136	610.12
300.366	640.12
300.597	639.12
300.827	655.12
301.057	631.12
301.288	657.12
301.518	637.12
301.748	654.12
301.979	639.12
302.209	624.12
302.439	641.12
302.669	654.12
302.9	632.12
303.13	618.12
303.36	620.12
303.59	637.12
303.82	665.12
304.051	660.12
304.281	645.12
304.511	649.12
304.741	652.12
304.971	631.12
305.201	667.12
305.431	666.12
305.661	661.12
305.891	644.12
306.121	643.12
306.352	639.12
306.582	651.12
306.812	644.12
307.042	637.12
307.272	627.12
307.502	653.12
307.731	644.12
307.961	644.12
308.191	660.12
308.421	641.12
308.651	629.12
308.881	643.12
309.111	638.12
309.341	653.12
309.571	647.12
309.8	655.12
310.03	677.12
310.26	679.12
310.49	706.12
310.72	665.12
310.949	645.12
311.179	651.12
311.409	660.12
311.639	695.12
311.868	698.12
312.098	689.12
312.328	691.12
312.557	693.12
312.787	663.12
313.017	705.12
313.246	691.12
313.476	703.12
313.706	732.12
313.935	707.12
314.165	731.12
314.394	698.12
314.624	722.12
314.853	708.12
315.083	723.12
315.312	724.12
315.542	727.12
315.771	713.12
316.001	731.12
316.23	753.12
316.46	745.12
316.689	739.12
316.919	740.12
317.148	721.12
317.377	730.12
317.607	734.12
317.836	720.12
318.065	720.12
318.295	744.12
318.524	762.12
318.753	738.12
318.983	771.12
319.212	755.12
319.441	765.12
319.67	752.12
319.9	779.12
320.129	759.12
320.358	751.12
320.587	771.12
320.816	761.12
321.046	783.12
321.275	787.12
321.504	791.12
321.733	784.12
321.962	795.12
322.191	803.12
322.42	806.12
322.649	779.12
322.878	806.12
323.108	808.12
323.337	836.12
323.566	833.12
323.795	840.12
324.024	832.12
324.253	829.12
324.482	814.12
324.71	837.12
324.939	823.12
325.168	831.12
325.397	840.12
325.626	840.12
325.855	869.12
326.084	882.12
326.313	893.12
326.542	875.12
326.77	888.12
326.999	865.12
327.228	903.12
327.457	878.12
327.686	886.12
327.914	916.12
328.143	896.12
328.372	922.12
328.6	944.12
328.829	888.12
329.058	897.12
329.287	930.12
329.515	920.12
329.744	927.12
329.972	946.12
330.201	937.12
330.43	937.12
330.658	931.12
330.887	927.12
331.115	959.12
331.344	979.12
331.572	985.12
331.801	992.12
332.03	999.12
332.258	1011.12
332.486	1045.12
332.715	1028.12
332.943	1075.12
333.172	1106.12
333.4	1105.12
333.629	1143.12
333.857	1155.12
334.085	1198.12
334.314	1185.12
334.542	1168.12
334.771	1145.12
334.999	1144.12
335.227	1158.12
335.455	1170.12
335.684	1186.12
335.912	1176.12
336.14	1167.12
336.369	1162.12
336.597	1145.12
336.825	1183.12
337.053	1175.12
337.281	1130.12
337.51	1115.12
337.738	1118.12
337.966	1122.12
338.194	1114.12
338.422	1129.12
338.65	1086.12
338.878	1069.12
339.106	1029.12
339.334	1087.12
339.562	1095.12
339.79	1050.12
340.018	1031.12
340.246	1035.12
340.474	1040.12
340.702	1031.12
340.93	1048.12
341.158	1052.12
341.386	1049.12
341.614	1101.12
341.842	1082.12
342.07	1061.12
342.298	1045.12
342.526	1050.12
342.754	1025.12
342.981	1029.12
343.209	1045.12
343.437	1107.12
343.665	1148.12
343.893	1137.12
344.12	1154.12
344.348	1155.12
344.576	1153.12
344.804	1120.12
345.031	1089.12
345.259	1079.12
345.487	1074.12
345.714	1054.12
345.942	1080.12
346.17	1084.12
346.397	1062.12
346.625	1013.12
346.853	979.12
347.08	992.12
347.308	1024.12
347.535	998.12
347.763	997.12
347.99	977.12
348.218	996.12
348.445	995.12
348.673	975.12
348.9	990.12
349.128	990.12
349.355	987.12
349.583	999.12
349.81	953.12
350.037	976.12
350.265	936.12
350.492	981.12
350.72	953.12
350.947	1000.12
351.174	981.12
351.402	1015.12
351.629	1027.12
351.856	1007.12
352.083	983.12
352.311	978.12
352.538	1024.12
352.765	1010.12
352.992	983.12
353.22	932.12
353.447	943.12
353.674	921.12
353.901	920.12
354.128	956.12
354.355	925.12
354.583	932.12
354.81	929.12
355.037	938.12
355.264	939.12
355.491	924.12
355.718	945.12
355.945	941.12
356.172	951.12
356.399	964.12
356.626	1014.12
356.853	1002.12
357.08	957.12
357.307	947.12
357.534	948.12
357.761	927.12
357.988	951.12
358.215	947.12
358.441	945.12
358.668	945.12
358.895	946.12
359.122	950.12
359.349	923.12
359.576	951.12
359.802	960.12
360.029	939.12
360.256	951.12
360.483	952.12
360.709	973.12
360.936	971.12
361.163	959.12
361.39	962.12
361.616	967.12
361.843	975.12
362.07	1008.12
362.296	977.12
362.523	915.12
362.749	936.12
362.976	980.12
363.203	923.12
363.429	953.12
363.656	969.12
363.882	940.12
364.109	951.12
364.335	952.12
364.562	951.12
364.788	939.12
365.015	941.12
365.241	950.12
365.468	933.12
365.694	941.12
365.92	945.12
366.147	931.12
366.373	951.12
366.599	953.12
366.826	921.12
367.052	936.12
367.278	950.12
367.505	958.12
367.731	953.12
367.957	929.12
368.184	939.12
368.41	963.12
368.636	935.12
368.862	934.12
369.089	932.12
369.315	978.12
369.541	981.12
369.767	992.12
369.993	987.12
370.219	967.12
370.445	990.12
370.672	973.12
370.898	986.12
371.124	1010.12
371.35	994.12
371.576	988.12
371.802	1026.12
372.028	1001.12
372.254	997.12
372.48	1011.12
372.706	1031.12
372.932	1006.12
373.158	1009.12
373.384	1016.12
373.61	1011.12
373.835	1026.12
374.061	1002.12
374.287	999.12
374.513	1023.12
374.739	1053.12
374.965	1065.12
375.191	1051.12
375.416	1029.12
375.642	1025.12
375.868	1046.12
376.094	1027.12
376.319	1000.12
376.545	993.12
376.771	989.12
376.997	983.12
377.222	995.12
377.448	985.12
377.674	979.12
377.899	967.12
378.125	966.12
378.35	968.12
378.576	977.12
378.802	979.12
379.027	951.12
379.253	973.12
379.478	973.12
379.704	956.12
379.929	977.12
380.155	964.12
380.38	954.12
380.606	974.12
380.831	985.12
381.057	979.12
381.282	997.12
381.507	963.12
381.733	978.12
381.958	972.12
382.184	993.12
382.409	992.12
382.634	979.12
382.86	1012.12
383.085	992.12
383.31	1045.12
383.535	1050.12
383.761	1035.12
383.986	1049.12
384.211	1057.12
384.436	1085.12
384.662	1078.12
384.887	1106.12
385.112	1083.12
385.337	1111.12
385.562	1107.12
385.787	1139.12
386.013	1165.12
386.238	1151.12
386.463	1149.12
386.688	1149.12
386.913	1143.12
387.138	1152.12
387.363	1147.12
387.588	1118.12
387.813	1191.12
388.038	1151.12
388.263	1126.12
388.488	1140.12
388.713	1151.12
388.938	1137.12
389.163	1147.12
389.387	1155.12
389.612	1163.12
389.837	1152.12
390.062	1133.12
390.287	1163.12
390.512	1148.12
390.736	1177.12
390.961	1163.12
391.186	1160.12
391.411	1203.12
391.636	1214.12
391.86	1222.12
392.085	1238.12
392.31	1228.12
392.534	1235.12
392.759	1249.12
392.984	1183.12
393.208	1217.12
393.433	1213.12
393.658	1212.12
393.882	1221.12
394.107	1203.12
394.331	1217.12
394.556	1199.12
394.78	1228.12
395.005	1231.12
395.229	1207.12
395.454	1270.12
395.678	1248.12
395.903	1281.12
396.127	1274.12
396.352	1250.12
396.576	1257.12
396.801	1275.12
397.025	1278.12
397.249	1252.12
397.474	1306.12
397.698	1317.12
397.922	1312.12
398.147	1327.12
398.371	1367.12
398.595	1388.12
398.82	1459.12
399.044	1457.12
399.268	1581.12
399.492	1700.12
399.717	1811.12
399.941	1810.12
400.165	1789.12
400.389	1663.12
400.613	1617.12
400.837	1528.12
401.062	1545.12
401.286	1526.12
401.51	1463.12
401.734	1474.12
401.958	1447.12
402.182	1458.12
402.406	1448.12
402.63	1438.12
402.854	1455.12
403.078	1467.12
403.302	1462.12
403.526	1514.12
403.75	1483.12
403.974	1515.12
404.198	1467.12
404.422	1514.12
404.645	1513.12
404.869	1492.12
405.093	1531.12
405.317	1479.12
405.541	1510.12
405.765	1531.12
405.988	1542.12
406.212	1546.12
406.436	1543.12
406.66	1596.12
406.883	1600.12
407.107	1665.12
407.331	1677.12
407.555	1730.12
407.778	1721.12
408.002	1703.12
408.226	1717.12
408.449	1703.12
408.673	1649.12
408.896	1633.12
409.12	1634.12
409.344	1603.12
409.567	1626.12
409.791	1594.12
410.014	1577.12
410.238	1610.12
410.461	1563.12
410.685	1560.12
410.908	1520.12
411.132	1511.12
411.355	1504.12
411.578	1505.12
411.802	1506.12
412.025	1514.12
412.249	1510.12
412.472	1525.12
412.695	1498.12
412.919	1506.12
413.142	1483.12
413.365	1479.12
413.589	1483.12
413.812	1450.12
414.035	1479.12
414.258	1504.12
414.482	1498.12
414.705	1507.12
414.928	1472.12
415.151	1505.12
415.374	1438.12
415.597	1453.12
415.821	1440.12
416.044	1438.12
416.267	1428.12
416.49	1460.12
416.713	1459.12
416.936	1445.12
417.159	1415.12
417.382	1420.12
417.605	1403.12
417.828	1423.12
418.051	1452.12
418.274	1457.12
418.497	1448.12
418.72	1491.12
418.943	1452.12
419.166	1517.12
419.389	1621.12
419.611	1622.12
419.834	1550.12
420.057	1525.12
420.28	1482.12
420.503	1413.12
420.726	1427.12
420.948	1418.12
421.171	1448.12
421.394	1446.12
421.617	1439.12
421.839	1439.12
422.062	1437.12
422.285	1452.12
422.507	1461.12
422.73	1435.12
422.953	1453.12
423.175	1450.12
423.398	1469.12
423.621	1460.12
423.843	1474.12
424.066	1481.12
424.288	1463.12
424.511	1444.12
424.733	1480.12
424.956	1486.12
425.178	1479.12
425.401	1452.12
425.623	1449.12
425.846	1416.12
426.068	1409.12
426.291	1393.12
426.513	1410.12
426.735	1415.12
426.958	1432.12
427.18	1354.12
427.402	1407.12
427.625	1423.12
427.847	1355.12
428.069	1378.12
428.292	1397.12
428.514	1339.12
428.736	1390.12
428.958	1393.12
429.181	1341.12
429.403	1336.12
429.625	1369.12
429.847	1362.12
430.069	1346.12
430.292	1349.12
430.514	1371.12
430.736	1359.12
430.958	1368.12
431.18	1389.12
431.402	1386.12
431.624	1338.12
431.846	1387.12
432.068	1384.12
432.29	1391.12
432.512	1385.12
432.734	1387.12
432.956	1372.12
433.178	1374.12
433.4	1376.12
433.622	1420.12
433.844	1424.12
434.066	1414.12
434.287	1417.12
434.509	1424.12
434.731	1470.12
434.953	1468.12
435.175	1483.12
435.397	1499.12
435.618	1436.12
435.84	1434.12
436.062	1385.12
436.284	1381.12
436.505	1401.12
436.727	1388.12
436.949	1363.12
437.17	1407.12
437.392	1372.12
437.614	1356.12
437.835	1331.12
438.057	1377.12
438.278	1304.12
438.5	1311.12
438.721	1340.12
438.943	1352.12
439.165	1316.12
439.386	1341.12
439.608	1381.12
439.829	1380.12
440.05	1401.12
440.272	1411.12
440.493	1355.12
440.715	1359.12
440.936	1409.12
441.158	1417.12
441.379	1455.12
441.6	1488.12
441.822	1480.12
442.043	1472.12
442.264	1470.12
442.486	1420.12
442.707	1463.12
442.928	1452.12
443.149	1515.12
443.371	1507.12
443.592	1492.12
443.813	1493.12
444.034	1507.12
444.255	1549.12
444.476	1580.12
444.698	1592.12
444.919	1668.12
445.14	1690.12
445.361	1603.12
445.582	1553.12
445.803	1484.12
446.024	1465.12
446.245	1468.12
446.466	1418.12
446.687	1377.12
446.908	1407.12
447.129	1380.12
447.35	1378.12
447.571	1369.12
447.792	1293.12
448.013	1345.12
448.234	1317.12
448.455	1334.12
448.675	1281.12
448.896	1274.12
449.117	1293.12
449.338	1297.12
449.559	1239.12
449.779	1290.12
450	1247.12
450.221	1269.12
450.442	1272.12
450.662	1291.12
450.883	1236.12
451.104	1276.12
451.324	1249.12
451.545	1240.12
451.766	1270.12
451.986	1259.12
452.207	1231.12
452.428	1243.12
452.648	1232.12
452.869	1218.12
453.089	1210.12
453.31	1247.12
453.53	1217.12
453.751	1223.12
453.971	1207.12
454.192	1187.12
454.412	1209.12
454.633	1171.12
454.853	1179.12
455.073	1215.12
455.294	1227.12
455.514	1192.12
455.734	1227.12
455.955	1175.12
456.175	1176.12
456.395	1174.12
456.616	1204.12
456.836	1217.12
457.056	1208.12
457.276	1201.12
457.497	1244.12
457.717	1240.12
457.937	1235.12
458.157	1257.12
458.377	1256.12
458.598	1310.12
458.818	1303.12
459.038	1332.12
459.258	1356.12
459.478	1383.12
459.698	1443.12
459.918	1445.12
460.138	1499.12
460.358	1540.12
460.578	1553.12
460.798	1556.12
461.018	1563.12
461.238	1609.12
461.458	1564.12
461.678	1552.12
461.898	1647.12
462.118	1641.12
462.338	1687.12
462.558	1684.12
462.777	1758.12
462.997	1831.12
463.217	1857.12
463.437	1908.12
463.657	1817.12
463.876	1756.12
464.096	1792.12
464.316	1779.12
464.536	1718.12
464.755	1693.12
464.975	1654.12
465.195	1578.12
465.414	1571.12
465.634	1469.12
465.854	1417.12
466.073	1439.12
466.293	1413.12
466.512	1395.12
466.732	1328.12
466.951	1356.12
467.171	1354.12
467.391	1352.12
467.61	1361.12
467.829	1335.12
468.049	1328.12
468.268	1299.12
468.488	1304.12
468.707	1285.12
468.927	1329.12
469.146	1314.12
469.365	1313.12
469.585	1301.12
469.804	1349.12
470.023	1304.12
470.243	1354.12
470.462	1342.12
470.681	1368.12
470.901	1360.12
471.12	1317.12
471.339	1375.12
471.558	1332.12
471.777	1332.12
471.997	1308.12
472.216	1319.12
472.435	1305.12
472.654	1270.12
472.873	1314.12
473.092	1267.12
473.311	1261.12
473.53	1269.12
473.749	1285.12
473.968	1296.12
474.187	1257.12
474.406	1247.12
474.625	1293.12
474.844	1308.12
475.063	1284.12
475.282	1331.12
475.501	1312.12
475.72	1331.12
475.939	1339.12
476.158	1336.12
476.377	1370.12
476.596	1367.12
476.814	1383.12
477.033	1382.12
477.252	1400.12
477.471	1413.12
477.69	1435.12
477.908	1465.12
478.127	1460.12
478.346	1493.12
478.564	1514.12
478.783	1519.12
479.002	1535.12
479.22	1608.12
479.439	1574.12
479.658	1549.12
479.876	1564.12
480.095	1596.12
480.313	1622.12
480.532	1604.12
480.751	1607.12
480.969	1579.12
481.188	1533.12
481.406	1548.12
481.624	1529.12
481.843	1529.12
482.061	1524.12
482.28	1498.12
482.498	1482.12
482.717	1480.12
482.935	1496.12
483.153	1510.12
483.372	1514.12
483.59	1525.12
483.808	1509.12
484.027	1450.12
484.245	1497.12
484.463	1507.12
484.681	1524.12
484.9	1525.12
485.118	1554.12
485.336	1506.12
485.554	1506.12
485.772	1516.12
485.99	1549.12
486.209	1500.12
486.427	1516.12
486.645	1552.12
486.863	1531.12
487.081	1524.12
487.299	1522.12
487.517	1567.12
487.735	1564.12
487.953	1562.12
488.171	1565.12
488.389	1555.12
488.607	1562.12
488.825	1552.12
489.043	1513.12
489.261	1563.12
489.479	1567.12
489.696	1543.12
489.914	1533.12
490.132	1573.12
490.35	1576.12
490.568	1620.12
490.786	1600.12
491.003	1587.12
491.221	1610.12
491.439	1578.12
491.657	1595.12
491.874	1593.12
492.092	1599.12
492.31	1661.12
492.527	1629.12
492.745	1643.12
492.963	1613.12
493.18	1613.12
493.398	1648.12
