Data from Ni(NO3)2Standard.Agarose3%.GreenCap.LampEnergy5.5.E.O_HRD10591_14-41-44-187.txt Node
Date: Mon Jul 22 14:41:44 EDT 2019
User: cochatt
Spectrometer: HR+D1059
Trigger mode: 1
Integration Time (sec): 1.000000E-1
Scans to average: 1
Electric dark correction enabled: true
Nonlinearity correction enabled: false
Boxcar width: 0
XAxis mode: Wavelengths
Number of Pixels in Spectrum: 2048
>>>>>Begin Spectral Data<<<<<
223.165	-20.25
223.4	-20.25
223.635	-20.25
223.869	-22.25
224.104	-3.25
224.338	-10.25
224.573	-30.25
224.808	-22.25
225.042	-10.25
225.277	0.75
225.511	-2.25
225.746	4.75
225.98	11.75
226.215	10.75
226.449	7.75
226.683	10.75
226.918	35.75
227.152	38.75
227.387	37.75
227.621	44.75
227.856	51.75
228.09	38.75
228.324	31.75
228.559	60.75
228.793	46.75
229.027	63.75
229.262	69.75
229.496	76.75
229.73	68.75
229.964	74.75
230.199	74.75
230.433	63.75
230.667	74.75
230.901	80.75
231.136	70.75
231.37	70.75
231.604	85.75
231.838	83.75
232.072	88.75
232.306	88.75
232.541	68.75
232.775	79.75
233.009	79.75
233.243	72.75
233.477	86.75
233.711	83.75
233.945	78.75
234.179	80.75
234.413	89.75
234.647	83.75
234.881	82.75
235.115	73.75
235.349	72.75
235.583	74.75
235.817	99.75
236.051	64.75
236.285	67.75
236.519	80.75
236.753	79.75
236.987	81.75
237.221	74.75
237.455	87.75
237.689	83.75
237.922	72.75
238.156	90.75
238.39	89.75
238.624	82.75
238.858	85.75
239.091	80.75
239.325	69.75
239.559	80.75
239.793	86.75
240.027	81.75
240.26	79.75
240.494	71.75
240.728	82.75
240.961	72.75
241.195	84.75
241.429	77.75
241.662	67.75
241.896	77.75
242.13	72.75
242.363	77.75
242.597	66.75
242.83	70.75
243.064	77.75
243.298	82.75
243.531	91.75
243.765	83.75
243.998	88.75
244.232	75.75
244.465	88.75
244.699	80.75
244.932	92.75
245.166	60.75
245.399	87.75
245.633	69.75
245.866	82.75
246.099	97.75
246.333	87.75
246.566	70.75
246.8	79.75
247.033	92.75
247.266	76.75
247.5	83.75
247.733	81.75
247.966	85.75
248.2	81.75
248.433	85.75
248.666	75.75
248.899	80.75
249.133	73.75
249.366	65.75
249.599	88.75
249.832	89.75
250.066	78.75
250.299	94.75
250.532	80.75
250.765	79.75
250.998	77.75
251.231	81.75
251.465	82.75
251.698	92.75
251.931	91.75
252.164	74.75
252.397	85.75
252.63	77.75
252.863	82.75
253.096	67.75
253.329	77.75
253.562	86.75
253.795	91.75
254.028	85.75
254.261	81.75
254.494	80.75
254.727	95.75
254.96	97.75
255.193	76.75
255.426	78.75
255.659	63.75
255.892	85.75
256.124	88.75
256.357	82.75
256.59	85.75
256.823	73.75
257.056	83.75
257.289	88.75
257.521	70.75
257.754	75.75
257.987	77.75
258.22	86.75
258.452	84.75
258.685	77.75
258.918	76.75
259.151	91.75
259.383	80.75
259.616	73.75
259.849	81.75
260.081	96.75
260.314	84.75
260.547	67.75
260.779	80.75
261.012	84.75
261.244	72.75
261.477	88.75
261.71	74.75
261.942	85.75
262.175	96.75
262.407	88.75
262.64	92.75
262.872	67.75
263.105	75.75
263.337	91.75
263.57	77.75
263.802	92.75
264.035	76.75
264.267	88.75
264.499	65.75
264.732	95.75
264.964	91.75
265.197	97.75
265.429	96.75
265.661	92.75
265.894	91.75
266.126	81.75
266.358	75.75
266.591	90.75
266.823	75.75
267.055	66.75
267.287	96.75
267.52	63.75
267.752	81.75
267.984	83.75
268.216	73.75
268.448	84.75
268.681	85.75
268.913	88.75
269.145	87.75
269.377	87.75
269.609	83.75
269.841	81.75
270.073	81.75
270.306	68.75
270.538	83.75
270.77	93.75
271.002	88.75
271.234	87.75
271.466	89.75
271.698	86.75
271.93	80.75
272.162	88.75
272.394	91.75
272.626	84.75
272.858	84.75
273.09	91.75
273.322	95.75
273.553	85.75
273.785	80.75
274.017	85.75
274.249	90.75
274.481	79.75
274.713	86.75
274.945	72.75
275.176	86.75
275.408	90.75
275.64	91.75
275.872	77.75
276.104	90.75
276.335	83.75
276.567	82.75
276.799	94.75
277.031	85.75
277.262	83.75
277.494	87.75
277.726	84.75
277.957	89.75
278.189	92.75
278.421	91.75
278.652	89.75
278.884	83.75
279.115	84.75
279.347	81.75
279.579	96.75
279.81	81.75
280.042	91.75
280.273	84.75
280.505	89.75
280.736	103.75
280.968	98.75
281.199	91.75
281.431	99.75
281.662	81.75
281.894	76.75
282.125	83.75
282.356	76.75
282.588	79.75
282.819	74.75
283.051	85.75
283.282	74.75
283.513	103.75
283.745	93.75
283.976	106.75
284.207	85.75
284.439	73.75
284.67	81.75
284.901	80.75
285.132	76.75
285.364	84.75
285.595	71.75
285.826	95.75
286.057	89.75
286.288	91.75
286.52	77.75
286.751	85.75
286.982	88.75
287.213	86.75
287.444	85.75
287.675	77.75
287.906	88.75
288.138	93.75
288.369	91.75
288.6	85.75
288.831	86.75
289.062	97.75
289.293	93.75
289.524	95.75
289.755	85.75
289.986	76.75
290.217	75.75
290.448	78.75
290.679	78.75
290.91	92.75
291.141	79.75
291.371	86.75
291.602	89.75
291.833	82.75
292.064	91.75
292.295	92.75
292.526	86.75
292.757	100.75
292.987	84.75
293.218	80.75
293.449	84.75
293.68	84.75
293.91	85.75
294.141	82.75
294.372	80.75
294.603	103.75
294.833	89.75
295.064	86.75
295.295	97.75
295.525	87.75
295.756	90.75
295.987	78.75
296.217	88.75
296.448	100.75
296.679	86.75
296.909	86.75
297.14	80.75
297.37	82.75
297.601	73.75
297.831	91.75
298.062	91.75
298.292	90.75
298.523	105.75
298.753	90.75
298.984	84.75
299.214	101.75
299.445	93.75
299.675	93.75
299.905	88.75
300.136	87.75
300.366	95.75
300.597	91.75
300.827	93.75
301.057	90.75
301.288	85.75
301.518	89.75
301.748	93.75
301.979	78.75
302.209	85.75
302.439	85.75
302.669	82.75
302.9	94.75
303.13	72.75
303.36	87.75
303.59	88.75
303.82	90.75
304.051	111.75
304.281	95.75
304.511	76.75
304.741	92.75
304.971	81.75
305.201	95.75
305.431	83.75
305.661	96.75
305.891	70.75
306.121	81.75
306.352	73.75
306.582	94.75
306.812	94.75
307.042	87.75
307.272	79.75
307.502	69.75
307.731	69.75
307.961	83.75
308.191	83.75
308.421	83.75
308.651	72.75
308.881	85.75
309.111	81.75
309.341	80.75
309.571	80.75
309.8	98.75
310.03	90.75
310.26	82.75
310.49	106.75
310.72	88.75
310.949	88.75
311.179	84.75
311.409	88.75
311.639	75.75
311.868	83.75
312.098	73.75
312.328	78.75
312.557	97.75
312.787	88.75
313.017	83.75
313.246	76.75
313.476	76.75
313.706	88.75
313.935	96.75
314.165	91.75
314.394	83.75
314.624	104.75
314.853	81.75
315.083	83.75
315.312	87.75
315.542	76.75
315.771	75.75
316.001	86.75
316.23	103.75
316.46	82.75
316.689	87.75
316.919	77.75
317.148	93.75
317.377	98.75
317.607	85.75
317.836	86.75
318.065	73.75
318.295	103.75
318.524	84.75
318.753	90.75
318.983	90.75
319.212	80.75
319.441	76.75
319.67	92.75
319.9	87.75
320.129	83.75
320.358	83.75
320.587	79.75
320.816	85.75
321.046	100.75
321.275	97.75
321.504	84.75
321.733	84.75
321.962	97.75
322.191	96.75
322.42	89.75
322.649	79.75
322.878	86.75
323.108	93.75
323.337	89.75
323.566	75.75
323.795	84.75
324.024	87.75
324.253	81.75
324.482	97.75
324.71	92.75
324.939	75.75
325.168	83.75
325.397	78.75
325.626	104.75
325.855	85.75
326.084	84.75
326.313	86.75
326.542	84.75
326.77	74.75
326.999	72.75
327.228	77.75
327.457	77.75
327.686	78.75
327.914	77.75
328.143	90.75
328.372	90.75
328.6	89.75
328.829	108.75
329.058	77.75
329.287	78.75
329.515	79.75
329.744	75.75
329.972	88.75
330.201	88.75
330.43	90.75
330.658	85.75
330.887	81.75
331.115	75.75
331.344	89.75
331.572	96.75
331.801	89.75
332.03	90.75
332.258	92.75
332.486	88.75
332.715	96.75
332.943	89.75
333.172	93.75
333.4	84.75
333.629	83.75
333.857	81.75
334.085	72.75
334.314	95.75
334.542	90.75
334.771	85.75
334.999	82.75
335.227	95.75
335.455	85.75
335.684	90.75
335.912	92.75
336.14	75.75
336.369	109.75
336.597	92.75
336.825	92.75
337.053	97.75
337.281	99.75
337.51	86.75
337.738	87.75
337.966	97.75
338.194	74.75
338.422	93.75
338.65	112.75
338.878	83.75
339.106	77.75
339.334	81.75
339.562	86.75
339.79	85.75
340.018	86.75
340.246	93.75
340.474	88.75
340.702	95.75
340.93	88.75
341.158	87.75
341.386	77.75
341.614	78.75
341.842	85.75
342.07	86.75
342.298	84.75
342.526	90.75
342.754	105.75
342.981	96.75
343.209	85.75
343.437	80.75
343.665	80.75
343.893	82.75
344.12	100.75
344.348	88.75
344.576	96.75
344.804	96.75
345.031	87.75
345.259	81.75
345.487	84.75
345.714	78.75
345.942	93.75
346.17	97.75
346.397	82.75
346.625	89.75
346.853	83.75
347.08	90.75
347.308	91.75
347.535	92.75
347.763	97.75
347.99	89.75
348.218	75.75
348.445	69.75
348.673	91.75
348.9	92.75
349.128	76.75
349.355	98.75
349.583	92.75
349.81	87.75
350.037	61.75
350.265	84.75
350.492	90.75
350.72	92.75
350.947	85.75
351.174	92.75
351.402	90.75
351.629	86.75
351.856	93.75
352.083	88.75
352.311	82.75
352.538	84.75
352.765	101.75
352.992	95.75
353.22	91.75
353.447	91.75
353.674	92.75
353.901	93.75
354.128	75.75
354.355	79.75
354.583	99.75
354.81	96.75
355.037	88.75
355.264	95.75
355.491	92.75
355.718	84.75
355.945	76.75
356.172	92.75
356.399	99.75
356.626	90.75
356.853	76.75
357.08	96.75
357.307	87.75
357.534	86.75
357.761	103.75
357.988	86.75
358.215	92.75
358.441	87.75
358.668	90.75
358.895	93.75
359.122	84.75
359.349	76.75
359.576	74.75
359.802	60.75
360.029	81.75
360.256	79.75
360.483	90.75
360.709	85.75
360.936	100.75
361.163	92.75
361.39	99.75
361.616	88.75
361.843	87.75
362.07	84.75
362.296	88.75
362.523	74.75
362.749	72.75
362.976	87.75
363.203	83.75
363.429	76.75
363.656	94.75
363.882	82.75
364.109	82.75
364.335	97.75
364.562	84.75
364.788	83.75
365.015	94.75
365.241	87.75
365.468	80.75
365.694	81.75
365.92	74.75
366.147	86.75
366.373	87.75
366.599	85.75
366.826	84.75
367.052	87.75
367.278	80.75
367.505	83.75
367.731	95.75
367.957	74.75
368.184	81.75
368.41	92.75
368.636	82.75
368.862	93.75
369.089	90.75
369.315	84.75
369.541	89.75
369.767	82.75
369.993	83.75
370.219	100.75
370.445	92.75
370.672	88.75
370.898	86.75
371.124	99.75
371.35	93.75
371.576	86.75
371.802	96.75
372.028	71.75
372.254	74.75
372.48	76.75
372.706	87.75
372.932	100.75
373.158	84.75
373.384	83.75
373.61	88.75
373.835	83.75
374.061	80.75
374.287	91.75
374.513	80.75
374.739	91.75
374.965	76.75
375.191	84.75
375.416	90.75
375.642	101.75
375.868	86.75
376.094	80.75
376.319	74.75
376.545	86.75
376.771	90.75
376.997	82.75
377.222	82.75
377.448	100.75
377.674	71.75
377.899	92.75
378.125	85.75
378.35	88.75
378.576	74.75
378.802	78.75
379.027	82.75
379.253	91.75
379.478	80.75
379.704	78.75
379.929	85.75
380.155	91.75
380.38	81.75
380.606	77.75
380.831	88.75
381.057	81.75
381.282	90.75
381.507	82.75
381.733	90.75
381.958	92.75
382.184	78.75
382.409	85.75
382.634	94.75
382.86	89.75
383.085	91.75
383.31	73.75
383.535	91.75
383.761	90.75
383.986	89.75
384.211	84.75
384.436	83.75
384.662	84.75
384.887	80.75
385.112	84.75
385.337	75.75
385.562	73.75
385.787	85.75
386.013	83.75
386.238	86.75
386.463	88.75
386.688	81.75
386.913	89.75
387.138	71.75
387.363	84.75
387.588	86.75
387.813	97.75
388.038	75.75
388.263	83.75
388.488	92.75
388.713	100.75
388.938	89.75
389.163	77.75
389.387	83.75
389.612	73.75
389.837	83.75
390.062	92.75
390.287	70.75
390.512	70.75
390.736	91.75
390.961	101.75
391.186	69.75
391.411	102.75
391.636	99.75
391.86	77.75
392.085	101.75
392.31	92.75
392.534	75.75
392.759	80.75
392.984	83.75
393.208	89.75
393.433	83.75
393.658	84.75
393.882	57.75
394.107	88.75
394.331	84.75
394.556	77.75
394.78	101.75
395.005	90.75
395.229	82.75
395.454	98.75
395.678	84.75
395.903	89.75
396.127	85.75
396.352	82.75
396.576	90.75
396.801	82.75
397.025	91.75
397.249	86.75
397.474	82.75
397.698	89.75
397.922	77.75
398.147	79.75
398.371	84.75
398.595	71.75
398.82	84.75
399.044	78.75
399.268	87.75
399.492	90.75
399.717	97.75
399.941	82.75
400.165	107.75
400.389	86.75
400.613	74.75
400.837	80.75
401.062	73.75
401.286	84.75
401.51	88.75
401.734	86.75
401.958	81.75
402.182	87.75
402.406	81.75
402.63	83.75
402.854	83.75
403.078	98.75
403.302	88.75
403.526	77.75
403.75	82.75
403.974	79.75
404.198	84.75
404.422	78.75
404.645	87.75
404.869	78.75
405.093	90.75
405.317	96.75
405.541	75.75
405.765	96.75
405.988	87.75
406.212	87.75
406.436	86.75
406.66	86.75
406.883	86.75
407.107	74.75
407.331	89.75
407.555	82.75
407.778	90.75
408.002	92.75
408.226	96.75
408.449	88.75
408.673	88.75
408.896	79.75
409.12	88.75
409.344	82.75
409.567	82.75
409.791	77.75
410.014	96.75
410.238	84.75
410.461	86.75
410.685	89.75
410.908	88.75
411.132	100.75
411.355	80.75
411.578	71.75
411.802	79.75
412.025	83.75
412.249	93.75
412.472	70.75
412.695	95.75
412.919	80.75
413.142	99.75
413.365	85.75
413.589	84.75
413.812	85.75
414.035	86.75
414.258	91.75
414.482	99.75
414.705	71.75
414.928	91.75
415.151	97.75
415.374	67.75
415.597	92.75
415.821	79.75
416.044	94.75
416.267	98.75
416.49	76.75
416.713	76.75
416.936	92.75
417.159	99.75
417.382	89.75
417.605	85.75
417.828	86.75
418.051	73.75
418.274	89.75
418.497	95.75
418.72	87.75
418.943	84.75
419.166	76.75
419.389	76.75
419.611	75.75
419.834	69.75
420.057	76.75
420.28	75.75
420.503	94.75
420.726	97.75
420.948	82.75
421.171	87.75
421.394	81.75
421.617	83.75
421.839	87.75
422.062	92.75
422.285	86.75
422.507	89.75
422.73	92.75
422.953	82.75
423.175	76.75
423.398	76.75
423.621	86.75
423.843	78.75
424.066	81.75
424.288	91.75
424.511	87.75
424.733	80.75
424.956	82.75
425.178	93.75
425.401	87.75
425.623	89.75
425.846	82.75
426.068	85.75
426.291	92.75
426.513	91.75
426.735	87.75
426.958	97.75
427.18	78.75
427.402	98.75
427.625	74.75
427.847	82.75
428.069	85.75
428.292	100.75
428.514	89.75
428.736	71.75
428.958	95.75
429.181	78.75
429.403	93.75
429.625	101.75
429.847	83.75
430.069	78.75
430.292	90.75
430.514	81.75
430.736	83.75
430.958	96.75
431.18	86.75
431.402	87.75
431.624	70.75
431.846	93.75
432.068	82.75
432.29	81.75
432.512	87.75
432.734	88.75
432.956	83.75
433.178	92.75
433.4	79.75
433.622	85.75
433.844	79.75
434.066	97.75
434.287	76.75
434.509	75.75
434.731	88.75
434.953	90.75
435.175	82.75
435.397	94.75
435.618	77.75
435.84	75.75
436.062	78.75
436.284	90.75
436.505	78.75
436.727	86.75
436.949	88.75
437.17	76.75
437.392	80.75
437.614	86.75
437.835	81.75
438.057	99.75
438.278	109.75
438.5	76.75
438.721	86.75
438.943	81.75
439.165	78.75
439.386	88.75
439.608	72.75
439.829	75.75
440.05	84.75
440.272	89.75
440.493	83.75
440.715	98.75
440.936	96.75
441.158	88.75
441.379	85.75
441.6	89.75
441.822	98.75
442.043	77.75
442.264	91.75
442.486	95.75
442.707	87.75
442.928	85.75
443.149	86.75
443.371	87.75
443.592	86.75
443.813	89.75
444.034	94.75
444.255	89.75
444.476	86.75
444.698	93.75
444.919	79.75
445.14	177.75
445.361	134.75
445.582	91.75
445.803	79.75
446.024	91.75
446.245	101.75
446.466	91.75
446.687	81.75
446.908	82.75
447.129	100.75
447.35	70.75
447.571	80.75
447.792	83.75
448.013	75.75
448.234	79.75
448.455	84.75
448.675	88.75
448.896	81.75
449.117	81.75
449.338	86.75
449.559	84.75
449.779	87.75
450	77.75
450.221	84.75
450.442	73.75
450.662	84.75
450.883	83.75
451.104	91.75
451.324	96.75
451.545	77.75
451.766	88.75
451.986	76.75
452.207	78.75
452.428	75.75
452.648	95.75
452.869	87.75
453.089	91.75
453.31	76.75
453.53	85.75
453.751	83.75
453.971	92.75
454.192	78.75
454.412	74.75
454.633	85.75
454.853	90.75
455.073	90.75
455.294	73.75
455.514	80.75
455.734	81.75
455.955	92.75
456.175	76.75
456.395	87.75
456.616	94.75
456.836	84.75
457.056	84.75
457.276	84.75
457.497	88.75
457.717	79.75
457.937	96.75
458.157	86.75
458.377	78.75
458.598	86.75
458.818	79.75
459.038	80.75
459.258	90.75
459.478	87.75
459.698	86.75
459.918	87.75
460.138	67.75
460.358	89.75
460.578	76.75
460.798	69.75
461.018	91.75
461.238	87.75
461.458	77.75
461.678	89.75
461.898	90.75
462.118	99.75
462.338	91.75
462.558	90.75
462.777	82.75
462.997	103.75
463.217	95.75
463.437	81.75
463.657	80.75
463.876	84.75
464.096	88.75
464.316	87.75
464.536	85.75
464.755	91.75
464.975	72.75
465.195	74.75
465.414	85.75
465.634	93.75
465.854	87.75
466.073	95.75
466.293	89.75
466.512	84.75
466.732	78.75
466.951	75.75
467.171	87.75
467.391	84.75
467.61	73.75
467.829	85.75
468.049	87.75
468.268	71.75
468.488	90.75
468.707	77.75
468.927	77.75
469.146	75.75
469.365	91.75
469.585	82.75
469.804	87.75
470.023	94.75
470.243	91.75
470.462	92.75
470.681	102.75
470.901	85.75
471.12	85.75
471.339	85.75
471.558	90.75
471.777	89.75
471.997	89.75
472.216	92.75
472.435	86.75
472.654	76.75
472.873	83.75
473.092	90.75
473.311	87.75
473.53	95.75
473.749	76.75
473.968	97.75
474.187	97.75
474.406	84.75
474.625	86.75
474.844	91.75
475.063	81.75
475.282	82.75
475.501	82.75
475.72	82.75
475.939	100.75
476.158	90.75
476.377	87.75
476.596	63.75
476.814	83.75
477.033	85.75
477.252	98.75
477.471	102.75
477.69	101.75
477.908	94.75
478.127	92.75
478.346	90.75
478.564	83.75
478.783	89.75
479.002	89.75
479.22	89.75
479.439	85.75
479.658	101.75
479.876	97.75
480.095	95.75
480.313	74.75
480.532	109.75
480.751	99.75
480.969	86.75
481.188	89.75
481.406	100.75
481.624	106.75
481.843	95.75
482.061	76.75
482.28	95.75
482.498	88.75
482.717	86.75
482.935	97.75
483.153	81.75
483.372	98.75
483.59	87.75
483.808	88.75
484.027	90.75
484.245	93.75
484.463	88.75
484.681	90.75
484.9	90.75
485.118	99.75
485.336	95.75
485.554	75.75
485.772	91.75
485.99	92.75
486.209	87.75
486.427	69.75
486.645	78.75
486.863	85.75
487.081	105.75
487.299	100.75
487.517	92.75
487.735	71.75
487.953	108.75
488.171	99.75
488.389	90.75
488.607	81.75
488.825	95.75
489.043	85.75
489.261	91.75
489.479	102.75
489.696	102.75
489.914	90.75
490.132	93.75
490.35	97.75
490.568	84.75
490.786	72.75
491.003	88.75
491.221	113.75
491.439	99.75
491.657	107.75
491.874	86.75
492.092	96.75
492.31	95.75
492.527	103.75
492.745	93.75
492.963	103.75
493.18	96.75
493.398	86.75
493.615	106.75
493.833	92.75
494.05	84.75
494.268	95.75
494.485	104.75
494.703	87.75
494.92	106.75
495.138	102.75
495.355	78.75
495.573	104.75
495.79	104.75
496.008	103.75
496.225	109.75
496.442	99.75
496.66	96.75
496.877	113.75
497.094	93.75
497.312	94.75
497.529	101.75
497.746	89.75
497.963	106.75
498.181	100.75
498.398	91.75
498.615	87.75
498.832	104.75
499.049	96.75
499.267	108.75
499.484	102.75
499.701	113.75
499.918	109.75
500.135	116.75
500.352	123.75
500.569	100.75
500.786	111.75
501.003	96.75
501.22	101.75
501.437	117.75
501.654	107.75
501.871	103.75
502.088	103.75
502.305	100.75
502.522	111.75
502.739	94.75
502.956	103.75
503.172	81.75
503.389	100.75
503.606	96.75
503.823	107.75
504.04	85.75
504.256	101.75
504.473	107.75
504.69	95.75
504.907	107.75
505.123	114.75
505.34	97.75
505.557	99.75
505.773	91.75
505.99	86.75
506.207	91.75
506.423	101.75
506.64	89.75
506.856	102.75
507.073	99.75
507.289	89.75
507.506	83.75
507.722	94.75
507.939	97.75
508.155	94.75
508.372	87.75
508.588	86.75
508.805	100.75
509.021	92.75
509.238	92.75
509.454	75.75
509.67	86.75
509.887	93.75
510.103	87.75
510.319	83.75
510.536	96.75
510.752	92.75
510.968	92.75
511.184	83.75
511.401	88.75
511.617	89.75
511.833	101.75
512.049	84.75
512.265	106.75
512.481	91.75
512.698	94.75
512.914	77.75
513.13	95.75
513.346	101.75
513.562	85.75
513.778	99.75
513.994	106.75
514.21	86.75
514.426	101.75
514.642	95.75
514.858	89.75
515.074	97.75
515.29	83.75
515.506	100.75
515.721	95.75
515.937	98.75
516.153	88.75
516.369	92.75
516.585	97.75
516.801	94.75
517.016	97.75
517.232	105.75
517.448	91.75
517.664	92.75
517.879	106.75
518.095	82.75
