Data from Ni(NO3)2@0.25M.TitratingCurve.Agarose3%dH2O.NegLispCup.LampEnergy10.LIBS07252019_HRD10591_18-04-37-565.txt Node
Date: Thu Jul 25 18:04:37 EDT 2019
User: cochatt
Spectrometer: HR+D1059
Trigger mode: 1
Integration Time (sec): 1.000000E-1
Scans to average: 1
Electric dark correction enabled: true
Nonlinearity correction enabled: false
Boxcar width: 0
XAxis mode: Wavelengths
Number of Pixels in Spectrum: 2048
>>>>>Begin Spectral Data<<<<<
223.165	-14.62
223.4	-14.62
223.635	-14.62
223.869	-20.62
224.104	-23.62
224.338	-11.62
224.573	-19.62
224.808	-25.62
225.042	-14.62
225.277	-5.62
225.511	-17.62
225.746	-5.62
225.98	13.38
226.215	20.38
226.449	25.38
226.683	27.38
226.918	29.38
227.152	43.38
227.387	19.38
227.621	30.38
227.856	56.38
228.09	42.38
228.324	47.38
228.559	46.38
228.793	64.38
229.027	80.38
229.262	84.38
229.496	97.38
229.73	93.38
229.964	93.38
230.199	105.38
230.433	102.38
230.667	107.38
230.901	118.38
231.136	101.38
231.37	115.38
231.604	113.38
231.838	111.38
232.072	117.38
232.306	118.38
232.541	115.38
232.775	110.38
233.009	124.38
233.243	110.38
233.477	119.38
233.711	115.38
233.945	111.38
234.179	101.38
234.413	115.38
234.647	115.38
234.881	115.38
235.115	113.38
235.349	107.38
235.583	127.38
235.817	113.38
236.051	111.38
236.285	121.38
236.519	108.38
236.753	97.38
236.987	113.38
237.221	107.38
237.455	105.38
237.689	110.38
237.922	123.38
238.156	117.38
238.39	122.38
238.624	122.38
238.858	115.38
239.091	121.38
239.325	129.38
239.559	120.38
239.793	135.38
240.027	126.38
240.26	119.38
240.494	127.38
240.728	125.38
240.961	124.38
241.195	120.38
241.429	127.38
241.662	132.38
241.896	144.38
242.13	146.38
242.363	136.38
242.597	141.38
242.83	136.38
243.064	143.38
243.298	143.38
243.531	137.38
243.765	133.38
243.998	129.38
244.232	142.38
244.465	149.38
244.699	152.38
244.932	139.38
245.166	132.38
245.399	127.38
245.633	154.38
245.866	129.38
246.099	145.38
246.333	138.38
246.566	167.38
246.8	141.38
247.033	142.38
247.266	122.38
247.5	151.38
247.733	134.38
247.966	153.38
248.2	148.38
248.433	151.38
248.666	154.38
248.899	167.38
249.133	155.38
249.366	159.38
249.599	152.38
249.832	160.38
250.066	177.38
250.299	148.38
250.532	169.38
250.765	171.38
250.998	185.38
251.231	176.38
251.465	164.38
251.698	168.38
251.931	194.38
252.164	189.38
252.397	185.38
252.63	201.38
252.863	171.38
253.096	185.38
253.329	189.38
253.562	180.38
253.795	208.38
254.028	196.38
254.261	193.38
254.494	195.38
254.727	189.38
254.96	170.38
255.193	188.38
255.426	203.38
255.659	185.38
255.892	195.38
256.124	196.38
256.357	218.38
256.59	189.38
256.823	203.38
257.056	197.38
257.289	212.38
257.521	227.38
257.754	225.38
257.987	204.38
258.22	206.38
258.452	210.38
258.685	204.38
258.918	221.38
259.151	223.38
259.383	205.38
259.616	218.38
259.849	208.38
260.081	217.38
260.314	231.38
260.547	230.38
260.779	217.38
261.012	209.38
261.244	219.38
261.477	229.38
261.71	238.38
261.942	227.38
262.175	217.38
262.407	221.38
262.64	227.38
262.872	235.38
263.105	239.38
263.337	239.38
263.57	244.38
263.802	240.38
264.035	240.38
264.267	226.38
264.499	234.38
264.732	248.38
264.964	253.38
265.197	267.38
265.429	246.38
265.661	251.38
265.894	248.38
266.126	238.38
266.358	241.38
266.591	263.38
266.823	265.38
267.055	260.38
267.287	259.38
267.52	243.38
267.752	266.38
267.984	237.38
268.216	243.38
268.448	258.38
268.681	249.38
268.913	260.38
269.145	265.38
269.377	249.38
269.609	264.38
269.841	258.38
270.073	244.38
270.306	256.38
270.538	268.38
270.77	242.38
271.002	260.38
271.234	261.38
271.466	271.38
271.698	279.38
271.93	242.38
272.162	249.38
272.394	284.38
272.626	279.38
272.858	265.38
273.09	261.38
273.322	294.38
273.553	282.38
273.785	271.38
274.017	271.38
274.249	273.38
274.481	283.38
274.713	300.38
274.945	273.38
275.176	276.38
275.408	279.38
275.64	283.38
275.872	300.38
276.104	275.38
276.335	273.38
276.567	276.38
276.799	283.38
277.031	286.38
277.262	287.38
277.494	307.38
277.726	295.38
277.957	283.38
278.189	273.38
278.421	290.38
278.652	291.38
278.884	285.38
279.115	292.38
279.347	287.38
279.579	297.38
279.81	311.38
280.042	284.38
280.273	298.38
280.505	292.38
280.736	314.38
280.968	283.38
281.199	307.38
281.431	301.38
281.662	319.38
281.894	317.38
282.125	301.38
282.356	330.38
282.588	313.38
282.819	307.38
283.051	323.38
283.282	317.38
283.513	303.38
283.745	324.38
283.976	317.38
284.207	315.38
284.439	318.38
284.67	298.38
284.901	323.38
285.132	305.38
285.364	321.38
285.595	333.38
285.826	315.38
286.057	339.38
286.288	319.38
286.52	299.38
286.751	321.38
286.982	320.38
287.213	329.38
287.444	307.38
287.675	330.38
287.906	330.38
288.138	330.38
288.369	332.38
288.6	312.38
288.831	329.38
289.062	325.38
289.293	325.38
289.524	324.38
289.755	327.38
289.986	322.38
290.217	321.38
290.448	325.38
290.679	302.38
290.91	330.38
291.141	339.38
291.371	325.38
291.602	345.38
291.833	317.38
292.064	317.38
292.295	324.38
292.526	344.38
292.757	305.38
292.987	325.38
293.218	317.38
293.449	322.38
293.68	332.38
293.91	337.38
294.141	331.38
294.372	339.38
294.603	335.38
294.833	332.38
295.064	341.38
295.295	342.38
295.525	338.38
295.756	329.38
295.987	331.38
296.217	335.38
296.448	346.38
296.679	330.38
296.909	334.38
297.14	349.38
297.37	374.38
297.601	360.38
297.831	339.38
298.062	341.38
298.292	355.38
298.523	374.38
298.753	365.38
298.984	365.38
299.214	346.38
299.445	349.38
299.675	357.38
299.905	358.38
300.136	351.38
300.366	351.38
300.597	374.38
300.827	373.38
301.057	373.38
301.288	381.38
301.518	396.38
301.748	365.38
301.979	393.38
302.209	389.38
302.439	359.38
302.669	375.38
302.9	365.38
303.13	359.38
303.36	381.38
303.59	375.38
303.82	353.38
304.051	366.38
304.281	374.38
304.511	373.38
304.741	380.38
304.971	398.38
305.201	389.38
305.431	378.38
305.661	385.38
305.891	383.38
306.121	366.38
306.352	397.38
306.582	371.38
306.812	369.38
307.042	376.38
307.272	366.38
307.502	378.38
307.731	356.38
307.961	374.38
308.191	363.38
308.421	371.38
308.651	371.38
308.881	387.38
309.111	399.38
309.341	364.38
309.571	387.38
309.8	379.38
310.03	395.38
310.26	397.38
310.49	402.38
310.72	389.38
310.949	395.38
311.179	380.38
311.409	381.38
311.639	397.38
311.868	390.38
312.098	396.38
312.328	402.38
312.557	399.38
312.787	419.38
313.017	401.38
313.246	395.38
313.476	411.38
313.706	417.38
313.935	415.38
314.165	387.38
314.394	412.38
314.624	415.38
314.853	411.38
315.083	417.38
315.312	419.38
315.542	439.38
315.771	415.38
316.001	410.38
316.23	425.38
316.46	414.38
316.689	417.38
316.919	417.38
317.148	425.38
317.377	442.38
317.607	423.38
317.836	407.38
318.065	419.38
318.295	434.38
318.524	405.38
318.753	406.38
318.983	421.38
319.212	419.38
319.441	429.38
319.67	426.38
319.9	426.38
320.129	449.38
320.358	437.38
320.587	458.38
320.816	437.38
321.046	439.38
321.275	441.38
321.504	457.38
321.733	446.38
321.962	463.38
322.191	464.38
322.42	453.38
322.649	443.38
322.878	433.38
323.108	451.38
323.337	463.38
323.566	458.38
323.795	477.38
324.024	469.38
324.253	458.38
324.482	465.38
324.71	489.38
324.939	476.38
325.168	471.38
325.397	471.38
325.626	474.38
325.855	492.38
326.084	472.38
326.313	487.38
326.542	480.38
326.77	510.38
326.999	492.38
327.228	483.38
327.457	483.38
327.686	511.38
327.914	504.38
328.143	529.38
328.372	525.38
328.6	525.38
328.829	485.38
329.058	523.38
329.287	515.38
329.515	510.38
329.744	506.38
329.972	521.38
330.201	525.38
330.43	553.38
330.658	536.38
330.887	549.38
331.115	535.38
331.344	540.38
331.572	543.38
331.801	542.38
332.03	577.38
332.258	566.38
332.486	585.38
332.715	567.38
332.943	600.38
333.172	603.38
333.4	631.38
333.629	635.38
333.857	639.38
334.085	639.38
334.314	658.38
334.542	643.38
334.771	644.38
334.999	650.38
335.227	645.38
335.455	629.38
335.684	618.38
335.912	645.38
336.14	635.38
336.369	634.38
336.597	645.38
336.825	623.38
337.053	599.38
337.281	628.38
337.51	608.38
337.738	637.38
337.966	619.38
338.194	601.38
338.422	611.38
338.65	601.38
338.878	606.38
339.106	599.38
339.334	607.38
339.562	604.38
339.79	558.38
340.018	564.38
340.246	558.38
340.474	574.38
340.702	545.38
340.93	559.38
341.158	585.38
341.386	577.38
341.614	583.38
341.842	584.38
342.07	579.38
342.298	591.38
342.526	566.38
342.754	556.38
342.981	573.38
343.209	587.38
343.437	613.38
343.665	610.38
343.893	638.38
344.12	631.38
344.348	617.38
344.576	641.38
344.804	635.38
345.031	586.38
345.259	575.38
345.487	591.38
345.714	568.38
345.942	594.38
346.17	583.38
346.397	561.38
346.625	565.38
346.853	584.38
347.08	554.38
347.308	563.38
347.535	541.38
347.763	553.38
347.99	548.38
348.218	561.38
348.445	571.38
348.673	557.38
348.9	532.38
349.128	535.38
349.355	532.38
349.583	577.38
349.81	545.38
350.037	539.38
350.265	537.38
350.492	531.38
350.72	541.38
350.947	526.38
351.174	554.38
351.402	548.38
351.629	542.38
351.856	559.38
352.083	550.38
352.311	550.38
352.538	563.38
352.765	563.38
352.992	533.38
353.22	517.38
353.447	517.38
353.674	520.38
353.901	531.38
354.128	526.38
354.355	517.38
354.583	525.38
354.81	543.38
355.037	516.38
355.264	516.38
355.491	533.38
355.718	522.38
355.945	533.38
356.172	546.38
356.399	546.38
356.626	552.38
356.853	565.38
357.08	539.38
357.307	543.38
357.534	542.38
357.761	543.38
357.988	526.38
358.215	529.38
358.441	537.38
358.668	520.38
358.895	531.38
359.122	491.38
359.349	524.38
359.576	547.38
359.802	529.38
360.029	518.38
360.256	533.38
360.483	545.38
360.709	543.38
360.936	519.38
361.163	521.38
361.39	524.38
361.616	512.38
361.843	527.38
362.07	543.38
362.296	558.38
362.523	548.38
362.749	532.38
362.976	542.38
363.203	522.38
363.429	509.38
363.656	524.38
363.882	539.38
364.109	527.38
364.335	536.38
364.562	517.38
364.788	522.38
365.015	526.38
365.241	510.38
365.468	499.38
365.694	533.38
365.92	513.38
366.147	519.38
366.373	555.38
366.599	519.38
366.826	518.38
367.052	525.38
367.278	531.38
367.505	521.38
367.731	561.38
367.957	523.38
368.184	531.38
368.41	532.38
368.636	534.38
368.862	544.38
369.089	522.38
369.315	508.38
369.541	531.38
369.767	545.38
369.993	531.38
370.219	530.38
370.445	545.38
370.672	559.38
370.898	556.38
371.124	541.38
371.35	562.38
371.576	562.38
371.802	570.38
372.028	578.38
372.254	552.38
372.48	558.38
372.706	579.38
372.932	574.38
373.158	550.38
373.384	576.38
373.61	545.38
373.835	575.38
374.061	578.38
374.287	565.38
374.513	571.38
374.739	611.38
374.965	576.38
375.191	581.38
375.416	588.38
375.642	562.38
375.868	590.38
376.094	573.38
376.319	561.38
376.545	567.38
376.771	563.38
376.997	562.38
377.222	581.38
377.448	563.38
377.674	561.38
377.899	561.38
378.125	543.38
378.35	523.38
378.576	535.38
378.802	566.38
379.027	558.38
379.253	549.38
379.478	528.38
379.704	559.38
379.929	558.38
380.155	510.38
380.38	554.38
380.606	526.38
380.831	547.38
381.057	558.38
381.282	555.38
381.507	558.38
381.733	555.38
381.958	558.38
382.184	574.38
382.409	565.38
382.634	583.38
382.86	552.38
383.085	551.38
383.31	576.38
383.535	579.38
383.761	563.38
383.986	588.38
384.211	576.38
384.436	618.38
384.662	613.38
384.887	629.38
385.112	608.38
385.337	595.38
385.562	642.38
385.787	636.38
386.013	614.38
386.238	651.38
386.463	632.38
386.688	658.38
386.913	631.38
387.138	641.38
387.363	622.38
387.588	639.38
387.813	617.38
388.038	635.38
388.263	644.38
388.488	645.38
388.713	622.38
388.938	619.38
389.163	623.38
389.387	607.38
389.612	591.38
389.837	630.38
390.062	647.38
390.287	652.38
390.512	637.38
390.736	621.38
390.961	612.38
391.186	634.38
391.411	651.38
391.636	667.38
391.86	664.38
392.085	668.38
392.31	690.38
392.534	682.38
392.759	677.38
392.984	662.38
393.208	677.38
393.433	650.38
393.658	673.38
393.882	670.38
394.107	660.38
394.331	663.38
394.556	666.38
394.78	703.38
395.005	682.38
395.229	677.38
395.454	700.38
395.678	705.38
395.903	688.38
396.127	716.38
396.352	687.38
396.576	671.38
396.801	697.38
397.025	694.38
397.249	718.38
397.474	675.38
397.698	707.38
397.922	748.38
398.147	699.38
398.371	741.38
398.595	742.38
398.82	749.38
399.044	823.38
399.268	851.38
399.492	921.38
399.717	981.38
399.941	980.38
400.165	959.38
400.389	907.38
400.613	835.38
400.837	823.38
401.062	814.38
401.286	789.38
401.51	806.38
401.734	793.38
401.958	812.38
402.182	783.38
402.406	773.38
402.63	802.38
402.854	807.38
403.078	801.38
403.302	814.38
403.526	793.38
403.75	821.38
403.974	843.38
404.198	837.38
404.422	814.38
404.645	832.38
404.869	798.38
405.093	832.38
405.317	834.38
405.541	850.38
405.765	840.38
405.988	815.38
406.212	824.38
406.436	827.38
406.66	869.38
406.883	889.38
407.107	915.38
407.331	901.38
407.555	945.38
407.778	950.38
408.002	919.38
408.226	933.38
408.449	914.38
408.673	895.38
408.896	901.38
409.12	884.38
409.344	876.38
409.567	868.38
409.791	908.38
410.014	871.38
410.238	862.38
410.461	872.38
410.685	845.38
410.908	831.38
411.132	849.38
411.355	833.38
411.578	820.38
411.802	816.38
412.025	847.38
412.249	834.38
412.472	824.38
412.695	798.38
412.919	837.38
413.142	806.38
413.365	803.38
413.589	809.38
413.812	793.38
414.035	807.38
414.258	793.38
414.482	797.38
414.705	823.38
414.928	806.38
415.151	808.38
415.374	811.38
415.597	784.38
415.821	789.38
416.044	760.38
416.267	783.38
416.49	788.38
416.713	799.38
416.936	781.38
417.159	778.38
417.382	795.38
417.605	773.38
417.828	774.38
418.051	800.38
418.274	794.38
418.497	778.38
418.72	781.38
418.943	796.38
419.166	841.38
419.389	891.38
419.611	890.38
419.834	882.38
420.057	833.38
420.28	798.38
420.503	788.38
420.726	778.38
420.948	773.38
421.171	782.38
421.394	790.38
421.617	782.38
421.839	807.38
422.062	808.38
422.285	788.38
422.507	820.38
422.73	813.38
422.953	793.38
423.175	812.38
423.398	819.38
423.621	802.38
423.843	793.38
424.066	826.38
424.288	823.38
424.511	811.38
424.733	788.38
424.956	805.38
425.178	794.38
425.401	799.38
425.623	802.38
425.846	791.38
426.068	794.38
426.291	802.38
426.513	754.38
426.735	781.38
426.958	807.38
427.18	754.38
427.402	776.38
427.625	751.38
427.847	749.38
428.069	764.38
428.292	791.38
428.514	746.38
428.736	748.38
428.958	740.38
429.181	727.38
429.403	734.38
429.625	751.38
429.847	735.38
430.069	742.38
430.292	744.38
430.514	740.38
430.736	762.38
430.958	744.38
431.18	775.38
431.402	753.38
431.624	756.38
431.846	730.38
432.068	763.38
432.29	769.38
432.512	754.38
432.734	771.38
432.956	763.38
433.178	781.38
433.4	775.38
433.622	806.38
433.844	801.38
434.066	772.38
434.287	789.38
434.509	815.38
434.731	802.38
434.953	803.38
435.175	817.38
435.397	835.38
435.618	794.38
435.84	763.38
436.062	767.38
436.284	770.38
436.505	756.38
436.727	765.38
436.949	772.38
437.17	769.38
437.392	743.38
437.614	735.38
437.835	720.38
438.057	735.38
438.278	733.38
438.5	770.38
438.721	755.38
438.943	744.38
439.165	742.38
439.386	747.38
439.608	770.38
439.829	775.38
440.05	767.38
440.272	778.38
440.493	771.38
440.715	791.38
440.936	777.38
441.158	806.38
441.379	809.38
441.6	801.38
441.822	811.38
442.043	825.38
442.264	817.38
442.486	814.38
442.707	833.38
442.928	819.38
443.149	809.38
443.371	823.38
443.592	828.38
443.813	828.38
444.034	841.38
444.255	829.38
444.476	881.38
444.698	863.38
444.919	934.38
445.14	1009.38
445.361	915.38
445.582	841.38
445.803	828.38
446.024	799.38
446.245	821.38
446.466	797.38
446.687	785.38
446.908	778.38
447.129	755.38
447.35	771.38
447.571	761.38
447.792	747.38
448.013	742.38
448.234	746.38
448.455	697.38
448.675	720.38
448.896	710.38
449.117	735.38
449.338	748.38
449.559	727.38
449.779	699.38
450	705.38
450.221	707.38
450.442	734.38
450.662	706.38
450.883	714.38
451.104	725.38
451.324	726.38
451.545	707.38
451.766	705.38
451.986	702.38
452.207	708.38
452.428	705.38
452.648	701.38
452.869	687.38
453.089	697.38
453.31	711.38
453.53	673.38
453.751	669.38
453.971	699.38
454.192	659.38
454.412	682.38
454.633	679.38
454.853	674.38
455.073	679.38
455.294	670.38
455.514	682.38
455.734	679.38
455.955	670.38
456.175	665.38
456.395	655.38
456.616	646.38
456.836	655.38
457.056	675.38
457.276	661.38
457.497	669.38
457.717	669.38
457.937	684.38
458.157	706.38
458.377	668.38
458.598	705.38
458.818	709.38
459.038	734.38
459.258	739.38
459.478	733.38
459.698	786.38
459.918	805.38
460.138	810.38
460.358	854.38
460.578	830.38
460.798	856.38
461.018	870.38
461.238	855.38
461.458	864.38
461.678	860.38
461.898	861.38
462.118	849.38
462.338	922.38
462.558	912.38
462.777	931.38
462.997	1022.38
463.217	1016.38
463.437	1025.38
463.657	1006.38
463.876	967.38
464.096	925.38
464.316	965.38
464.536	951.38
464.755	921.38
464.975	917.38
465.195	860.38
465.414	867.38
465.634	820.38
465.854	803.38
466.073	771.38
466.293	767.38
466.512	768.38
466.732	741.38
466.951	754.38
467.171	747.38
467.391	745.38
467.61	754.38
467.829	741.38
468.049	729.38
468.268	723.38
468.488	715.38
468.707	738.38
468.927	755.38
469.146	731.38
469.365	748.38
469.585	729.38
469.804	753.38
470.023	754.38
470.243	756.38
470.462	762.38
470.681	741.38
470.901	753.38
471.12	742.38
471.339	756.38
471.558	771.38
471.777	762.38
471.997	737.38
472.216	705.38
472.435	726.38
472.654	720.38
472.873	697.38
473.092	717.38
473.311	716.38
473.53	723.38
473.749	689.38
473.968	727.38
474.187	714.38
474.406	693.38
474.625	721.38
474.844	723.38
475.063	726.38
475.282	724.38
475.501	731.38
475.72	745.38
475.939	733.38
476.158	768.38
476.377	741.38
476.596	766.38
476.814	758.38
477.033	742.38
477.252	760.38
477.471	775.38
477.69	775.38
477.908	805.38
478.127	812.38
478.346	829.38
478.564	829.38
478.783	836.38
479.002	854.38
479.22	859.38
479.439	847.38
479.658	843.38
479.876	842.38
480.095	858.38
480.313	865.38
480.532	887.38
480.751	881.38
480.969	849.38
481.188	858.38
481.406	812.38
481.624	829.38
481.843	829.38
482.061	825.38
482.28	818.38
482.498	781.38
482.717	791.38
482.935	813.38
483.153	838.38
483.372	832.38
483.59	826.38
483.808	806.38
484.027	841.38
484.245	806.38
484.463	835.38
484.681	861.38
484.9	841.38
485.118	819.38
485.336	807.38
485.554	838.38
485.772	828.38
485.99	857.38
486.209	848.38
486.427	841.38
486.645	850.38
486.863	839.38
487.081	848.38
487.299	885.38
487.517	855.38
487.735	869.38
487.953	883.38
488.171	873.38
488.389	837.38
488.607	841.38
488.825	845.38
489.043	845.38
489.261	852.38
489.479	837.38
489.696	846.38
489.914	851.38
490.132	858.38
490.35	866.38
490.568	883.38
490.786	879.38
491.003	885.38
491.221	877.38
491.439	884.38
491.657	901.38
491.874	898.38
492.092	909.38
492.31	907.38
492.527	898.38
492.745	920.38
492.963	891.38
493.18	911.38
493.398	878.38
493.615	893.38
493.833	903.38
494.05	925.38
494.268	936.38
494.485	914.38
494.703	927.38
494.92	940.38
495.138	926.38
495.355	938.38
495.573	945.38
495.79	933.38
496.008	955.38
496.225	954.38
496.442	978.38
496.66	970.38
496.877	977.38
497.094	999.38
497.312	1023.38
497.529	1036.38
497.746	1063.38
497.963	1077.38
498.181	1118.38
498.398	1144.38
498.615	1181.38
498.832	1256.38
499.049	1301.38
499.267	1377.38
499.484	1475.38
499.701	1597.38
499.918	1665.38
500.135	1764.38
500.352	1893.38
500.569	1959.38
500.786	1955.38
501.003	1882.38
501.22	1768.38
