Data from Ni(NO3)2Standard.Agarose3%.GreenCap.LampEnergy5.5.E.O_HRD10591_14-42-21-189.txt Node
Date: Mon Jul 22 14:42:21 EDT 2019
User: cochatt
Spectrometer: HR+D1059
Trigger mode: 1
Integration Time (sec): 1.000000E-1
Scans to average: 1
Electric dark correction enabled: true
Nonlinearity correction enabled: false
Boxcar width: 0
XAxis mode: Wavelengths
Number of Pixels in Spectrum: 2048
>>>>>Begin Spectral Data<<<<<
223.165	-18.75
223.4	-18.75
223.635	-18.75
223.869	-21.75
224.104	-11.75
224.338	-8.75
224.573	-6.75
224.808	-13.75
225.042	5.25
225.277	-12.75
225.511	-13.75
225.746	11.25
225.98	15.25
226.215	-2.75
226.449	3.25
226.683	26.25
226.918	11.25
227.152	38.25
227.387	30.25
227.621	32.25
227.856	40.25
228.09	38.25
228.324	47.25
228.559	58.25
228.793	50.25
229.027	58.25
229.262	71.25
229.496	60.25
229.73	55.25
229.964	76.25
230.199	73.25
230.433	76.25
230.667	83.25
230.901	85.25
231.136	68.25
231.37	81.25
231.604	74.25
231.838	81.25
232.072	67.25
232.306	91.25
232.541	81.25
232.775	86.25
233.009	80.25
233.243	86.25
233.477	74.25
233.711	84.25
233.945	66.25
234.179	83.25
234.413	67.25
234.647	87.25
234.881	80.25
235.115	67.25
235.349	69.25
235.583	80.25
235.817	84.25
236.051	74.25
236.285	67.25
236.519	73.25
236.753	72.25
236.987	77.25
237.221	78.25
237.455	72.25
237.689	70.25
237.922	85.25
238.156	71.25
238.39	65.25
238.624	81.25
238.858	63.25
239.091	72.25
239.325	80.25
239.559	82.25
239.793	83.25
240.027	60.25
240.26	61.25
240.494	81.25
240.728	75.25
240.961	77.25
241.195	65.25
241.429	73.25
241.662	84.25
241.896	74.25
242.13	86.25
242.363	69.25
242.597	77.25
242.83	76.25
243.064	80.25
243.298	75.25
243.531	71.25
243.765	72.25
243.998	81.25
244.232	76.25
244.465	82.25
244.699	64.25
244.932	85.25
245.166	71.25
245.399	62.25
245.633	80.25
245.866	69.25
246.099	77.25
246.333	74.25
246.566	70.25
246.8	80.25
247.033	82.25
247.266	82.25
247.5	89.25
247.733	90.25
247.966	73.25
248.2	87.25
248.433	80.25
248.666	78.25
248.899	74.25
249.133	75.25
249.366	88.25
249.599	88.25
249.832	82.25
250.066	84.25
250.299	82.25
250.532	87.25
250.765	88.25
250.998	74.25
251.231	84.25
251.465	88.25
251.698	85.25
251.931	80.25
252.164	87.25
252.397	92.25
252.63	86.25
252.863	70.25
253.096	72.25
253.329	74.25
253.562	77.25
253.795	83.25
254.028	81.25
254.261	73.25
254.494	92.25
254.727	80.25
254.96	72.25
255.193	74.25
255.426	79.25
255.659	72.25
255.892	73.25
256.124	78.25
256.357	88.25
256.59	74.25
256.823	84.25
257.056	73.25
257.289	94.25
257.521	75.25
257.754	88.25
257.987	75.25
258.22	77.25
258.452	72.25
258.685	73.25
258.918	91.25
259.151	63.25
259.383	78.25
259.616	78.25
259.849	72.25
260.081	72.25
260.314	81.25
260.547	78.25
260.779	68.25
261.012	88.25
261.244	75.25
261.477	87.25
261.71	93.25
261.942	76.25
262.175	92.25
262.407	82.25
262.64	85.25
262.872	76.25
263.105	83.25
263.337	84.25
263.57	95.25
263.802	83.25
264.035	78.25
264.267	80.25
264.499	77.25
264.732	78.25
264.964	77.25
265.197	76.25
265.429	87.25
265.661	86.25
265.894	75.25
266.126	83.25
266.358	87.25
266.591	85.25
266.823	84.25
267.055	73.25
267.287	83.25
267.52	77.25
267.752	75.25
267.984	88.25
268.216	80.25
268.448	86.25
268.681	84.25
268.913	87.25
269.145	91.25
269.377	86.25
269.609	78.25
269.841	80.25
270.073	85.25
270.306	74.25
270.538	79.25
270.77	78.25
271.002	95.25
271.234	77.25
271.466	88.25
271.698	76.25
271.93	77.25
272.162	79.25
272.394	84.25
272.626	81.25
272.858	72.25
273.09	74.25
273.322	81.25
273.553	78.25
273.785	88.25
274.017	94.25
274.249	101.25
274.481	93.25
274.713	79.25
274.945	79.25
275.176	75.25
275.408	72.25
275.64	85.25
275.872	81.25
276.104	86.25
276.335	75.25
276.567	76.25
276.799	69.25
277.031	91.25
277.262	93.25
277.494	92.25
277.726	95.25
277.957	88.25
278.189	89.25
278.421	81.25
278.652	80.25
278.884	81.25
279.115	86.25
279.347	78.25
279.579	70.25
279.81	82.25
280.042	87.25
280.273	71.25
280.505	73.25
280.736	82.25
280.968	79.25
281.199	76.25
281.431	85.25
281.662	72.25
281.894	96.25
282.125	75.25
282.356	81.25
282.588	98.25
282.819	96.25
283.051	88.25
283.282	92.25
283.513	103.25
283.745	69.25
283.976	89.25
284.207	82.25
284.439	76.25
284.67	95.25
284.901	100.25
285.132	91.25
285.364	83.25
285.595	90.25
285.826	83.25
286.057	85.25
286.288	88.25
286.52	74.25
286.751	77.25
286.982	85.25
287.213	83.25
287.444	90.25
287.675	73.25
287.906	82.25
288.138	83.25
288.369	83.25
288.6	91.25
288.831	74.25
289.062	91.25
289.293	83.25
289.524	84.25
289.755	97.25
289.986	81.25
290.217	81.25
290.448	85.25
290.679	99.25
290.91	85.25
291.141	95.25
291.371	93.25
291.602	83.25
291.833	98.25
292.064	92.25
292.295	84.25
292.526	83.25
292.757	83.25
292.987	89.25
293.218	88.25
293.449	95.25
293.68	91.25
293.91	86.25
294.141	83.25
294.372	80.25
294.603	95.25
294.833	82.25
295.064	90.25
295.295	84.25
295.525	90.25
295.756	84.25
295.987	85.25
296.217	86.25
296.448	77.25
296.679	90.25
296.909	94.25
297.14	86.25
297.37	93.25
297.601	100.25
297.831	91.25
298.062	88.25
298.292	76.25
298.523	86.25
298.753	88.25
298.984	81.25
299.214	80.25
299.445	96.25
299.675	67.25
299.905	90.25
300.136	95.25
300.366	78.25
300.597	90.25
300.827	89.25
301.057	77.25
301.288	84.25
301.518	80.25
301.748	97.25
301.979	76.25
302.209	90.25
302.439	79.25
302.669	89.25
302.9	92.25
303.13	92.25
303.36	103.25
303.59	97.25
303.82	88.25
304.051	76.25
304.281	73.25
304.511	76.25
304.741	84.25
304.971	90.25
305.201	84.25
305.431	80.25
305.661	94.25
305.891	94.25
306.121	84.25
306.352	96.25
306.582	74.25
306.812	88.25
307.042	91.25
307.272	77.25
307.502	88.25
307.731	83.25
307.961	83.25
308.191	77.25
308.421	101.25
308.651	86.25
308.881	84.25
309.111	96.25
309.341	81.25
309.571	77.25
309.8	87.25
310.03	79.25
310.26	68.25
310.49	86.25
310.72	88.25
310.949	96.25
311.179	89.25
311.409	77.25
311.639	84.25
311.868	88.25
312.098	95.25
312.328	81.25
312.557	82.25
312.787	79.25
313.017	82.25
313.246	84.25
313.476	77.25
313.706	79.25
313.935	88.25
314.165	88.25
314.394	83.25
314.624	83.25
314.853	89.25
315.083	92.25
315.312	78.25
315.542	88.25
315.771	74.25
316.001	79.25
316.23	83.25
316.46	96.25
316.689	84.25
316.919	85.25
317.148	84.25
317.377	86.25
317.607	74.25
317.836	74.25
318.065	82.25
318.295	82.25
318.524	92.25
318.753	91.25
318.983	73.25
319.212	75.25
319.441	84.25
319.67	87.25
319.9	93.25
320.129	87.25
320.358	83.25
320.587	82.25
320.816	73.25
321.046	79.25
321.275	91.25
321.504	78.25
321.733	91.25
321.962	94.25
322.191	88.25
322.42	90.25
322.649	72.25
322.878	79.25
323.108	81.25
323.337	75.25
323.566	81.25
323.795	91.25
324.024	78.25
324.253	76.25
324.482	85.25
324.71	91.25
324.939	83.25
325.168	89.25
325.397	84.25
325.626	85.25
325.855	94.25
326.084	84.25
326.313	96.25
326.542	100.25
326.77	89.25
326.999	82.25
327.228	87.25
327.457	96.25
327.686	80.25
327.914	93.25
328.143	89.25
328.372	95.25
328.6	81.25
328.829	87.25
329.058	67.25
329.287	81.25
329.515	85.25
329.744	89.25
329.972	84.25
330.201	92.25
330.43	83.25
330.658	91.25
330.887	71.25
331.115	84.25
331.344	95.25
331.572	105.25
331.801	87.25
332.03	80.25
332.258	89.25
332.486	81.25
332.715	75.25
332.943	87.25
333.172	88.25
333.4	91.25
333.629	83.25
333.857	81.25
334.085	82.25
334.314	85.25
334.542	66.25
334.771	91.25
334.999	86.25
335.227	77.25
335.455	83.25
335.684	90.25
335.912	87.25
336.14	94.25
336.369	88.25
336.597	88.25
336.825	95.25
337.053	93.25
337.281	89.25
337.51	75.25
337.738	92.25
337.966	77.25
338.194	80.25
338.422	94.25
338.65	60.25
338.878	83.25
339.106	92.25
339.334	83.25
339.562	81.25
339.79	98.25
340.018	84.25
340.246	75.25
340.474	90.25
340.702	95.25
340.93	80.25
341.158	86.25
341.386	75.25
341.614	67.25
341.842	90.25
342.07	101.25
342.298	93.25
342.526	92.25
342.754	80.25
342.981	84.25
343.209	72.25
343.437	100.25
343.665	80.25
343.893	71.25
344.12	85.25
344.348	91.25
344.576	88.25
344.804	73.25
345.031	86.25
345.259	90.25
345.487	82.25
345.714	77.25
345.942	90.25
346.17	89.25
346.397	97.25
346.625	92.25
346.853	87.25
347.08	72.25
347.308	99.25
347.535	77.25
347.763	96.25
347.99	98.25
348.218	87.25
348.445	89.25
348.673	89.25
348.9	83.25
349.128	91.25
349.355	93.25
349.583	95.25
349.81	98.25
350.037	84.25
350.265	87.25
350.492	88.25
350.72	80.25
350.947	95.25
351.174	77.25
351.402	76.25
351.629	91.25
351.856	91.25
352.083	83.25
352.311	85.25
352.538	83.25
352.765	82.25
352.992	73.25
353.22	101.25
353.447	88.25
353.674	91.25
353.901	93.25
354.128	99.25
354.355	82.25
354.583	77.25
354.81	79.25
355.037	87.25
355.264	90.25
355.491	78.25
355.718	74.25
355.945	71.25
356.172	82.25
356.399	87.25
356.626	85.25
356.853	81.25
357.08	89.25
357.307	81.25
357.534	86.25
357.761	86.25
357.988	90.25
358.215	92.25
358.441	76.25
358.668	94.25
358.895	85.25
359.122	97.25
359.349	99.25
359.576	86.25
359.802	77.25
360.029	85.25
360.256	88.25
360.483	88.25
360.709	79.25
360.936	88.25
361.163	75.25
361.39	95.25
361.616	76.25
361.843	99.25
362.07	74.25
362.296	87.25
362.523	76.25
362.749	83.25
362.976	92.25
363.203	85.25
363.429	88.25
363.656	95.25
363.882	85.25
364.109	91.25
364.335	97.25
364.562	77.25
364.788	74.25
365.015	90.25
365.241	73.25
365.468	69.25
365.694	96.25
365.92	77.25
366.147	76.25
366.373	88.25
366.599	83.25
366.826	85.25
367.052	87.25
367.278	85.25
367.505	86.25
367.731	84.25
367.957	81.25
368.184	70.25
368.41	76.25
368.636	81.25
368.862	78.25
369.089	77.25
369.315	93.25
369.541	79.25
369.767	79.25
369.993	95.25
370.219	85.25
370.445	85.25
370.672	88.25
370.898	79.25
371.124	84.25
371.35	78.25
371.576	86.25
371.802	72.25
372.028	96.25
372.254	80.25
372.48	94.25
372.706	88.25
372.932	78.25
373.158	90.25
373.384	78.25
373.61	100.25
373.835	99.25
374.061	87.25
374.287	92.25
374.513	76.25
374.739	73.25
374.965	72.25
375.191	78.25
375.416	75.25
375.642	101.25
375.868	95.25
376.094	90.25
376.319	71.25
376.545	85.25
376.771	87.25
376.997	86.25
377.222	89.25
377.448	70.25
377.674	83.25
377.899	78.25
378.125	83.25
378.35	83.25
378.576	83.25
378.802	71.25
379.027	86.25
379.253	87.25
379.478	70.25
379.704	73.25
379.929	73.25
380.155	86.25
380.38	83.25
380.606	89.25
380.831	93.25
381.057	74.25
381.282	76.25
381.507	78.25
381.733	90.25
381.958	93.25
382.184	101.25
382.409	84.25
382.634	88.25
382.86	77.25
383.085	79.25
383.31	79.25
383.535	83.25
383.761	79.25
383.986	86.25
384.211	81.25
384.436	89.25
384.662	96.25
384.887	85.25
385.112	80.25
385.337	80.25
385.562	76.25
385.787	96.25
386.013	99.25
386.238	86.25
386.463	98.25
386.688	75.25
386.913	78.25
387.138	88.25
387.363	80.25
387.588	84.25
387.813	74.25
388.038	83.25
388.263	83.25
388.488	81.25
388.713	88.25
388.938	77.25
389.163	85.25
389.387	73.25
389.612	86.25
389.837	90.25
390.062	76.25
390.287	69.25
390.512	78.25
390.736	75.25
390.961	91.25
391.186	77.25
391.411	98.25
391.636	83.25
391.86	93.25
392.085	92.25
392.31	93.25
392.534	81.25
392.759	80.25
392.984	95.25
393.208	83.25
393.433	96.25
393.658	83.25
393.882	76.25
394.107	82.25
394.331	68.25
394.556	64.25
394.78	77.25
395.005	81.25
395.229	81.25
395.454	83.25
395.678	77.25
395.903	73.25
396.127	83.25
396.352	86.25
396.576	79.25
396.801	79.25
397.025	75.25
397.249	87.25
397.474	88.25
397.698	91.25
397.922	88.25
398.147	93.25
398.371	76.25
398.595	81.25
398.82	72.25
399.044	86.25
399.268	90.25
399.492	88.25
399.717	102.25
399.941	93.25
400.165	99.25
400.389	79.25
400.613	72.25
400.837	77.25
401.062	94.25
401.286	81.25
401.51	91.25
401.734	93.25
401.958	91.25
402.182	81.25
402.406	87.25
402.63	80.25
402.854	70.25
403.078	74.25
403.302	75.25
403.526	85.25
403.75	83.25
403.974	94.25
404.198	86.25
404.422	80.25
404.645	70.25
404.869	76.25
405.093	85.25
405.317	92.25
405.541	82.25
405.765	80.25
405.988	91.25
406.212	92.25
406.436	92.25
406.66	82.25
406.883	80.25
407.107	82.25
407.331	95.25
407.555	80.25
407.778	100.25
408.002	88.25
408.226	66.25
408.449	63.25
408.673	72.25
408.896	83.25
409.12	76.25
409.344	90.25
409.567	87.25
409.791	91.25
410.014	87.25
410.238	89.25
410.461	99.25
410.685	76.25
410.908	85.25
411.132	76.25
411.355	77.25
411.578	90.25
411.802	92.25
412.025	84.25
412.249	99.25
412.472	85.25
412.695	92.25
412.919	93.25
413.142	90.25
413.365	84.25
413.589	95.25
413.812	68.25
414.035	83.25
414.258	83.25
414.482	64.25
414.705	74.25
414.928	88.25
415.151	72.25
415.374	81.25
415.597	95.25
415.821	76.25
416.044	74.25
416.267	77.25
416.49	75.25
416.713	76.25
416.936	76.25
417.159	76.25
417.382	72.25
417.605	82.25
417.828	77.25
418.051	78.25
418.274	98.25
418.497	81.25
418.72	93.25
418.943	81.25
419.166	93.25
419.389	65.25
419.611	88.25
419.834	92.25
420.057	92.25
420.28	83.25
420.503	87.25
420.726	85.25
420.948	85.25
421.171	77.25
421.394	93.25
421.617	88.25
421.839	86.25
422.062	88.25
422.285	82.25
422.507	92.25
422.73	75.25
422.953	70.25
423.175	84.25
423.398	87.25
423.621	74.25
423.843	93.25
424.066	91.25
424.288	73.25
424.511	72.25
424.733	79.25
424.956	80.25
425.178	77.25
425.401	87.25
425.623	86.25
425.846	84.25
426.068	83.25
426.291	92.25
426.513	87.25
426.735	88.25
426.958	95.25
427.18	81.25
427.402	88.25
427.625	86.25
427.847	80.25
428.069	88.25
428.292	86.25
428.514	83.25
428.736	75.25
428.958	75.25
429.181	78.25
429.403	89.25
429.625	78.25
429.847	95.25
430.069	88.25
430.292	90.25
430.514	70.25
430.736	81.25
430.958	73.25
431.18	86.25
431.402	89.25
431.624	89.25
431.846	85.25
432.068	83.25
432.29	68.25
432.512	77.25
432.734	72.25
432.956	75.25
433.178	82.25
433.4	81.25
433.622	88.25
433.844	88.25
434.066	97.25
434.287	83.25
434.509	95.25
434.731	76.25
434.953	80.25
435.175	70.25
435.397	80.25
435.618	86.25
435.84	78.25
436.062	88.25
436.284	91.25
436.505	79.25
436.727	80.25
436.949	78.25
437.17	83.25
437.392	84.25
437.614	74.25
437.835	77.25
438.057	73.25
438.278	89.25
438.5	61.25
438.721	83.25
438.943	96.25
439.165	90.25
439.386	86.25
439.608	75.25
439.829	87.25
440.05	89.25
440.272	82.25
440.493	71.25
440.715	88.25
440.936	87.25
441.158	88.25
441.379	90.25
441.6	88.25
441.822	81.25
442.043	92.25
442.264	89.25
442.486	88.25
442.707	74.25
442.928	96.25
443.149	83.25
443.371	73.25
443.592	92.25
443.813	100.25
444.034	83.25
444.255	89.25
444.476	77.25
444.698	76.25
444.919	92.25
445.14	220.25
445.361	139.25
445.582	77.25
445.803	81.25
446.024	85.25
446.245	80.25
446.466	94.25
446.687	95.25
446.908	82.25
447.129	86.25
447.35	85.25
447.571	92.25
447.792	71.25
448.013	77.25
448.234	77.25
448.455	90.25
448.675	87.25
448.896	84.25
449.117	85.25
449.338	84.25
449.559	83.25
449.779	78.25
450	73.25
450.221	83.25
450.442	73.25
450.662	72.25
450.883	83.25
451.104	89.25
451.324	77.25
451.545	85.25
451.766	79.25
451.986	85.25
452.207	80.25
452.428	86.25
452.648	85.25
452.869	93.25
453.089	93.25
453.31	77.25
453.53	87.25
453.751	82.25
453.971	78.25
454.192	76.25
454.412	85.25
454.633	77.25
454.853	89.25
455.073	73.25
455.294	61.25
455.514	90.25
455.734	79.25
455.955	85.25
456.175	95.25
456.395	71.25
456.616	84.25
456.836	88.25
457.056	91.25
457.276	90.25
457.497	82.25
457.717	77.25
457.937	85.25
458.157	93.25
458.377	84.25
458.598	92.25
458.818	85.25
459.038	66.25
459.258	77.25
459.478	81.25
459.698	102.25
459.918	91.25
460.138	91.25
460.358	79.25
460.578	86.25
460.798	86.25
461.018	68.25
461.238	96.25
461.458	85.25
461.678	88.25
461.898	76.25
462.118	91.25
462.338	89.25
462.558	96.25
462.777	95.25
462.997	82.25
463.217	91.25
463.437	91.25
463.657	78.25
463.876	84.25
464.096	86.25
464.316	75.25
464.536	88.25
464.755	95.25
464.975	91.25
465.195	79.25
465.414	82.25
465.634	85.25
465.854	82.25
466.073	89.25
466.293	73.25
466.512	88.25
466.732	90.25
466.951	81.25
467.171	92.25
467.391	95.25
467.61	95.25
467.829	84.25
468.049	100.25
468.268	75.25
468.488	80.25
468.707	102.25
468.927	85.25
469.146	88.25
469.365	82.25
469.585	76.25
469.804	83.25
470.023	85.25
470.243	88.25
470.462	97.25
470.681	83.25
470.901	76.25
471.12	89.25
471.339	96.25
471.558	83.25
471.777	89.25
471.997	91.25
472.216	89.25
472.435	79.25
472.654	88.25
472.873	85.25
473.092	87.25
473.311	91.25
473.53	92.25
473.749	81.25
473.968	88.25
474.187	89.25
474.406	90.25
474.625	87.25
474.844	78.25
475.063	81.25
475.282	72.25
475.501	87.25
475.72	102.25
475.939	81.25
476.158	78.25
476.377	74.25
476.596	91.25
476.814	85.25
477.033	84.25
477.252	90.25
477.471	89.25
477.69	81.25
477.908	88.25
478.127	87.25
478.346	96.25
478.564	85.25
478.783	93.25
479.002	90.25
479.22	84.25
479.439	100.25
479.658	76.25
479.876	90.25
480.095	98.25
480.313	81.25
480.532	75.25
480.751	86.25
480.969	87.25
481.188	90.25
481.406	97.25
481.624	94.25
481.843	93.25
482.061	83.25
482.28	83.25
482.498	89.25
482.717	90.25
482.935	82.25
483.153	89.25
483.372	95.25
483.59	85.25
483.808	86.25
484.027	91.25
484.245	61.25
484.463	87.25
484.681	106.25
484.9	76.25
485.118	93.25
485.336	81.25
485.554	78.25
485.772	75.25
485.99	77.25
486.209	82.25
486.427	81.25
486.645	82.25
486.863	74.25
487.081	97.25
487.299	94.25
487.517	89.25
487.735	89.25
487.953	94.25
488.171	100.25
488.389	82.25
488.607	86.25
488.825	91.25
489.043	87.25
489.261	78.25
489.479	96.25
489.696	96.25
489.914	85.25
490.132	92.25
490.35	86.25
490.568	89.25
490.786	77.25
491.003	90.25
491.221	91.25
491.439	98.25
491.657	92.25
491.874	96.25
492.092	101.25
492.31	95.25
492.527	107.25
492.745	86.25
492.963	96.25
493.18	112.25
493.398	91.25
493.615	72.25
493.833	92.25
494.05	80.25
494.268	90.25
494.485	112.25
494.703	97.25
494.92	84.25
495.138	85.25
495.355	89.25
495.573	92.25
495.79	81.25
496.008	94.25
496.225	82.25
496.442	81.25
496.66	87.25
496.877	85.25
497.094	115.25
497.312	91.25
497.529	95.25
497.746	101.25
497.963	100.25
498.181	96.25
498.398	93.25
498.615	92.25
498.832	101.25
499.049	99.25
499.267	100.25
499.484	93.25
499.701	111.25
499.918	120.25
500.135	93.25
500.352	112.25
500.569	113.25
500.786	121.25
501.003	105.25
501.22	119.25
501.437	109.25
501.654	91.25
501.871	99.25
502.088	90.25
502.305	108.25
502.522	101.25
502.739	99.25
502.956	83.25
503.172	89.25
503.389	98.25
503.606	84.25
503.823	98.25
504.04	104.25
504.256	96.25
504.473	104.25
504.69	94.25
504.907	91.25
505.123	95.25
505.34	83.25
505.557	98.25
505.773	101.25
505.99	88.25
506.207	71.25
506.423	92.25
506.64	88.25
506.856	83.25
507.073	95.25
507.289	84.25
507.506	87.25
507.722	81.25
507.939	92.25
508.155	98.25
508.372	86.25
508.588	96.25
508.805	98.25
509.021	98.25
509.238	93.25
509.454	83.25
509.67	93.25
509.887	90.25
510.103	97.25
510.319	91.25
510.536	96.25
510.752	77.25
510.968	97.25
511.184	87.25
511.401	82.25
511.617	85.25
511.833	86.25
512.049	102.25
512.265	97.25
512.481	100.25
512.698	86.25
512.914	98.25
513.13	91.25
513.346	91.25
513.562	95.25
513.778	75.25
513.994	77.25
514.21	85.25
514.426	85.25
514.642	87.25
514.858	87.25
515.074	78.25
515.29	90.25
515.506	87.25
515.721	93.25
515.937	98.25
516.153	90.25
516.369	77.25
516.585	77.25
516.801	95.25
517.016	84.25
517.232	86.25
517.448	92.25
517.664	99.25
517.879	102.25
518.095	84.25
518.311	98.25
518.527	91.25
518.742	86.25
