Data from Ni(NO3)2@0.5M.TitratingCurve.Agarose3%dH2O.NegLispCup.LampEnergy10.LIBS07252019_HRD10591_17-59-01-564.txt Node
Date: Thu Jul 25 17:59:01 EDT 2019
User: cochatt
Spectrometer: HR+D1059
Trigger mode: 1
Integration Time (sec): 1.000000E-1
Scans to average: 1
Electric dark correction enabled: true
Nonlinearity correction enabled: false
Boxcar width: 0
XAxis mode: Wavelengths
Number of Pixels in Spectrum: 2048
>>>>>Begin Spectral Data<<<<<
223.165	-21.19
223.4	-21.19
223.635	-21.19
223.869	-7.19
224.104	-16.19
224.338	-21.19
224.573	-7.19
224.808	-10.19
225.042	-19.19
225.277	-3.19
225.511	3.81
225.746	10.81
225.98	12.81
226.215	0.81
226.449	21.81
226.683	4.81
226.918	24.81
227.152	25.81
227.387	32.81
227.621	45.81
227.856	52.81
228.09	46.81
228.324	50.81
228.559	60.81
228.793	53.81
229.027	115.81
229.262	122.81
229.496	127.81
229.73	137.81
229.964	147.81
230.199	174.81
230.433	167.81
230.667	175.81
230.901	146.81
231.136	152.81
231.37	150.81
231.604	162.81
231.838	182.81
232.072	168.81
232.306	161.81
232.541	148.81
232.775	163.81
233.009	144.81
233.243	141.81
233.477	146.81
233.711	145.81
233.945	158.81
234.179	166.81
234.413	158.81
234.647	163.81
234.881	145.81
235.115	172.81
235.349	147.81
235.583	155.81
235.817	142.81
236.051	152.81
236.285	134.81
236.519	149.81
236.753	136.81
236.987	150.81
237.221	135.81
237.455	162.81
237.689	153.81
237.922	166.81
238.156	154.81
238.39	151.81
238.624	143.81
238.858	151.81
239.091	157.81
239.325	166.81
239.559	180.81
239.793	199.81
240.027	183.81
240.26	172.81
240.494	162.81
240.728	159.81
240.961	152.81
241.195	172.81
241.429	163.81
241.662	188.81
241.896	185.81
242.13	198.81
242.363	192.81
242.597	160.81
242.83	158.81
243.064	163.81
243.298	168.81
243.531	169.81
243.765	172.81
243.998	190.81
244.232	185.81
244.465	183.81
244.699	185.81
244.932	193.81
245.166	188.81
245.399	164.81
245.633	187.81
245.866	203.81
246.099	178.81
246.333	189.81
246.566	181.81
246.8	178.81
247.033	198.81
247.266	196.81
247.5	196.81
247.733	199.81
247.966	222.81
248.2	211.81
248.433	198.81
248.666	205.81
248.899	196.81
249.133	213.81
249.366	216.81
249.599	213.81
249.832	211.81
250.066	203.81
250.299	208.81
250.532	230.81
250.765	242.81
250.998	233.81
251.231	230.81
251.465	261.81
251.698	252.81
251.931	240.81
252.164	225.81
252.397	223.81
252.63	230.81
252.863	228.81
253.096	218.81
253.329	234.81
253.562	235.81
253.795	232.81
254.028	254.81
254.261	237.81
254.494	254.81
254.727	266.81
254.96	259.81
255.193	249.81
255.426	264.81
255.659	262.81
255.892	258.81
256.124	261.81
256.357	262.81
256.59	262.81
256.823	270.81
257.056	278.81
257.289	259.81
257.521	254.81
257.754	278.81
257.987	272.81
258.22	271.81
258.452	276.81
258.685	253.81
258.918	277.81
259.151	270.81
259.383	279.81
259.616	292.81
259.849	280.81
260.081	279.81
260.314	270.81
260.547	272.81
260.779	291.81
261.012	292.81
261.244	291.81
261.477	287.81
261.71	268.81
261.942	267.81
262.175	311.81
262.407	308.81
262.64	305.81
262.872	278.81
263.105	300.81
263.337	307.81
263.57	301.81
263.802	298.81
264.035	312.81
264.267	321.81
264.499	300.81
264.732	314.81
264.964	312.81
265.197	316.81
265.429	313.81
265.661	300.81
265.894	308.81
266.126	312.81
266.358	306.81
266.591	298.81
266.823	333.81
267.055	327.81
267.287	320.81
267.52	313.81
267.752	317.81
267.984	314.81
268.216	316.81
268.448	325.81
268.681	337.81
268.913	325.81
269.145	317.81
269.377	342.81
269.609	331.81
269.841	347.81
270.073	341.81
270.306	341.81
270.538	326.81
270.77	312.81
271.002	329.81
271.234	330.81
271.466	343.81
271.698	354.81
271.93	346.81
272.162	349.81
272.394	362.81
272.626	344.81
272.858	331.81
273.09	342.81
273.322	354.81
273.553	332.81
273.785	355.81
274.017	356.81
274.249	368.81
274.481	380.81
274.713	365.81
274.945	368.81
275.176	376.81
275.408	346.81
275.64	374.81
275.872	390.81
276.104	373.81
276.335	365.81
276.567	368.81
276.799	360.81
277.031	368.81
277.262	376.81
277.494	378.81
277.726	383.81
277.957	380.81
278.189	381.81
278.421	376.81
278.652	384.81
278.884	382.81
279.115	392.81
279.347	386.81
279.579	396.81
279.81	389.81
280.042	387.81
280.273	388.81
280.505	415.81
280.736	383.81
280.968	407.81
281.199	409.81
281.431	400.81
281.662	400.81
281.894	426.81
282.125	401.81
282.356	397.81
282.588	399.81
282.819	392.81
283.051	396.81
283.282	397.81
283.513	432.81
283.745	415.81
283.976	433.81
284.207	426.81
284.439	424.81
284.67	425.81
284.901	411.81
285.132	417.81
285.364	412.81
285.595	417.81
285.826	425.81
286.057	415.81
286.288	441.81
286.52	437.81
286.751	427.81
286.982	442.81
287.213	418.81
287.444	442.81
287.675	432.81
287.906	440.81
288.138	451.81
288.369	449.81
288.6	465.81
288.831	448.81
289.062	443.81
289.293	446.81
289.524	438.81
289.755	426.81
289.986	444.81
290.217	448.81
290.448	437.81
290.679	456.81
290.91	437.81
291.141	442.81
291.371	446.81
291.602	462.81
291.833	448.81
292.064	436.81
292.295	441.81
292.526	445.81
292.757	445.81
292.987	458.81
293.218	437.81
293.449	470.81
293.68	450.81
293.91	447.81
294.141	453.81
294.372	452.81
294.603	452.81
294.833	451.81
295.064	466.81
295.295	453.81
295.525	462.81
295.756	471.81
295.987	453.81
296.217	468.81
296.448	472.81
296.679	475.81
296.909	481.81
297.14	486.81
297.37	481.81
297.601	475.81
297.831	479.81
298.062	478.81
298.292	488.81
298.523	475.81
298.753	469.81
298.984	468.81
299.214	492.81
299.445	499.81
299.675	483.81
299.905	497.81
300.136	522.81
300.366	517.81
300.597	519.81
300.827	512.81
301.057	498.81
301.288	521.81
301.518	508.81
301.748	517.81
301.979	521.81
302.209	506.81
302.439	500.81
302.669	526.81
302.9	516.81
303.13	520.81
303.36	544.81
303.59	512.81
303.82	524.81
304.051	498.81
304.281	526.81
304.511	521.81
304.741	533.81
304.971	520.81
305.201	557.81
305.431	565.81
305.661	547.81
305.891	578.81
306.121	534.81
306.352	515.81
306.582	527.81
306.812	523.81
307.042	512.81
307.272	532.81
307.502	490.81
307.731	502.81
307.961	531.81
308.191	510.81
308.421	534.81
308.651	514.81
308.881	523.81
309.111	542.81
309.341	513.81
309.571	532.81
309.8	553.81
310.03	548.81
310.26	570.81
310.49	561.81
310.72	556.81
310.949	538.81
311.179	527.81
311.409	545.81
311.639	556.81
311.868	534.81
312.098	539.81
312.328	537.81
312.557	563.81
312.787	537.81
313.017	560.81
313.246	590.81
313.476	557.81
313.706	598.81
313.935	576.81
314.165	555.81
314.394	564.81
314.624	557.81
314.853	574.81
315.083	557.81
315.312	558.81
315.542	565.81
315.771	578.81
316.001	577.81
316.23	577.81
316.46	577.81
316.689	575.81
316.919	561.81
317.148	562.81
317.377	588.81
317.607	565.81
317.836	576.81
318.065	549.81
318.295	595.81
318.524	577.81
318.753	568.81
318.983	568.81
319.212	586.81
319.441	582.81
319.67	608.81
319.9	578.81
320.129	593.81
320.358	585.81
320.587	596.81
320.816	579.81
321.046	596.81
321.275	621.81
321.504	628.81
321.733	589.81
321.962	597.81
322.191	595.81
322.42	616.81
322.649	596.81
322.878	619.81
323.108	594.81
323.337	624.81
323.566	603.81
323.795	611.81
324.024	612.81
324.253	624.81
324.482	634.81
324.71	622.81
324.939	636.81
325.168	616.81
325.397	621.81
325.626	623.81
325.855	633.81
326.084	612.81
326.313	628.81
326.542	634.81
326.77	652.81
326.999	616.81
327.228	636.81
327.457	637.81
327.686	642.81
327.914	649.81
328.143	643.81
328.372	619.81
328.6	651.81
328.829	658.81
329.058	660.81
329.287	646.81
329.515	657.81
329.744	642.81
329.972	628.81
330.201	651.81
330.43	633.81
330.658	668.81
330.887	669.81
331.115	663.81
331.344	654.81
331.572	669.81
331.801	686.81
332.03	697.81
332.258	680.81
332.486	719.81
332.715	711.81
332.943	704.81
333.172	701.81
333.4	728.81
333.629	745.81
333.857	756.81
334.085	743.81
334.314	749.81
334.542	739.81
334.771	741.81
334.999	769.81
335.227	788.81
335.455	748.81
335.684	743.81
335.912	776.81
336.14	770.81
336.369	761.81
336.597	754.81
336.825	775.81
337.053	781.81
337.281	772.81
337.51	747.81
337.738	733.81
337.966	747.81
338.194	749.81
338.422	730.81
338.65	740.81
338.878	747.81
339.106	736.81
339.334	742.81
339.562	749.81
339.79	718.81
340.018	698.81
340.246	681.81
340.474	711.81
340.702	712.81
340.93	702.81
341.158	721.81
341.386	733.81
341.614	788.81
341.842	736.81
342.07	717.81
342.298	701.81
342.526	737.81
342.754	701.81
342.981	694.81
343.209	711.81
343.437	752.81
343.665	767.81
343.893	776.81
344.12	776.81
344.348	794.81
344.576	770.81
344.804	757.81
345.031	765.81
345.259	735.81
345.487	714.81
345.714	729.81
345.942	740.81
346.17	745.81
346.397	734.81
346.625	708.81
346.853	678.81
347.08	691.81
347.308	688.81
347.535	678.81
347.763	703.81
347.99	689.81
348.218	666.81
348.445	671.81
348.673	691.81
348.9	691.81
349.128	700.81
349.355	729.81
349.583	712.81
349.81	678.81
350.037	667.81
350.265	676.81
350.492	680.81
350.72	678.81
350.947	652.81
351.174	695.81
351.402	708.81
351.629	694.81
351.856	698.81
352.083	696.81
352.311	721.81
352.538	718.81
352.765	747.81
352.992	675.81
353.22	662.81
353.447	656.81
353.674	681.81
353.901	649.81
354.128	632.81
354.355	652.81
354.583	650.81
354.81	656.81
355.037	661.81
355.264	649.81
355.491	652.81
355.718	652.81
355.945	641.81
356.172	656.81
356.399	691.81
356.626	682.81
356.853	722.81
357.08	670.81
357.307	660.81
357.534	682.81
357.761	650.81
357.988	668.81
358.215	640.81
358.441	653.81
358.668	665.81
358.895	675.81
359.122	664.81
359.349	666.81
359.576	669.81
359.802	653.81
360.029	664.81
360.256	668.81
360.483	662.81
360.709	675.81
360.936	692.81
361.163	696.81
361.39	672.81
361.616	684.81
361.843	683.81
362.07	708.81
362.296	709.81
362.523	687.81
362.749	681.81
362.976	693.81
363.203	690.81
363.429	660.81
363.656	660.81
363.882	663.81
364.109	653.81
364.335	684.81
364.562	671.81
364.788	677.81
365.015	663.81
365.241	658.81
365.468	672.81
365.694	672.81
365.92	670.81
366.147	675.81
366.373	676.81
366.599	672.81
366.826	672.81
367.052	661.81
367.278	664.81
367.505	665.81
367.731	654.81
367.957	682.81
368.184	650.81
368.41	658.81
368.636	690.81
368.862	708.81
369.089	693.81
369.315	680.81
369.541	701.81
369.767	699.81
369.993	700.81
370.219	702.81
370.445	691.81
370.672	695.81
370.898	691.81
371.124	685.81
371.35	716.81
371.576	690.81
371.802	716.81
372.028	708.81
372.254	705.81
372.48	712.81
372.706	707.81
372.932	737.81
373.158	739.81
373.384	733.81
373.61	746.81
373.835	731.81
374.061	727.81
374.287	716.81
374.513	742.81
374.739	754.81
374.965	734.81
375.191	729.81
375.416	745.81
375.642	728.81
375.868	725.81
376.094	727.81
376.319	714.81
376.545	722.81
376.771	716.81
376.997	727.81
377.222	732.81
377.448	696.81
377.674	701.81
377.899	728.81
378.125	718.81
378.35	740.81
378.576	719.81
378.802	722.81
379.027	701.81
379.253	706.81
379.478	704.81
379.704	685.81
379.929	704.81
380.155	720.81
380.38	694.81
380.606	714.81
380.831	714.81
381.057	729.81
381.282	718.81
381.507	724.81
381.733	702.81
381.958	719.81
382.184	712.81
382.409	741.81
382.634	730.81
382.86	733.81
383.085	770.81
383.31	731.81
383.535	739.81
383.761	737.81
383.986	728.81
384.211	756.81
384.436	755.81
384.662	777.81
384.887	760.81
385.112	795.81
385.337	774.81
385.562	796.81
385.787	802.81
386.013	813.81
386.238	804.81
386.463	800.81
386.688	798.81
386.913	816.81
387.138	786.81
387.363	792.81
387.588	798.81
387.813	819.81
388.038	809.81
388.263	824.81
388.488	807.81
388.713	786.81
388.938	788.81
389.163	800.81
389.387	818.81
389.612	803.81
389.837	830.81
390.062	818.81
390.287	809.81
390.512	792.81
390.736	828.81
390.961	818.81
391.186	823.81
391.411	846.81
391.636	849.81
391.86	875.81
392.085	854.81
392.31	833.81
392.534	858.81
392.759	844.81
392.984	811.81
393.208	838.81
393.433	845.81
393.658	838.81
393.882	861.81
394.107	845.81
394.331	833.81
394.556	850.81
394.78	837.81
395.005	842.81
395.229	853.81
395.454	832.81
395.678	854.81
395.903	870.81
396.127	871.81
396.352	886.81
396.576	868.81
396.801	846.81
397.025	871.81
397.249	858.81
397.474	924.81
397.698	906.81
397.922	890.81
398.147	904.81
398.371	927.81
398.595	927.81
398.82	962.81
399.044	1006.81
399.268	1041.81
399.492	1070.81
399.717	1100.81
399.941	1097.81
400.165	1125.81
400.389	1076.81
400.613	1040.81
400.837	991.81
401.062	993.81
401.286	996.81
401.51	972.81
401.734	995.81
401.958	991.81
402.182	988.81
402.406	947.81
402.63	982.81
402.854	981.81
403.078	950.81
403.302	978.81
403.526	991.81
403.75	965.81
403.974	973.81
404.198	957.81
404.422	995.81
404.645	973.81
404.869	986.81
405.093	994.81
405.317	1016.81
405.541	983.81
405.765	1010.81
405.988	1020.81
406.212	971.81
406.436	1029.81
406.66	1060.81
406.883	1055.81
407.107	1081.81
407.331	1075.81
407.555	1099.81
407.778	1151.81
408.002	1125.81
408.226	1090.81
408.449	1096.81
408.673	1075.81
408.896	1053.81
409.12	1024.81
409.344	1058.81
409.567	1051.81
409.791	1034.81
410.014	1010.81
410.238	1013.81
410.461	1050.81
410.685	1022.81
410.908	1026.81
411.132	1004.81
411.355	996.81
411.578	996.81
411.802	1019.81
412.025	996.81
412.249	990.81
412.472	1000.81
412.695	992.81
412.919	987.81
413.142	994.81
413.365	997.81
413.589	1003.81
413.812	963.81
414.035	1001.81
414.258	991.81
414.482	959.81
414.705	982.81
414.928	973.81
415.151	933.81
415.374	976.81
415.597	981.81
415.821	952.81
416.044	950.81
416.267	936.81
416.49	933.81
416.713	954.81
416.936	952.81
417.159	945.81
417.382	919.81
417.605	919.81
417.828	962.81
418.051	960.81
418.274	937.81
418.497	935.81
418.72	917.81
418.943	937.81
419.166	965.81
419.389	1041.81
419.611	1031.81
419.834	984.81
420.057	971.81
420.28	954.81
420.503	922.81
420.726	934.81
420.948	937.81
421.171	943.81
421.394	932.81
421.617	920.81
421.839	940.81
422.062	948.81
422.285	934.81
422.507	919.81
422.73	932.81
422.953	914.81
423.175	912.81
423.398	901.81
423.621	920.81
423.843	943.81
424.066	922.81
424.288	922.81
424.511	933.81
424.733	909.81
424.956	900.81
425.178	911.81
425.401	925.81
425.623	943.81
425.846	926.81
426.068	926.81
426.291	930.81
426.513	955.81
426.735	912.81
426.958	928.81
427.18	899.81
427.402	907.81
427.625	907.81
427.847	901.81
428.069	890.81
428.292	885.81
428.514	872.81
428.736	904.81
428.958	898.81
429.181	924.81
429.403	906.81
429.625	880.81
429.847	876.81
430.069	894.81
430.292	896.81
430.514	870.81
430.736	887.81
430.958	886.81
431.18	886.81
431.402	885.81
431.624	864.81
431.846	902.81
432.068	877.81
432.29	916.81
432.512	884.81
432.734	914.81
432.956	891.81
433.178	916.81
433.4	956.81
433.622	932.81
433.844	936.81
434.066	938.81
434.287	915.81
434.509	938.81
434.731	906.81
434.953	951.81
435.175	976.81
435.397	970.81
435.618	950.81
435.84	930.81
436.062	896.81
436.284	895.81
436.505	908.81
436.727	923.81
436.949	900.81
437.17	891.81
437.392	875.81
437.614	899.81
437.835	870.81
438.057	853.81
438.278	869.81
438.5	877.81
438.721	876.81
438.943	875.81
439.165	888.81
439.386	876.81
439.608	895.81
439.829	886.81
440.05	897.81
440.272	874.81
440.493	889.81
440.715	915.81
440.936	896.81
441.158	909.81
441.379	947.81
441.6	975.81
441.822	953.81
442.043	945.81
442.264	965.81
442.486	940.81
442.707	938.81
442.928	906.81
443.149	940.81
443.371	958.81
443.592	1005.81
443.813	1003.81
444.034	954.81
444.255	958.81
444.476	1012.81
444.698	1000.81
444.919	1023.81
445.14	1120.81
445.361	1065.81
445.582	966.81
445.803	932.81
446.024	908.81
446.245	932.81
446.466	902.81
446.687	904.81
446.908	889.81
447.129	852.81
447.35	882.81
447.571	882.81
447.792	861.81
448.013	849.81
448.234	843.81
448.455	841.81
448.675	852.81
448.896	853.81
449.117	843.81
449.338	832.81
449.559	821.81
449.779	834.81
450	813.81
450.221	812.81
450.442	841.81
450.662	826.81
450.883	861.81
451.104	857.81
451.324	853.81
451.545	820.81
451.766	812.81
451.986	805.81
452.207	798.81
452.428	827.81
452.648	820.81
452.869	818.81
453.089	798.81
453.31	845.81
453.53	809.81
453.751	803.81
453.971	807.81
454.192	827.81
454.412	802.81
454.633	806.81
454.853	809.81
455.073	802.81
455.294	781.81
455.514	792.81
455.734	828.81
455.955	832.81
456.175	844.81
456.395	804.81
456.616	804.81
456.836	797.81
457.056	790.81
457.276	778.81
457.497	825.81
457.717	832.81
457.937	836.81
458.157	806.81
458.377	805.81
458.598	854.81
458.818	849.81
459.038	864.81
459.258	862.81
459.478	948.81
459.698	1005.81
459.918	993.81
460.138	977.81
460.358	960.81
460.578	982.81
460.798	1028.81
461.018	1012.81
461.238	972.81
461.458	978.81
461.678	949.81
461.898	976.81
462.118	996.81
462.338	1044.81
462.558	1060.81
462.777	1068.81
462.997	1110.81
463.217	1132.81
463.437	1203.81
463.657	1128.81
463.876	1096.81
464.096	1078.81
464.316	1086.81
464.536	1069.81
464.755	1026.81
464.975	1023.81
465.195	980.81
465.414	987.81
465.634	912.81
465.854	944.81
466.073	939.81
466.293	896.81
466.512	872.81
466.732	888.81
466.951	894.81
467.171	913.81
467.391	903.81
467.61	865.81
467.829	854.81
468.049	869.81
468.268	844.81
468.488	826.81
468.707	872.81
468.927	846.81
469.146	858.81
469.365	866.81
469.585	881.81
469.804	875.81
470.023	864.81
470.243	849.81
470.462	892.81
470.681	888.81
470.901	864.81
471.12	866.81
471.339	864.81
471.558	866.81
471.777	867.81
471.997	851.81
472.216	842.81
472.435	851.81
472.654	842.81
472.873	859.81
473.092	854.81
473.311	853.81
473.53	832.81
473.749	828.81
473.968	878.81
474.187	829.81
474.406	850.81
474.625	832.81
474.844	844.81
475.063	875.81
475.282	907.81
475.501	892.81
475.72	894.81
475.939	864.81
476.158	876.81
476.377	883.81
476.596	896.81
476.814	899.81
477.033	903.81
477.252	896.81
477.471	893.81
477.69	948.81
477.908	950.81
478.127	960.81
478.346	953.81
478.564	1001.81
478.783	1008.81
479.002	1041.81
479.22	1051.81
479.439	1026.81
479.658	1016.81
479.876	992.81
480.095	994.81
480.313	1044.81
480.532	1038.81
480.751	991.81
480.969	986.81
481.188	1013.81
481.406	1012.81
481.624	975.81
481.843	984.81
482.061	997.81
482.28	993.81
482.498	988.81
482.717	964.81
482.935	987.81
483.153	1006.81
483.372	1041.81
483.59	1058.81
483.808	1033.81
484.027	1003.81
484.245	993.81
484.463	996.81
484.681	989.81
484.9	998.81
485.118	1036.81
485.336	997.81
485.554	1019.81
485.772	1006.81
485.99	1030.81
486.209	1039.81
486.427	1020.81
486.645	1024.81
486.863	1019.81
487.081	1038.81
487.299	1008.81
487.517	1037.81
487.735	1059.81
487.953	1056.81
488.171	1030.81
488.389	1020.81
488.607	1050.81
488.825	1019.81
489.043	1032.81
489.261	1025.81
489.479	1035.81
489.696	1034.81
489.914	1018.81
490.132	1046.81
490.35	1050.81
490.568	1006.81
490.786	1018.81
491.003	1034.81
491.221	1047.81
491.439	1061.81
491.657	1042.81
491.874	1048.81
492.092	1054.81
492.31	1078.81
492.527	1080.81
492.745	1073.81
492.963	1059.81
493.18	1071.81
493.398	1049.81
493.615	1052.81
493.833	1038.81
494.05	1097.81
494.268	1098.81
494.485	1045.81
494.703	1077.81
494.92	1101.81
495.138	1081.81
495.355	1068.81
495.573	1100.81
495.79	1096.81
496.008	1105.81
496.225	1101.81
496.442	1168.81
496.66	1144.81
496.877	1138.81
497.094	1130.81
497.312	1157.81
497.529	1192.81
497.746	1193.81
497.963	1230.81
498.181	1265.81
498.398	1303.81
498.615	1318.81
498.832	1404.81
499.049	1425.81
499.267	1457.81
499.484	1528.81
499.701	1610.81
