Data from Ni(NO3)2@0.125M.TitratingCurve.Agarose3%dH2O.NegLispCup.LampEnergy10.LIBS07252019_HRD10591_18-08-53-567.txt Node
Date: Thu Jul 25 18:08:53 EDT 2019
User: cochatt
Spectrometer: HR+D1059
Trigger mode: 1
Integration Time (sec): 1.000000E-1
Scans to average: 1
Electric dark correction enabled: true
Nonlinearity correction enabled: false
Boxcar width: 0
XAxis mode: Wavelengths
Number of Pixels in Spectrum: 2048
>>>>>Begin Spectral Data<<<<<
223.165	-23.38
223.4	-23.38
223.635	-23.38
223.869	-11.38
224.104	-17.38
224.338	-29.38
224.573	-18.38
224.808	-10.38
225.042	-13.38
225.277	7.62
225.511	-2.38
225.746	8.62
225.98	5.62
226.215	13.62
226.449	10.62
226.683	19.62
226.918	22.62
227.152	37.62
227.387	44.62
227.621	24.62
227.856	18.62
228.09	37.62
228.324	50.62
228.559	52.62
228.793	62.62
229.027	100.62
229.262	108.62
229.496	122.62
229.73	119.62
229.964	134.62
230.199	128.62
230.433	123.62
230.667	121.62
230.901	130.62
231.136	146.62
231.37	153.62
231.604	130.62
231.838	145.62
232.072	158.62
232.306	159.62
232.541	146.62
232.775	156.62
233.009	161.62
233.243	150.62
233.477	154.62
233.711	153.62
233.945	153.62
234.179	160.62
234.413	166.62
234.647	164.62
234.881	156.62
235.115	157.62
235.349	154.62
235.583	145.62
235.817	156.62
236.051	157.62
236.285	160.62
236.519	157.62
236.753	161.62
236.987	167.62
237.221	164.62
237.455	178.62
237.689	164.62
237.922	165.62
238.156	174.62
238.39	173.62
238.624	177.62
238.858	190.62
239.091	177.62
239.325	190.62
239.559	189.62
239.793	192.62
240.027	196.62
240.26	192.62
240.494	191.62
240.728	172.62
240.961	192.62
241.195	187.62
241.429	206.62
241.662	201.62
241.896	198.62
242.13	208.62
242.363	200.62
242.597	188.62
242.83	206.62
243.064	219.62
243.298	210.62
243.531	229.62
243.765	230.62
243.998	218.62
244.232	216.62
244.465	233.62
244.699	231.62
244.932	207.62
245.166	209.62
245.399	236.62
245.633	238.62
245.866	239.62
246.099	233.62
246.333	240.62
246.566	249.62
246.8	253.62
247.033	226.62
247.266	257.62
247.5	258.62
247.733	257.62
247.966	229.62
248.2	270.62
248.433	264.62
248.666	257.62
248.899	277.62
249.133	255.62
249.366	268.62
249.599	262.62
249.832	271.62
250.066	271.62
250.299	271.62
250.532	284.62
250.765	289.62
250.998	278.62
251.231	284.62
251.465	291.62
251.698	285.62
251.931	297.62
252.164	301.62
252.397	293.62
252.63	293.62
252.863	313.62
253.096	296.62
253.329	315.62
253.562	306.62
253.795	298.62
254.028	319.62
254.261	308.62
254.494	323.62
254.727	311.62
254.96	297.62
255.193	289.62
255.426	321.62
255.659	325.62
255.892	324.62
256.124	318.62
256.357	326.62
256.59	358.62
256.823	332.62
257.056	333.62
257.289	333.62
257.521	332.62
257.754	358.62
257.987	339.62
258.22	314.62
258.452	342.62
258.685	331.62
258.918	346.62
259.151	351.62
259.383	354.62
259.616	356.62
259.849	345.62
260.081	345.62
260.314	362.62
260.547	358.62
260.779	352.62
261.012	349.62
261.244	355.62
261.477	365.62
261.71	367.62
261.942	373.62
262.175	367.62
262.407	356.62
262.64	357.62
262.872	376.62
263.105	360.62
263.337	372.62
263.57	363.62
263.802	375.62
264.035	393.62
264.267	390.62
264.499	384.62
264.732	396.62
264.964	407.62
265.197	392.62
265.429	395.62
265.661	403.62
265.894	373.62
266.126	397.62
266.358	402.62
266.591	423.62
266.823	401.62
267.055	410.62
267.287	419.62
267.52	391.62
267.752	417.62
267.984	408.62
268.216	419.62
268.448	406.62
268.681	407.62
268.913	429.62
269.145	434.62
269.377	426.62
269.609	409.62
269.841	399.62
270.073	395.62
270.306	419.62
270.538	422.62
270.77	412.62
271.002	451.62
271.234	427.62
271.466	433.62
271.698	425.62
271.93	420.62
272.162	439.62
272.394	442.62
272.626	421.62
272.858	416.62
273.09	446.62
273.322	438.62
273.553	460.62
273.785	440.62
274.017	467.62
274.249	460.62
274.481	464.62
274.713	476.62
274.945	448.62
275.176	456.62
275.408	473.62
275.64	476.62
275.872	453.62
276.104	461.62
276.335	451.62
276.567	478.62
276.799	477.62
277.031	484.62
277.262	470.62
277.494	497.62
277.726	477.62
277.957	491.62
278.189	480.62
278.421	453.62
278.652	473.62
278.884	480.62
279.115	480.62
279.347	512.62
279.579	484.62
279.81	502.62
280.042	489.62
280.273	500.62
280.505	485.62
280.736	500.62
280.968	506.62
281.199	491.62
281.431	522.62
281.662	524.62
281.894	516.62
282.125	530.62
282.356	533.62
282.588	519.62
282.819	536.62
283.051	522.62
283.282	524.62
283.513	542.62
283.745	536.62
283.976	508.62
284.207	530.62
284.439	537.62
284.67	545.62
284.901	550.62
285.132	548.62
285.364	531.62
285.595	533.62
285.826	561.62
286.057	564.62
286.288	550.62
286.52	559.62
286.751	546.62
286.982	577.62
287.213	553.62
287.444	562.62
287.675	560.62
287.906	575.62
288.138	563.62
288.369	557.62
288.6	595.62
288.831	544.62
289.062	572.62
289.293	563.62
289.524	571.62
289.755	572.62
289.986	574.62
290.217	562.62
290.448	562.62
290.679	601.62
290.91	556.62
291.141	577.62
291.371	566.62
291.602	581.62
291.833	578.62
292.064	587.62
292.295	582.62
292.526	580.62
292.757	577.62
292.987	579.62
293.218	574.62
293.449	602.62
293.68	577.62
293.91	567.62
294.141	597.62
294.372	609.62
294.603	617.62
294.833	593.62
295.064	604.62
295.295	597.62
295.525	601.62
295.756	624.62
295.987	613.62
296.217	621.62
296.448	613.62
296.679	595.62
296.909	589.62
297.14	603.62
297.37	610.62
297.601	626.62
297.831	593.62
298.062	629.62
298.292	660.62
298.523	649.62
298.753	662.62
298.984	646.62
299.214	625.62
299.445	632.62
299.675	646.62
299.905	644.62
300.136	616.62
300.366	642.62
300.597	638.62
300.827	671.62
301.057	669.62
301.288	666.62
301.518	661.62
301.748	678.62
301.979	666.62
302.209	649.62
302.439	653.62
302.669	681.62
302.9	659.62
303.13	644.62
303.36	677.62
303.59	658.62
303.82	660.62
304.051	673.62
304.281	666.62
304.511	645.62
304.741	677.62
304.971	643.62
305.201	673.62
305.431	644.62
305.661	656.62
305.891	638.62
306.121	654.62
306.352	663.62
306.582	656.62
306.812	639.62
307.042	642.62
307.272	642.62
307.502	645.62
307.731	640.62
307.961	636.62
308.191	630.62
308.421	642.62
308.651	639.62
308.881	644.62
309.111	619.62
309.341	644.62
309.571	664.62
309.8	647.62
310.03	632.62
310.26	649.62
310.49	629.62
310.72	653.62
310.949	664.62
311.179	654.62
311.409	655.62
311.639	638.62
311.868	670.62
312.098	665.62
312.328	668.62
312.557	685.62
312.787	645.62
313.017	673.62
313.246	666.62
313.476	699.62
313.706	704.62
313.935	692.62
314.165	709.62
314.394	694.62
314.624	714.62
314.853	709.62
315.083	705.62
315.312	705.62
315.542	713.62
315.771	678.62
316.001	665.62
316.23	685.62
316.46	686.62
316.689	670.62
316.919	681.62
317.148	684.62
317.377	681.62
317.607	664.62
317.836	651.62
318.065	680.62
318.295	704.62
318.524	666.62
318.753	672.62
318.983	688.62
319.212	676.62
319.441	676.62
319.67	699.62
319.9	693.62
320.129	708.62
320.358	677.62
320.587	684.62
320.816	683.62
321.046	675.62
321.275	675.62
321.504	673.62
321.733	696.62
321.962	700.62
322.191	676.62
322.42	702.62
322.649	668.62
322.878	710.62
323.108	702.62
323.337	697.62
323.566	718.62
323.795	721.62
324.024	697.62
324.253	729.62
324.482	721.62
324.71	739.62
324.939	724.62
325.168	769.62
325.397	696.62
325.626	717.62
325.855	741.62
326.084	768.62
326.313	785.62
326.542	765.62
326.77	804.62
326.999	759.62
327.228	753.62
327.457	786.62
327.686	762.62
327.914	760.62
328.143	748.62
328.372	752.62
328.6	755.62
328.829	774.62
329.058	786.62
329.287	777.62
329.515	769.62
329.744	791.62
329.972	775.62
330.201	786.62
330.43	808.62
330.658	802.62
330.887	782.62
331.115	809.62
331.344	813.62
331.572	832.62
331.801	840.62
332.03	884.62
332.258	868.62
332.486	919.62
332.715	926.62
332.943	960.62
333.172	1024.62
333.4	1091.62
333.629	1113.62
333.857	1121.62
334.085	1057.62
334.314	1069.62
334.542	1018.62
334.771	985.62
334.999	984.62
335.227	992.62
335.455	1005.62
335.684	978.62
335.912	962.62
336.14	962.62
336.369	946.62
336.597	964.62
336.825	948.62
337.053	915.62
337.281	906.62
337.51	929.62
337.738	892.62
337.966	875.62
338.194	859.62
338.422	857.62
338.65	858.62
338.878	860.62
339.106	869.62
339.334	859.62
339.562	836.62
339.79	813.62
340.018	802.62
340.246	824.62
340.474	806.62
340.702	820.62
340.93	818.62
341.158	829.62
341.386	840.62
341.614	824.62
341.842	828.62
342.07	830.62
342.298	819.62
342.526	807.62
342.754	809.62
342.981	813.62
343.209	863.62
343.437	883.62
343.665	907.62
343.893	999.62
344.12	1037.62
344.348	987.62
344.576	951.62
344.804	920.62
345.031	861.62
345.259	843.62
345.487	837.62
345.714	820.62
345.942	829.62
346.17	821.62
346.397	812.62
346.625	782.62
346.853	797.62
347.08	799.62
347.308	807.62
347.535	805.62
347.763	816.62
347.99	828.62
348.218	803.62
348.445	791.62
348.673	785.62
348.9	795.62
349.128	808.62
349.355	787.62
349.583	798.62
349.81	784.62
350.037	769.62
350.265	782.62
350.492	740.62
350.72	768.62
350.947	775.62
351.174	766.62
351.402	807.62
351.629	776.62
351.856	760.62
352.083	749.62
352.311	736.62
352.538	744.62
352.765	782.62
352.992	786.62
353.22	779.62
353.447	746.62
353.674	731.62
353.901	766.62
354.128	780.62
354.355	773.62
354.583	784.62
354.81	754.62
355.037	772.62
355.264	786.62
355.491	785.62
355.718	763.62
355.945	776.62
356.172	776.62
356.399	748.62
356.626	779.62
356.853	774.62
357.08	765.62
357.307	762.62
357.534	770.62
357.761	745.62
357.988	760.62
358.215	765.62
358.441	758.62
358.668	723.62
358.895	764.62
359.122	788.62
359.349	787.62
359.576	805.62
359.802	768.62
360.029	770.62
360.256	755.62
360.483	775.62
360.709	789.62
360.936	781.62
361.163	765.62
361.39	759.62
361.616	745.62
361.843	752.62
362.07	749.62
362.296	755.62
362.523	758.62
362.749	744.62
362.976	763.62
363.203	770.62
363.429	730.62
363.656	743.62
363.882	756.62
364.109	764.62
364.335	746.62
364.562	761.62
364.788	767.62
365.015	761.62
365.241	750.62
365.468	766.62
365.694	739.62
365.92	749.62
366.147	745.62
366.373	756.62
366.599	741.62
366.826	749.62
367.052	781.62
367.278	745.62
367.505	771.62
367.731	761.62
367.957	782.62
368.184	757.62
368.41	776.62
368.636	738.62
368.862	774.62
369.089	771.62
369.315	795.62
369.541	756.62
369.767	792.62
369.993	801.62
370.219	787.62
370.445	790.62
370.672	802.62
370.898	807.62
371.124	811.62
371.35	836.62
371.576	816.62
371.802	814.62
372.028	827.62
372.254	824.62
372.48	819.62
372.706	852.62
372.932	870.62
373.158	861.62
373.384	834.62
373.61	813.62
373.835	789.62
374.061	813.62
374.287	835.62
374.513	834.62
374.739	857.62
374.965	887.62
375.191	930.62
375.416	921.62
375.642	857.62
375.868	849.62
376.094	844.62
376.319	837.62
376.545	835.62
376.771	817.62
376.997	812.62
377.222	814.62
377.448	824.62
377.674	826.62
377.899	795.62
378.125	786.62
378.35	800.62
378.576	798.62
378.802	810.62
379.027	812.62
379.253	794.62
379.478	818.62
379.704	809.62
379.929	840.62
380.155	791.62
380.38	800.62
380.606	821.62
380.831	790.62
381.057	793.62
381.282	794.62
381.507	818.62
381.733	811.62
381.958	818.62
382.184	824.62
382.409	857.62
382.634	861.62
382.86	861.62
383.085	873.62
383.31	865.62
383.535	886.62
383.761	904.62
383.986	920.62
384.211	950.62
384.436	962.62
384.662	982.62
384.887	992.62
385.112	1005.62
385.337	995.62
385.562	982.62
385.787	983.62
386.013	992.62
386.238	1001.62
386.463	1033.62
386.688	980.62
386.913	974.62
387.138	968.62
387.363	968.62
387.588	938.62
387.813	957.62
388.038	956.62
388.263	939.62
388.488	988.62
388.713	952.62
388.938	936.62
389.163	945.62
389.387	948.62
389.612	937.62
389.837	954.62
390.062	948.62
390.287	967.62
390.512	948.62
390.736	946.62
390.961	931.62
391.186	984.62
391.411	1030.62
391.636	1070.62
391.86	1071.62
392.085	1117.62
392.31	1099.62
392.534	1078.62
392.759	1049.62
392.984	1016.62
393.208	1030.62
393.433	1055.62
393.658	1044.62
393.882	1039.62
394.107	1044.62
394.331	1057.62
394.556	1032.62
394.78	1056.62
395.005	1048.62
395.229	1039.62
395.454	1076.62
395.678	1114.62
395.903	1109.62
396.127	1086.62
396.352	1066.62
396.576	1048.62
396.801	1000.62
397.025	1016.62
397.249	1046.62
397.474	1082.62
397.698	1058.62
397.922	1084.62
398.147	1066.62
398.371	1089.62
398.595	1172.62
398.82	1211.62
399.044	1293.62
399.268	1408.62
399.492	1669.62
399.717	1897.62
399.941	1899.62
400.165	1688.62
400.389	1474.62
400.613	1364.62
400.837	1283.62
401.062	1249.62
401.286	1225.62
401.51	1201.62
401.734	1207.62
401.958	1261.62
402.182	1250.62
402.406	1255.62
402.63	1296.62
402.854	1308.62
403.078	1358.62
403.302	1355.62
403.526	1397.62
403.75	1436.62
403.974	1480.62
404.198	1469.62
404.422	1462.62
404.645	1463.62
404.869	1419.62
405.093	1430.62
405.317	1405.62
405.541	1366.62
405.765	1339.62
405.988	1312.62
406.212	1364.62
406.436	1351.62
406.66	1379.62
406.883	1402.62
407.107	1475.62
407.331	1570.62
407.555	1626.62
407.778	1614.62
408.002	1589.62
408.226	1490.62
408.449	1489.62
408.673	1434.62
408.896	1419.62
409.12	1369.62
409.344	1418.62
409.567	1420.62
409.791	1439.62
410.014	1436.62
410.238	1391.62
410.461	1389.62
410.685	1346.62
410.908	1330.62
411.132	1312.62
411.355	1273.62
411.578	1250.62
411.802	1245.62
412.025	1272.62
412.249	1301.62
412.472	1309.62
412.695	1255.62
412.919	1220.62
413.142	1196.62
413.365	1237.62
413.589	1245.62
413.812	1230.62
414.035	1218.62
414.258	1245.62
414.482	1250.62
414.705	1252.62
414.928	1262.62
415.151	1260.62
415.374	1223.62
415.597	1214.62
415.821	1228.62
416.044	1212.62
416.267	1225.62
416.49	1212.62
416.713	1216.62
416.936	1237.62
417.159	1234.62
417.382	1244.62
417.605	1217.62
417.828	1234.62
418.051	1241.62
418.274	1245.62
418.497	1216.62
418.72	1258.62
418.943	1264.62
419.166	1371.62
419.389	1426.62
419.611	1436.62
419.834	1336.62
420.057	1308.62
420.28	1267.62
420.503	1183.62
420.726	1193.62
420.948	1208.62
421.171	1225.62
421.394	1237.62
421.617	1229.62
421.839	1232.62
422.062	1247.62
422.285	1220.62
422.507	1271.62
422.73	1254.62
422.953	1286.62
423.175	1310.62
423.398	1303.62
423.621	1301.62
423.843	1352.62
424.066	1384.62
424.288	1319.62
424.511	1353.62
424.733	1316.62
424.956	1278.62
425.178	1259.62
425.401	1286.62
425.623	1268.62
425.846	1196.62
426.068	1192.62
426.291	1184.62
426.513	1169.62
426.735	1167.62
426.958	1185.62
427.18	1121.62
427.402	1120.62
427.625	1118.62
427.847	1116.62
428.069	1117.62
428.292	1096.62
428.514	1133.62
428.736	1072.62
428.958	1093.62
429.181	1064.62
429.403	1086.62
429.625	1094.62
429.847	1096.62
430.069	1074.62
430.292	1057.62
430.514	1053.62
430.736	1078.62
430.958	1090.62
431.18	1079.62
431.402	1069.62
431.624	1090.62
431.846	1078.62
432.068	1143.62
432.29	1122.62
432.512	1125.62
432.734	1123.62
432.956	1090.62
433.178	1175.62
433.4	1109.62
433.622	1113.62
433.844	1117.62
434.066	1148.62
434.287	1132.62
434.509	1183.62
434.731	1218.62
434.953	1309.62
435.175	1282.62
435.397	1266.62
435.618	1191.62
435.84	1170.62
436.062	1123.62
436.284	1094.62
436.505	1092.62
436.727	1103.62
436.949	1138.62
437.17	1117.62
437.392	1097.62
437.614	1075.62
437.835	1058.62
438.057	1053.62
438.278	1064.62
438.5	1072.62
438.721	1056.62
438.943	1073.62
439.165	1091.62
439.386	1082.62
439.608	1108.62
439.829	1110.62
440.05	1111.62
440.272	1140.62
440.493	1130.62
440.715	1136.62
440.936	1165.62
441.158	1145.62
441.379	1223.62
441.6	1262.62
441.822	1268.62
442.043	1312.62
442.264	1234.62
442.486	1253.62
442.707	1268.62
442.928	1273.62
443.149	1233.62
443.371	1259.62
443.592	1261.62
443.813	1267.62
444.034	1272.62
444.255	1332.62
444.476	1409.62
444.698	1510.62
444.919	1586.62
445.14	1611.62
445.361	1461.62
445.582	1341.62
445.803	1251.62
446.024	1198.62
446.245	1193.62
446.466	1174.62
446.687	1125.62
446.908	1167.62
447.129	1119.62
447.35	1116.62
447.571	1109.62
447.792	1076.62
448.013	1045.62
448.234	1035.62
448.455	1060.62
448.675	1065.62
448.896	1022.62
449.117	1010.62
449.338	969.62
449.559	987.62
449.779	1038.62
450	988.62
450.221	1057.62
450.442	1022.62
450.662	1056.62
450.883	1062.62
451.104	1081.62
451.324	1092.62
451.545	1068.62
451.766	1064.62
451.986	1028.62
452.207	1072.62
452.428	1030.62
452.648	1048.62
452.869	1013.62
453.089	1010.62
453.31	1012.62
453.53	1008.62
453.751	988.62
453.971	1000.62
454.192	992.62
454.412	989.62
454.633	972.62
454.853	970.62
455.073	958.62
455.294	964.62
455.514	956.62
455.734	979.62
455.955	967.62
456.175	947.62
456.395	944.62
456.616	939.62
456.836	939.62
457.056	933.62
457.276	952.62
457.497	923.62
457.717	949.62
457.937	938.62
458.157	989.62
458.377	994.62
458.598	1017.62
458.818	1028.62
459.038	1106.62
459.258	1090.62
459.478	1124.62
459.698	1147.62
459.918	1201.62
460.138	1230.62
460.358	1296.62
460.578	1357.62
460.798	1358.62
461.018	1377.62
461.238	1366.62
461.458	1291.62
461.678	1339.62
461.898	1322.62
462.118	1354.62
462.338	1436.62
462.558	1493.62
462.777	1517.62
462.997	1662.62
463.217	1829.62
463.437	1872.62
463.657	1685.62
463.876	1574.62
464.096	1580.62
464.316	1601.62
464.536	1611.62
464.755	1554.62
464.975	1486.62
465.195	1404.62
465.414	1327.62
465.634	1217.62
465.854	1170.62
466.073	1160.62
466.293	1118.62
466.512	1092.62
466.732	1060.62
466.951	1109.62
467.171	1087.62
467.391	1079.62
467.61	1067.62
467.829	1055.62
468.049	1073.62
468.268	1006.62
468.488	1043.62
468.707	1028.62
468.927	1012.62
469.146	1057.62
469.365	1046.62
469.585	1067.62
469.804	1046.62
470.023	1110.62
470.243	1124.62
470.462	1128.62
470.681	1144.62
470.901	1140.62
471.12	1117.62
471.339	1085.62
471.558	1078.62
471.777	1057.62
471.997	1046.62
472.216	1079.62
472.435	1036.62
472.654	993.62
472.873	996.62
473.092	1013.62
473.311	1001.62
473.53	995.62
473.749	998.62
473.968	1014.62
474.187	1028.62
474.406	1029.62
474.625	1005.62
474.844	1010.62
475.063	993.62
475.282	991.62
475.501	1020.62
475.72	992.62
475.939	1045.62
476.158	1042.62
476.377	1051.62
476.596	1054.62
476.814	1064.62
477.033	1074.62
477.252	1084.62
477.471	1100.62
477.69	1125.62
477.908	1158.62
478.127	1197.62
478.346	1218.62
478.564	1208.62
478.783	1249.62
479.002	1265.62
479.22	1302.62
479.439	1262.62
479.658	1229.62
479.876	1272.62
480.095	1282.62
480.313	1334.62
480.532	1396.62
480.751	1369.62
480.969	1308.62
481.188	1229.62
481.406	1228.62
481.624	1209.62
481.843	1155.62
482.061	1125.62
482.28	1164.62
482.498	1146.62
482.717	1123.62
482.935	1151.62
483.153	1160.62
483.372	1188.62
483.59	1135.62
483.808	1184.62
484.027	1168.62
484.245	1184.62
484.463	1151.62
484.681	1191.62
484.9	1196.62
485.118	1171.62
485.336	1204.62
485.554	1160.62
485.772	1206.62
485.99	1230.62
486.209	1228.62
486.427	1221.62
486.645	1193.62
486.863	1267.62
487.081	1225.62
487.299	1229.62
487.517	1228.62
487.735	1212.62
487.953	1227.62
488.171	1192.62
488.389	1182.62
488.607	1172.62
488.825	1165.62
489.043	1163.62
489.261	1190.62
489.479	1200.62
489.696	1198.62
489.914	1184.62
490.132	1226.62
490.35	1237.62
490.568	1213.62
490.786	1217.62
491.003	1212.62
491.221	1224.62
491.439	1187.62
491.657	1251.62
491.874	1248.62
492.092	1271.62
492.31	1238.62
492.527	1280.62
492.745	1277.62
492.963	1244.62
493.18	1249.62
493.398	1268.62
493.615	1275.62
493.833	1241.62
494.05	1271.62
494.268	1288.62
494.485	1299.62
494.703	1339.62
494.92	1334.62
495.138	1273.62
495.355	1265.62
