Data from Ni(NO3)2@0.5M.TitratingCurve.Agarose3%dH2O.NegLispCup.LampEnergy10.LIBS07252019_HRD10591_18-00-27-564.txt Node
Date: Thu Jul 25 18:00:27 EDT 2019
User: cochatt
Spectrometer: HR+D1059
Trigger mode: 1
Integration Time (sec): 1.000000E-1
Scans to average: 1
Electric dark correction enabled: true
Nonlinearity correction enabled: false
Boxcar width: 0
XAxis mode: Wavelengths
Number of Pixels in Spectrum: 2048
>>>>>Begin Spectral Data<<<<<
223.165	-30.38
223.4	-30.38
223.635	-30.38
223.869	-20.38
224.104	-11.38
224.338	-18.38
224.573	-7.38
224.808	-6.38
225.042	-3.38
225.277	0.62
225.511	-7.38
225.746	12.62
225.98	5.62
226.215	13.62
226.449	12.62
226.683	5.62
226.918	31.62
227.152	22.62
227.387	29.62
227.621	43.62
227.856	38.62
228.09	48.62
228.324	51.62
228.559	54.62
228.793	84.62
229.027	151.62
229.262	163.62
229.496	188.62
229.73	177.62
229.964	191.62
230.199	210.62
230.433	211.62
230.667	212.62
230.901	206.62
231.136	193.62
231.37	193.62
231.604	218.62
231.838	235.62
232.072	235.62
232.306	219.62
232.541	230.62
232.775	223.62
233.009	212.62
233.243	209.62
233.477	223.62
233.711	206.62
233.945	215.62
234.179	204.62
234.413	216.62
234.647	230.62
234.881	236.62
235.115	233.62
235.349	220.62
235.583	213.62
235.817	215.62
236.051	224.62
236.285	223.62
236.519	228.62
236.753	229.62
236.987	219.62
237.221	250.62
237.455	245.62
237.689	227.62
237.922	261.62
238.156	247.62
238.39	209.62
238.624	243.62
238.858	257.62
239.091	263.62
239.325	267.62
239.559	295.62
239.793	278.62
240.027	291.62
240.26	259.62
240.494	280.62
240.728	282.62
240.961	272.62
241.195	284.62
241.429	275.62
241.662	270.62
241.896	314.62
242.13	303.62
242.363	288.62
242.597	307.62
242.83	295.62
243.064	309.62
243.298	314.62
243.531	317.62
243.765	311.62
243.998	327.62
244.232	304.62
244.465	327.62
244.699	329.62
244.932	348.62
245.166	336.62
245.399	347.62
245.633	333.62
245.866	328.62
246.099	344.62
246.333	362.62
246.566	337.62
246.8	340.62
247.033	339.62
247.266	350.62
247.5	360.62
247.733	358.62
247.966	345.62
248.2	373.62
248.433	360.62
248.666	373.62
248.899	378.62
249.133	373.62
249.366	385.62
249.599	397.62
249.832	381.62
250.066	385.62
250.299	380.62
250.532	391.62
250.765	419.62
250.998	398.62
251.231	417.62
251.465	412.62
251.698	432.62
251.931	405.62
252.164	410.62
252.397	420.62
252.63	432.62
252.863	434.62
253.096	446.62
253.329	427.62
253.562	440.62
253.795	446.62
254.028	420.62
254.261	460.62
254.494	451.62
254.727	433.62
254.96	453.62
255.193	464.62
255.426	426.62
255.659	458.62
255.892	453.62
256.124	445.62
256.357	466.62
256.59	472.62
256.823	487.62
257.056	465.62
257.289	471.62
257.521	488.62
257.754	472.62
257.987	484.62
258.22	516.62
258.452	485.62
258.685	530.62
258.918	496.62
259.151	516.62
259.383	513.62
259.616	515.62
259.849	516.62
260.081	525.62
260.314	524.62
260.547	526.62
260.779	508.62
261.012	524.62
261.244	545.62
261.477	545.62
261.71	537.62
261.942	550.62
262.175	555.62
262.407	556.62
262.64	529.62
262.872	530.62
263.105	534.62
263.337	559.62
263.57	548.62
263.802	571.62
264.035	563.62
264.267	532.62
264.499	572.62
264.732	579.62
264.964	585.62
265.197	579.62
265.429	550.62
265.661	577.62
265.894	592.62
266.126	579.62
266.358	585.62
266.591	600.62
266.823	602.62
267.055	588.62
267.287	592.62
267.52	624.62
267.752	607.62
267.984	616.62
268.216	622.62
268.448	630.62
268.681	633.62
268.913	623.62
269.145	613.62
269.377	636.62
269.609	636.62
269.841	624.62
270.073	619.62
270.306	645.62
270.538	657.62
270.77	638.62
271.002	637.62
271.234	639.62
271.466	645.62
271.698	629.62
271.93	648.62
272.162	656.62
272.394	655.62
272.626	678.62
272.858	661.62
273.09	678.62
273.322	668.62
273.553	686.62
273.785	667.62
274.017	692.62
274.249	689.62
274.481	718.62
274.713	705.62
274.945	699.62
275.176	704.62
275.408	715.62
275.64	706.62
275.872	701.62
276.104	710.62
276.335	711.62
276.567	716.62
276.799	718.62
277.031	711.62
277.262	732.62
277.494	722.62
277.726	734.62
277.957	726.62
278.189	727.62
278.421	731.62
278.652	739.62
278.884	749.62
279.115	746.62
279.347	762.62
279.579	751.62
279.81	744.62
280.042	741.62
280.273	777.62
280.505	768.62
280.736	772.62
280.968	783.62
281.199	797.62
281.431	757.62
281.662	780.62
281.894	749.62
282.125	765.62
282.356	797.62
282.588	796.62
282.819	806.62
283.051	790.62
283.282	800.62
283.513	791.62
283.745	816.62
283.976	833.62
284.207	806.62
284.439	841.62
284.67	831.62
284.901	815.62
285.132	845.62
285.364	845.62
285.595	846.62
285.826	813.62
286.057	813.62
286.288	829.62
286.52	841.62
286.751	848.62
286.982	847.62
287.213	852.62
287.444	861.62
287.675	857.62
287.906	884.62
288.138	835.62
288.369	855.62
288.6	876.62
288.831	881.62
289.062	867.62
289.293	879.62
289.524	873.62
289.755	866.62
289.986	856.62
290.217	865.62
290.448	887.62
290.679	853.62
290.91	891.62
291.141	863.62
291.371	863.62
291.602	907.62
291.833	890.62
292.064	887.62
292.295	889.62
292.526	868.62
292.757	901.62
292.987	879.62
293.218	867.62
293.449	873.62
293.68	895.62
293.91	907.62
294.141	888.62
294.372	878.62
294.603	899.62
294.833	893.62
295.064	900.62
295.295	897.62
295.525	911.62
295.756	905.62
295.987	876.62
296.217	910.62
296.448	935.62
296.679	938.62
296.909	912.62
297.14	923.62
297.37	955.62
297.601	952.62
297.831	960.62
298.062	990.62
298.292	956.62
298.523	996.62
298.753	967.62
298.984	966.62
299.214	972.62
299.445	951.62
299.675	968.62
299.905	988.62
300.136	982.62
300.366	1008.62
300.597	1017.62
300.827	999.62
301.057	1006.62
301.288	1000.62
301.518	1002.62
301.748	1030.62
301.979	1035.62
302.209	1022.62
302.439	1011.62
302.669	1042.62
302.9	1017.62
303.13	1066.62
303.36	1067.62
303.59	1043.62
303.82	1028.62
304.051	1046.62
304.281	1034.62
304.511	1000.62
304.741	1017.62
304.971	1057.62
305.201	1058.62
305.431	1072.62
305.661	1061.62
305.891	1045.62
306.121	1012.62
306.352	1042.62
306.582	1055.62
306.812	1010.62
307.042	1029.62
307.272	1012.62
307.502	1031.62
307.731	1003.62
307.961	1006.62
308.191	1013.62
308.421	1031.62
308.651	1032.62
308.881	1034.62
309.111	1016.62
309.341	1015.62
309.571	1030.62
309.8	1049.62
310.03	1057.62
310.26	1038.62
310.49	1048.62
310.72	1070.62
310.949	1042.62
311.179	1051.62
311.409	1023.62
311.639	1047.62
311.868	1071.62
312.098	1056.62
312.328	1069.62
312.557	1072.62
312.787	1072.62
313.017	1084.62
313.246	1113.62
313.476	1091.62
313.706	1143.62
313.935	1113.62
314.165	1116.62
314.394	1126.62
314.624	1119.62
314.853	1099.62
315.083	1089.62
315.312	1160.62
315.542	1093.62
315.771	1115.62
316.001	1126.62
316.23	1118.62
316.46	1129.62
316.689	1113.62
316.919	1132.62
317.148	1126.62
317.377	1111.62
317.607	1103.62
317.836	1115.62
318.065	1097.62
318.295	1143.62
318.524	1128.62
318.753	1129.62
318.983	1084.62
319.212	1104.62
319.441	1118.62
319.67	1115.62
319.9	1123.62
320.129	1120.62
320.358	1118.62
320.587	1136.62
320.816	1159.62
321.046	1135.62
321.275	1144.62
321.504	1128.62
321.733	1131.62
321.962	1145.62
322.191	1153.62
322.42	1162.62
322.649	1158.62
322.878	1159.62
323.108	1149.62
323.337	1174.62
323.566	1197.62
323.795	1161.62
324.024	1182.62
324.253	1193.62
324.482	1189.62
324.71	1197.62
324.939	1192.62
325.168	1219.62
325.397	1214.62
325.626	1178.62
325.855	1219.62
326.084	1200.62
326.313	1256.62
326.542	1232.62
326.77	1249.62
326.999	1228.62
327.228	1211.62
327.457	1247.62
327.686	1251.62
327.914	1256.62
328.143	1227.62
328.372	1218.62
328.6	1242.62
328.829	1229.62
329.058	1210.62
329.287	1249.62
329.515	1258.62
329.744	1275.62
329.972	1244.62
330.201	1289.62
330.43	1299.62
330.658	1298.62
330.887	1310.62
331.115	1321.62
331.344	1343.62
331.572	1333.62
331.801	1335.62
332.03	1319.62
332.258	1330.62
332.486	1392.62
332.715	1384.62
332.943	1407.62
333.172	1445.62
333.4	1464.62
333.629	1447.62
333.857	1503.62
334.085	1598.62
334.314	1553.62
334.542	1519.62
334.771	1535.62
334.999	1514.62
335.227	1513.62
335.455	1541.62
335.684	1502.62
335.912	1563.62
336.14	1523.62
336.369	1517.62
336.597	1564.62
336.825	1489.62
337.053	1531.62
337.281	1503.62
337.51	1502.62
337.738	1463.62
337.966	1447.62
338.194	1466.62
338.422	1403.62
338.65	1432.62
338.878	1423.62
339.106	1408.62
339.334	1436.62
339.562	1383.62
339.79	1369.62
340.018	1347.62
340.246	1360.62
340.474	1381.62
340.702	1319.62
340.93	1352.62
341.158	1375.62
341.386	1403.62
341.614	1433.62
341.842	1378.62
342.07	1364.62
342.298	1371.62
342.526	1349.62
342.754	1343.62
342.981	1319.62
343.209	1400.62
343.437	1405.62
343.665	1448.62
343.893	1493.62
344.12	1487.62
344.348	1525.62
344.576	1493.62
344.804	1494.62
345.031	1435.62
345.259	1374.62
345.487	1371.62
345.714	1386.62
345.942	1383.62
346.17	1419.62
346.397	1381.62
346.625	1337.62
346.853	1307.62
347.08	1309.62
347.308	1325.62
347.535	1295.62
347.763	1269.62
347.99	1287.62
348.218	1275.62
348.445	1335.62
348.673	1293.62
348.9	1295.62
349.128	1297.62
349.355	1306.62
349.583	1367.62
349.81	1268.62
350.037	1278.62
350.265	1260.62
350.492	1233.62
350.72	1249.62
350.947	1287.62
351.174	1276.62
351.402	1287.62
351.629	1335.62
351.856	1324.62
352.083	1260.62
352.311	1259.62
352.538	1338.62
352.765	1329.62
352.992	1269.62
353.22	1214.62
353.447	1211.62
353.674	1201.62
353.901	1213.62
354.128	1244.62
354.355	1248.62
354.583	1249.62
354.81	1227.62
355.037	1268.62
355.264	1233.62
355.491	1252.62
355.718	1241.62
355.945	1248.62
356.172	1236.62
356.399	1240.62
356.626	1304.62
356.853	1316.62
357.08	1272.62
357.307	1268.62
357.534	1251.62
357.761	1213.62
357.988	1271.62
358.215	1250.62
358.441	1244.62
358.668	1252.62
358.895	1236.62
359.122	1246.62
359.349	1267.62
359.576	1230.62
359.802	1267.62
360.029	1252.62
360.256	1272.62
360.483	1276.62
360.709	1278.62
360.936	1252.62
361.163	1274.62
361.39	1285.62
361.616	1273.62
361.843	1283.62
362.07	1355.62
362.296	1325.62
362.523	1256.62
362.749	1256.62
362.976	1239.62
363.203	1265.62
363.429	1287.62
363.656	1279.62
363.882	1251.62
364.109	1262.62
364.335	1253.62
364.562	1235.62
364.788	1249.62
365.015	1259.62
365.241	1256.62
365.468	1269.62
365.694	1277.62
365.92	1257.62
366.147	1243.62
366.373	1268.62
366.599	1310.62
366.826	1255.62
367.052	1287.62
367.278	1283.62
367.505	1289.62
367.731	1283.62
367.957	1287.62
368.184	1294.62
368.41	1273.62
368.636	1287.62
368.862	1298.62
369.089	1314.62
369.315	1324.62
369.541	1276.62
369.767	1303.62
369.993	1300.62
370.219	1286.62
370.445	1354.62
370.672	1342.62
370.898	1323.62
371.124	1329.62
371.35	1371.62
371.576	1335.62
371.802	1349.62
372.028	1335.62
372.254	1345.62
372.48	1362.62
372.706	1397.62
372.932	1379.62
373.158	1383.62
373.384	1377.62
373.61	1360.62
373.835	1380.62
374.061	1352.62
374.287	1391.62
374.513	1397.62
374.739	1387.62
374.965	1451.62
375.191	1446.62
375.416	1448.62
375.642	1403.62
375.868	1409.62
376.094	1387.62
376.319	1345.62
376.545	1344.62
376.771	1382.62
376.997	1376.62
377.222	1360.62
377.448	1359.62
377.674	1353.62
377.899	1368.62
378.125	1318.62
378.35	1319.62
378.576	1336.62
378.802	1350.62
379.027	1348.62
379.253	1334.62
379.478	1349.62
379.704	1369.62
379.929	1343.62
380.155	1341.62
380.38	1347.62
380.606	1348.62
380.831	1343.62
381.057	1332.62
381.282	1324.62
381.507	1353.62
381.733	1378.62
381.958	1375.62
382.184	1379.62
382.409	1402.62
382.634	1377.62
382.86	1375.62
383.085	1391.62
383.31	1424.62
383.535	1404.62
383.761	1455.62
383.986	1435.62
384.211	1497.62
384.436	1486.62
384.662	1509.62
384.887	1519.62
385.112	1501.62
385.337	1513.62
385.562	1560.62
385.787	1567.62
386.013	1606.62
386.238	1576.62
386.463	1613.62
386.688	1613.62
386.913	1551.62
387.138	1620.62
387.363	1578.62
387.588	1611.62
387.813	1625.62
388.038	1588.62
388.263	1612.62
388.488	1609.62
388.713	1587.62
388.938	1579.62
389.163	1573.62
389.387	1606.62
389.612	1583.62
389.837	1598.62
390.062	1540.62
390.287	1617.62
390.512	1607.62
390.736	1614.62
390.961	1619.62
391.186	1599.62
391.411	1673.62
391.636	1689.62
391.86	1707.62
392.085	1726.62
392.31	1744.62
392.534	1726.62
392.759	1720.62
392.984	1689.62
393.208	1658.62
393.433	1674.62
393.658	1707.62
393.882	1656.62
394.107	1678.62
394.331	1696.62
394.556	1646.62
394.78	1667.62
395.005	1693.62
395.229	1729.62
395.454	1743.62
395.678	1768.62
395.903	1773.62
396.127	1755.62
396.352	1710.62
396.576	1756.62
396.801	1705.62
397.025	1741.62
397.249	1811.62
397.474	1834.62
397.698	1801.62
397.922	1835.62
398.147	1831.62
398.371	1880.62
398.595	1922.62
398.82	1993.62
399.044	2081.62
399.268	2152.62
399.492	2281.62
399.717	2452.62
399.941	2490.62
400.165	2383.62
400.389	2299.62
400.613	2187.62
400.837	2158.62
401.062	2074.62
401.286	1987.62
401.51	2022.62
401.734	1976.62
401.958	1975.62
402.182	2001.62
402.406	1960.62
402.63	2006.62
402.854	1963.62
403.078	1970.62
403.302	2004.62
403.526	1995.62
403.75	2041.62
403.974	2061.62
404.198	2019.62
404.422	2046.62
404.645	2021.62
404.869	2047.62
405.093	2039.62
405.317	2072.62
405.541	2107.62
405.765	2055.62
405.988	2086.62
406.212	2102.62
406.436	2093.62
406.66	2145.62
406.883	2172.62
407.107	2242.62
407.331	2313.62
407.555	2348.62
407.778	2349.62
408.002	2337.62
408.226	2309.62
408.449	2334.62
408.673	2202.62
408.896	2200.62
409.12	2160.62
409.344	2183.62
409.567	2115.62
409.791	2141.62
410.014	2127.62
410.238	2128.62
410.461	2082.62
410.685	2083.62
410.908	2116.62
411.132	2080.62
411.355	2036.62
411.578	2012.62
411.802	2051.62
412.025	1997.62
412.249	2092.62
412.472	2047.62
412.695	1984.62
412.919	1996.62
413.142	2018.62
413.365	1940.62
413.589	1951.62
413.812	1925.62
414.035	1923.62
414.258	1932.62
414.482	1926.62
414.705	1961.62
414.928	2015.62
415.151	1969.62
415.374	1946.62
415.597	1922.62
415.821	1914.62
416.044	1870.62
416.267	1892.62
416.49	1893.62
416.713	1794.62
416.936	1902.62
417.159	1870.62
417.382	1864.62
417.605	1843.62
417.828	1878.62
418.051	1885.62
418.274	1862.62
418.497	1871.62
418.72	1932.62
418.943	1892.62
419.166	2008.62
419.389	2097.62
419.611	2124.62
419.834	2024.62
420.057	1987.62
420.28	1929.62
420.503	1904.62
420.726	1866.62
420.948	1814.62
421.171	1860.62
421.394	1859.62
421.617	1847.62
421.839	1874.62
422.062	1883.62
422.285	1821.62
422.507	1880.62
422.73	1870.62
422.953	1900.62
423.175	1867.62
423.398	1904.62
423.621	1872.62
423.843	1890.62
424.066	1904.62
424.288	1880.62
424.511	1870.62
424.733	1891.62
424.956	1841.62
425.178	1897.62
425.401	1879.62
425.623	1871.62
425.846	1848.62
426.068	1805.62
426.291	1810.62
426.513	1862.62
426.735	1816.62
426.958	1813.62
427.18	1801.62
427.402	1760.62
427.625	1807.62
427.847	1757.62
428.069	1693.62
428.292	1757.62
428.514	1777.62
428.736	1726.62
428.958	1773.62
429.181	1719.62
429.403	1671.62
429.625	1702.62
429.847	1715.62
430.069	1693.62
430.292	1681.62
430.514	1718.62
430.736	1728.62
430.958	1718.62
431.18	1724.62
431.402	1750.62
431.624	1697.62
431.846	1743.62
432.068	1757.62
432.29	1798.62
432.512	1703.62
432.734	1762.62
432.956	1720.62
433.178	1760.62
433.4	1758.62
433.622	1780.62
433.844	1788.62
434.066	1797.62
434.287	1803.62
434.509	1832.62
434.731	1871.62
434.953	1890.62
435.175	1869.62
435.397	1897.62
435.618	1834.62
435.84	1803.62
436.062	1786.62
436.284	1757.62
436.505	1766.62
436.727	1718.62
436.949	1743.62
437.17	1777.62
437.392	1745.62
437.614	1701.62
437.835	1663.62
438.057	1685.62
438.278	1649.62
438.5	1649.62
438.721	1711.62
438.943	1713.62
439.165	1673.62
439.386	1709.62
439.608	1663.62
439.829	1687.62
440.05	1696.62
440.272	1760.62
440.493	1739.62
440.715	1731.62
440.936	1797.62
441.158	1815.62
441.379	1736.62
441.6	1843.62
441.822	1819.62
442.043	1896.62
442.264	1878.62
442.486	1819.62
442.707	1825.62
442.928	1843.62
443.149	1859.62
443.371	1856.62
443.592	1920.62
443.813	1889.62
444.034	1867.62
444.255	1861.62
444.476	1951.62
444.698	2008.62
444.919	2050.62
445.14	2118.62
445.361	2013.62
445.582	1941.62
445.803	1855.62
446.024	1805.62
446.245	1803.62
446.466	1761.62
446.687	1741.62
446.908	1774.62
447.129	1715.62
447.35	1673.62
447.571	1656.62
447.792	1617.62
448.013	1624.62
448.234	1637.62
448.455	1651.62
448.675	1623.62
448.896	1598.62
449.117	1604.62
449.338	1589.62
449.559	1592.62
449.779	1573.62
450	1558.62
450.221	1555.62
450.442	1565.62
450.662	1569.62
450.883	1577.62
451.104	1621.62
451.324	1543.62
451.545	1585.62
451.766	1571.62
451.986	1574.62
452.207	1555.62
452.428	1545.62
452.648	1553.62
452.869	1533.62
453.089	1542.62
453.31	1567.62
453.53	1529.62
453.751	1500.62
453.971	1479.62
454.192	1513.62
454.412	1523.62
454.633	1511.62
454.853	1473.62
455.073	1459.62
455.294	1503.62
455.514	1515.62
455.734	1501.62
455.955	1499.62
456.175	1550.62
456.395	1491.62
456.616	1487.62
456.836	1485.62
457.056	1492.62
457.276	1482.62
457.497	1511.62
457.717	1526.62
457.937	1508.62
458.157	1566.62
458.377	1541.62
458.598	1579.62
458.818	1616.62
459.038	1628.62
459.258	1679.62
459.478	1760.62
459.698	1820.62
459.918	1811.62
460.138	1865.62
460.358	1939.62
460.578	1919.62
460.798	1946.62
461.018	1975.62
461.238	1957.62
461.458	1936.62
461.678	1938.62
461.898	2026.62
462.118	2003.62
462.338	2039.62
462.558	2114.62
462.777	2184.62
462.997	2257.62
463.217	2305.62
463.437	2323.62
463.657	2299.62
463.876	2188.62
464.096	2192.62
464.316	2173.62
464.536	2131.62
464.755	2088.62
464.975	2025.62
465.195	1955.62
465.414	1914.62
465.634	1835.62
465.854	1805.62
466.073	1740.62
466.293	1707.62
466.512	1689.62
466.732	1669.62
466.951	1657.62
467.171	1675.62
467.391	1685.62
467.61	1657.62
467.829	1657.62
468.049	1610.62
468.268	1627.62
468.488	1608.62
468.707	1614.62
468.927	1607.62
469.146	1582.62
469.365	1633.62
469.585	1660.62
469.804	1646.62
470.023	1617.62
470.243	1668.62
470.462	1650.62
470.681	1672.62
470.901	1676.62
471.12	1665.62
471.339	1670.62
471.558	1648.62
471.777	1645.62
471.997	1620.62
472.216	1635.62
472.435	1604.62
472.654	1616.62
472.873	1584.62
473.092	1590.62
473.311	1609.62
473.53	1594.62
473.749	1588.62
473.968	1587.62
474.187	1595.62
474.406	1563.62
474.625	1596.62
474.844	1593.62
475.063	1637.62
475.282	1635.62
475.501	1638.62
475.72	1678.62
475.939	1627.62
476.158	1634.62
476.377	1652.62
476.596	1665.62
476.814	1667.62
477.033	1712.62
477.252	1717.62
477.471	1719.62
477.69	1788.62
477.908	1804.62
478.127	1875.62
478.346	1848.62
478.564	1863.62
478.783	1904.62
479.002	1960.62
479.22	1983.62
479.439	1961.62
479.658	1947.62
479.876	1936.62
480.095	1935.62
480.313	1998.62
480.532	2030.62
480.751	2020.62
480.969	1996.62
481.188	1992.62
481.406	1934.62
481.624	1971.62
481.843	1937.62
482.061	1901.62
482.28	1859.62
482.498	1846.62
482.717	1861.62
482.935	1876.62
483.153	1870.62
483.372	1904.62
483.59	1910.62
483.808	1886.62
484.027	1874.62
484.245	1923.62
484.463	1906.62
484.681	1915.62
484.9	1915.62
485.118	1944.62
485.336	1959.62
485.554	1940.62
485.772	1955.62
485.99	1933.62
486.209	1913.62
486.427	1950.62
486.645	1946.62
486.863	1958.62
487.081	1919.62
487.299	1983.62
487.517	1951.62
487.735	1950.62
487.953	2028.62
488.171	1969.62
488.389	1968.62
488.607	1936.62
488.825	1968.62
489.043	1930.62
489.261	1942.62
489.479	1898.62
489.696	1910.62
489.914	1927.62
