Data from Ni(NO3)2@0.0625M.TitratingCurve.Agarose3%dH2O.NegLispCup.LampEnergy10.LIBS07252019_HRD10591_18-14-51-569.txt Node
Date: Thu Jul 25 18:14:51 EDT 2019
User: cochatt
Spectrometer: HR+D1059
Trigger mode: 1
Integration Time (sec): 1.000000E-1
Scans to average: 1
Electric dark correction enabled: true
Nonlinearity correction enabled: false
Boxcar width: 0
XAxis mode: Wavelengths
Number of Pixels in Spectrum: 2048
>>>>>Begin Spectral Data<<<<<
223.165	-19.12
223.4	-19.12
223.635	-19.12
223.869	-10.12
224.104	-26.12
224.338	-20.12
224.573	-22.12
224.808	-13.12
225.042	-20.12
225.277	-8.12
225.511	-3.12
225.746	11.88
225.98	15.88
226.215	8.88
226.449	21.88
226.683	29.88
226.918	24.88
227.152	28.88
227.387	36.88
227.621	33.88
227.856	41.88
228.09	50.88
228.324	44.88
228.559	49.88
228.793	75.88
229.027	97.88
229.262	111.88
229.496	119.88
229.73	128.88
229.964	135.88
230.199	147.88
230.433	126.88
230.667	149.88
230.901	126.88
231.136	133.88
231.37	137.88
231.604	148.88
231.838	148.88
232.072	135.88
232.306	163.88
232.541	166.88
232.775	158.88
233.009	149.88
233.243	138.88
233.477	159.88
233.711	154.88
233.945	162.88
234.179	147.88
234.413	150.88
234.647	155.88
234.881	135.88
235.115	161.88
235.349	166.88
235.583	151.88
235.817	153.88
236.051	166.88
236.285	149.88
236.519	148.88
236.753	152.88
236.987	157.88
237.221	158.88
237.455	155.88
237.689	161.88
237.922	156.88
238.156	153.88
238.39	151.88
238.624	165.88
238.858	185.88
239.091	177.88
239.325	170.88
239.559	179.88
239.793	178.88
240.027	178.88
240.26	162.88
240.494	182.88
240.728	175.88
240.961	185.88
241.195	204.88
241.429	178.88
241.662	194.88
241.896	193.88
242.13	194.88
242.363	197.88
242.597	198.88
242.83	193.88
243.064	202.88
243.298	193.88
243.531	203.88
243.765	214.88
243.998	220.88
244.232	203.88
244.465	226.88
244.699	205.88
244.932	216.88
245.166	220.88
245.399	223.88
245.633	215.88
245.866	211.88
246.099	223.88
246.333	226.88
246.566	213.88
246.8	231.88
247.033	228.88
247.266	235.88
247.5	235.88
247.733	238.88
247.966	223.88
248.2	210.88
248.433	231.88
248.666	232.88
248.899	255.88
249.133	252.88
249.366	235.88
249.599	256.88
249.832	241.88
250.066	253.88
250.299	244.88
250.532	242.88
250.765	268.88
250.998	265.88
251.231	269.88
251.465	262.88
251.698	259.88
251.931	257.88
252.164	265.88
252.397	268.88
252.63	275.88
252.863	272.88
253.096	290.88
253.329	280.88
253.562	248.88
253.795	279.88
254.028	303.88
254.261	277.88
254.494	287.88
254.727	291.88
254.96	310.88
255.193	276.88
255.426	264.88
255.659	290.88
255.892	291.88
256.124	292.88
256.357	283.88
256.59	291.88
256.823	304.88
257.056	301.88
257.289	271.88
257.521	295.88
257.754	309.88
257.987	310.88
258.22	314.88
258.452	306.88
258.685	303.88
258.918	307.88
259.151	322.88
259.383	297.88
259.616	314.88
259.849	309.88
260.081	320.88
260.314	303.88
260.547	311.88
260.779	318.88
261.012	316.88
261.244	311.88
261.477	329.88
261.71	334.88
261.942	331.88
262.175	325.88
262.407	344.88
262.64	333.88
262.872	333.88
263.105	321.88
263.337	334.88
263.57	339.88
263.802	340.88
264.035	338.88
264.267	347.88
264.499	361.88
264.732	359.88
264.964	342.88
265.197	337.88
265.429	358.88
265.661	381.88
265.894	355.88
266.126	381.88
266.358	353.88
266.591	355.88
266.823	367.88
267.055	353.88
267.287	391.88
267.52	370.88
267.752	371.88
267.984	374.88
268.216	362.88
268.448	369.88
268.681	371.88
268.913	379.88
269.145	380.88
269.377	381.88
269.609	386.88
269.841	390.88
270.073	389.88
270.306	386.88
270.538	379.88
270.77	376.88
271.002	408.88
271.234	385.88
271.466	364.88
271.698	407.88
271.93	397.88
272.162	403.88
272.394	393.88
272.626	391.88
272.858	395.88
273.09	404.88
273.322	409.88
273.553	394.88
273.785	401.88
274.017	410.88
274.249	412.88
274.481	423.88
274.713	414.88
274.945	427.88
275.176	412.88
275.408	389.88
275.64	400.88
275.872	417.88
276.104	429.88
276.335	411.88
276.567	425.88
276.799	412.88
277.031	407.88
277.262	430.88
277.494	421.88
277.726	420.88
277.957	441.88
278.189	449.88
278.421	428.88
278.652	444.88
278.884	440.88
279.115	430.88
279.347	443.88
279.579	434.88
279.81	454.88
280.042	453.88
280.273	445.88
280.505	451.88
280.736	443.88
280.968	446.88
281.199	474.88
281.431	479.88
281.662	451.88
281.894	457.88
282.125	473.88
282.356	458.88
282.588	447.88
282.819	467.88
283.051	467.88
283.282	463.88
283.513	482.88
283.745	497.88
283.976	497.88
284.207	479.88
284.439	482.88
284.67	484.88
284.901	481.88
285.132	494.88
285.364	484.88
285.595	486.88
285.826	475.88
286.057	489.88
286.288	495.88
286.52	508.88
286.751	500.88
286.982	497.88
287.213	492.88
287.444	507.88
287.675	514.88
287.906	525.88
288.138	504.88
288.369	533.88
288.6	517.88
288.831	518.88
289.062	498.88
289.293	539.88
289.524	516.88
289.755	493.88
289.986	515.88
290.217	548.88
290.448	525.88
290.679	547.88
290.91	541.88
291.141	531.88
291.371	539.88
291.602	543.88
291.833	517.88
292.064	517.88
292.295	520.88
292.526	526.88
292.757	542.88
292.987	528.88
293.218	519.88
293.449	541.88
293.68	530.88
293.91	525.88
294.141	552.88
294.372	526.88
294.603	549.88
294.833	518.88
295.064	539.88
295.295	531.88
295.525	537.88
295.756	524.88
295.987	569.88
296.217	555.88
296.448	577.88
296.679	561.88
296.909	572.88
297.14	574.88
297.37	591.88
297.601	567.88
297.831	584.88
298.062	577.88
298.292	583.88
298.523	605.88
298.753	598.88
298.984	576.88
299.214	581.88
299.445	571.88
299.675	586.88
299.905	580.88
300.136	585.88
300.366	587.88
300.597	605.88
300.827	617.88
301.057	593.88
301.288	614.88
301.518	597.88
301.748	571.88
301.979	615.88
302.209	593.88
302.439	607.88
302.669	589.88
302.9	596.88
303.13	606.88
303.36	612.88
303.59	595.88
303.82	591.88
304.051	592.88
304.281	619.88
304.511	604.88
304.741	569.88
304.971	617.88
305.201	583.88
305.431	601.88
305.661	613.88
305.891	585.88
306.121	606.88
306.352	595.88
306.582	587.88
306.812	591.88
307.042	593.88
307.272	587.88
307.502	590.88
307.731	573.88
307.961	580.88
308.191	590.88
308.421	585.88
308.651	589.88
308.881	549.88
309.111	586.88
309.341	569.88
309.571	602.88
309.8	586.88
310.03	594.88
310.26	619.88
310.49	601.88
310.72	610.88
310.949	571.88
311.179	604.88
311.409	589.88
311.639	613.88
311.868	582.88
312.098	601.88
312.328	631.88
312.557	605.88
312.787	628.88
313.017	618.88
313.246	639.88
313.476	631.88
313.706	640.88
313.935	652.88
314.165	666.88
314.394	639.88
314.624	615.88
314.853	613.88
315.083	664.88
315.312	651.88
315.542	627.88
315.771	626.88
316.001	607.88
316.23	619.88
316.46	612.88
316.689	609.88
316.919	604.88
317.148	612.88
317.377	616.88
317.607	627.88
317.836	589.88
318.065	609.88
318.295	622.88
318.524	609.88
318.753	606.88
318.983	607.88
319.212	606.88
319.441	611.88
319.67	619.88
319.9	602.88
320.129	636.88
320.358	615.88
320.587	637.88
320.816	617.88
321.046	619.88
321.275	632.88
321.504	620.88
321.733	610.88
321.962	613.88
322.191	591.88
322.42	631.88
322.649	615.88
322.878	621.88
323.108	619.88
323.337	635.88
323.566	645.88
323.795	642.88
324.024	608.88
324.253	658.88
324.482	633.88
324.71	632.88
324.939	647.88
325.168	635.88
325.397	627.88
325.626	626.88
325.855	650.88
326.084	670.88
326.313	711.88
326.542	670.88
326.77	691.88
326.999	675.88
327.228	651.88
327.457	646.88
327.686	673.88
327.914	681.88
328.143	679.88
328.372	672.88
328.6	689.88
328.829	667.88
329.058	649.88
329.287	675.88
329.515	668.88
329.744	675.88
329.972	711.88
330.201	695.88
330.43	707.88
330.658	678.88
330.887	701.88
331.115	699.88
331.344	699.88
331.572	702.88
331.801	715.88
332.03	784.88
332.258	747.88
332.486	764.88
332.715	829.88
332.943	838.88
333.172	874.88
333.4	905.88
333.629	950.88
333.857	931.88
334.085	905.88
334.314	903.88
334.542	867.88
334.771	858.88
334.999	844.88
335.227	868.88
335.455	871.88
335.684	869.88
335.912	822.88
336.14	821.88
336.369	818.88
336.597	811.88
336.825	795.88
337.053	849.88
337.281	815.88
337.51	783.88
337.738	761.88
337.966	760.88
338.194	781.88
338.422	731.88
338.65	699.88
338.878	751.88
339.106	716.88
339.334	728.88
339.562	738.88
339.79	705.88
340.018	691.88
340.246	686.88
340.474	705.88
340.702	701.88
340.93	709.88
341.158	726.88
341.386	719.88
341.614	749.88
341.842	719.88
342.07	685.88
342.298	696.88
342.526	713.88
342.754	694.88
342.981	722.88
343.209	724.88
343.437	758.88
343.665	789.88
343.893	861.88
344.12	886.88
344.348	861.88
344.576	804.88
344.804	745.88
345.031	748.88
345.259	718.88
345.487	715.88
345.714	721.88
345.942	731.88
346.17	730.88
346.397	703.88
346.625	701.88
346.853	676.88
347.08	691.88
347.308	692.88
347.535	719.88
347.763	711.88
347.99	725.88
348.218	711.88
348.445	708.88
348.673	684.88
348.9	709.88
349.128	701.88
349.355	686.88
349.583	677.88
349.81	681.88
350.037	668.88
350.265	684.88
350.492	684.88
350.72	662.88
350.947	676.88
351.174	667.88
351.402	662.88
351.629	658.88
351.856	686.88
352.083	644.88
352.311	671.88
352.538	666.88
352.765	667.88
352.992	659.88
353.22	618.88
353.447	636.88
353.674	653.88
353.901	663.88
354.128	672.88
354.355	659.88
354.583	651.88
354.81	681.88
355.037	675.88
355.264	650.88
355.491	674.88
355.718	666.88
355.945	658.88
356.172	670.88
356.399	676.88
356.626	681.88
356.853	658.88
357.08	657.88
357.307	660.88
357.534	664.88
357.761	656.88
357.988	657.88
358.215	653.88
358.441	662.88
358.668	677.88
358.895	669.88
359.122	666.88
359.349	663.88
359.576	663.88
359.802	668.88
360.029	657.88
360.256	690.88
360.483	655.88
360.709	676.88
360.936	641.88
361.163	663.88
361.39	685.88
361.616	665.88
361.843	690.88
362.07	660.88
362.296	678.88
362.523	667.88
362.749	683.88
362.976	657.88
363.203	647.88
363.429	647.88
363.656	660.88
363.882	673.88
364.109	676.88
364.335	672.88
364.562	659.88
364.788	675.88
365.015	681.88
365.241	661.88
365.468	663.88
365.694	653.88
365.92	671.88
366.147	651.88
366.373	659.88
366.599	649.88
366.826	671.88
367.052	638.88
367.278	667.88
367.505	674.88
367.731	680.88
367.957	656.88
368.184	661.88
368.41	673.88
368.636	689.88
368.862	665.88
369.089	675.88
369.315	687.88
369.541	683.88
369.767	708.88
369.993	685.88
370.219	696.88
370.445	695.88
370.672	698.88
370.898	708.88
371.124	677.88
371.35	724.88
371.576	745.88
371.802	732.88
372.028	722.88
372.254	700.88
372.48	719.88
372.706	746.88
372.932	755.88
373.158	750.88
373.384	757.88
373.61	737.88
373.835	754.88
374.061	723.88
374.287	706.88
374.513	745.88
374.739	769.88
374.965	805.88
375.191	804.88
375.416	802.88
375.642	775.88
375.868	789.88
376.094	747.88
376.319	757.88
376.545	734.88
376.771	763.88
376.997	716.88
377.222	721.88
377.448	722.88
377.674	719.88
377.899	713.88
378.125	722.88
378.35	723.88
378.576	711.88
378.802	710.88
379.027	725.88
379.253	710.88
379.478	702.88
379.704	739.88
379.929	707.88
380.155	706.88
380.38	681.88
380.606	714.88
380.831	713.88
381.057	726.88
381.282	734.88
381.507	727.88
381.733	738.88
381.958	753.88
382.184	722.88
382.409	747.88
382.634	749.88
382.86	745.88
383.085	779.88
383.31	787.88
383.535	817.88
383.761	815.88
383.986	805.88
384.211	825.88
384.436	872.88
384.662	840.88
384.887	890.88
385.112	861.88
385.337	891.88
385.562	891.88
385.787	871.88
386.013	877.88
386.238	851.88
386.463	870.88
386.688	883.88
386.913	866.88
387.138	842.88
387.363	839.88
387.588	850.88
387.813	851.88
388.038	854.88
388.263	864.88
388.488	870.88
388.713	869.88
388.938	853.88
389.163	852.88
389.387	867.88
389.612	836.88
389.837	828.88
390.062	849.88
390.287	861.88
390.512	862.88
390.736	840.88
390.961	839.88
391.186	892.88
391.411	910.88
391.636	942.88
391.86	954.88
392.085	1009.88
392.31	988.88
392.534	939.88
392.759	934.88
392.984	921.88
393.208	908.88
393.433	893.88
393.658	930.88
393.882	923.88
394.107	926.88
394.331	934.88
394.556	935.88
394.78	947.88
395.005	955.88
395.229	931.88
395.454	945.88
395.678	969.88
395.903	974.88
396.127	936.88
396.352	941.88
396.576	904.88
396.801	896.88
397.025	905.88
397.249	927.88
397.474	972.88
397.698	973.88
397.922	961.88
398.147	970.88
398.371	1014.88
398.595	1033.88
398.82	1051.88
399.044	1133.88
399.268	1258.88
399.492	1459.88
399.717	1695.88
399.941	1665.88
400.165	1503.88
400.389	1335.88
400.613	1196.88
400.837	1150.88
401.062	1112.88
401.286	1070.88
401.51	1057.88
401.734	1077.88
401.958	1071.88
402.182	1119.88
402.406	1157.88
402.63	1140.88
402.854	1145.88
403.078	1190.88
403.302	1216.88
403.526	1203.88
403.75	1241.88
403.974	1279.88
404.198	1259.88
404.422	1270.88
404.645	1282.88
404.869	1234.88
405.093	1247.88
405.317	1204.88
405.541	1207.88
405.765	1164.88
405.988	1149.88
406.212	1212.88
406.436	1213.88
406.66	1188.88
406.883	1230.88
407.107	1280.88
407.331	1376.88
407.555	1420.88
407.778	1417.88
408.002	1408.88
408.226	1361.88
408.449	1312.88
408.673	1258.88
408.896	1281.88
409.12	1265.88
409.344	1244.88
409.567	1258.88
409.791	1268.88
410.014	1262.88
410.238	1226.88
410.461	1240.88
410.685	1231.88
410.908	1215.88
411.132	1208.88
411.355	1142.88
411.578	1100.88
411.802	1115.88
412.025	1133.88
412.249	1138.88
412.472	1155.88
412.695	1110.88
412.919	1093.88
413.142	1084.88
413.365	1079.88
413.589	1088.88
413.812	1115.88
414.035	1094.88
414.258	1055.88
414.482	1096.88
414.705	1110.88
414.928	1134.88
415.151	1115.88
415.374	1103.88
415.597	1119.88
415.821	1102.88
416.044	1055.88
416.267	1041.88
416.49	1055.88
416.713	1081.88
416.936	1047.88
417.159	1055.88
417.382	1076.88
417.605	1061.88
417.828	1073.88
418.051	1109.88
418.274	1091.88
418.497	1102.88
418.72	1104.88
418.943	1097.88
419.166	1177.88
419.389	1239.88
419.611	1227.88
419.834	1142.88
420.057	1128.88
420.28	1113.88
420.503	1061.88
420.726	1045.88
420.948	1055.88
421.171	1063.88
421.394	1062.88
421.617	1060.88
421.839	1039.88
422.062	1051.88
422.285	1057.88
422.507	1121.88
422.73	1110.88
422.953	1114.88
423.175	1156.88
423.398	1141.88
423.621	1120.88
423.843	1152.88
424.066	1171.88
424.288	1152.88
424.511	1146.88
424.733	1131.88
424.956	1114.88
425.178	1121.88
425.401	1066.88
425.623	1059.88
425.846	1047.88
426.068	1049.88
426.291	1009.88
426.513	1018.88
426.735	996.88
426.958	1023.88
427.18	956.88
427.402	972.88
427.625	995.88
427.847	964.88
428.069	955.88
428.292	957.88
428.514	950.88
428.736	957.88
428.958	986.88
429.181	916.88
429.403	934.88
429.625	949.88
429.847	949.88
430.069	922.88
430.292	962.88
430.514	936.88
430.736	941.88
430.958	922.88
431.18	971.88
431.402	939.88
431.624	949.88
431.846	968.88
432.068	972.88
432.29	986.88
432.512	979.88
432.734	974.88
432.956	978.88
433.178	999.88
433.4	940.88
433.622	938.88
433.844	974.88
434.066	970.88
434.287	976.88
434.509	1027.88
434.731	1063.88
434.953	1100.88
435.175	1113.88
435.397	1095.88
435.618	1053.88
435.84	999.88
436.062	971.88
436.284	969.88
436.505	977.88
436.727	961.88
436.949	966.88
437.17	968.88
437.392	941.88
437.614	965.88
437.835	885.88
438.057	909.88
438.278	902.88
438.5	938.88
438.721	935.88
438.943	921.88
439.165	919.88
439.386	917.88
439.608	945.88
439.829	941.88
440.05	977.88
440.272	933.88
440.493	978.88
440.715	978.88
440.936	980.88
441.158	1003.88
441.379	1028.88
441.6	1062.88
441.822	1075.88
442.043	1101.88
442.264	1068.88
442.486	1097.88
442.707	1055.88
442.928	1041.88
443.149	1079.88
443.371	1091.88
443.592	1078.88
443.813	1075.88
444.034	1126.88
444.255	1117.88
444.476	1180.88
444.698	1280.88
444.919	1358.88
445.14	1392.88
445.361	1233.88
445.582	1145.88
445.803	1074.88
446.024	1035.88
446.245	1001.88
446.466	1002.88
446.687	950.88
446.908	962.88
447.129	966.88
447.35	933.88
447.571	919.88
447.792	958.88
448.013	916.88
448.234	890.88
448.455	899.88
448.675	918.88
448.896	897.88
449.117	872.88
449.338	891.88
449.559	852.88
449.779	907.88
450	881.88
450.221	901.88
450.442	896.88
450.662	897.88
450.883	916.88
451.104	937.88
451.324	947.88
451.545	924.88
451.766	905.88
451.986	918.88
452.207	869.88
452.428	890.88
452.648	909.88
452.869	901.88
453.089	848.88
453.31	885.88
453.53	868.88
453.751	865.88
453.971	867.88
454.192	873.88
454.412	857.88
454.633	847.88
454.853	851.88
455.073	847.88
455.294	837.88
455.514	856.88
455.734	839.88
455.955	831.88
456.175	839.88
456.395	807.88
456.616	804.88
456.836	821.88
457.056	835.88
457.276	813.88
457.497	824.88
457.717	830.88
457.937	835.88
458.157	814.88
458.377	844.88
458.598	865.88
458.818	912.88
459.038	927.88
459.258	936.88
459.478	969.88
459.698	1023.88
459.918	1027.88
460.138	1086.88
460.358	1128.88
460.578	1157.88
460.798	1144.88
461.018	1193.88
461.238	1144.88
461.458	1116.88
461.678	1132.88
461.898	1143.88
462.118	1123.88
462.338	1203.88
462.558	1231.88
462.777	1284.88
462.997	1393.88
463.217	1615.88
463.437	1624.88
463.657	1424.88
463.876	1351.88
464.096	1366.88
464.316	1331.88
464.536	1369.88
464.755	1292.88
464.975	1245.88
465.195	1174.88
465.414	1142.88
465.634	1063.88
465.854	1013.88
466.073	1005.88
466.293	971.88
466.512	952.88
466.732	899.88
466.951	933.88
467.171	933.88
467.391	953.88
467.61	943.88
467.829	921.88
468.049	932.88
468.268	907.88
468.488	888.88
468.707	897.88
468.927	864.88
469.146	862.88
469.365	913.88
469.585	897.88
469.804	922.88
470.023	950.88
470.243	941.88
470.462	933.88
470.681	960.88
470.901	985.88
471.12	925.88
471.339	914.88
471.558	911.88
471.777	910.88
471.997	910.88
472.216	906.88
472.435	889.88
472.654	871.88
472.873	837.88
473.092	862.88
473.311	890.88
473.53	881.88
473.749	850.88
473.968	846.88
474.187	886.88
474.406	865.88
474.625	877.88
474.844	853.88
475.063	899.88
475.282	876.88
475.501	863.88
475.72	873.88
475.939	906.88
476.158	904.88
476.377	899.88
476.596	885.88
476.814	937.88
477.033	951.88
477.252	949.88
477.471	960.88
477.69	974.88
477.908	1004.88
478.127	1037.88
478.346	1057.88
478.564	1060.88
478.783	1052.88
479.002	1083.88
479.22	1092.88
479.439	1079.88
479.658	1085.88
479.876	1073.88
480.095	1099.88
480.313	1145.88
480.532	1213.88
480.751	1184.88
480.969	1105.88
481.188	1076.88
481.406	1055.88
481.624	1019.88
481.843	1003.88
482.061	1001.88
482.28	1003.88
482.498	1022.88
482.717	982.88
482.935	998.88
483.153	1000.88
483.372	1022.88
483.59	993.88
483.808	1003.88
484.027	999.88
484.245	1012.88
484.463	999.88
484.681	1063.88
484.9	1053.88
485.118	1025.88
485.336	1052.88
485.554	1063.88
485.772	1056.88
485.99	1054.88
486.209	1039.88
486.427	1063.88
486.645	1057.88
486.863	1074.88
487.081	1069.88
487.299	1060.88
487.517	1035.88
487.735	1037.88
487.953	1040.88
488.171	1089.88
488.389	1047.88
488.607	1043.88
488.825	1033.88
489.043	1039.88
489.261	1021.88
489.479	1017.88
489.696	1059.88
489.914	1042.88
490.132	1054.88
490.35	1022.88
490.568	1035.88
490.786	1029.88
491.003	1047.88
491.221	1055.88
491.439	1032.88
491.657	1045.88
491.874	1051.88
492.092	1066.88
492.31	1069.88
492.527	1040.88
492.745	1085.88
492.963	1076.88
493.18	1066.88
493.398	1085.88
493.615	1103.88
493.833	1099.88
494.05	1084.88
494.268	1110.88
494.485	1089.88
494.703	1087.88
494.92	1107.88
495.138	1098.88
495.355	1085.88
495.573	1069.88
495.79	1106.88
496.008	1087.88
496.225	1099.88
496.442	1119.88
496.66	1161.88
496.877	1133.88
497.094	1171.88
497.312	1179.88
497.529	1183.88
497.746	1215.88
