Data from Ni(NO3)2Standard.Agarose3%.GreenCap.LampEnergy5.5.E.O_HRD10591_14-40-00-188.txt Node
Date: Mon Jul 22 14:40:00 EDT 2019
User: cochatt
Spectrometer: HR+D1059
Trigger mode: 1
Integration Time (sec): 1.000000E-1
Scans to average: 1
Electric dark correction enabled: true
Nonlinearity correction enabled: false
Boxcar width: 0
XAxis mode: Wavelengths
Number of Pixels in Spectrum: 2048
>>>>>Begin Spectral Data<<<<<
223.165	-12.62
223.4	-12.62
223.635	-12.62
223.869	-23.62
224.104	-29.62
224.338	-12.62
224.573	-16.62
224.808	-7.62
225.042	-4.62
225.277	-9.62
225.511	4.38
225.746	9.38
225.98	5.38
226.215	13.38
226.449	19.38
226.683	7.38
226.918	26.38
227.152	31.38
227.387	40.38
227.621	45.38
227.856	42.38
228.09	52.38
228.324	61.38
228.559	54.38
228.793	61.38
229.027	58.38
229.262	64.38
229.496	67.38
229.73	66.38
229.964	75.38
230.199	60.38
230.433	70.38
230.667	93.38
230.901	75.38
231.136	76.38
231.37	71.38
231.604	74.38
231.838	75.38
232.072	63.38
232.306	95.38
232.541	68.38
232.775	75.38
233.009	74.38
233.243	84.38
233.477	73.38
233.711	92.38
233.945	84.38
234.179	73.38
234.413	76.38
234.647	79.38
234.881	82.38
235.115	85.38
235.349	78.38
235.583	69.38
235.817	75.38
236.051	78.38
236.285	80.38
236.519	59.38
236.753	84.38
236.987	72.38
237.221	85.38
237.455	92.38
237.689	73.38
237.922	80.38
238.156	86.38
238.39	75.38
238.624	74.38
238.858	89.38
239.091	84.38
239.325	58.38
239.559	70.38
239.793	69.38
240.027	82.38
240.26	77.38
240.494	77.38
240.728	74.38
240.961	81.38
241.195	86.38
241.429	74.38
241.662	72.38
241.896	74.38
242.13	68.38
242.363	62.38
242.597	83.38
242.83	75.38
243.064	72.38
243.298	84.38
243.531	69.38
243.765	72.38
243.998	83.38
244.232	89.38
244.465	81.38
244.699	81.38
244.932	82.38
245.166	86.38
245.399	84.38
245.633	69.38
245.866	83.38
246.099	72.38
246.333	84.38
246.566	81.38
246.8	99.38
247.033	87.38
247.266	73.38
247.5	88.38
247.733	81.38
247.966	74.38
248.2	86.38
248.433	88.38
248.666	80.38
248.899	84.38
249.133	77.38
249.366	82.38
249.599	74.38
249.832	68.38
250.066	81.38
250.299	60.38
250.532	77.38
250.765	74.38
250.998	69.38
251.231	76.38
251.465	89.38
251.698	102.38
251.931	71.38
252.164	67.38
252.397	73.38
252.63	82.38
252.863	63.38
253.096	90.38
253.329	88.38
253.562	71.38
253.795	73.38
254.028	82.38
254.261	83.38
254.494	92.38
254.727	88.38
254.96	72.38
255.193	70.38
255.426	93.38
255.659	76.38
255.892	95.38
256.124	73.38
256.357	73.38
256.59	92.38
256.823	93.38
257.056	71.38
257.289	75.38
257.521	82.38
257.754	91.38
257.987	87.38
258.22	75.38
258.452	84.38
258.685	84.38
258.918	80.38
259.151	80.38
259.383	80.38
259.616	76.38
259.849	75.38
260.081	98.38
260.314	71.38
260.547	76.38
260.779	89.38
261.012	75.38
261.244	78.38
261.477	85.38
261.71	90.38
261.942	77.38
262.175	86.38
262.407	77.38
262.64	84.38
262.872	84.38
263.105	85.38
263.337	76.38
263.57	87.38
263.802	88.38
264.035	76.38
264.267	95.38
264.499	85.38
264.732	88.38
264.964	89.38
265.197	83.38
265.429	97.38
265.661	93.38
265.894	74.38
266.126	72.38
266.358	97.38
266.591	90.38
266.823	84.38
267.055	92.38
267.287	83.38
267.52	75.38
267.752	85.38
267.984	92.38
268.216	90.38
268.448	76.38
268.681	67.38
268.913	74.38
269.145	90.38
269.377	82.38
269.609	84.38
269.841	96.38
270.073	84.38
270.306	79.38
270.538	75.38
270.77	80.38
271.002	79.38
271.234	85.38
271.466	89.38
271.698	85.38
271.93	89.38
272.162	86.38
272.394	72.38
272.626	82.38
272.858	74.38
273.09	88.38
273.322	74.38
273.553	97.38
273.785	89.38
274.017	96.38
274.249	89.38
274.481	73.38
274.713	82.38
274.945	76.38
275.176	77.38
275.408	97.38
275.64	81.38
275.872	82.38
276.104	75.38
276.335	80.38
276.567	78.38
276.799	85.38
277.031	77.38
277.262	82.38
277.494	80.38
277.726	89.38
277.957	83.38
278.189	75.38
278.421	92.38
278.652	90.38
278.884	86.38
279.115	89.38
279.347	88.38
279.579	91.38
279.81	84.38
280.042	92.38
280.273	73.38
280.505	83.38
280.736	73.38
280.968	92.38
281.199	85.38
281.431	90.38
281.662	84.38
281.894	87.38
282.125	87.38
282.356	88.38
282.588	77.38
282.819	84.38
283.051	71.38
283.282	91.38
283.513	82.38
283.745	87.38
283.976	84.38
284.207	77.38
284.439	83.38
284.67	96.38
284.901	78.38
285.132	95.38
285.364	70.38
285.595	91.38
285.826	89.38
286.057	72.38
286.288	85.38
286.52	102.38
286.751	91.38
286.982	77.38
287.213	80.38
287.444	74.38
287.675	75.38
287.906	88.38
288.138	88.38
288.369	70.38
288.6	91.38
288.831	89.38
289.062	80.38
289.293	72.38
289.524	88.38
289.755	91.38
289.986	81.38
290.217	72.38
290.448	88.38
290.679	76.38
290.91	100.38
291.141	79.38
291.371	88.38
291.602	77.38
291.833	84.38
292.064	91.38
292.295	89.38
292.526	90.38
292.757	69.38
292.987	83.38
293.218	74.38
293.449	87.38
293.68	102.38
293.91	84.38
294.141	78.38
294.372	84.38
294.603	75.38
294.833	77.38
295.064	74.38
295.295	78.38
295.525	81.38
295.756	96.38
295.987	72.38
296.217	95.38
296.448	95.38
296.679	99.38
296.909	69.38
297.14	81.38
297.37	90.38
297.601	79.38
297.831	76.38
298.062	93.38
298.292	90.38
298.523	91.38
298.753	86.38
298.984	81.38
299.214	80.38
299.445	78.38
299.675	82.38
299.905	85.38
300.136	85.38
300.366	75.38
300.597	88.38
300.827	81.38
301.057	85.38
301.288	93.38
301.518	96.38
301.748	97.38
301.979	88.38
302.209	77.38
302.439	64.38
302.669	84.38
302.9	86.38
303.13	72.38
303.36	91.38
303.59	96.38
303.82	92.38
304.051	103.38
304.281	98.38
304.511	81.38
304.741	89.38
304.971	75.38
305.201	95.38
305.431	83.38
305.661	105.38
305.891	84.38
306.121	103.38
306.352	85.38
306.582	78.38
306.812	93.38
307.042	87.38
307.272	100.38
307.502	85.38
307.731	77.38
307.961	78.38
308.191	87.38
308.421	100.38
308.651	91.38
308.881	89.38
309.111	96.38
309.341	85.38
309.571	80.38
309.8	82.38
310.03	87.38
310.26	68.38
310.49	85.38
310.72	79.38
310.949	78.38
311.179	100.38
311.409	84.38
311.639	87.38
311.868	87.38
312.098	101.38
312.328	84.38
312.557	78.38
312.787	79.38
313.017	87.38
313.246	92.38
313.476	79.38
313.706	82.38
313.935	87.38
314.165	69.38
314.394	78.38
314.624	89.38
314.853	85.38
315.083	76.38
315.312	90.38
315.542	79.38
315.771	93.38
316.001	76.38
316.23	94.38
316.46	84.38
316.689	90.38
316.919	88.38
317.148	81.38
317.377	86.38
317.607	80.38
317.836	76.38
318.065	85.38
318.295	83.38
318.524	94.38
318.753	73.38
318.983	82.38
319.212	86.38
319.441	81.38
319.67	80.38
319.9	87.38
320.129	77.38
320.358	91.38
320.587	89.38
320.816	83.38
321.046	71.38
321.275	82.38
321.504	75.38
321.733	74.38
321.962	80.38
322.191	99.38
322.42	80.38
322.649	93.38
322.878	73.38
323.108	84.38
323.337	85.38
323.566	93.38
323.795	84.38
324.024	78.38
324.253	86.38
324.482	87.38
324.71	88.38
324.939	89.38
325.168	107.38
325.397	77.38
325.626	76.38
325.855	75.38
326.084	94.38
326.313	85.38
326.542	99.38
326.77	89.38
326.999	85.38
327.228	93.38
327.457	84.38
327.686	80.38
327.914	89.38
328.143	70.38
328.372	94.38
328.6	77.38
328.829	96.38
329.058	85.38
329.287	83.38
329.515	89.38
329.744	86.38
329.972	90.38
330.201	97.38
330.43	77.38
330.658	84.38
330.887	79.38
331.115	104.38
331.344	81.38
331.572	95.38
331.801	87.38
332.03	90.38
332.258	97.38
332.486	93.38
332.715	85.38
332.943	88.38
333.172	83.38
333.4	97.38
333.629	64.38
333.857	88.38
334.085	95.38
334.314	88.38
334.542	87.38
334.771	80.38
334.999	77.38
335.227	91.38
335.455	85.38
335.684	94.38
335.912	82.38
336.14	95.38
336.369	84.38
336.597	97.38
336.825	87.38
337.053	66.38
337.281	74.38
337.51	91.38
337.738	88.38
337.966	70.38
338.194	91.38
338.422	76.38
338.65	81.38
338.878	74.38
339.106	96.38
339.334	86.38
339.562	90.38
339.79	91.38
340.018	88.38
340.246	97.38
340.474	79.38
340.702	90.38
340.93	102.38
341.158	83.38
341.386	86.38
341.614	97.38
341.842	70.38
342.07	71.38
342.298	90.38
342.526	81.38
342.754	95.38
342.981	87.38
343.209	82.38
343.437	98.38
343.665	89.38
343.893	66.38
344.12	81.38
344.348	76.38
344.576	81.38
344.804	85.38
345.031	82.38
345.259	79.38
345.487	89.38
345.714	83.38
345.942	90.38
346.17	97.38
346.397	96.38
346.625	80.38
346.853	86.38
347.08	85.38
347.308	93.38
347.535	84.38
347.763	90.38
347.99	90.38
348.218	76.38
348.445	92.38
348.673	91.38
348.9	86.38
349.128	92.38
349.355	92.38
349.583	90.38
349.81	85.38
350.037	88.38
350.265	98.38
350.492	94.38
350.72	72.38
350.947	92.38
351.174	88.38
351.402	84.38
351.629	84.38
351.856	89.38
352.083	79.38
352.311	71.38
352.538	92.38
352.765	103.38
352.992	87.38
353.22	92.38
353.447	89.38
353.674	75.38
353.901	83.38
354.128	84.38
354.355	76.38
354.583	92.38
354.81	91.38
355.037	93.38
355.264	84.38
355.491	97.38
355.718	88.38
355.945	101.38
356.172	74.38
356.399	95.38
356.626	83.38
356.853	94.38
357.08	84.38
357.307	85.38
357.534	90.38
357.761	92.38
357.988	80.38
358.215	93.38
358.441	84.38
358.668	84.38
358.895	89.38
359.122	95.38
359.349	72.38
359.576	84.38
359.802	69.38
360.029	92.38
360.256	91.38
360.483	86.38
360.709	87.38
360.936	108.38
361.163	99.38
361.39	95.38
361.616	92.38
361.843	85.38
362.07	81.38
362.296	94.38
362.523	93.38
362.749	96.38
362.976	76.38
363.203	91.38
363.429	87.38
363.656	86.38
363.882	85.38
364.109	91.38
364.335	95.38
364.562	83.38
364.788	68.38
365.015	89.38
365.241	90.38
365.468	75.38
365.694	81.38
365.92	79.38
366.147	80.38
366.373	82.38
366.599	92.38
366.826	93.38
367.052	79.38
367.278	92.38
367.505	82.38
367.731	71.38
367.957	74.38
368.184	88.38
368.41	76.38
368.636	74.38
368.862	75.38
369.089	85.38
369.315	93.38
369.541	102.38
369.767	90.38
369.993	78.38
370.219	79.38
370.445	75.38
370.672	69.38
370.898	87.38
371.124	88.38
371.35	75.38
371.576	92.38
371.802	79.38
372.028	96.38
372.254	81.38
372.48	90.38
372.706	85.38
372.932	94.38
373.158	83.38
373.384	73.38
373.61	99.38
373.835	88.38
374.061	74.38
374.287	74.38
374.513	90.38
374.739	78.38
374.965	83.38
375.191	92.38
375.416	97.38
375.642	80.38
375.868	84.38
376.094	83.38
376.319	86.38
376.545	83.38
376.771	84.38
376.997	102.38
377.222	93.38
377.448	87.38
377.674	81.38
377.899	89.38
378.125	70.38
378.35	78.38
378.576	73.38
378.802	84.38
379.027	82.38
379.253	80.38
379.478	89.38
379.704	93.38
379.929	88.38
380.155	83.38
380.38	88.38
380.606	88.38
380.831	96.38
381.057	102.38
381.282	89.38
381.507	82.38
381.733	69.38
381.958	82.38
382.184	75.38
382.409	78.38
382.634	82.38
382.86	79.38
383.085	87.38
383.31	88.38
383.535	76.38
383.761	80.38
383.986	84.38
384.211	91.38
384.436	88.38
384.662	76.38
384.887	87.38
385.112	83.38
385.337	81.38
385.562	81.38
385.787	86.38
386.013	94.38
386.238	84.38
386.463	95.38
386.688	93.38
386.913	87.38
387.138	81.38
387.363	74.38
387.588	86.38
387.813	77.38
388.038	89.38
388.263	84.38
388.488	77.38
388.713	83.38
388.938	70.38
389.163	87.38
389.387	81.38
389.612	78.38
389.837	76.38
390.062	85.38
390.287	92.38
390.512	76.38
390.736	104.38
390.961	90.38
391.186	77.38
391.411	102.38
391.636	71.38
391.86	88.38
392.085	94.38
392.31	80.38
392.534	90.38
392.759	106.38
392.984	76.38
393.208	80.38
393.433	88.38
393.658	89.38
393.882	95.38
394.107	98.38
394.331	86.38
394.556	78.38
394.78	89.38
395.005	102.38
395.229	104.38
395.454	84.38
395.678	91.38
395.903	91.38
396.127	94.38
396.352	81.38
396.576	86.38
396.801	81.38
397.025	69.38
397.249	88.38
397.474	79.38
397.698	76.38
397.922	86.38
398.147	76.38
398.371	89.38
398.595	84.38
398.82	88.38
399.044	74.38
399.268	88.38
399.492	84.38
399.717	92.38
399.941	75.38
400.165	85.38
400.389	73.38
400.613	76.38
400.837	83.38
401.062	67.38
401.286	84.38
401.51	83.38
401.734	88.38
401.958	77.38
402.182	83.38
402.406	85.38
402.63	94.38
402.854	85.38
403.078	88.38
403.302	83.38
403.526	80.38
403.75	89.38
403.974	81.38
404.198	74.38
404.422	79.38
404.645	86.38
404.869	76.38
405.093	84.38
405.317	76.38
405.541	97.38
405.765	87.38
405.988	88.38
406.212	82.38
406.436	97.38
406.66	89.38
406.883	98.38
407.107	105.38
407.331	78.38
407.555	76.38
407.778	95.38
408.002	75.38
408.226	83.38
408.449	89.38
408.673	70.38
408.896	88.38
409.12	84.38
409.344	80.38
409.567	90.38
409.791	88.38
410.014	73.38
410.238	84.38
410.461	83.38
410.685	81.38
410.908	91.38
411.132	75.38
411.355	83.38
411.578	92.38
411.802	83.38
412.025	81.38
412.249	68.38
412.472	81.38
412.695	89.38
412.919	92.38
413.142	80.38
413.365	74.38
413.589	92.38
413.812	85.38
414.035	82.38
414.258	85.38
414.482	78.38
414.705	87.38
414.928	97.38
415.151	93.38
415.374	94.38
415.597	84.38
415.821	82.38
416.044	80.38
416.267	89.38
416.49	92.38
416.713	75.38
416.936	94.38
417.159	94.38
417.382	71.38
417.605	82.38
417.828	85.38
418.051	88.38
418.274	87.38
418.497	73.38
418.72	80.38
418.943	72.38
419.166	77.38
419.389	81.38
419.611	77.38
419.834	77.38
420.057	77.38
420.28	78.38
420.503	74.38
420.726	81.38
420.948	85.38
421.171	91.38
421.394	92.38
421.617	82.38
421.839	101.38
422.062	87.38
422.285	75.38
422.507	88.38
422.73	94.38
422.953	76.38
423.175	92.38
423.398	77.38
423.621	89.38
423.843	93.38
424.066	77.38
424.288	83.38
424.511	75.38
424.733	86.38
424.956	80.38
425.178	88.38
425.401	87.38
425.623	90.38
425.846	80.38
426.068	76.38
426.291	88.38
426.513	88.38
426.735	74.38
426.958	88.38
427.18	94.38
427.402	75.38
427.625	85.38
427.847	88.38
428.069	85.38
428.292	66.38
428.514	98.38
428.736	84.38
428.958	88.38
429.181	83.38
429.403	82.38
429.625	89.38
429.847	82.38
430.069	91.38
430.292	83.38
430.514	84.38
430.736	80.38
430.958	83.38
431.18	76.38
431.402	96.38
431.624	81.38
431.846	83.38
432.068	69.38
432.29	90.38
432.512	75.38
432.734	75.38
432.956	87.38
433.178	89.38
433.4	90.38
433.622	85.38
433.844	87.38
434.066	78.38
434.287	99.38
434.509	72.38
434.731	103.38
434.953	86.38
435.175	81.38
435.397	90.38
435.618	85.38
435.84	69.38
436.062	76.38
436.284	86.38
436.505	88.38
436.727	79.38
436.949	85.38
437.17	88.38
437.392	89.38
437.614	85.38
437.835	82.38
438.057	84.38
438.278	76.38
438.5	80.38
438.721	79.38
438.943	80.38
439.165	94.38
439.386	89.38
439.608	84.38
439.829	78.38
440.05	85.38
440.272	91.38
440.493	91.38
440.715	86.38
440.936	82.38
441.158	82.38
441.379	85.38
441.6	82.38
441.822	78.38
442.043	92.38
442.264	80.38
442.486	97.38
442.707	71.38
442.928	80.38
443.149	103.38
443.371	85.38
443.592	76.38
443.813	83.38
444.034	92.38
444.255	81.38
444.476	84.38
444.698	84.38
444.919	80.38
445.14	199.38
445.361	138.38
445.582	76.38
445.803	74.38
446.024	81.38
446.245	91.38
446.466	81.38
446.687	93.38
446.908	74.38
447.129	97.38
447.35	90.38
447.571	78.38
447.792	95.38
448.013	91.38
448.234	72.38
448.455	80.38
448.675	92.38
448.896	77.38
449.117	82.38
449.338	85.38
449.559	88.38
449.779	80.38
450	73.38
450.221	71.38
450.442	75.38
450.662	91.38
450.883	74.38
451.104	91.38
451.324	63.38
451.545	89.38
451.766	91.38
451.986	69.38
452.207	89.38
452.428	92.38
452.648	83.38
452.869	89.38
453.089	87.38
453.31	92.38
453.53	84.38
453.751	79.38
453.971	88.38
454.192	88.38
454.412	85.38
454.633	84.38
454.853	81.38
455.073	84.38
455.294	86.38
455.514	88.38
455.734	94.38
455.955	92.38
456.175	78.38
456.395	86.38
456.616	85.38
456.836	94.38
457.056	89.38
457.276	92.38
457.497	91.38
457.717	90.38
457.937	77.38
458.157	93.38
458.377	83.38
458.598	80.38
458.818	86.38
459.038	75.38
459.258	85.38
459.478	72.38
459.698	91.38
459.918	92.38
460.138	95.38
460.358	89.38
460.578	84.38
460.798	86.38
461.018	93.38
461.238	98.38
461.458	85.38
461.678	81.38
461.898	75.38
462.118	95.38
462.338	77.38
462.558	90.38
462.777	80.38
462.997	92.38
463.217	86.38
463.437	87.38
463.657	84.38
463.876	89.38
464.096	80.38
464.316	83.38
464.536	85.38
464.755	86.38
464.975	88.38
465.195	99.38
465.414	85.38
465.634	95.38
465.854	93.38
466.073	80.38
466.293	95.38
466.512	101.38
466.732	92.38
466.951	85.38
467.171	72.38
467.391	92.38
467.61	66.38
467.829	80.38
468.049	77.38
468.268	89.38
468.488	84.38
468.707	80.38
468.927	95.38
469.146	81.38
469.365	79.38
469.585	87.38
469.804	88.38
470.023	89.38
470.243	92.38
470.462	90.38
470.681	81.38
470.901	86.38
471.12	101.38
471.339	82.38
471.558	83.38
471.777	76.38
471.997	94.38
472.216	81.38
472.435	85.38
472.654	84.38
472.873	89.38
473.092	93.38
473.311	97.38
473.53	90.38
473.749	76.38
473.968	98.38
474.187	87.38
474.406	87.38
474.625	97.38
474.844	81.38
475.063	95.38
475.282	91.38
475.501	88.38
475.72	91.38
475.939	82.38
476.158	95.38
476.377	96.38
476.596	88.38
476.814	74.38
477.033	90.38
477.252	88.38
477.471	102.38
477.69	93.38
477.908	77.38
478.127	102.38
478.346	86.38
478.564	87.38
478.783	91.38
479.002	75.38
479.22	93.38
479.439	96.38
479.658	76.38
479.876	83.38
480.095	86.38
480.313	84.38
480.532	90.38
480.751	98.38
480.969	92.38
481.188	81.38
481.406	90.38
481.624	100.38
481.843	84.38
482.061	86.38
482.28	82.38
482.498	88.38
482.717	78.38
482.935	86.38
483.153	96.38
483.372	87.38
483.59	99.38
483.808	86.38
484.027	83.38
484.245	88.38
484.463	92.38
484.681	95.38
484.9	90.38
485.118	88.38
485.336	88.38
485.554	96.38
485.772	92.38
485.99	96.38
486.209	94.38
486.427	91.38
486.645	81.38
486.863	88.38
487.081	85.38
487.299	102.38
487.517	95.38
487.735	80.38
487.953	92.38
488.171	84.38
488.389	88.38
488.607	101.38
488.825	85.38
489.043	91.38
489.261	95.38
489.479	92.38
489.696	80.38
489.914	93.38
490.132	80.38
490.35	107.38
490.568	79.38
490.786	102.38
491.003	97.38
491.221	101.38
491.439	82.38
491.657	97.38
491.874	108.38
492.092	107.38
492.31	97.38
492.527	81.38
492.745	94.38
492.963	112.38
493.18	85.38
493.398	91.38
493.615	95.38
493.833	82.38
494.05	93.38
494.268	94.38
494.485	90.38
494.703	97.38
494.92	97.38
495.138	111.38
495.355	100.38
495.573	92.38
495.79	97.38
496.008	100.38
496.225	72.38
496.442	81.38
496.66	98.38
496.877	83.38
497.094	93.38
497.312	110.38
497.529	91.38
497.746	102.38
497.963	95.38
498.181	90.38
498.398	102.38
498.615	88.38
498.832	78.38
499.049	95.38
499.267	96.38
499.484	112.38
499.701	105.38
499.918	91.38
500.135	106.38
500.352	96.38
500.569	100.38
500.786	116.38
501.003	121.38
501.22	102.38
501.437	104.38
501.654	102.38
501.871	105.38
502.088	90.38
502.305	102.38
502.522	97.38
502.739	95.38
502.956	88.38
503.172	104.38
503.389	94.38
503.606	89.38
503.823	96.38
504.04	98.38
504.256	96.38
504.473	106.38
504.69	101.38
504.907	103.38
505.123	97.38
505.34	104.38
505.557	93.38
505.773	91.38
505.99	88.38
506.207	76.38
506.423	95.38
506.64	84.38
506.856	84.38
507.073	106.38
507.289	101.38
507.506	87.38
507.722	79.38
507.939	100.38
508.155	94.38
508.372	83.38
508.588	94.38
508.805	98.38
509.021	79.38
509.238	88.38
509.454	96.38
509.67	91.38
509.887	78.38
510.103	87.38
510.319	101.38
510.536	83.38
510.752	89.38
510.968	98.38
511.184	81.38
511.401	78.38
511.617	84.38
511.833	111.38
512.049	88.38
512.265	99.38
512.481	95.38
512.698	96.38
512.914	103.38
513.13	97.38
513.346	92.38
513.562	93.38
513.778	84.38
513.994	97.38
514.21	81.38
514.426	106.38
514.642	100.38
514.858	79.38
515.074	91.38
515.29	100.38
515.506	84.38
515.721	86.38
515.937	95.38
516.153	91.38
516.369	92.38
516.585	93.38
516.801	77.38
517.016	97.38
517.232	80.38
517.448	73.38
517.664	87.38
517.879	99.38
518.095	97.38
518.311	109.38
518.527	94.38
