Data from Ni(NO3)2@0.25M.TitratingCurve.Agarose3%dH2O.NegLispCup.LampEnergy10.LIBS07252019_HRD10591_18-05-13-566.txt Node
Date: Thu Jul 25 18:05:13 EDT 2019
User: cochatt
Spectrometer: HR+D1059
Trigger mode: 1
Integration Time (sec): 1.000000E-1
Scans to average: 1
Electric dark correction enabled: true
Nonlinearity correction enabled: false
Boxcar width: 0
XAxis mode: Wavelengths
Number of Pixels in Spectrum: 2048
>>>>>Begin Spectral Data<<<<<
223.165	-6.31
223.4	-6.31
223.635	-6.31
223.869	-12.31
224.104	-16.31
224.338	-16.31
224.573	-21.31
224.808	-6.31
225.042	-3.31
225.277	-3.31
225.511	-8.31
225.746	-0.31
225.98	17.69
226.215	10.69
226.449	16.69
226.683	12.69
226.918	13.69
227.152	22.69
227.387	11.69
227.621	34.69
227.856	38.69
228.09	32.69
228.324	49.69
228.559	63.69
228.793	53.69
229.027	94.69
229.262	107.69
229.496	125.69
229.73	111.69
229.964	119.69
230.199	116.69
230.433	128.69
230.667	114.69
230.901	121.69
231.136	142.69
231.37	139.69
231.604	129.69
231.838	137.69
232.072	140.69
232.306	139.69
232.541	135.69
232.775	131.69
233.009	127.69
233.243	147.69
233.477	132.69
233.711	135.69
233.945	153.69
234.179	144.69
234.413	135.69
234.647	149.69
234.881	133.69
235.115	147.69
235.349	133.69
235.583	132.69
235.817	147.69
236.051	142.69
236.285	150.69
236.519	139.69
236.753	138.69
236.987	149.69
237.221	147.69
237.455	161.69
237.689	144.69
237.922	147.69
238.156	143.69
238.39	137.69
238.624	156.69
238.858	169.69
239.091	173.69
239.325	166.69
239.559	163.69
239.793	152.69
240.027	171.69
240.26	177.69
240.494	165.69
240.728	164.69
240.961	178.69
241.195	159.69
241.429	177.69
241.662	157.69
241.896	168.69
242.13	186.69
242.363	186.69
242.597	184.69
242.83	181.69
243.064	188.69
243.298	179.69
243.531	189.69
243.765	178.69
243.998	178.69
244.232	169.69
244.465	191.69
244.699	197.69
244.932	195.69
245.166	192.69
245.399	191.69
245.633	196.69
245.866	210.69
246.099	185.69
246.333	203.69
246.566	213.69
246.8	216.69
247.033	212.69
247.266	209.69
247.5	215.69
247.733	195.69
247.966	217.69
248.2	215.69
248.433	205.69
248.666	227.69
248.899	225.69
249.133	243.69
249.366	230.69
249.599	248.69
249.832	227.69
250.066	232.69
250.299	223.69
250.532	217.69
250.765	246.69
250.998	246.69
251.231	245.69
251.465	252.69
251.698	266.69
251.931	256.69
252.164	266.69
252.397	268.69
252.63	272.69
252.863	263.69
253.096	249.69
253.329	259.69
253.562	278.69
253.795	289.69
254.028	290.69
254.261	275.69
254.494	270.69
254.727	283.69
254.96	273.69
255.193	284.69
255.426	297.69
255.659	296.69
255.892	293.69
256.124	297.69
256.357	309.69
256.59	326.69
256.823	299.69
257.056	311.69
257.289	310.69
257.521	293.69
257.754	293.69
257.987	320.69
258.22	306.69
258.452	320.69
258.685	303.69
258.918	303.69
259.151	323.69
259.383	323.69
259.616	327.69
259.849	307.69
260.081	333.69
260.314	332.69
260.547	326.69
260.779	318.69
261.012	332.69
261.244	322.69
261.477	360.69
261.71	341.69
261.942	349.69
262.175	328.69
262.407	332.69
262.64	346.69
262.872	348.69
263.105	352.69
263.337	352.69
263.57	382.69
263.802	371.69
264.035	338.69
264.267	355.69
264.499	352.69
264.732	381.69
264.964	377.69
265.197	371.69
265.429	369.69
265.661	343.69
265.894	360.69
266.126	367.69
266.358	369.69
266.591	357.69
266.823	385.69
267.055	373.69
267.287	384.69
267.52	396.69
267.752	377.69
267.984	388.69
268.216	388.69
268.448	391.69
268.681	389.69
268.913	389.69
269.145	389.69
269.377	388.69
269.609	384.69
269.841	383.69
270.073	381.69
270.306	400.69
270.538	396.69
270.77	387.69
271.002	409.69
271.234	388.69
271.466	421.69
271.698	402.69
271.93	401.69
272.162	413.69
272.394	410.69
272.626	419.69
272.858	393.69
273.09	408.69
273.322	409.69
273.553	413.69
273.785	410.69
274.017	435.69
274.249	434.69
274.481	417.69
274.713	414.69
274.945	424.69
275.176	407.69
275.408	426.69
275.64	431.69
275.872	426.69
276.104	432.69
276.335	431.69
276.567	408.69
276.799	430.69
277.031	431.69
277.262	452.69
277.494	428.69
277.726	416.69
277.957	428.69
278.189	425.69
278.421	425.69
278.652	446.69
278.884	451.69
279.115	444.69
279.347	479.69
279.579	455.69
279.81	447.69
280.042	442.69
280.273	459.69
280.505	482.69
280.736	454.69
280.968	485.69
281.199	453.69
281.431	463.69
281.662	464.69
281.894	485.69
282.125	455.69
282.356	492.69
282.588	473.69
282.819	453.69
283.051	460.69
283.282	463.69
283.513	487.69
283.745	465.69
283.976	466.69
284.207	459.69
284.439	489.69
284.67	468.69
284.901	473.69
285.132	481.69
285.364	501.69
285.595	485.69
285.826	492.69
286.057	489.69
286.288	477.69
286.52	498.69
286.751	511.69
286.982	502.69
287.213	495.69
287.444	498.69
287.675	515.69
287.906	508.69
288.138	508.69
288.369	503.69
288.6	495.69
288.831	509.69
289.062	521.69
289.293	525.69
289.524	518.69
289.755	497.69
289.986	521.69
290.217	491.69
290.448	526.69
290.679	521.69
290.91	499.69
291.141	490.69
291.371	515.69
291.602	501.69
291.833	522.69
292.064	528.69
292.295	523.69
292.526	501.69
292.757	508.69
292.987	530.69
293.218	519.69
293.449	522.69
293.68	530.69
293.91	515.69
294.141	499.69
294.372	529.69
294.603	519.69
294.833	520.69
295.064	531.69
295.295	538.69
295.525	525.69
295.756	523.69
295.987	533.69
296.217	519.69
296.448	519.69
296.679	534.69
296.909	537.69
297.14	533.69
297.37	539.69
297.601	550.69
297.831	546.69
298.062	548.69
298.292	538.69
298.523	572.69
298.753	565.69
298.984	578.69
299.214	563.69
299.445	580.69
299.675	545.69
299.905	559.69
300.136	556.69
300.366	564.69
300.597	575.69
300.827	567.69
301.057	580.69
301.288	565.69
301.518	572.69
301.748	587.69
301.979	602.69
302.209	585.69
302.439	599.69
302.669	590.69
302.9	581.69
303.13	592.69
303.36	575.69
303.59	561.69
303.82	592.69
304.051	619.69
304.281	592.69
304.511	604.69
304.741	570.69
304.971	581.69
305.201	593.69
305.431	580.69
305.661	612.69
305.891	595.69
306.121	587.69
306.352	578.69
306.582	565.69
306.812	581.69
307.042	588.69
307.272	584.69
307.502	573.69
307.731	587.69
307.961	589.69
308.191	572.69
308.421	577.69
308.651	587.69
308.881	592.69
309.111	599.69
309.341	579.69
309.571	576.69
309.8	566.69
310.03	610.69
310.26	610.69
310.49	609.69
310.72	577.69
310.949	583.69
311.179	613.69
311.409	603.69
311.639	619.69
311.868	589.69
312.098	619.69
312.328	611.69
312.557	634.69
312.787	629.69
313.017	607.69
313.246	639.69
313.476	646.69
313.706	646.69
313.935	626.69
314.165	623.69
314.394	667.69
314.624	661.69
314.853	619.69
315.083	657.69
315.312	670.69
315.542	652.69
315.771	654.69
316.001	647.69
316.23	653.69
316.46	626.69
316.689	659.69
316.919	684.69
317.148	685.69
317.377	642.69
317.607	659.69
317.836	656.69
318.065	639.69
318.295	683.69
318.524	665.69
318.753	641.69
318.983	640.69
319.212	658.69
319.441	651.69
319.67	672.69
319.9	665.69
320.129	678.69
320.358	669.69
320.587	675.69
320.816	666.69
321.046	693.69
321.275	685.69
321.504	691.69
321.733	673.69
321.962	686.69
322.191	687.69
322.42	694.69
322.649	694.69
322.878	668.69
323.108	705.69
323.337	712.69
323.566	714.69
323.795	698.69
324.024	706.69
324.253	722.69
324.482	705.69
324.71	723.69
324.939	732.69
325.168	742.69
325.397	743.69
325.626	746.69
325.855	754.69
326.084	746.69
326.313	782.69
326.542	779.69
326.77	767.69
326.999	752.69
327.228	759.69
327.457	788.69
327.686	761.69
327.914	770.69
328.143	801.69
328.372	791.69
328.6	794.69
328.829	760.69
329.058	771.69
329.287	799.69
329.515	819.69
329.744	799.69
329.972	841.69
330.201	805.69
330.43	819.69
330.658	846.69
330.887	803.69
331.115	827.69
331.344	853.69
331.572	828.69
331.801	844.69
332.03	887.69
332.258	872.69
332.486	880.69
332.715	925.69
332.943	924.69
333.172	931.69
333.4	998.69
333.629	1024.69
333.857	1051.69
334.085	1035.69
334.314	1032.69
334.542	1038.69
334.771	1023.69
334.999	1020.69
335.227	1043.69
335.455	1043.69
335.684	1023.69
335.912	1026.69
336.14	1051.69
336.369	1009.69
336.597	1023.69
336.825	1013.69
337.053	1033.69
337.281	986.69
337.51	958.69
337.738	964.69
337.966	966.69
338.194	938.69
338.422	939.69
338.65	909.69
338.878	912.69
339.106	914.69
339.334	922.69
339.562	923.69
339.79	859.69
340.018	881.69
340.246	895.69
340.474	869.69
340.702	885.69
340.93	883.69
341.158	885.69
341.386	892.69
341.614	914.69
341.842	891.69
342.07	860.69
342.298	839.69
342.526	863.69
342.754	868.69
342.981	879.69
343.209	879.69
343.437	944.69
343.665	969.69
343.893	977.69
344.12	999.69
344.348	992.69
344.576	1016.69
344.804	968.69
345.031	934.69
345.259	922.69
345.487	932.69
345.714	893.69
345.942	897.69
346.17	912.69
346.397	877.69
346.625	842.69
346.853	840.69
347.08	821.69
347.308	844.69
347.535	850.69
347.763	861.69
347.99	833.69
348.218	845.69
348.445	841.69
348.673	854.69
348.9	847.69
349.128	853.69
349.355	841.69
349.583	859.69
349.81	844.69
350.037	820.69
350.265	798.69
350.492	796.69
350.72	817.69
350.947	822.69
351.174	835.69
351.402	834.69
351.629	868.69
351.856	824.69
352.083	804.69
352.311	822.69
352.538	834.69
352.765	843.69
352.992	811.69
353.22	791.69
353.447	795.69
353.674	808.69
353.901	763.69
354.128	787.69
354.355	794.69
354.583	796.69
354.81	798.69
355.037	810.69
355.264	806.69
355.491	797.69
355.718	835.69
355.945	781.69
356.172	816.69
356.399	792.69
356.626	810.69
356.853	844.69
357.08	850.69
357.307	802.69
357.534	808.69
357.761	805.69
357.988	823.69
358.215	822.69
358.441	810.69
358.668	794.69
358.895	761.69
359.122	794.69
359.349	802.69
359.576	772.69
359.802	812.69
360.029	801.69
360.256	822.69
360.483	798.69
360.709	787.69
360.936	813.69
361.163	818.69
361.39	809.69
361.616	817.69
361.843	829.69
362.07	837.69
362.296	839.69
362.523	802.69
362.749	820.69
362.976	795.69
363.203	822.69
363.429	799.69
363.656	788.69
363.882	831.69
364.109	795.69
364.335	793.69
364.562	786.69
364.788	794.69
365.015	795.69
365.241	817.69
365.468	772.69
365.694	770.69
365.92	818.69
366.147	808.69
366.373	811.69
366.599	806.69
366.826	794.69
367.052	803.69
367.278	789.69
367.505	798.69
367.731	801.69
367.957	795.69
368.184	773.69
368.41	831.69
368.636	823.69
368.862	802.69
369.089	808.69
369.315	811.69
369.541	799.69
369.767	834.69
369.993	831.69
370.219	815.69
370.445	823.69
370.672	854.69
370.898	838.69
371.124	843.69
371.35	848.69
371.576	834.69
371.802	859.69
372.028	859.69
372.254	863.69
372.48	852.69
372.706	856.69
372.932	877.69
373.158	881.69
373.384	881.69
373.61	868.69
373.835	859.69
374.061	860.69
374.287	853.69
374.513	867.69
374.739	921.69
374.965	903.69
375.191	905.69
375.416	939.69
375.642	901.69
375.868	902.69
376.094	875.69
376.319	873.69
376.545	848.69
376.771	858.69
376.997	850.69
377.222	830.69
377.448	840.69
377.674	841.69
377.899	849.69
378.125	838.69
378.35	825.69
378.576	867.69
378.802	870.69
379.027	817.69
379.253	843.69
379.478	808.69
379.704	834.69
379.929	843.69
380.155	803.69
380.38	843.69
380.606	818.69
380.831	835.69
381.057	844.69
381.282	823.69
381.507	838.69
381.733	849.69
381.958	843.69
382.184	862.69
382.409	869.69
382.634	879.69
382.86	879.69
383.085	880.69
383.31	861.69
383.535	903.69
383.761	893.69
383.986	922.69
384.211	921.69
384.436	916.69
384.662	957.69
384.887	957.69
385.112	967.69
385.337	972.69
385.562	979.69
385.787	991.69
386.013	999.69
386.238	1008.69
386.463	989.69
386.688	994.69
386.913	970.69
387.138	989.69
387.363	989.69
387.588	986.69
387.813	985.69
388.038	994.69
388.263	993.69
388.488	985.69
388.713	1002.69
388.938	976.69
389.163	972.69
389.387	994.69
389.612	1002.69
389.837	981.69
390.062	977.69
390.287	978.69
390.512	1009.69
390.736	993.69
390.961	1009.69
391.186	1023.69
391.411	1036.69
391.636	1060.69
391.86	1075.69
392.085	1068.69
392.31	1089.69
392.534	1088.69
392.759	1083.69
392.984	1085.69
393.208	1049.69
393.433	1055.69
393.658	1041.69
393.882	1052.69
394.107	1052.69
394.331	1059.69
394.556	1073.69
394.78	1071.69
395.005	1067.69
395.229	1073.69
395.454	1075.69
395.678	1122.69
395.903	1123.69
396.127	1108.69
396.352	1091.69
396.576	1097.69
396.801	1104.69
397.025	1119.69
397.249	1087.69
397.474	1144.69
397.698	1107.69
397.922	1159.69
398.147	1155.69
398.371	1225.69
398.595	1231.69
398.82	1243.69
399.044	1327.69
399.268	1410.69
399.492	1519.69
399.717	1639.69
399.941	1669.69
400.165	1602.69
400.389	1537.69
400.613	1435.69
400.837	1340.69
401.062	1333.69
401.286	1312.69
401.51	1296.69
401.734	1279.69
401.958	1294.69
402.182	1278.69
402.406	1256.69
402.63	1314.69
402.854	1303.69
403.078	1321.69
403.302	1322.69
403.526	1327.69
403.75	1316.69
403.974	1322.69
404.198	1343.69
404.422	1337.69
404.645	1350.69
404.869	1362.69
405.093	1384.69
405.317	1346.69
405.541	1332.69
405.765	1364.69
405.988	1383.69
406.212	1395.69
406.436	1367.69
406.66	1437.69
406.883	1416.69
407.107	1470.69
407.331	1513.69
407.555	1597.69
407.778	1590.69
408.002	1527.69
408.226	1544.69
408.449	1512.69
408.673	1477.69
408.896	1415.69
409.12	1413.69
409.344	1460.69
409.567	1413.69
409.791	1402.69
410.014	1409.69
410.238	1413.69
410.461	1358.69
410.685	1362.69
410.908	1323.69
411.132	1369.69
411.355	1312.69
411.578	1295.69
411.802	1307.69
412.025	1332.69
412.249	1360.69
412.472	1369.69
412.695	1309.69
412.919	1331.69
413.142	1327.69
413.365	1314.69
413.589	1305.69
413.812	1292.69
414.035	1285.69
414.258	1279.69
414.482	1295.69
414.705	1290.69
414.928	1346.69
415.151	1319.69
415.374	1292.69
415.597	1265.69
415.821	1257.69
416.044	1235.69
416.267	1246.69
416.49	1220.69
416.713	1238.69
416.936	1250.69
417.159	1252.69
417.382	1238.69
417.605	1279.69
417.828	1251.69
418.051	1248.69
418.274	1302.69
418.497	1265.69
418.72	1273.69
418.943	1285.69
419.166	1356.69
419.389	1418.69
419.611	1404.69
419.834	1410.69
420.057	1356.69
420.28	1277.69
420.503	1267.69
420.726	1282.69
420.948	1252.69
421.171	1264.69
421.394	1257.69
421.617	1281.69
421.839	1276.69
422.062	1264.69
422.285	1258.69
422.507	1281.69
422.73	1270.69
422.953	1285.69
423.175	1269.69
423.398	1286.69
423.621	1294.69
423.843	1285.69
424.066	1313.69
424.288	1267.69
424.511	1297.69
424.733	1283.69
424.956	1260.69
425.178	1269.69
425.401	1284.69
425.623	1276.69
425.846	1284.69
426.068	1267.69
426.291	1252.69
426.513	1242.69
426.735	1212.69
426.958	1221.69
427.18	1203.69
427.402	1229.69
427.625	1224.69
427.847	1168.69
428.069	1196.69
428.292	1169.69
428.514	1165.69
428.736	1157.69
428.958	1207.69
429.181	1121.69
429.403	1172.69
429.625	1158.69
429.847	1169.69
430.069	1140.69
430.292	1155.69
430.514	1148.69
430.736	1144.69
430.958	1173.69
431.18	1168.69
431.402	1193.69
431.624	1173.69
431.846	1161.69
432.068	1188.69
432.29	1203.69
432.512	1154.69
432.734	1205.69
432.956	1213.69
433.178	1195.69
433.4	1206.69
433.622	1231.69
433.844	1242.69
434.066	1236.69
434.287	1223.69
434.509	1239.69
434.731	1269.69
434.953	1281.69
435.175	1300.69
435.397	1311.69
435.618	1250.69
435.84	1223.69
436.062	1223.69
436.284	1215.69
436.505	1199.69
436.727	1200.69
436.949	1221.69
437.17	1176.69
437.392	1143.69
437.614	1149.69
437.835	1132.69
438.057	1148.69
438.278	1155.69
438.5	1137.69
438.721	1121.69
438.943	1128.69
439.165	1129.69
439.386	1168.69
439.608	1177.69
439.829	1203.69
440.05	1191.69
440.272	1186.69
440.493	1168.69
440.715	1226.69
440.936	1219.69
441.158	1246.69
441.379	1243.69
441.6	1281.69
441.822	1296.69
442.043	1293.69
442.264	1305.69
442.486	1298.69
442.707	1285.69
442.928	1291.69
443.149	1289.69
443.371	1289.69
443.592	1305.69
443.813	1310.69
444.034	1291.69
444.255	1361.69
444.476	1371.69
444.698	1432.69
444.919	1435.69
445.14	1565.69
445.361	1436.69
445.582	1355.69
445.803	1313.69
446.024	1289.69
446.245	1246.69
446.466	1258.69
446.687	1207.69
446.908	1206.69
447.129	1188.69
447.35	1154.69
447.571	1129.69
447.792	1139.69
448.013	1135.69
448.234	1099.69
448.455	1104.69
448.675	1126.69
448.896	1105.69
449.117	1085.69
449.338	1101.69
449.559	1088.69
449.779	1087.69
450	1097.69
450.221	1105.69
450.442	1089.69
450.662	1113.69
450.883	1077.69
451.104	1098.69
451.324	1068.69
451.545	1084.69
451.766	1075.69
451.986	1067.69
452.207	1063.69
452.428	1080.69
452.648	1055.69
452.869	1057.69
453.089	1059.69
453.31	1065.69
453.53	1035.69
453.751	1017.69
453.971	1045.69
454.192	1038.69
454.412	1026.69
454.633	1042.69
454.853	1025.69
455.073	1035.69
455.294	986.69
455.514	1024.69
455.734	998.69
455.955	1003.69
456.175	1021.69
456.395	1032.69
456.616	1026.69
456.836	1010.69
457.056	1011.69
457.276	1032.69
457.497	1060.69
457.717	1022.69
457.937	1028.69
458.157	1058.69
458.377	1087.69
458.598	1098.69
458.818	1131.69
459.038	1137.69
459.258	1148.69
459.478	1196.69
459.698	1233.69
459.918	1261.69
460.138	1273.69
460.358	1322.69
460.578	1343.69
460.798	1339.69
461.018	1368.69
461.238	1387.69
461.458	1377.69
461.678	1369.69
461.898	1406.69
462.118	1404.69
462.338	1496.69
462.558	1514.69
462.777	1556.69
462.997	1618.69
463.217	1698.69
463.437	1654.69
463.657	1629.69
463.876	1607.69
464.096	1602.69
464.316	1602.69
464.536	1547.69
464.755	1520.69
464.975	1474.69
465.195	1422.69
465.414	1388.69
465.634	1271.69
465.854	1246.69
466.073	1252.69
466.293	1175.69
466.512	1176.69
466.732	1149.69
466.951	1169.69
467.171	1149.69
467.391	1119.69
467.61	1144.69
467.829	1109.69
468.049	1154.69
468.268	1087.69
468.488	1109.69
468.707	1106.69
468.927	1131.69
469.146	1084.69
469.365	1125.69
469.585	1109.69
469.804	1157.69
470.023	1151.69
470.243	1115.69
470.462	1169.69
470.681	1163.69
470.901	1148.69
471.12	1163.69
471.339	1147.69
471.558	1123.69
471.777	1124.69
471.997	1109.69
472.216	1114.69
472.435	1103.69
472.654	1064.69
472.873	1090.69
473.092	1081.69
473.311	1075.69
473.53	1080.69
473.749	1067.69
473.968	1065.69
474.187	1050.69
474.406	1047.69
474.625	1073.69
474.844	1072.69
475.063	1099.69
475.282	1098.69
475.501	1105.69
475.72	1121.69
475.939	1099.69
476.158	1125.69
476.377	1128.69
476.596	1114.69
476.814	1162.69
477.033	1132.69
477.252	1135.69
477.471	1210.69
477.69	1189.69
477.908	1216.69
478.127	1249.69
478.346	1297.69
478.564	1281.69
478.783	1301.69
479.002	1345.69
479.22	1324.69
479.439	1328.69
479.658	1343.69
479.876	1330.69
480.095	1314.69
480.313	1380.69
480.532	1367.69
480.751	1347.69
480.969	1333.69
481.188	1315.69
481.406	1280.69
481.624	1279.69
481.843	1255.69
482.061	1236.69
482.28	1235.69
482.498	1253.69
482.717	1223.69
482.935	1260.69
483.153	1259.69
483.372	1273.69
483.59	1238.69
483.808	1228.69
484.027	1249.69
484.245	1250.69
484.463	1253.69
484.681	1242.69
484.9	1228.69
485.118	1279.69
485.336	1254.69
485.554	1261.69
485.772	1254.69
485.99	1265.69
486.209	1277.69
486.427	1290.69
486.645	1283.69
486.863	1302.69
487.081	1265.69
487.299	1314.69
487.517	1254.69
487.735	1266.69
487.953	1287.69
488.171	1313.69
488.389	1265.69
488.607	1250.69
488.825	1247.69
489.043	1239.69
489.261	1267.69
489.479	1286.69
489.696	1293.69
489.914	1308.69
490.132	1329.69
490.35	1300.69
490.568	1322.69
490.786	1315.69
491.003	1306.69
491.221	1344.69
491.439	1316.69
491.657	1301.69
491.874	1341.69
492.092	1345.69
492.31	1371.69
492.527	1363.69
492.745	1373.69
492.963	1325.69
493.18	1348.69
493.398	1396.69
493.615	1347.69
493.833	1396.69
494.05	1365.69
494.268	1397.69
494.485	1381.69
494.703	1408.69
494.92	1420.69
