Data from Ni(NO3)2Standard.Agarose3%.GreenCap.LampEnergy5.5.E.O_HRD10591_14-39-52-188.txt Node
Date: Mon Jul 22 14:39:52 EDT 2019
User: cochatt
Spectrometer: HR+D1059
Trigger mode: 1
Integration Time (sec): 1.000000E-1
Scans to average: 1
Electric dark correction enabled: true
Nonlinearity correction enabled: false
Boxcar width: 0
XAxis mode: Wavelengths
Number of Pixels in Spectrum: 2048
>>>>>Begin Spectral Data<<<<<
223.165	-17.69
223.4	-17.69
223.635	-17.69
223.869	-12.69
224.104	-17.69
224.338	-4.69
224.573	-9.69
224.808	-22.69
225.042	5.31
225.277	-7.69
225.511	-0.69
225.746	1.31
225.98	3.31
226.215	-1.69
226.449	15.31
226.683	21.31
226.918	21.31
227.152	27.31
227.387	35.31
227.621	38.31
227.856	25.31
228.09	38.31
228.324	54.31
228.559	57.31
228.793	50.31
229.027	37.31
229.262	56.31
229.496	58.31
229.73	70.31
229.964	79.31
230.199	77.31
230.433	61.31
230.667	67.31
230.901	65.31
231.136	82.31
231.37	69.31
231.604	85.31
231.838	78.31
232.072	69.31
232.306	79.31
232.541	83.31
232.775	93.31
233.009	88.31
233.243	77.31
233.477	75.31
233.711	87.31
233.945	82.31
234.179	79.31
234.413	81.31
234.647	89.31
234.881	87.31
235.115	88.31
235.349	70.31
235.583	75.31
235.817	79.31
236.051	70.31
236.285	78.31
236.519	77.31
236.753	64.31
236.987	87.31
237.221	74.31
237.455	75.31
237.689	81.31
237.922	60.31
238.156	61.31
238.39	70.31
238.624	83.31
238.858	78.31
239.091	84.31
239.325	84.31
239.559	67.31
239.793	81.31
240.027	88.31
240.26	51.31
240.494	70.31
240.728	81.31
240.961	70.31
241.195	83.31
241.429	73.31
241.662	85.31
241.896	66.31
242.13	61.31
242.363	83.31
242.597	75.31
242.83	73.31
243.064	67.31
243.298	73.31
243.531	68.31
243.765	55.31
243.998	69.31
244.232	83.31
244.465	74.31
244.699	75.31
244.932	63.31
245.166	63.31
245.399	80.31
245.633	72.31
245.866	89.31
246.099	81.31
246.333	68.31
246.566	73.31
246.8	77.31
247.033	88.31
247.266	71.31
247.5	67.31
247.733	77.31
247.966	77.31
248.2	69.31
248.433	72.31
248.666	82.31
248.899	82.31
249.133	75.31
249.366	74.31
249.599	76.31
249.832	85.31
250.066	84.31
250.299	62.31
250.532	83.31
250.765	91.31
250.998	81.31
251.231	74.31
251.465	80.31
251.698	63.31
251.931	67.31
252.164	79.31
252.397	69.31
252.63	67.31
252.863	82.31
253.096	83.31
253.329	81.31
253.562	83.31
253.795	74.31
254.028	86.31
254.261	79.31
254.494	79.31
254.727	74.31
254.96	76.31
255.193	72.31
255.426	67.31
255.659	73.31
255.892	85.31
256.124	76.31
256.357	75.31
256.59	63.31
256.823	78.31
257.056	76.31
257.289	90.31
257.521	62.31
257.754	79.31
257.987	70.31
258.22	85.31
258.452	72.31
258.685	77.31
258.918	65.31
259.151	78.31
259.383	72.31
259.616	79.31
259.849	71.31
260.081	72.31
260.314	77.31
260.547	92.31
260.779	83.31
261.012	78.31
261.244	78.31
261.477	71.31
261.71	76.31
261.942	86.31
262.175	88.31
262.407	81.31
262.64	82.31
262.872	81.31
263.105	80.31
263.337	83.31
263.57	76.31
263.802	75.31
264.035	85.31
264.267	83.31
264.499	86.31
264.732	61.31
264.964	69.31
265.197	74.31
265.429	84.31
265.661	85.31
265.894	81.31
266.126	85.31
266.358	88.31
266.591	87.31
266.823	74.31
267.055	66.31
267.287	78.31
267.52	69.31
267.752	89.31
267.984	83.31
268.216	88.31
268.448	82.31
268.681	89.31
268.913	82.31
269.145	73.31
269.377	90.31
269.609	66.31
269.841	78.31
270.073	75.31
270.306	84.31
270.538	83.31
270.77	77.31
271.002	69.31
271.234	85.31
271.466	79.31
271.698	87.31
271.93	72.31
272.162	82.31
272.394	81.31
272.626	80.31
272.858	83.31
273.09	79.31
273.322	74.31
273.553	79.31
273.785	87.31
274.017	67.31
274.249	69.31
274.481	75.31
274.713	78.31
274.945	84.31
275.176	80.31
275.408	93.31
275.64	99.31
275.872	72.31
276.104	76.31
276.335	80.31
276.567	81.31
276.799	87.31
277.031	62.31
277.262	92.31
277.494	81.31
277.726	70.31
277.957	65.31
278.189	78.31
278.421	91.31
278.652	82.31
278.884	79.31
279.115	77.31
279.347	77.31
279.579	82.31
279.81	74.31
280.042	70.31
280.273	83.31
280.505	77.31
280.736	86.31
280.968	74.31
281.199	85.31
281.431	77.31
281.662	67.31
281.894	78.31
282.125	86.31
282.356	85.31
282.588	72.31
282.819	68.31
283.051	80.31
283.282	78.31
283.513	85.31
283.745	82.31
283.976	90.31
284.207	83.31
284.439	72.31
284.67	68.31
284.901	77.31
285.132	81.31
285.364	70.31
285.595	90.31
285.826	87.31
286.057	83.31
286.288	85.31
286.52	76.31
286.751	75.31
286.982	76.31
287.213	91.31
287.444	68.31
287.675	99.31
287.906	79.31
288.138	89.31
288.369	83.31
288.6	90.31
288.831	75.31
289.062	89.31
289.293	76.31
289.524	95.31
289.755	73.31
289.986	71.31
290.217	78.31
290.448	79.31
290.679	87.31
290.91	79.31
291.141	74.31
291.371	71.31
291.602	82.31
291.833	87.31
292.064	69.31
292.295	97.31
292.526	89.31
292.757	75.31
292.987	86.31
293.218	80.31
293.449	82.31
293.68	78.31
293.91	84.31
294.141	82.31
294.372	73.31
294.603	79.31
294.833	89.31
295.064	88.31
295.295	78.31
295.525	87.31
295.756	87.31
295.987	73.31
296.217	79.31
296.448	71.31
296.679	85.31
296.909	84.31
297.14	77.31
297.37	95.31
297.601	86.31
297.831	79.31
298.062	91.31
298.292	83.31
298.523	82.31
298.753	93.31
298.984	65.31
299.214	74.31
299.445	88.31
299.675	93.31
299.905	82.31
300.136	83.31
300.366	86.31
300.597	83.31
300.827	87.31
301.057	93.31
301.288	82.31
301.518	95.31
301.748	81.31
301.979	71.31
302.209	88.31
302.439	96.31
302.669	87.31
302.9	92.31
303.13	83.31
303.36	85.31
303.59	81.31
303.82	81.31
304.051	72.31
304.281	87.31
304.511	92.31
304.741	86.31
304.971	86.31
305.201	79.31
305.431	84.31
305.661	85.31
305.891	89.31
306.121	93.31
306.352	86.31
306.582	83.31
306.812	93.31
307.042	88.31
307.272	91.31
307.502	88.31
307.731	100.31
307.961	80.31
308.191	79.31
308.421	91.31
308.651	81.31
308.881	74.31
309.111	76.31
309.341	78.31
309.571	69.31
309.8	79.31
310.03	85.31
310.26	81.31
310.49	99.31
310.72	87.31
310.949	70.31
311.179	94.31
311.409	90.31
311.639	82.31
311.868	86.31
312.098	85.31
312.328	70.31
312.557	74.31
312.787	91.31
313.017	93.31
313.246	82.31
313.476	95.31
313.706	95.31
313.935	81.31
314.165	77.31
314.394	75.31
314.624	94.31
314.853	81.31
315.083	80.31
315.312	85.31
315.542	95.31
315.771	80.31
316.001	82.31
316.23	82.31
316.46	67.31
316.689	81.31
316.919	75.31
317.148	100.31
317.377	83.31
317.607	81.31
317.836	69.31
318.065	78.31
318.295	77.31
318.524	90.31
318.753	68.31
318.983	77.31
319.212	79.31
319.441	92.31
319.67	98.31
319.9	79.31
320.129	76.31
320.358	85.31
320.587	89.31
320.816	92.31
321.046	72.31
321.275	82.31
321.504	92.31
321.733	97.31
321.962	68.31
322.191	93.31
322.42	83.31
322.649	96.31
322.878	85.31
323.108	79.31
323.337	86.31
323.566	92.31
323.795	95.31
324.024	81.31
324.253	84.31
324.482	77.31
324.71	78.31
324.939	88.31
325.168	99.31
325.397	87.31
325.626	80.31
325.855	87.31
326.084	78.31
326.313	72.31
326.542	83.31
326.77	78.31
326.999	76.31
327.228	75.31
327.457	97.31
327.686	86.31
327.914	83.31
328.143	83.31
328.372	83.31
328.6	78.31
328.829	74.31
329.058	75.31
329.287	82.31
329.515	95.31
329.744	78.31
329.972	86.31
330.201	93.31
330.43	93.31
330.658	95.31
330.887	76.31
331.115	82.31
331.344	71.31
331.572	85.31
331.801	90.31
332.03	71.31
332.258	86.31
332.486	79.31
332.715	90.31
332.943	78.31
333.172	95.31
333.4	90.31
333.629	84.31
333.857	92.31
334.085	84.31
334.314	89.31
334.542	87.31
334.771	88.31
334.999	83.31
335.227	88.31
335.455	96.31
335.684	91.31
335.912	81.31
336.14	93.31
336.369	80.31
336.597	83.31
336.825	91.31
337.053	81.31
337.281	85.31
337.51	73.31
337.738	91.31
337.966	84.31
338.194	87.31
338.422	90.31
338.65	81.31
338.878	78.31
339.106	85.31
339.334	100.31
339.562	83.31
339.79	73.31
340.018	84.31
340.246	87.31
340.474	98.31
340.702	85.31
340.93	86.31
341.158	75.31
341.386	79.31
341.614	95.31
341.842	82.31
342.07	95.31
342.298	80.31
342.526	85.31
342.754	84.31
342.981	83.31
343.209	97.31
343.437	83.31
343.665	97.31
343.893	85.31
344.12	89.31
344.348	86.31
344.576	86.31
344.804	87.31
345.031	90.31
345.259	84.31
345.487	84.31
345.714	84.31
345.942	81.31
346.17	75.31
346.397	86.31
346.625	100.31
346.853	66.31
347.08	94.31
347.308	69.31
347.535	92.31
347.763	88.31
347.99	87.31
348.218	82.31
348.445	88.31
348.673	92.31
348.9	94.31
349.128	85.31
349.355	82.31
349.583	80.31
349.81	79.31
350.037	82.31
350.265	79.31
350.492	97.31
350.72	86.31
350.947	74.31
351.174	91.31
351.402	89.31
351.629	80.31
351.856	79.31
352.083	87.31
352.311	87.31
352.538	78.31
352.765	72.31
352.992	77.31
353.22	79.31
353.447	88.31
353.674	79.31
353.901	81.31
354.128	91.31
354.355	102.31
354.583	86.31
354.81	91.31
355.037	86.31
355.264	85.31
355.491	75.31
355.718	95.31
355.945	82.31
356.172	96.31
356.399	98.31
356.626	85.31
356.853	84.31
357.08	78.31
357.307	92.31
357.534	97.31
357.761	85.31
357.988	73.31
358.215	80.31
358.441	81.31
358.668	85.31
358.895	75.31
359.122	84.31
359.349	73.31
359.576	76.31
359.802	103.31
360.029	90.31
360.256	92.31
360.483	89.31
360.709	83.31
360.936	99.31
361.163	97.31
361.39	91.31
361.616	92.31
361.843	91.31
362.07	82.31
362.296	82.31
362.523	87.31
362.749	97.31
362.976	81.31
363.203	76.31
363.429	85.31
363.656	88.31
363.882	86.31
364.109	96.31
364.335	99.31
364.562	85.31
364.788	74.31
365.015	68.31
365.241	73.31
365.468	77.31
365.694	82.31
365.92	72.31
366.147	78.31
366.373	74.31
366.599	83.31
366.826	90.31
367.052	95.31
367.278	99.31
367.505	70.31
367.731	90.31
367.957	91.31
368.184	96.31
368.41	81.31
368.636	96.31
368.862	95.31
369.089	85.31
369.315	79.31
369.541	75.31
369.767	91.31
369.993	79.31
370.219	68.31
370.445	87.31
370.672	101.31
370.898	80.31
371.124	77.31
371.35	79.31
371.576	82.31
371.802	75.31
372.028	77.31
372.254	88.31
372.48	80.31
372.706	73.31
372.932	69.31
373.158	70.31
373.384	93.31
373.61	84.31
373.835	85.31
374.061	85.31
374.287	75.31
374.513	87.31
374.739	89.31
374.965	72.31
375.191	79.31
375.416	87.31
375.642	78.31
375.868	78.31
376.094	76.31
376.319	77.31
376.545	73.31
376.771	83.31
376.997	61.31
377.222	101.31
377.448	90.31
377.674	91.31
377.899	88.31
378.125	83.31
378.35	82.31
378.576	83.31
378.802	85.31
379.027	87.31
379.253	85.31
379.478	82.31
379.704	73.31
379.929	98.31
380.155	82.31
380.38	81.31
380.606	100.31
380.831	84.31
381.057	67.31
381.282	84.31
381.507	75.31
381.733	85.31
381.958	77.31
382.184	90.31
382.409	92.31
382.634	82.31
382.86	88.31
383.085	75.31
383.31	96.31
383.535	91.31
383.761	79.31
383.986	85.31
384.211	81.31
384.436	85.31
384.662	80.31
384.887	94.31
385.112	90.31
385.337	81.31
385.562	84.31
385.787	93.31
386.013	96.31
386.238	87.31
386.463	92.31
386.688	72.31
386.913	94.31
387.138	88.31
387.363	89.31
387.588	75.31
387.813	74.31
388.038	73.31
388.263	84.31
388.488	81.31
388.713	90.31
388.938	80.31
389.163	88.31
389.387	82.31
389.612	82.31
389.837	84.31
390.062	95.31
390.287	85.31
390.512	84.31
390.736	82.31
390.961	83.31
391.186	75.31
391.411	86.31
391.636	77.31
391.86	83.31
392.085	93.31
392.31	87.31
392.534	87.31
392.759	88.31
392.984	85.31
393.208	82.31
393.433	95.31
393.658	90.31
393.882	95.31
394.107	93.31
394.331	84.31
394.556	69.31
394.78	80.31
395.005	76.31
395.229	82.31
395.454	82.31
395.678	83.31
395.903	87.31
396.127	65.31
396.352	83.31
396.576	99.31
396.801	75.31
397.025	78.31
397.249	81.31
397.474	84.31
397.698	77.31
397.922	83.31
398.147	81.31
398.371	81.31
398.595	75.31
398.82	82.31
399.044	103.31
399.268	80.31
399.492	101.31
399.717	89.31
399.941	90.31
400.165	91.31
400.389	84.31
400.613	79.31
400.837	92.31
401.062	85.31
401.286	89.31
401.51	92.31
401.734	85.31
401.958	90.31
402.182	81.31
402.406	81.31
402.63	74.31
402.854	90.31
403.078	82.31
403.302	79.31
403.526	92.31
403.75	86.31
403.974	95.31
404.198	91.31
404.422	87.31
404.645	68.31
404.869	103.31
405.093	81.31
405.317	92.31
405.541	87.31
405.765	83.31
405.988	83.31
406.212	75.31
406.436	79.31
406.66	94.31
406.883	88.31
407.107	83.31
407.331	90.31
407.555	79.31
407.778	96.31
408.002	89.31
408.226	94.31
408.449	87.31
408.673	81.31
408.896	79.31
409.12	70.31
409.344	85.31
409.567	99.31
409.791	93.31
410.014	97.31
410.238	92.31
410.461	96.31
410.685	80.31
410.908	75.31
411.132	82.31
411.355	75.31
411.578	75.31
411.802	93.31
412.025	83.31
412.249	83.31
412.472	79.31
412.695	76.31
412.919	80.31
413.142	83.31
413.365	82.31
413.589	87.31
413.812	68.31
414.035	95.31
414.258	79.31
414.482	85.31
414.705	84.31
414.928	86.31
415.151	97.31
415.374	76.31
415.597	93.31
415.821	72.31
416.044	85.31
416.267	77.31
416.49	85.31
416.713	80.31
416.936	94.31
417.159	88.31
417.382	81.31
417.605	81.31
417.828	95.31
418.051	87.31
418.274	98.31
418.497	79.31
418.72	74.31
418.943	93.31
419.166	88.31
419.389	87.31
419.611	94.31
419.834	92.31
420.057	85.31
420.28	77.31
420.503	78.31
420.726	86.31
420.948	81.31
421.171	84.31
421.394	98.31
421.617	85.31
421.839	81.31
422.062	78.31
422.285	82.31
422.507	80.31
422.73	87.31
422.953	78.31
423.175	87.31
423.398	74.31
423.621	89.31
423.843	99.31
424.066	97.31
424.288	87.31
424.511	80.31
424.733	101.31
424.956	79.31
425.178	81.31
425.401	105.31
425.623	77.31
425.846	85.31
426.068	87.31
426.291	84.31
426.513	80.31
426.735	78.31
426.958	78.31
427.18	88.31
427.402	75.31
427.625	93.31
427.847	91.31
428.069	93.31
428.292	90.31
428.514	77.31
428.736	77.31
428.958	80.31
429.181	94.31
429.403	98.31
429.625	84.31
429.847	89.31
430.069	71.31
430.292	106.31
430.514	77.31
430.736	89.31
430.958	88.31
431.18	90.31
431.402	91.31
431.624	75.31
431.846	77.31
432.068	85.31
432.29	92.31
432.512	86.31
432.734	81.31
432.956	79.31
433.178	87.31
433.4	82.31
433.622	91.31
433.844	89.31
434.066	90.31
434.287	87.31
434.509	83.31
434.731	70.31
434.953	81.31
435.175	81.31
435.397	88.31
435.618	81.31
435.84	93.31
436.062	88.31
436.284	78.31
436.505	90.31
436.727	89.31
436.949	86.31
437.17	78.31
437.392	77.31
437.614	82.31
437.835	83.31
438.057	80.31
438.278	70.31
438.5	80.31
438.721	86.31
438.943	101.31
439.165	86.31
439.386	89.31
439.608	80.31
439.829	83.31
440.05	91.31
440.272	87.31
440.493	83.31
440.715	77.31
440.936	82.31
441.158	92.31
441.379	78.31
441.6	75.31
441.822	91.31
442.043	78.31
442.264	89.31
442.486	90.31
442.707	82.31
442.928	91.31
443.149	72.31
443.371	82.31
443.592	93.31
443.813	77.31
444.034	83.31
444.255	87.31
444.476	66.31
444.698	84.31
444.919	71.31
445.14	199.31
445.361	133.31
445.582	86.31
445.803	93.31
446.024	77.31
446.245	80.31
446.466	69.31
446.687	84.31
446.908	84.31
447.129	84.31
447.35	87.31
447.571	76.31
447.792	86.31
448.013	89.31
448.234	83.31
448.455	75.31
448.675	84.31
448.896	86.31
449.117	94.31
449.338	80.31
449.559	79.31
449.779	75.31
450	86.31
450.221	65.31
450.442	72.31
450.662	89.31
450.883	94.31
451.104	86.31
451.324	88.31
451.545	105.31
451.766	84.31
451.986	96.31
452.207	93.31
452.428	77.31
452.648	82.31
452.869	82.31
453.089	84.31
453.31	83.31
453.53	90.31
453.751	74.31
453.971	74.31
454.192	82.31
454.412	100.31
454.633	82.31
454.853	91.31
455.073	72.31
455.294	79.31
455.514	81.31
455.734	82.31
455.955	90.31
456.175	69.31
456.395	81.31
456.616	80.31
456.836	82.31
457.056	88.31
457.276	99.31
457.497	83.31
457.717	83.31
457.937	97.31
458.157	101.31
458.377	84.31
458.598	95.31
458.818	94.31
459.038	83.31
459.258	81.31
459.478	72.31
459.698	80.31
459.918	83.31
460.138	79.31
460.358	64.31
460.578	88.31
460.798	88.31
461.018	79.31
461.238	80.31
461.458	81.31
461.678	77.31
461.898	78.31
462.118	72.31
462.338	56.31
462.558	83.31
462.777	88.31
462.997	95.31
463.217	80.31
463.437	89.31
463.657	74.31
463.876	85.31
464.096	86.31
464.316	86.31
464.536	74.31
464.755	89.31
464.975	89.31
465.195	83.31
465.414	93.31
465.634	89.31
465.854	73.31
466.073	85.31
466.293	80.31
466.512	87.31
466.732	96.31
466.951	83.31
467.171	82.31
467.391	93.31
467.61	75.31
467.829	72.31
468.049	83.31
468.268	80.31
468.488	72.31
468.707	72.31
468.927	77.31
469.146	90.31
469.365	92.31
469.585	75.31
469.804	89.31
470.023	91.31
470.243	84.31
470.462	82.31
470.681	86.31
470.901	81.31
471.12	95.31
471.339	88.31
471.558	78.31
471.777	83.31
471.997	95.31
472.216	83.31
472.435	87.31
472.654	90.31
472.873	94.31
473.092	88.31
473.311	87.31
473.53	91.31
473.749	76.31
473.968	77.31
474.187	74.31
474.406	88.31
474.625	95.31
474.844	80.31
475.063	70.31
475.282	86.31
475.501	90.31
475.72	98.31
475.939	78.31
476.158	76.31
476.377	85.31
476.596	79.31
476.814	82.31
477.033	76.31
477.252	84.31
477.471	90.31
477.69	64.31
477.908	101.31
478.127	89.31
478.346	90.31
478.564	83.31
478.783	93.31
479.002	88.31
479.22	81.31
479.439	80.31
479.658	81.31
479.876	95.31
480.095	79.31
480.313	99.31
480.532	82.31
480.751	85.31
480.969	83.31
481.188	83.31
481.406	91.31
481.624	86.31
481.843	86.31
482.061	95.31
482.28	110.31
482.498	88.31
482.717	96.31
482.935	89.31
483.153	76.31
483.372	90.31
483.59	81.31
483.808	96.31
484.027	88.31
484.245	98.31
484.463	92.31
484.681	100.31
484.9	99.31
485.118	89.31
485.336	85.31
485.554	97.31
485.772	83.31
485.99	96.31
486.209	93.31
486.427	75.31
486.645	88.31
486.863	74.31
487.081	89.31
487.299	94.31
487.517	89.31
487.735	90.31
487.953	93.31
488.171	89.31
488.389	79.31
488.607	85.31
488.825	102.31
489.043	89.31
489.261	98.31
489.479	86.31
489.696	82.31
489.914	90.31
490.132	90.31
490.35	88.31
490.568	94.31
490.786	102.31
491.003	81.31
491.221	94.31
491.439	86.31
491.657	101.31
491.874	87.31
492.092	99.31
492.31	105.31
492.527	100.31
492.745	100.31
492.963	75.31
493.18	97.31
493.398	106.31
493.615	88.31
493.833	78.31
494.05	84.31
494.268	94.31
494.485	94.31
494.703	99.31
494.92	82.31
495.138	101.31
495.355	83.31
495.573	94.31
495.79	74.31
496.008	74.31
496.225	97.31
496.442	89.31
496.66	86.31
496.877	102.31
497.094	109.31
497.312	89.31
497.529	90.31
497.746	88.31
497.963	90.31
498.181	95.31
498.398	86.31
498.615	100.31
498.832	95.31
499.049	94.31
499.267	98.31
499.484	103.31
499.701	100.31
499.918	113.31
500.135	103.31
500.352	104.31
500.569	109.31
500.786	101.31
501.003	123.31
501.22	104.31
501.437	96.31
501.654	97.31
501.871	100.31
502.088	94.31
502.305	103.31
502.522	97.31
502.739	80.31
502.956	102.31
503.172	89.31
503.389	93.31
503.606	88.31
503.823	80.31
504.04	82.31
504.256	96.31
504.473	79.31
504.69	92.31
504.907	98.31
505.123	110.31
505.34	90.31
505.557	83.31
505.773	96.31
505.99	106.31
506.207	94.31
506.423	92.31
506.64	82.31
506.856	96.31
507.073	89.31
507.289	81.31
507.506	89.31
507.722	96.31
507.939	97.31
508.155	100.31
508.372	81.31
508.588	82.31
508.805	98.31
509.021	83.31
509.238	88.31
509.454	102.31
509.67	91.31
509.887	94.31
510.103	88.31
510.319	92.31
510.536	90.31
510.752	97.31
510.968	77.31
511.184	98.31
511.401	100.31
511.617	86.31
511.833	93.31
512.049	91.31
512.265	89.31
512.481	103.31
512.698	75.31
512.914	92.31
513.13	89.31
513.346	85.31
513.562	85.31
513.778	103.31
513.994	81.31
514.21	104.31
514.426	84.31
514.642	82.31
514.858	93.31
515.074	98.31
515.29	95.31
515.506	90.31
515.721	72.31
515.937	83.31
516.153	78.31
516.369	88.31
516.585	92.31
516.801	103.31
517.016	105.31
517.232	95.31
517.448	97.31
517.664	79.31
517.879	88.31
518.095	97.31
518.311	93.31
518.527	88.31
518.742	94.31
