Data from Ni(NO3)2@0.125M.TitratingCurve.Agarose3%dH2O.NegLispCup.LampEnergy10.LIBS07252019_HRD10591_18-09-42-567.txt Node
Date: Thu Jul 25 18:09:42 EDT 2019
User: cochatt
Spectrometer: HR+D1059
Trigger mode: 1
Integration Time (sec): 1.000000E-1
Scans to average: 1
Electric dark correction enabled: true
Nonlinearity correction enabled: false
Boxcar width: 0
XAxis mode: Wavelengths
Number of Pixels in Spectrum: 2048
>>>>>Begin Spectral Data<<<<<
223.165	-20.06
223.4	-20.06
223.635	-20.06
223.869	-25.06
224.104	-12.06
224.338	-23.06
224.573	1.94
224.808	-24.06
225.042	-3.06
225.277	-4.06
225.511	-1.06
225.746	2.94
225.98	6.94
226.215	3.94
226.449	7.94
226.683	24.94
226.918	30.94
227.152	32.94
227.387	27.94
227.621	29.94
227.856	46.94
228.09	52.94
228.324	46.94
228.559	53.94
228.793	63.94
229.027	81.94
229.262	89.94
229.496	94.94
229.73	97.94
229.964	83.94
230.199	95.94
230.433	113.94
230.667	113.94
230.901	112.94
231.136	98.94
231.37	110.94
231.604	116.94
231.838	112.94
232.072	118.94
232.306	134.94
232.541	114.94
232.775	116.94
233.009	126.94
233.243	126.94
233.477	122.94
233.711	119.94
233.945	120.94
234.179	123.94
234.413	122.94
234.647	135.94
234.881	132.94
235.115	124.94
235.349	129.94
235.583	134.94
235.817	113.94
236.051	130.94
236.285	115.94
236.519	118.94
236.753	127.94
236.987	133.94
237.221	130.94
237.455	127.94
237.689	130.94
237.922	110.94
238.156	123.94
238.39	127.94
238.624	120.94
238.858	132.94
239.091	142.94
239.325	141.94
239.559	132.94
239.793	140.94
240.027	131.94
240.26	152.94
240.494	137.94
240.728	130.94
240.961	139.94
241.195	131.94
241.429	139.94
241.662	139.94
241.896	134.94
242.13	150.94
242.363	139.94
242.597	139.94
242.83	147.94
243.064	142.94
243.298	155.94
243.531	152.94
243.765	151.94
243.998	149.94
244.232	148.94
244.465	143.94
244.699	160.94
244.932	159.94
245.166	153.94
245.399	159.94
245.633	163.94
245.866	160.94
246.099	152.94
246.333	149.94
246.566	159.94
246.8	179.94
247.033	164.94
247.266	175.94
247.5	178.94
247.733	182.94
247.966	170.94
248.2	176.94
248.433	189.94
248.666	179.94
248.899	172.94
249.133	183.94
249.366	189.94
249.599	192.94
249.832	183.94
250.066	181.94
250.299	185.94
250.532	183.94
250.765	193.94
250.998	194.94
251.231	205.94
251.465	194.94
251.698	200.94
251.931	200.94
252.164	202.94
252.397	184.94
252.63	194.94
252.863	203.94
253.096	203.94
253.329	220.94
253.562	197.94
253.795	187.94
254.028	201.94
254.261	204.94
254.494	208.94
254.727	219.94
254.96	207.94
255.193	201.94
255.426	187.94
255.659	212.94
255.892	205.94
256.124	214.94
256.357	208.94
256.59	208.94
256.823	209.94
257.056	210.94
257.289	219.94
257.521	220.94
257.754	226.94
257.987	218.94
258.22	212.94
258.452	234.94
258.685	231.94
258.918	233.94
259.151	207.94
259.383	209.94
259.616	227.94
259.849	250.94
260.081	250.94
260.314	236.94
260.547	250.94
260.779	230.94
261.012	234.94
261.244	208.94
261.477	232.94
261.71	247.94
261.942	242.94
262.175	234.94
262.407	223.94
262.64	237.94
262.872	238.94
263.105	246.94
263.337	246.94
263.57	248.94
263.802	247.94
264.035	237.94
264.267	255.94
264.499	255.94
264.732	257.94
264.964	257.94
265.197	248.94
265.429	226.94
265.661	262.94
265.894	246.94
266.126	256.94
266.358	265.94
266.591	261.94
266.823	256.94
267.055	267.94
267.287	260.94
267.52	249.94
267.752	274.94
267.984	268.94
268.216	264.94
268.448	293.94
268.681	273.94
268.913	291.94
269.145	270.94
269.377	267.94
269.609	272.94
269.841	269.94
270.073	262.94
270.306	273.94
270.538	289.94
270.77	263.94
271.002	264.94
271.234	272.94
271.466	284.94
271.698	287.94
271.93	283.94
272.162	277.94
272.394	278.94
272.626	266.94
272.858	274.94
273.09	281.94
273.322	280.94
273.553	280.94
273.785	276.94
274.017	290.94
274.249	290.94
274.481	290.94
274.713	294.94
274.945	278.94
275.176	296.94
275.408	296.94
275.64	290.94
275.872	286.94
276.104	315.94
276.335	293.94
276.567	283.94
276.799	292.94
277.031	304.94
277.262	304.94
277.494	295.94
277.726	302.94
277.957	299.94
278.189	306.94
278.421	295.94
278.652	311.94
278.884	308.94
279.115	312.94
279.347	309.94
279.579	327.94
279.81	306.94
280.042	319.94
280.273	318.94
280.505	318.94
280.736	323.94
280.968	306.94
281.199	304.94
281.431	316.94
281.662	310.94
281.894	316.94
282.125	340.94
282.356	340.94
282.588	340.94
282.819	319.94
283.051	327.94
283.282	335.94
283.513	352.94
283.745	343.94
283.976	331.94
284.207	343.94
284.439	344.94
284.67	348.94
284.901	352.94
285.132	349.94
285.364	341.94
285.595	355.94
285.826	335.94
286.057	343.94
286.288	354.94
286.52	350.94
286.751	343.94
286.982	349.94
287.213	352.94
287.444	345.94
287.675	357.94
287.906	355.94
288.138	364.94
288.369	367.94
288.6	358.94
288.831	368.94
289.062	362.94
289.293	370.94
289.524	354.94
289.755	370.94
289.986	372.94
290.217	374.94
290.448	358.94
290.679	369.94
290.91	363.94
291.141	358.94
291.371	371.94
291.602	360.94
291.833	373.94
292.064	362.94
292.295	369.94
292.526	359.94
292.757	374.94
292.987	370.94
293.218	372.94
293.449	368.94
293.68	387.94
293.91	375.94
294.141	353.94
294.372	357.94
294.603	364.94
294.833	392.94
295.064	377.94
295.295	366.94
295.525	353.94
295.756	394.94
295.987	363.94
296.217	400.94
296.448	394.94
296.679	376.94
296.909	388.94
297.14	390.94
297.37	405.94
297.601	414.94
297.831	392.94
298.062	395.94
298.292	420.94
298.523	422.94
298.753	402.94
298.984	414.94
299.214	414.94
299.445	387.94
299.675	390.94
299.905	422.94
300.136	401.94
300.366	409.94
300.597	421.94
300.827	417.94
301.057	401.94
301.288	421.94
301.518	410.94
301.748	414.94
301.979	436.94
302.209	421.94
302.439	418.94
302.669	420.94
302.9	418.94
303.13	414.94
303.36	424.94
303.59	401.94
303.82	396.94
304.051	412.94
304.281	409.94
304.511	409.94
304.741	403.94
304.971	432.94
305.201	410.94
305.431	404.94
305.661	424.94
305.891	417.94
306.121	413.94
306.352	420.94
306.582	406.94
306.812	421.94
307.042	404.94
307.272	396.94
307.502	411.94
307.731	385.94
307.961	424.94
308.191	396.94
308.421	418.94
308.651	402.94
308.881	407.94
309.111	394.94
309.341	407.94
309.571	422.94
309.8	406.94
310.03	412.94
310.26	410.94
310.49	395.94
310.72	402.94
310.949	432.94
311.179	402.94
311.409	402.94
311.639	435.94
311.868	411.94
312.098	417.94
312.328	414.94
312.557	415.94
312.787	438.94
313.017	437.94
313.246	426.94
313.476	406.94
313.706	444.94
313.935	438.94
314.165	427.94
314.394	440.94
314.624	436.94
314.853	440.94
315.083	414.94
315.312	429.94
315.542	430.94
315.771	416.94
316.001	442.94
316.23	438.94
316.46	436.94
316.689	421.94
316.919	423.94
317.148	443.94
317.377	435.94
317.607	427.94
317.836	412.94
318.065	409.94
318.295	423.94
318.524	410.94
318.753	425.94
318.983	437.94
319.212	442.94
319.441	408.94
319.67	420.94
319.9	420.94
320.129	426.94
320.358	447.94
320.587	448.94
320.816	449.94
321.046	428.94
321.275	456.94
321.504	448.94
321.733	444.94
321.962	422.94
322.191	432.94
322.42	436.94
322.649	428.94
322.878	436.94
323.108	434.94
323.337	455.94
323.566	432.94
323.795	450.94
324.024	449.94
324.253	457.94
324.482	455.94
324.71	436.94
324.939	449.94
325.168	473.94
325.397	466.94
325.626	456.94
325.855	460.94
326.084	460.94
326.313	485.94
326.542	485.94
326.77	497.94
326.999	473.94
327.228	484.94
327.457	452.94
327.686	464.94
327.914	470.94
328.143	479.94
328.372	465.94
328.6	471.94
328.829	491.94
329.058	492.94
329.287	488.94
329.515	477.94
329.744	483.94
329.972	486.94
330.201	491.94
330.43	478.94
330.658	458.94
330.887	498.94
331.115	506.94
331.344	512.94
331.572	508.94
331.801	517.94
332.03	530.94
332.258	540.94
332.486	555.94
332.715	564.94
332.943	601.94
333.172	622.94
333.4	658.94
333.629	685.94
333.857	661.94
334.085	667.94
334.314	654.94
334.542	646.94
334.771	614.94
334.999	602.94
335.227	635.94
335.455	606.94
335.684	610.94
335.912	599.94
336.14	588.94
336.369	576.94
336.597	567.94
336.825	571.94
337.053	576.94
337.281	579.94
337.51	575.94
337.738	559.94
337.966	556.94
338.194	537.94
338.422	535.94
338.65	539.94
338.878	554.94
339.106	524.94
339.334	536.94
339.562	531.94
339.79	502.94
340.018	483.94
340.246	510.94
340.474	500.94
340.702	516.94
340.93	515.94
341.158	527.94
341.386	501.94
341.614	504.94
341.842	494.94
342.07	502.94
342.298	531.94
342.526	514.94
342.754	494.94
342.981	518.94
343.209	516.94
343.437	547.94
343.665	577.94
343.893	611.94
344.12	640.94
344.348	634.94
344.576	562.94
344.804	546.94
345.031	534.94
345.259	531.94
345.487	507.94
345.714	504.94
345.942	508.94
346.17	516.94
346.397	506.94
346.625	516.94
346.853	481.94
347.08	510.94
347.308	489.94
347.535	508.94
347.763	495.94
347.99	498.94
348.218	516.94
348.445	501.94
348.673	498.94
348.9	497.94
349.128	497.94
349.355	474.94
349.583	477.94
349.81	489.94
350.037	478.94
350.265	489.94
350.492	482.94
350.72	496.94
350.947	473.94
351.174	496.94
351.402	484.94
351.629	508.94
351.856	487.94
352.083	475.94
352.311	500.94
352.538	491.94
352.765	500.94
352.992	464.94
353.22	479.94
353.447	465.94
353.674	492.94
353.901	481.94
354.128	476.94
354.355	475.94
354.583	479.94
354.81	491.94
355.037	491.94
355.264	503.94
355.491	478.94
355.718	488.94
355.945	487.94
356.172	485.94
356.399	499.94
356.626	486.94
356.853	474.94
357.08	469.94
357.307	478.94
357.534	508.94
357.761	472.94
357.988	504.94
358.215	464.94
358.441	466.94
358.668	472.94
358.895	463.94
359.122	503.94
359.349	487.94
359.576	478.94
359.802	489.94
360.029	471.94
360.256	473.94
360.483	478.94
360.709	473.94
360.936	474.94
361.163	478.94
361.39	483.94
361.616	481.94
361.843	472.94
362.07	487.94
362.296	453.94
362.523	468.94
362.749	498.94
362.976	475.94
363.203	474.94
363.429	471.94
363.656	479.94
363.882	458.94
364.109	459.94
364.335	463.94
364.562	481.94
364.788	476.94
365.015	491.94
365.241	478.94
365.468	468.94
365.694	472.94
365.92	492.94
366.147	470.94
366.373	474.94
366.599	464.94
366.826	473.94
367.052	491.94
367.278	470.94
367.505	479.94
367.731	482.94
367.957	484.94
368.184	471.94
368.41	474.94
368.636	489.94
368.862	494.94
369.089	488.94
369.315	491.94
369.541	496.94
369.767	491.94
369.993	497.94
370.219	515.94
370.445	504.94
370.672	502.94
370.898	510.94
371.124	512.94
371.35	512.94
371.576	518.94
371.802	524.94
372.028	524.94
372.254	504.94
372.48	523.94
372.706	527.94
372.932	535.94
373.158	530.94
373.384	535.94
373.61	504.94
373.835	513.94
374.061	522.94
374.287	515.94
374.513	540.94
374.739	551.94
374.965	580.94
375.191	576.94
375.416	571.94
375.642	567.94
375.868	573.94
376.094	532.94
376.319	521.94
376.545	523.94
376.771	528.94
376.997	530.94
377.222	539.94
377.448	518.94
377.674	529.94
377.899	517.94
378.125	513.94
378.35	530.94
378.576	521.94
378.802	503.94
379.027	505.94
379.253	513.94
379.478	496.94
379.704	497.94
379.929	505.94
380.155	509.94
380.38	502.94
380.606	514.94
380.831	507.94
381.057	516.94
381.282	513.94
381.507	522.94
381.733	537.94
381.958	506.94
382.184	538.94
382.409	522.94
382.634	535.94
382.86	551.94
383.085	555.94
383.31	566.94
383.535	580.94
383.761	569.94
383.986	577.94
384.211	604.94
384.436	609.94
384.662	611.94
384.887	631.94
385.112	605.94
385.337	634.94
385.562	634.94
385.787	635.94
386.013	637.94
386.238	639.94
386.463	629.94
386.688	601.94
386.913	607.94
387.138	618.94
387.363	613.94
387.588	609.94
387.813	620.94
388.038	590.94
388.263	602.94
388.488	588.94
388.713	610.94
388.938	606.94
389.163	608.94
389.387	610.94
389.612	614.94
389.837	602.94
390.062	576.94
390.287	608.94
390.512	598.94
390.736	627.94
390.961	610.94
391.186	640.94
391.411	647.94
391.636	657.94
391.86	702.94
392.085	714.94
392.31	679.94
392.534	668.94
392.759	683.94
392.984	663.94
393.208	644.94
393.433	628.94
393.658	659.94
393.882	651.94
394.107	658.94
394.331	662.94
394.556	668.94
394.78	664.94
395.005	665.94
395.229	674.94
395.454	706.94
395.678	719.94
395.903	697.94
396.127	676.94
396.352	658.94
396.576	642.94
396.801	631.94
397.025	654.94
397.249	648.94
397.474	684.94
397.698	650.94
397.922	676.94
398.147	653.94
398.371	686.94
398.595	731.94
398.82	747.94
399.044	788.94
399.268	898.94
399.492	1071.94
399.717	1226.94
399.941	1196.94
400.165	1020.94
400.389	914.94
400.613	828.94
400.837	806.94
401.062	807.94
401.286	749.94
401.51	755.94
401.734	775.94
401.958	761.94
402.182	784.94
402.406	800.94
402.63	806.94
402.854	810.94
403.078	856.94
403.302	873.94
403.526	883.94
403.75	912.94
403.974	934.94
404.198	922.94
404.422	894.94
404.645	870.94
404.869	900.94
405.093	894.94
405.317	870.94
405.541	863.94
405.765	833.94
405.988	842.94
406.212	844.94
406.436	833.94
406.66	883.94
406.883	871.94
407.107	951.94
407.331	972.94
407.555	1016.94
407.778	1027.94
408.002	978.94
408.226	928.94
408.449	921.94
408.673	896.94
408.896	854.94
409.12	889.94
409.344	908.94
409.567	892.94
409.791	899.94
410.014	895.94
410.238	895.94
410.461	864.94
410.685	883.94
410.908	878.94
411.132	809.94
411.355	822.94
411.578	823.94
411.802	794.94
412.025	807.94
412.249	827.94
412.472	844.94
412.695	800.94
412.919	759.94
413.142	771.94
413.365	804.94
413.589	803.94
413.812	739.94
414.035	761.94
414.258	793.94
414.482	798.94
414.705	790.94
414.928	805.94
415.151	804.94
415.374	773.94
415.597	786.94
415.821	775.94
416.044	750.94
416.267	753.94
416.49	760.94
416.713	759.94
416.936	754.94
417.159	800.94
417.382	776.94
417.605	760.94
417.828	787.94
418.051	784.94
418.274	784.94
418.497	790.94
418.72	780.94
418.943	794.94
419.166	860.94
419.389	890.94
419.611	883.94
419.834	859.94
420.057	789.94
420.28	800.94
420.503	763.94
420.726	761.94
420.948	782.94
421.171	788.94
421.394	799.94
421.617	776.94
421.839	794.94
422.062	801.94
422.285	783.94
422.507	827.94
422.73	825.94
422.953	831.94
423.175	850.94
423.398	859.94
423.621	856.94
423.843	831.94
424.066	847.94
424.288	832.94
424.511	842.94
424.733	830.94
424.956	819.94
425.178	773.94
425.401	806.94
425.623	778.94
425.846	773.94
426.068	791.94
426.291	760.94
426.513	731.94
426.735	726.94
426.958	715.94
427.18	725.94
427.402	721.94
427.625	717.94
427.847	717.94
428.069	714.94
428.292	730.94
428.514	715.94
428.736	688.94
428.958	682.94
429.181	690.94
429.403	666.94
429.625	684.94
429.847	682.94
430.069	683.94
430.292	690.94
430.514	664.94
430.736	686.94
430.958	683.94
431.18	668.94
431.402	654.94
431.624	674.94
431.846	697.94
432.068	700.94
432.29	713.94
432.512	694.94
432.734	718.94
432.956	695.94
433.178	704.94
433.4	716.94
433.622	719.94
433.844	715.94
434.066	726.94
434.287	712.94
434.509	750.94
434.731	786.94
434.953	785.94
435.175	809.94
435.397	785.94
435.618	777.94
435.84	746.94
436.062	728.94
436.284	700.94
436.505	716.94
436.727	723.94
436.949	714.94
437.17	714.94
437.392	705.94
437.614	714.94
437.835	678.94
438.057	682.94
438.278	689.94
438.5	682.94
438.721	672.94
438.943	706.94
439.165	674.94
439.386	694.94
439.608	729.94
439.829	724.94
440.05	712.94
440.272	722.94
440.493	735.94
440.715	762.94
440.936	742.94
441.158	750.94
441.379	783.94
441.6	798.94
441.822	819.94
442.043	810.94
442.264	797.94
442.486	816.94
442.707	790.94
442.928	802.94
443.149	820.94
443.371	816.94
443.592	816.94
443.813	788.94
444.034	816.94
444.255	830.94
444.476	874.94
444.698	950.94
444.919	996.94
445.14	1058.94
445.361	914.94
445.582	823.94
445.803	791.94
446.024	757.94
446.245	752.94
446.466	748.94
446.687	734.94
446.908	734.94
447.129	741.94
447.35	730.94
447.571	682.94
447.792	686.94
448.013	659.94
448.234	682.94
448.455	658.94
448.675	664.94
448.896	650.94
449.117	644.94
449.338	663.94
449.559	642.94
449.779	666.94
450	630.94
450.221	681.94
450.442	694.94
450.662	684.94
450.883	678.94
451.104	694.94
451.324	672.94
451.545	686.94
451.766	692.94
451.986	680.94
452.207	688.94
452.428	701.94
452.648	691.94
452.869	651.94
453.089	651.94
453.31	673.94
453.53	665.94
453.751	647.94
453.971	651.94
454.192	632.94
454.412	640.94
454.633	626.94
454.853	627.94
455.073	634.94
455.294	622.94
455.514	623.94
455.734	636.94
455.955	613.94
456.175	598.94
456.395	604.94
456.616	609.94
456.836	622.94
457.056	606.94
457.276	622.94
457.497	617.94
457.717	620.94
457.937	619.94
458.157	631.94
458.377	615.94
458.598	632.94
458.818	652.94
459.038	680.94
459.258	676.94
459.478	712.94
459.698	729.94
459.918	743.94
460.138	834.94
460.358	863.94
460.578	848.94
460.798	871.94
461.018	884.94
461.238	867.94
461.458	843.94
461.678	842.94
461.898	829.94
462.118	855.94
462.338	902.94
462.558	948.94
462.777	948.94
462.997	1065.94
463.217	1192.94
463.437	1185.94
463.657	1078.94
463.876	994.94
464.096	983.94
464.316	1018.94
464.536	990.94
464.755	972.94
464.975	954.94
465.195	895.94
465.414	831.94
465.634	785.94
465.854	765.94
466.073	729.94
466.293	721.94
466.512	715.94
466.732	721.94
466.951	719.94
467.171	691.94
467.391	697.94
467.61	707.94
467.829	690.94
468.049	693.94
468.268	684.94
468.488	659.94
468.707	671.94
468.927	658.94
469.146	663.94
469.365	666.94
469.585	659.94
469.804	698.94
470.023	670.94
470.243	723.94
470.462	739.94
470.681	721.94
470.901	730.94
471.12	701.94
471.339	697.94
471.558	690.94
471.777	689.94
471.997	675.94
472.216	659.94
472.435	664.94
472.654	627.94
472.873	630.94
473.092	645.94
473.311	628.94
473.53	651.94
473.749	632.94
473.968	682.94
474.187	645.94
474.406	640.94
474.625	640.94
474.844	617.94
475.063	656.94
475.282	630.94
475.501	660.94
475.72	653.94
475.939	645.94
476.158	676.94
476.377	676.94
476.596	662.94
476.814	667.94
477.033	695.94
477.252	708.94
477.471	703.94
477.69	736.94
477.908	732.94
478.127	752.94
478.346	778.94
478.564	795.94
478.783	809.94
479.002	815.94
479.22	822.94
479.439	786.94
479.658	807.94
479.876	786.94
480.095	824.94
480.313	866.94
480.532	891.94
480.751	852.94
480.969	814.94
481.188	798.94
481.406	768.94
481.624	760.94
481.843	750.94
482.061	754.94
482.28	732.94
482.498	713.94
482.717	745.94
482.935	748.94
483.153	745.94
483.372	727.94
483.59	757.94
483.808	734.94
484.027	731.94
484.245	717.94
484.463	741.94
484.681	733.94
484.9	781.94
485.118	780.94
485.336	782.94
485.554	786.94
485.772	779.94
485.99	775.94
486.209	783.94
486.427	799.94
486.645	800.94
486.863	806.94
487.081	778.94
487.299	784.94
487.517	797.94
487.735	788.94
487.953	779.94
488.171	795.94
488.389	776.94
488.607	747.94
488.825	759.94
489.043	745.94
489.261	764.94
489.479	766.94
489.696	786.94
489.914	774.94
490.132	772.94
490.35	772.94
490.568	787.94
490.786	780.94
491.003	779.94
491.221	801.94
491.439	786.94
491.657	793.94
491.874	803.94
492.092	799.94
492.31	802.94
492.527	797.94
492.745	813.94
492.963	790.94
493.18	816.94
493.398	823.94
493.615	836.94
493.833	840.94
494.05	838.94
494.268	833.94
494.485	841.94
494.703	847.94
494.92	833.94
495.138	828.94
495.355	820.94
495.573	842.94
495.79	843.94
496.008	868.94
496.225	836.94
496.442	827.94
496.66	852.94
496.877	852.94
497.094	867.94
497.312	897.94
497.529	875.94
497.746	900.94
497.963	936.94
498.181	975.94
498.398	1030.94
498.615	1099.94
498.832	1142.94
499.049	1258.94
499.267	1330.94
499.484	1480.94
499.701	1660.94
499.918	1817.94
500.135	2134.94
500.352	2474.94
500.569	2641.94
500.786	2625.94
501.003	2377.94
501.22	2047.94
501.437	1825.94
