Data from Ni(NO3)2@0.25M.TitratingCurve.Agarose3%dH2O.NegLispCup.LampEnergy10.LIBS07252019_HRD10591_18-03-32-565.txt Node
Date: Thu Jul 25 18:03:32 EDT 2019
User: cochatt
Spectrometer: HR+D1059
Trigger mode: 1
Integration Time (sec): 1.000000E-1
Scans to average: 1
Electric dark correction enabled: true
Nonlinearity correction enabled: false
Boxcar width: 0
XAxis mode: Wavelengths
Number of Pixels in Spectrum: 2048
>>>>>Begin Spectral Data<<<<<
223.165	-24.19
223.4	-24.19
223.635	-24.19
223.869	-20.19
224.104	-0.19
224.338	-23.19
224.573	-8.19
224.808	-23.19
225.042	-26.19
225.277	-13.19
225.511	-4.19
225.746	5.81
225.98	3.81
226.215	13.81
226.449	31.81
226.683	22.81
226.918	22.81
227.152	41.81
227.387	16.81
227.621	32.81
227.856	50.81
228.09	49.81
228.324	48.81
228.559	63.81
228.793	47.81
229.027	71.81
229.262	80.81
229.496	82.81
229.73	99.81
229.964	110.81
230.199	94.81
230.433	81.81
230.667	105.81
230.901	87.81
231.136	106.81
231.37	110.81
231.604	114.81
231.838	113.81
232.072	110.81
232.306	108.81
232.541	104.81
232.775	107.81
233.009	107.81
233.243	114.81
233.477	114.81
233.711	105.81
233.945	106.81
234.179	109.81
234.413	126.81
234.647	110.81
234.881	108.81
235.115	115.81
235.349	112.81
235.583	117.81
235.817	97.81
236.051	103.81
236.285	127.81
236.519	115.81
236.753	107.81
236.987	100.81
237.221	106.81
237.455	139.81
237.689	121.81
237.922	100.81
238.156	119.81
238.39	123.81
238.624	128.81
238.858	118.81
239.091	129.81
239.325	127.81
239.559	123.81
239.793	126.81
240.027	123.81
240.26	120.81
240.494	120.81
240.728	122.81
240.961	128.81
241.195	137.81
241.429	141.81
241.662	128.81
241.896	121.81
242.13	138.81
242.363	129.81
242.597	129.81
242.83	128.81
243.064	133.81
243.298	131.81
243.531	137.81
243.765	133.81
243.998	142.81
244.232	141.81
244.465	133.81
244.699	133.81
244.932	136.81
245.166	152.81
245.399	125.81
245.633	130.81
245.866	133.81
246.099	127.81
246.333	165.81
246.566	158.81
246.8	160.81
247.033	165.81
247.266	157.81
247.5	170.81
247.733	166.81
247.966	163.81
248.2	167.81
248.433	160.81
248.666	155.81
248.899	177.81
249.133	163.81
249.366	179.81
249.599	174.81
249.832	176.81
250.066	174.81
250.299	185.81
250.532	186.81
250.765	189.81
250.998	191.81
251.231	186.81
251.465	189.81
251.698	202.81
251.931	212.81
252.164	208.81
252.397	205.81
252.63	225.81
252.863	230.81
253.096	222.81
253.329	215.81
253.562	215.81
253.795	218.81
254.028	229.81
254.261	215.81
254.494	230.81
254.727	240.81
254.96	250.81
255.193	229.81
255.426	253.81
255.659	256.81
255.892	245.81
256.124	266.81
256.357	258.81
256.59	267.81
256.823	256.81
257.056	257.81
257.289	272.81
257.521	270.81
257.754	262.81
257.987	258.81
258.22	274.81
258.452	278.81
258.685	281.81
258.918	285.81
259.151	287.81
259.383	282.81
259.616	269.81
259.849	292.81
260.081	294.81
260.314	288.81
260.547	291.81
260.779	305.81
261.012	300.81
261.244	291.81
261.477	301.81
261.71	320.81
261.942	297.81
262.175	304.81
262.407	304.81
262.64	301.81
262.872	295.81
263.105	314.81
263.337	309.81
263.57	323.81
263.802	338.81
264.035	313.81
264.267	303.81
264.499	326.81
264.732	357.81
264.964	326.81
265.197	327.81
265.429	336.81
265.661	338.81
265.894	319.81
266.126	353.81
266.358	333.81
266.591	313.81
266.823	346.81
267.055	335.81
267.287	328.81
267.52	349.81
267.752	330.81
267.984	339.81
268.216	322.81
268.448	329.81
268.681	361.81
268.913	342.81
269.145	374.81
269.377	344.81
269.609	360.81
269.841	346.81
270.073	366.81
270.306	344.81
270.538	354.81
270.77	355.81
271.002	364.81
271.234	357.81
271.466	359.81
271.698	347.81
271.93	348.81
272.162	342.81
272.394	369.81
272.626	354.81
272.858	359.81
273.09	332.81
273.322	360.81
273.553	372.81
273.785	355.81
274.017	344.81
274.249	370.81
274.481	371.81
274.713	376.81
274.945	375.81
275.176	374.81
275.408	374.81
275.64	387.81
275.872	367.81
276.104	368.81
276.335	361.81
276.567	385.81
276.799	341.81
277.031	363.81
277.262	347.81
277.494	369.81
277.726	389.81
277.957	369.81
278.189	365.81
278.421	358.81
278.652	377.81
278.884	385.81
279.115	379.81
279.347	380.81
279.579	381.81
279.81	392.81
280.042	378.81
280.273	386.81
280.505	396.81
280.736	373.81
280.968	346.81
281.199	384.81
281.431	377.81
281.662	394.81
281.894	377.81
282.125	401.81
282.356	383.81
282.588	385.81
282.819	365.81
283.051	378.81
283.282	391.81
283.513	385.81
283.745	389.81
283.976	350.81
284.207	372.81
284.439	373.81
284.67	386.81
284.901	389.81
285.132	382.81
285.364	378.81
285.595	374.81
285.826	385.81
286.057	417.81
286.288	392.81
286.52	409.81
286.751	378.81
286.982	405.81
287.213	378.81
287.444	403.81
287.675	384.81
287.906	405.81
288.138	386.81
288.369	395.81
288.6	404.81
288.831	373.81
289.062	386.81
289.293	399.81
289.524	393.81
289.755	388.81
289.986	402.81
290.217	402.81
290.448	391.81
290.679	389.81
290.91	370.81
291.141	406.81
291.371	414.81
291.602	391.81
291.833	395.81
292.064	393.81
292.295	387.81
292.526	388.81
292.757	391.81
292.987	395.81
293.218	387.81
293.449	397.81
293.68	395.81
293.91	391.81
294.141	386.81
294.372	381.81
294.603	405.81
294.833	388.81
295.064	373.81
295.295	412.81
295.525	391.81
295.756	419.81
295.987	406.81
296.217	410.81
296.448	386.81
296.679	395.81
296.909	403.81
297.14	393.81
297.37	417.81
297.601	408.81
297.831	419.81
298.062	409.81
298.292	427.81
298.523	439.81
298.753	408.81
298.984	398.81
299.214	417.81
299.445	419.81
299.675	394.81
299.905	402.81
300.136	440.81
300.366	416.81
300.597	407.81
300.827	416.81
301.057	411.81
301.288	405.81
301.518	435.81
301.748	418.81
301.979	429.81
302.209	443.81
302.439	446.81
302.669	427.81
302.9	437.81
303.13	424.81
303.36	420.81
303.59	426.81
303.82	449.81
304.051	458.81
304.281	450.81
304.511	448.81
304.741	447.81
304.971	457.81
305.201	457.81
305.431	436.81
305.661	447.81
305.891	461.81
306.121	452.81
306.352	459.81
306.582	452.81
306.812	440.81
307.042	432.81
307.272	453.81
307.502	434.81
307.731	447.81
307.961	456.81
308.191	445.81
308.421	449.81
308.651	468.81
308.881	447.81
309.111	446.81
309.341	454.81
309.571	426.81
309.8	478.81
310.03	461.81
310.26	468.81
310.49	473.81
310.72	475.81
310.949	464.81
311.179	462.81
311.409	496.81
311.639	487.81
311.868	496.81
312.098	515.81
312.328	491.81
312.557	524.81
312.787	500.81
313.017	493.81
313.246	501.81
313.476	506.81
313.706	526.81
313.935	531.81
314.165	498.81
314.394	532.81
314.624	541.81
314.853	556.81
315.083	535.81
315.312	527.81
315.542	550.81
315.771	544.81
316.001	551.81
316.23	553.81
316.46	554.81
316.689	555.81
316.919	563.81
317.148	571.81
317.377	583.81
317.607	576.81
317.836	585.81
318.065	568.81
318.295	591.81
318.524	611.81
318.753	575.81
318.983	592.81
319.212	602.81
319.441	602.81
319.67	602.81
319.9	600.81
320.129	633.81
320.358	616.81
320.587	655.81
320.816	631.81
321.046	618.81
321.275	633.81
321.504	632.81
321.733	644.81
321.962	643.81
322.191	653.81
322.42	655.81
322.649	651.81
322.878	655.81
323.108	674.81
323.337	669.81
323.566	653.81
323.795	694.81
324.024	675.81
324.253	706.81
324.482	711.81
324.71	688.81
324.939	726.81
325.168	726.81
325.397	730.81
325.626	728.81
325.855	742.81
326.084	756.81
326.313	765.81
326.542	768.81
326.77	771.81
326.999	752.81
327.228	775.81
327.457	750.81
327.686	771.81
327.914	783.81
328.143	809.81
328.372	760.81
328.6	752.81
328.829	781.81
329.058	797.81
329.287	794.81
329.515	805.81
329.744	784.81
329.972	805.81
330.201	817.81
330.43	837.81
330.658	819.81
330.887	856.81
331.115	843.81
331.344	870.81
331.572	825.81
331.801	881.81
332.03	874.81
332.258	885.81
332.486	920.81
332.715	920.81
332.943	918.81
333.172	948.81
333.4	974.81
333.629	984.81
333.857	1006.81
334.085	969.81
334.314	1019.81
334.542	1011.81
334.771	997.81
334.999	992.81
335.227	1007.81
335.455	1003.81
335.684	981.81
335.912	992.81
336.14	998.81
336.369	991.81
336.597	965.81
336.825	941.81
337.053	953.81
337.281	961.81
337.51	969.81
337.738	949.81
337.966	960.81
338.194	930.81
338.422	927.81
338.65	951.81
338.878	913.81
339.106	926.81
339.334	919.81
339.562	908.81
339.79	937.81
340.018	951.81
340.246	914.81
340.474	902.81
340.702	920.81
340.93	920.81
341.158	911.81
341.386	920.81
341.614	912.81
341.842	901.81
342.07	846.81
342.298	925.81
342.526	937.81
342.754	929.81
342.981	908.81
343.209	939.81
343.437	975.81
343.665	954.81
343.893	1008.81
344.12	991.81
344.348	1014.81
344.576	977.81
344.804	971.81
345.031	916.81
345.259	917.81
345.487	918.81
345.714	944.81
345.942	911.81
346.17	915.81
346.397	868.81
346.625	911.81
346.853	911.81
347.08	893.81
347.308	928.81
347.535	911.81
347.763	895.81
347.99	918.81
348.218	904.81
348.445	896.81
348.673	904.81
348.9	884.81
349.128	894.81
349.355	901.81
349.583	893.81
349.81	875.81
350.037	893.81
350.265	893.81
350.492	859.81
350.72	865.81
350.947	885.81
351.174	889.81
351.402	905.81
351.629	917.81
351.856	877.81
352.083	867.81
352.311	891.81
352.538	867.81
352.765	867.81
352.992	845.81
353.22	850.81
353.447	863.81
353.674	853.81
353.901	881.81
354.128	862.81
354.355	868.81
354.583	850.81
354.81	869.81
355.037	874.81
355.264	875.81
355.491	877.81
355.718	849.81
355.945	842.81
356.172	864.81
356.399	866.81
356.626	884.81
356.853	897.81
357.08	859.81
357.307	849.81
357.534	890.81
357.761	895.81
357.988	872.81
358.215	855.81
358.441	877.81
358.668	879.81
358.895	860.81
359.122	863.81
359.349	854.81
359.576	888.81
359.802	868.81
360.029	875.81
360.256	852.81
360.483	854.81
360.709	878.81
360.936	879.81
361.163	872.81
361.39	847.81
361.616	847.81
361.843	824.81
362.07	859.81
362.296	849.81
362.523	824.81
362.749	850.81
362.976	853.81
363.203	858.81
363.429	864.81
363.656	864.81
363.882	846.81
364.109	831.81
364.335	851.81
364.562	846.81
364.788	840.81
365.015	869.81
365.241	834.81
365.468	853.81
365.694	850.81
365.92	840.81
366.147	872.81
366.373	862.81
366.599	842.81
366.826	828.81
367.052	839.81
367.278	872.81
367.505	850.81
367.731	830.81
367.957	844.81
368.184	843.81
368.41	844.81
368.636	837.81
368.862	873.81
369.089	856.81
369.315	870.81
369.541	859.81
369.767	848.81
369.993	857.81
370.219	855.81
370.445	851.81
370.672	866.81
370.898	813.81
371.124	845.81
371.35	871.81
371.576	865.81
371.802	853.81
372.028	852.81
372.254	871.81
372.48	862.81
372.706	880.81
372.932	879.81
373.158	875.81
373.384	871.81
373.61	874.81
373.835	863.81
374.061	864.81
374.287	885.81
374.513	882.81
374.739	880.81
374.965	890.81
375.191	877.81
375.416	868.81
375.642	866.81
375.868	853.81
376.094	864.81
376.319	848.81
376.545	853.81
376.771	839.81
376.997	846.81
377.222	836.81
377.448	833.81
377.674	833.81
377.899	808.81
378.125	803.81
378.35	805.81
378.576	818.81
378.802	803.81
379.027	817.81
379.253	805.81
379.478	815.81
379.704	815.81
379.929	816.81
380.155	817.81
380.38	801.81
380.606	803.81
380.831	798.81
381.057	806.81
381.282	794.81
381.507	779.81
381.733	819.81
381.958	778.81
382.184	815.81
382.409	791.81
382.634	799.81
382.86	842.81
383.085	827.81
383.31	815.81
383.535	842.81
383.761	847.81
383.986	847.81
384.211	850.81
384.436	870.81
384.662	850.81
384.887	875.81
385.112	884.81
385.337	887.81
385.562	879.81
385.787	875.81
386.013	890.81
386.238	919.81
386.463	881.81
386.688	888.81
386.913	878.81
387.138	898.81
387.363	911.81
387.588	870.81
387.813	882.81
388.038	869.81
388.263	900.81
388.488	905.81
388.713	907.81
388.938	849.81
389.163	867.81
389.387	884.81
389.612	863.81
389.837	873.81
390.062	875.81
390.287	885.81
390.512	866.81
390.736	884.81
390.961	897.81
391.186	908.81
391.411	899.81
391.636	932.81
391.86	902.81
392.085	935.81
392.31	953.81
392.534	907.81
392.759	929.81
392.984	930.81
393.208	945.81
393.433	917.81
393.658	933.81
393.882	907.81
394.107	932.81
394.331	934.81
394.556	922.81
394.78	937.81
395.005	909.81
395.229	928.81
395.454	949.81
395.678	924.81
395.903	951.81
396.127	957.81
396.352	934.81
396.576	929.81
396.801	924.81
397.025	933.81
397.249	965.81
397.474	963.81
397.698	985.81
397.922	965.81
398.147	964.81
398.371	987.81
398.595	1027.81
398.82	1057.81
399.044	1107.81
399.268	1142.81
399.492	1213.81
399.717	1301.81
399.941	1328.81
400.165	1256.81
400.389	1202.81
400.613	1159.81
400.837	1083.81
401.062	1101.81
401.286	1078.81
401.51	1075.81
401.734	1066.81
401.958	1091.81
402.182	1049.81
402.406	1048.81
402.63	1065.81
402.854	1092.81
403.078	1074.81
403.302	1121.81
403.526	1115.81
403.75	1115.81
403.974	1119.81
404.198	1145.81
404.422	1133.81
404.645	1143.81
404.869	1130.81
405.093	1152.81
405.317	1116.81
405.541	1158.81
405.765	1139.81
405.988	1137.81
406.212	1115.81
406.436	1158.81
406.66	1177.81
406.883	1200.81
407.107	1201.81
407.331	1227.81
407.555	1287.81
407.778	1262.81
408.002	1220.81
408.226	1237.81
408.449	1236.81
408.673	1189.81
408.896	1182.81
409.12	1187.81
409.344	1186.81
409.567	1152.81
409.791	1185.81
410.014	1181.81
410.238	1125.81
410.461	1179.81
410.685	1129.81
410.908	1138.81
411.132	1126.81
411.355	1095.81
411.578	1137.81
411.802	1131.81
412.025	1153.81
412.249	1138.81
412.472	1154.81
412.695	1123.81
412.919	1105.81
413.142	1122.81
413.365	1125.81
413.589	1114.81
413.812	1084.81
414.035	1085.81
414.258	1094.81
414.482	1102.81
414.705	1105.81
414.928	1151.81
415.151	1138.81
415.374	1098.81
415.597	1108.81
415.821	1080.81
416.044	1100.81
416.267	1096.81
416.49	1072.81
416.713	1099.81
416.936	1086.81
417.159	1095.81
417.382	1101.81
417.605	1106.81
417.828	1107.81
418.051	1106.81
418.274	1122.81
418.497	1104.81
418.72	1112.81
418.943	1133.81
419.166	1197.81
419.389	1255.81
419.611	1219.81
419.834	1206.81
420.057	1194.81
420.28	1151.81
420.503	1090.81
420.726	1108.81
420.948	1104.81
421.171	1137.81
421.394	1123.81
421.617	1123.81
421.839	1157.81
422.062	1145.81
422.285	1137.81
422.507	1174.81
422.73	1133.81
422.953	1155.81
423.175	1197.81
423.398	1176.81
423.621	1140.81
423.843	1161.81
424.066	1181.81
424.288	1183.81
424.511	1170.81
424.733	1158.81
424.956	1188.81
425.178	1145.81
425.401	1166.81
425.623	1169.81
425.846	1159.81
426.068	1149.81
426.291	1156.81
426.513	1117.81
426.735	1137.81
426.958	1146.81
427.18	1104.81
427.402	1099.81
427.625	1117.81
427.847	1073.81
428.069	1085.81
428.292	1118.81
428.514	1095.81
428.736	1110.81
428.958	1122.81
429.181	1103.81
429.403	1083.81
429.625	1081.81
429.847	1105.81
430.069	1099.81
430.292	1118.81
430.514	1088.81
430.736	1114.81
430.958	1112.81
431.18	1088.81
431.402	1110.81
431.624	1123.81
431.846	1079.81
432.068	1095.81
432.29	1116.81
432.512	1106.81
432.734	1136.81
432.956	1109.81
433.178	1129.81
433.4	1119.81
433.622	1133.81
433.844	1149.81
434.066	1159.81
434.287	1103.81
434.509	1133.81
434.731	1175.81
434.953	1176.81
435.175	1202.81
435.397	1194.81
435.618	1150.81
435.84	1129.81
436.062	1111.81
436.284	1162.81
436.505	1141.81
436.727	1109.81
436.949	1158.81
437.17	1123.81
437.392	1111.81
437.614	1133.81
437.835	1086.81
438.057	1086.81
438.278	1094.81
438.5	1106.81
438.721	1113.81
438.943	1112.81
439.165	1077.81
439.386	1109.81
439.608	1146.81
439.829	1106.81
440.05	1126.81
440.272	1146.81
440.493	1136.81
440.715	1182.81
440.936	1173.81
441.158	1177.81
441.379	1147.81
441.6	1210.81
441.822	1217.81
442.043	1206.81
442.264	1194.81
442.486	1181.81
442.707	1221.81
442.928	1202.81
443.149	1205.81
443.371	1199.81
443.592	1219.81
443.813	1215.81
444.034	1198.81
444.255	1211.81
444.476	1281.81
444.698	1316.81
444.919	1352.81
445.14	1401.81
445.361	1311.81
445.582	1240.81
445.803	1179.81
446.024	1181.81
446.245	1174.81
446.466	1152.81
446.687	1120.81
446.908	1147.81
447.129	1113.81
447.35	1119.81
447.571	1105.81
447.792	1065.81
448.013	1062.81
448.234	1076.81
448.455	1075.81
448.675	1080.81
448.896	1065.81
449.117	1060.81
449.338	1028.81
449.559	1062.81
449.779	1048.81
450	1056.81
450.221	1049.81
450.442	1056.81
450.662	1067.81
450.883	1088.81
451.104	1063.81
451.324	1088.81
451.545	1044.81
451.766	1056.81
451.986	1035.81
452.207	1015.81
452.428	1047.81
452.648	1059.81
452.869	1007.81
453.089	1009.81
453.31	997.81
453.53	995.81
453.751	983.81
453.971	1023.81
454.192	1034.81
454.412	1019.81
454.633	1013.81
454.853	1035.81
455.073	990.81
455.294	1013.81
455.514	969.81
455.734	1010.81
455.955	972.81
456.175	974.81
456.395	989.81
456.616	1021.81
456.836	985.81
457.056	984.81
457.276	955.81
457.497	1009.81
457.717	993.81
457.937	1016.81
458.157	1009.81
458.377	1010.81
458.598	1034.81
458.818	1025.81
459.038	1042.81
459.258	1071.81
459.478	1115.81
459.698	1135.81
459.918	1169.81
460.138	1177.81
460.358	1202.81
460.578	1193.81
460.798	1232.81
461.018	1206.81
461.238	1218.81
461.458	1197.81
461.678	1203.81
461.898	1246.81
462.118	1251.81
462.338	1286.81
462.558	1322.81
462.777	1370.81
462.997	1406.81
463.217	1429.81
463.437	1455.81
463.657	1375.81
463.876	1362.81
464.096	1390.81
464.316	1325.81
464.536	1349.81
464.755	1305.81
464.975	1314.81
465.195	1234.81
465.414	1201.81
465.634	1157.81
465.854	1122.81
466.073	1165.81
466.293	1133.81
466.512	1110.81
466.732	1081.81
466.951	1122.81
467.171	1092.81
467.391	1110.81
467.61	1096.81
467.829	1073.81
468.049	1073.81
468.268	1038.81
468.488	1086.81
468.707	1072.81
468.927	1071.81
469.146	1073.81
469.365	1072.81
469.585	1098.81
469.804	1094.81
470.023	1149.81
470.243	1104.81
470.462	1118.81
470.681	1125.81
470.901	1126.81
471.12	1137.81
471.339	1123.81
471.558	1107.81
471.777	1137.81
471.997	1119.81
472.216	1081.81
472.435	1086.81
472.654	1061.81
472.873	1054.81
473.092	1070.81
473.311	1090.81
473.53	1114.81
473.749	1138.81
473.968	1117.81
474.187	1103.81
474.406	1109.81
474.625	1110.81
474.844	1118.81
475.063	1122.81
475.282	1093.81
475.501	1114.81
475.72	1110.81
475.939	1124.81
476.158	1120.81
476.377	1130.81
476.596	1156.81
476.814	1163.81
477.033	1165.81
477.252	1181.81
477.471	1188.81
477.69	1243.81
477.908	1221.81
478.127	1220.81
478.346	1263.81
478.564	1250.81
478.783	1275.81
479.002	1331.81
479.22	1323.81
479.439	1300.81
479.658	1307.81
479.876	1331.81
480.095	1325.81
480.313	1342.81
480.532	1321.81
480.751	1359.81
480.969	1322.81
481.188	1283.81
481.406	1295.81
481.624	1261.81
481.843	1291.81
482.061	1290.81
482.28	1262.81
482.498	1274.81
482.717	1271.81
482.935	1285.81
483.153	1298.81
483.372	1287.81
483.59	1286.81
483.808	1308.81
484.027	1281.81
484.245	1283.81
484.463	1301.81
484.681	1336.81
484.9	1314.81
485.118	1316.81
485.336	1306.81
485.554	1282.81
485.772	1329.81
485.99	1295.81
486.209	1315.81
486.427	1328.81
486.645	1321.81
486.863	1336.81
487.081	1327.81
487.299	1317.81
487.517	1280.81
487.735	1374.81
487.953	1380.81
488.171	1381.81
488.389	1335.81
488.607	1336.81
488.825	1295.81
489.043	1317.81
489.261	1321.81
489.479	1325.81
489.696	1325.81
489.914	1337.81
490.132	1360.81
490.35	1414.81
490.568	1361.81
490.786	1353.81
491.003	1366.81
491.221	1358.81
491.439	1377.81
491.657	1372.81
491.874	1402.81
492.092	1401.81
492.31	1414.81
492.527	1407.81
492.745	1397.81
492.963	1383.81
493.18	1401.81
493.398	1381.81
493.615	1414.81
493.833	1405.81
494.05	1428.81
494.268	1409.81
494.485	1424.81
494.703	1448.81
494.92	1463.81
495.138	1437.81
495.355	1445.81
495.573	1444.81
495.79	1464.81
