Data from Ni(NO3)2Standard.Agarose3%.GreenCap.LampEnergy5.5.E.O_HRD10591_14-40-45-187.txt Node
Date: Mon Jul 22 14:40:45 EDT 2019
User: cochatt
Spectrometer: HR+D1059
Trigger mode: 1
Integration Time (sec): 1.000000E-1
Scans to average: 1
Electric dark correction enabled: true
Nonlinearity correction enabled: false
Boxcar width: 0
XAxis mode: Wavelengths
Number of Pixels in Spectrum: 2048
>>>>>Begin Spectral Data<<<<<
223.165	-18.62
223.4	-18.62
223.635	-18.62
223.869	-21.62
224.104	-11.62
224.338	-4.62
224.573	-13.62
224.808	-13.62
225.042	-2.62
225.277	6.38
225.511	12.38
225.746	-0.62
225.98	1.38
226.215	-5.62
226.449	5.38
226.683	14.38
226.918	30.38
227.152	22.38
227.387	36.38
227.621	34.38
227.856	58.38
228.09	56.38
228.324	42.38
228.559	54.38
228.793	57.38
229.027	52.38
229.262	70.38
229.496	57.38
229.73	73.38
229.964	74.38
230.199	90.38
230.433	69.38
230.667	84.38
230.901	80.38
231.136	86.38
231.37	93.38
231.604	75.38
231.838	88.38
232.072	82.38
232.306	96.38
232.541	90.38
232.775	79.38
233.009	84.38
233.243	86.38
233.477	76.38
233.711	89.38
233.945	97.38
234.179	67.38
234.413	86.38
234.647	94.38
234.881	93.38
235.115	70.38
235.349	86.38
235.583	83.38
235.817	77.38
236.051	85.38
236.285	74.38
236.519	68.38
236.753	70.38
236.987	80.38
237.221	87.38
237.455	82.38
237.689	79.38
237.922	68.38
238.156	74.38
238.39	74.38
238.624	91.38
238.858	98.38
239.091	74.38
239.325	75.38
239.559	94.38
239.793	75.38
240.027	88.38
240.26	78.38
240.494	72.38
240.728	92.38
240.961	71.38
241.195	71.38
241.429	77.38
241.662	54.38
241.896	83.38
242.13	75.38
242.363	87.38
242.597	84.38
242.83	77.38
243.064	84.38
243.298	84.38
243.531	81.38
243.765	80.38
243.998	75.38
244.232	74.38
244.465	91.38
244.699	84.38
244.932	76.38
245.166	89.38
245.399	77.38
245.633	71.38
245.866	76.38
246.099	83.38
246.333	74.38
246.566	84.38
246.8	78.38
247.033	76.38
247.266	66.38
247.5	67.38
247.733	82.38
247.966	78.38
248.2	85.38
248.433	84.38
248.666	83.38
248.899	77.38
249.133	78.38
249.366	79.38
249.599	82.38
249.832	84.38
250.066	86.38
250.299	85.38
250.532	81.38
250.765	82.38
250.998	78.38
251.231	73.38
251.465	90.38
251.698	81.38
251.931	91.38
252.164	86.38
252.397	90.38
252.63	79.38
252.863	76.38
253.096	75.38
253.329	80.38
253.562	76.38
253.795	72.38
254.028	74.38
254.261	72.38
254.494	84.38
254.727	88.38
254.96	78.38
255.193	95.38
255.426	91.38
255.659	78.38
255.892	87.38
256.124	84.38
256.357	89.38
256.59	77.38
256.823	81.38
257.056	73.38
257.289	80.38
257.521	92.38
257.754	84.38
257.987	83.38
258.22	78.38
258.452	81.38
258.685	78.38
258.918	90.38
259.151	76.38
259.383	86.38
259.616	85.38
259.849	93.38
260.081	82.38
260.314	72.38
260.547	93.38
260.779	89.38
261.012	101.38
261.244	79.38
261.477	82.38
261.71	72.38
261.942	84.38
262.175	88.38
262.407	76.38
262.64	86.38
262.872	80.38
263.105	84.38
263.337	87.38
263.57	74.38
263.802	94.38
264.035	84.38
264.267	76.38
264.499	67.38
264.732	84.38
264.964	79.38
265.197	76.38
265.429	79.38
265.661	114.38
265.894	90.38
266.126	88.38
266.358	80.38
266.591	77.38
266.823	88.38
267.055	91.38
267.287	86.38
267.52	87.38
267.752	86.38
267.984	85.38
268.216	85.38
268.448	90.38
268.681	91.38
268.913	84.38
269.145	83.38
269.377	78.38
269.609	86.38
269.841	73.38
270.073	75.38
270.306	85.38
270.538	81.38
270.77	86.38
271.002	84.38
271.234	79.38
271.466	98.38
271.698	89.38
271.93	81.38
272.162	95.38
272.394	78.38
272.626	89.38
272.858	87.38
273.09	87.38
273.322	79.38
273.553	76.38
273.785	79.38
274.017	71.38
274.249	72.38
274.481	82.38
274.713	93.38
274.945	80.38
275.176	92.38
275.408	97.38
275.64	90.38
275.872	94.38
276.104	83.38
276.335	77.38
276.567	85.38
276.799	84.38
277.031	90.38
277.262	95.38
277.494	87.38
277.726	93.38
277.957	84.38
278.189	87.38
278.421	88.38
278.652	92.38
278.884	89.38
279.115	91.38
279.347	90.38
279.579	91.38
279.81	85.38
280.042	71.38
280.273	86.38
280.505	68.38
280.736	76.38
280.968	103.38
281.199	89.38
281.431	82.38
281.662	84.38
281.894	81.38
282.125	84.38
282.356	95.38
282.588	79.38
282.819	90.38
283.051	83.38
283.282	86.38
283.513	80.38
283.745	95.38
283.976	95.38
284.207	78.38
284.439	91.38
284.67	89.38
284.901	94.38
285.132	91.38
285.364	76.38
285.595	75.38
285.826	80.38
286.057	72.38
286.288	78.38
286.52	95.38
286.751	86.38
286.982	81.38
287.213	84.38
287.444	83.38
287.675	88.38
287.906	84.38
288.138	90.38
288.369	86.38
288.6	85.38
288.831	93.38
289.062	91.38
289.293	79.38
289.524	79.38
289.755	86.38
289.986	80.38
290.217	91.38
290.448	74.38
290.679	80.38
290.91	93.38
291.141	82.38
291.371	90.38
291.602	95.38
291.833	88.38
292.064	93.38
292.295	83.38
292.526	86.38
292.757	88.38
292.987	89.38
293.218	93.38
293.449	91.38
293.68	83.38
293.91	83.38
294.141	82.38
294.372	80.38
294.603	81.38
294.833	76.38
295.064	77.38
295.295	82.38
295.525	94.38
295.756	98.38
295.987	80.38
296.217	87.38
296.448	81.38
296.679	75.38
296.909	90.38
297.14	98.38
297.37	89.38
297.601	99.38
297.831	80.38
298.062	97.38
298.292	92.38
298.523	84.38
298.753	85.38
298.984	75.38
299.214	95.38
299.445	85.38
299.675	92.38
299.905	97.38
300.136	83.38
300.366	87.38
300.597	78.38
300.827	88.38
301.057	97.38
301.288	82.38
301.518	87.38
301.748	86.38
301.979	90.38
302.209	91.38
302.439	98.38
302.669	92.38
302.9	86.38
303.13	88.38
303.36	102.38
303.59	99.38
303.82	104.38
304.051	79.38
304.281	93.38
304.511	107.38
304.741	99.38
304.971	83.38
305.201	104.38
305.431	84.38
305.661	96.38
305.891	92.38
306.121	86.38
306.352	100.38
306.582	98.38
306.812	87.38
307.042	77.38
307.272	74.38
307.502	86.38
307.731	78.38
307.961	85.38
308.191	86.38
308.421	97.38
308.651	96.38
308.881	92.38
309.111	75.38
309.341	76.38
309.571	84.38
309.8	77.38
310.03	103.38
310.26	95.38
310.49	82.38
310.72	91.38
310.949	101.38
311.179	94.38
311.409	89.38
311.639	87.38
311.868	75.38
312.098	97.38
312.328	87.38
312.557	93.38
312.787	99.38
313.017	93.38
313.246	92.38
313.476	77.38
313.706	80.38
313.935	84.38
314.165	95.38
314.394	84.38
314.624	95.38
314.853	81.38
315.083	83.38
315.312	81.38
315.542	87.38
315.771	89.38
316.001	95.38
316.23	100.38
316.46	72.38
316.689	87.38
316.919	87.38
317.148	77.38
317.377	73.38
317.607	91.38
317.836	79.38
318.065	90.38
318.295	88.38
318.524	89.38
318.753	97.38
318.983	88.38
319.212	86.38
319.441	80.38
319.67	89.38
319.9	83.38
320.129	87.38
320.358	105.38
320.587	81.38
320.816	91.38
321.046	77.38
321.275	96.38
321.504	94.38
321.733	89.38
321.962	81.38
322.191	83.38
322.42	85.38
322.649	95.38
322.878	95.38
323.108	79.38
323.337	91.38
323.566	79.38
323.795	97.38
324.024	83.38
324.253	96.38
324.482	100.38
324.71	88.38
324.939	89.38
325.168	87.38
325.397	89.38
325.626	80.38
325.855	94.38
326.084	85.38
326.313	86.38
326.542	98.38
326.77	82.38
326.999	88.38
327.228	87.38
327.457	88.38
327.686	101.38
327.914	72.38
328.143	86.38
328.372	99.38
328.6	86.38
328.829	93.38
329.058	85.38
329.287	88.38
329.515	79.38
329.744	90.38
329.972	104.38
330.201	90.38
330.43	89.38
330.658	83.38
330.887	92.38
331.115	94.38
331.344	98.38
331.572	91.38
331.801	89.38
332.03	77.38
332.258	91.38
332.486	85.38
332.715	94.38
332.943	93.38
333.172	91.38
333.4	87.38
333.629	89.38
333.857	107.38
334.085	75.38
334.314	84.38
334.542	96.38
334.771	95.38
334.999	83.38
335.227	93.38
335.455	87.38
335.684	84.38
335.912	95.38
336.14	85.38
336.369	85.38
336.597	97.38
336.825	82.38
337.053	94.38
337.281	100.38
337.51	88.38
337.738	92.38
337.966	85.38
338.194	95.38
338.422	91.38
338.65	84.38
338.878	87.38
339.106	108.38
339.334	97.38
339.562	85.38
339.79	90.38
340.018	85.38
340.246	91.38
340.474	84.38
340.702	86.38
340.93	85.38
341.158	83.38
341.386	80.38
341.614	90.38
341.842	100.38
342.07	94.38
342.298	99.38
342.526	92.38
342.754	88.38
342.981	85.38
343.209	91.38
343.437	99.38
343.665	90.38
343.893	96.38
344.12	82.38
344.348	75.38
344.576	86.38
344.804	98.38
345.031	87.38
345.259	101.38
345.487	103.38
345.714	96.38
345.942	87.38
346.17	94.38
346.397	103.38
346.625	91.38
346.853	95.38
347.08	84.38
347.308	92.38
347.535	77.38
347.763	76.38
347.99	91.38
348.218	95.38
348.445	91.38
348.673	78.38
348.9	93.38
349.128	90.38
349.355	86.38
349.583	81.38
349.81	81.38
350.037	81.38
350.265	95.38
350.492	81.38
350.72	82.38
350.947	76.38
351.174	93.38
351.402	99.38
351.629	93.38
351.856	75.38
352.083	90.38
352.311	86.38
352.538	86.38
352.765	76.38
352.992	98.38
353.22	90.38
353.447	91.38
353.674	89.38
353.901	79.38
354.128	91.38
354.355	90.38
354.583	98.38
354.81	93.38
355.037	90.38
355.264	85.38
355.491	89.38
355.718	94.38
355.945	86.38
356.172	86.38
356.399	103.38
356.626	94.38
356.853	87.38
357.08	99.38
357.307	91.38
357.534	85.38
357.761	84.38
357.988	76.38
358.215	93.38
358.441	94.38
358.668	103.38
358.895	86.38
359.122	90.38
359.349	72.38
359.576	84.38
359.802	84.38
360.029	89.38
360.256	89.38
360.483	83.38
360.709	77.38
360.936	97.38
361.163	95.38
361.39	83.38
361.616	90.38
361.843	87.38
362.07	99.38
362.296	101.38
362.523	92.38
362.749	83.38
362.976	88.38
363.203	83.38
363.429	89.38
363.656	83.38
363.882	88.38
364.109	103.38
364.335	89.38
364.562	85.38
364.788	87.38
365.015	87.38
365.241	84.38
365.468	76.38
365.694	91.38
365.92	89.38
366.147	82.38
366.373	104.38
366.599	97.38
366.826	91.38
367.052	101.38
367.278	87.38
367.505	82.38
367.731	77.38
367.957	73.38
368.184	84.38
368.41	74.38
368.636	91.38
368.862	87.38
369.089	93.38
369.315	88.38
369.541	87.38
369.767	83.38
369.993	85.38
370.219	79.38
370.445	78.38
370.672	84.38
370.898	85.38
371.124	87.38
371.35	99.38
371.576	84.38
371.802	76.38
372.028	79.38
372.254	90.38
372.48	88.38
372.706	87.38
372.932	93.38
373.158	91.38
373.384	88.38
373.61	92.38
373.835	80.38
374.061	104.38
374.287	90.38
374.513	87.38
374.739	92.38
374.965	86.38
375.191	93.38
375.416	82.38
375.642	94.38
375.868	81.38
376.094	101.38
376.319	93.38
376.545	89.38
376.771	76.38
376.997	74.38
377.222	92.38
377.448	78.38
377.674	98.38
377.899	86.38
378.125	78.38
378.35	80.38
378.576	78.38
378.802	79.38
379.027	89.38
379.253	101.38
379.478	82.38
379.704	90.38
379.929	87.38
380.155	93.38
380.38	94.38
380.606	76.38
380.831	89.38
381.057	87.38
381.282	85.38
381.507	88.38
381.733	82.38
381.958	79.38
382.184	84.38
382.409	76.38
382.634	81.38
382.86	96.38
383.085	89.38
383.31	86.38
383.535	76.38
383.761	81.38
383.986	80.38
384.211	80.38
384.436	84.38
384.662	84.38
384.887	96.38
385.112	80.38
385.337	74.38
385.562	78.38
385.787	91.38
386.013	96.38
386.238	92.38
386.463	89.38
386.688	83.38
386.913	87.38
387.138	91.38
387.363	91.38
387.588	80.38
387.813	95.38
388.038	76.38
388.263	79.38
388.488	80.38
388.713	103.38
388.938	97.38
389.163	89.38
389.387	89.38
389.612	86.38
389.837	90.38
390.062	82.38
390.287	79.38
390.512	97.38
390.736	78.38
390.961	79.38
391.186	86.38
391.411	76.38
391.636	90.38
391.86	86.38
392.085	83.38
392.31	71.38
392.534	78.38
392.759	88.38
392.984	96.38
393.208	105.38
393.433	78.38
393.658	98.38
393.882	89.38
394.107	92.38
394.331	86.38
394.556	92.38
394.78	80.38
395.005	75.38
395.229	87.38
395.454	87.38
395.678	84.38
395.903	92.38
396.127	82.38
396.352	83.38
396.576	91.38
396.801	89.38
397.025	90.38
397.249	87.38
397.474	95.38
397.698	79.38
397.922	91.38
398.147	88.38
398.371	90.38
398.595	95.38
398.82	95.38
399.044	95.38
399.268	84.38
399.492	85.38
399.717	80.38
399.941	87.38
400.165	89.38
400.389	95.38
400.613	92.38
400.837	93.38
401.062	80.38
401.286	87.38
401.51	86.38
401.734	80.38
401.958	94.38
402.182	87.38
402.406	104.38
402.63	98.38
402.854	95.38
403.078	88.38
403.302	79.38
403.526	92.38
403.75	93.38
403.974	90.38
404.198	105.38
404.422	76.38
404.645	95.38
404.869	94.38
405.093	106.38
405.317	103.38
405.541	98.38
405.765	78.38
405.988	98.38
406.212	86.38
406.436	75.38
406.66	96.38
406.883	76.38
407.107	80.38
407.331	96.38
407.555	83.38
407.778	95.38
408.002	86.38
408.226	96.38
408.449	88.38
408.673	85.38
408.896	93.38
409.12	84.38
409.344	114.38
409.567	90.38
409.791	89.38
410.014	83.38
410.238	78.38
410.461	90.38
410.685	99.38
410.908	94.38
411.132	85.38
411.355	81.38
411.578	101.38
411.802	83.38
412.025	90.38
412.249	91.38
412.472	86.38
412.695	84.38
412.919	86.38
413.142	83.38
413.365	82.38
413.589	96.38
413.812	95.38
414.035	91.38
414.258	79.38
414.482	89.38
414.705	83.38
414.928	94.38
415.151	78.38
415.374	93.38
415.597	97.38
415.821	84.38
416.044	83.38
416.267	99.38
416.49	91.38
416.713	75.38
416.936	82.38
417.159	92.38
417.382	84.38
417.605	90.38
417.828	79.38
418.051	80.38
418.274	93.38
418.497	87.38
418.72	86.38
418.943	76.38
419.166	91.38
419.389	83.38
419.611	100.38
419.834	91.38
420.057	80.38
420.28	94.38
420.503	86.38
420.726	95.38
420.948	93.38
421.171	89.38
421.394	85.38
421.617	80.38
421.839	75.38
422.062	87.38
422.285	80.38
422.507	87.38
422.73	81.38
422.953	100.38
423.175	87.38
423.398	84.38
423.621	94.38
423.843	89.38
424.066	90.38
424.288	99.38
424.511	87.38
424.733	91.38
424.956	105.38
425.178	107.38
425.401	85.38
425.623	95.38
425.846	85.38
426.068	76.38
426.291	87.38
426.513	92.38
426.735	88.38
426.958	93.38
427.18	89.38
427.402	91.38
427.625	86.38
427.847	71.38
428.069	95.38
428.292	96.38
428.514	83.38
428.736	78.38
428.958	98.38
429.181	80.38
429.403	86.38
429.625	94.38
429.847	87.38
430.069	91.38
430.292	89.38
430.514	91.38
430.736	89.38
430.958	92.38
431.18	88.38
431.402	79.38
431.624	82.38
431.846	98.38
432.068	99.38
432.29	87.38
432.512	96.38
432.734	89.38
432.956	88.38
433.178	101.38
433.4	88.38
433.622	88.38
433.844	78.38
434.066	85.38
434.287	93.38
434.509	87.38
434.731	93.38
434.953	100.38
435.175	88.38
435.397	100.38
435.618	79.38
435.84	92.38
436.062	66.38
436.284	91.38
436.505	70.38
436.727	96.38
436.949	84.38
437.17	86.38
437.392	93.38
437.614	90.38
437.835	71.38
438.057	96.38
438.278	86.38
438.5	99.38
438.721	73.38
438.943	79.38
439.165	86.38
439.386	89.38
439.608	93.38
439.829	82.38
440.05	79.38
440.272	93.38
440.493	88.38
440.715	95.38
440.936	85.38
441.158	77.38
441.379	88.38
441.6	88.38
441.822	98.38
442.043	83.38
442.264	88.38
442.486	82.38
442.707	83.38
442.928	80.38
443.149	85.38
443.371	83.38
443.592	88.38
443.813	90.38
444.034	98.38
444.255	84.38
444.476	96.38
444.698	66.38
444.919	94.38
445.14	200.38
445.361	147.38
445.582	104.38
445.803	90.38
446.024	79.38
446.245	93.38
446.466	75.38
446.687	91.38
446.908	93.38
447.129	87.38
447.35	80.38
447.571	82.38
447.792	76.38
448.013	90.38
448.234	81.38
448.455	91.38
448.675	85.38
448.896	98.38
449.117	84.38
449.338	105.38
449.559	91.38
449.779	89.38
450	81.38
450.221	92.38
450.442	64.38
450.662	89.38
450.883	78.38
451.104	94.38
451.324	78.38
451.545	67.38
451.766	83.38
451.986	77.38
452.207	98.38
452.428	86.38
452.648	84.38
452.869	87.38
453.089	98.38
453.31	93.38
453.53	87.38
453.751	82.38
453.971	100.38
454.192	84.38
454.412	84.38
454.633	88.38
454.853	72.38
455.073	80.38
455.294	93.38
455.514	91.38
455.734	90.38
455.955	89.38
456.175	71.38
456.395	82.38
456.616	83.38
456.836	79.38
457.056	93.38
457.276	86.38
457.497	87.38
457.717	76.38
457.937	100.38
458.157	80.38
458.377	85.38
458.598	86.38
458.818	73.38
459.038	75.38
459.258	88.38
459.478	92.38
459.698	73.38
459.918	86.38
460.138	75.38
460.358	95.38
460.578	103.38
460.798	94.38
461.018	95.38
461.238	87.38
461.458	108.38
461.678	84.38
461.898	89.38
462.118	92.38
462.338	91.38
462.558	94.38
462.777	96.38
462.997	93.38
463.217	89.38
463.437	83.38
463.657	83.38
463.876	83.38
464.096	96.38
464.316	87.38
464.536	89.38
464.755	88.38
464.975	103.38
465.195	89.38
465.414	98.38
465.634	95.38
465.854	93.38
466.073	87.38
466.293	76.38
466.512	81.38
466.732	83.38
466.951	85.38
467.171	95.38
467.391	97.38
467.61	92.38
467.829	98.38
468.049	101.38
468.268	91.38
468.488	82.38
468.707	86.38
468.927	77.38
469.146	84.38
469.365	84.38
469.585	89.38
469.804	88.38
470.023	80.38
470.243	87.38
470.462	81.38
470.681	86.38
470.901	81.38
471.12	92.38
471.339	101.38
471.558	96.38
471.777	89.38
471.997	80.38
472.216	104.38
472.435	89.38
472.654	85.38
472.873	92.38
473.092	106.38
473.311	87.38
473.53	96.38
473.749	89.38
473.968	81.38
474.187	90.38
474.406	78.38
474.625	97.38
474.844	86.38
475.063	99.38
475.282	104.38
475.501	79.38
475.72	76.38
475.939	92.38
476.158	95.38
476.377	94.38
476.596	77.38
476.814	107.38
477.033	87.38
477.252	89.38
477.471	90.38
477.69	115.38
477.908	86.38
478.127	106.38
478.346	79.38
478.564	86.38
478.783	85.38
479.002	87.38
479.22	100.38
479.439	88.38
479.658	88.38
479.876	92.38
480.095	96.38
480.313	99.38
480.532	87.38
480.751	94.38
480.969	87.38
481.188	92.38
481.406	101.38
481.624	87.38
481.843	94.38
482.061	101.38
482.28	106.38
482.498	99.38
482.717	86.38
482.935	80.38
483.153	90.38
483.372	96.38
483.59	102.38
483.808	90.38
484.027	92.38
484.245	101.38
484.463	90.38
484.681	95.38
484.9	103.38
485.118	90.38
485.336	100.38
485.554	92.38
485.772	101.38
485.99	98.38
486.209	87.38
486.427	80.38
486.645	90.38
486.863	102.38
487.081	88.38
487.299	104.38
487.517	101.38
487.735	94.38
487.953	90.38
488.171	106.38
488.389	84.38
488.607	91.38
488.825	89.38
489.043	117.38
489.261	77.38
489.479	89.38
489.696	93.38
489.914	95.38
490.132	111.38
490.35	95.38
490.568	90.38
490.786	94.38
491.003	104.38
491.221	82.38
491.439	100.38
491.657	103.38
491.874	103.38
492.092	96.38
492.31	88.38
492.527	90.38
492.745	98.38
492.963	82.38
493.18	95.38
493.398	87.38
493.615	88.38
493.833	85.38
494.05	85.38
494.268	107.38
494.485	100.38
494.703	100.38
494.92	105.38
495.138	99.38
495.355	95.38
495.573	105.38
495.79	100.38
496.008	109.38
496.225	114.38
496.442	103.38
496.66	95.38
496.877	102.38
497.094	116.38
497.312	103.38
497.529	103.38
497.746	116.38
497.963	90.38
498.181	94.38
498.398	103.38
498.615	100.38
498.832	94.38
499.049	88.38
499.267	109.38
499.484	91.38
499.701	81.38
499.918	115.38
500.135	103.38
500.352	106.38
500.569	108.38
500.786	125.38
501.003	122.38
501.22	121.38
501.437	118.38
501.654	121.38
501.871	114.38
502.088	109.38
502.305	102.38
502.522	86.38
502.739	114.38
502.956	91.38
503.172	98.38
503.389	92.38
503.606	100.38
503.823	106.38
504.04	113.38
504.256	84.38
504.473	109.38
504.69	93.38
504.907	104.38
505.123	99.38
505.34	103.38
505.557	103.38
505.773	92.38
505.99	95.38
506.207	93.38
506.423	93.38
506.64	88.38
506.856	87.38
507.073	107.38
507.289	100.38
507.506	101.38
507.722	83.38
507.939	92.38
508.155	94.38
508.372	99.38
508.588	97.38
508.805	111.38
509.021	92.38
509.238	91.38
509.454	93.38
509.67	89.38
509.887	86.38
510.103	92.38
510.319	87.38
510.536	90.38
510.752	94.38
510.968	89.38
511.184	82.38
511.401	84.38
511.617	84.38
511.833	84.38
512.049	89.38
512.265	94.38
512.481	90.38
512.698	82.38
512.914	102.38
513.13	94.38
513.346	99.38
513.562	110.38
513.778	90.38
513.994	93.38
514.21	112.38
514.426	88.38
514.642	103.38
514.858	100.38
515.074	95.38
515.29	91.38
515.506	80.38
515.721	87.38
515.937	94.38
516.153	111.38
516.369	99.38
516.585	86.38
516.801	109.38
517.016	99.38
517.232	105.38
517.448	106.38
517.664	96.38
