Data from Ni(NO3)2@0.125M.TitratingCurve.Agarose3%dH2O.NegLispCup.LampEnergy10.LIBS07252019_HRD10591_18-10-49-568.txt Node
Date: Thu Jul 25 18:10:49 EDT 2019
User: cochatt
Spectrometer: HR+D1059
Trigger mode: 1
Integration Time (sec): 1.000000E-1
Scans to average: 1
Electric dark correction enabled: true
Nonlinearity correction enabled: false
Boxcar width: 0
XAxis mode: Wavelengths
Number of Pixels in Spectrum: 2048
>>>>>Begin Spectral Data<<<<<
223.165	-20.88
223.4	-20.88
223.635	-20.88
223.869	-17.88
224.104	-18.88
224.338	-10.88
224.573	-19.88
224.808	-17.88
225.042	-2.88
225.277	-9.88
225.511	10.12
225.746	7.12
225.98	3.12
226.215	8.12
226.449	23.12
226.683	15.12
226.918	20.12
227.152	32.12
227.387	33.12
227.621	40.12
227.856	50.12
228.09	56.12
228.324	44.12
228.559	66.12
228.793	64.12
229.027	89.12
229.262	86.12
229.496	105.12
229.73	121.12
229.964	109.12
230.199	99.12
230.433	113.12
230.667	116.12
230.901	123.12
231.136	119.12
231.37	115.12
231.604	136.12
231.838	113.12
232.072	120.12
232.306	137.12
232.541	123.12
232.775	123.12
233.009	124.12
233.243	131.12
233.477	132.12
233.711	112.12
233.945	119.12
234.179	134.12
234.413	126.12
234.647	132.12
234.881	131.12
235.115	130.12
235.349	136.12
235.583	139.12
235.817	126.12
236.051	134.12
236.285	117.12
236.519	132.12
236.753	128.12
236.987	133.12
237.221	129.12
237.455	124.12
237.689	138.12
237.922	116.12
238.156	146.12
238.39	135.12
238.624	150.12
238.858	144.12
239.091	138.12
239.325	144.12
239.559	133.12
239.793	145.12
240.027	156.12
240.26	144.12
240.494	151.12
240.728	142.12
240.961	136.12
241.195	141.12
241.429	151.12
241.662	163.12
241.896	140.12
242.13	156.12
242.363	169.12
242.597	167.12
242.83	154.12
243.064	168.12
243.298	160.12
243.531	159.12
243.765	175.12
243.998	176.12
244.232	166.12
244.465	164.12
244.699	155.12
244.932	175.12
245.166	183.12
245.399	168.12
245.633	166.12
245.866	175.12
246.099	169.12
246.333	160.12
246.566	170.12
246.8	184.12
247.033	189.12
247.266	179.12
247.5	184.12
247.733	169.12
247.966	204.12
248.2	200.12
248.433	188.12
248.666	174.12
248.899	181.12
249.133	179.12
249.366	192.12
249.599	198.12
249.832	206.12
250.066	215.12
250.299	196.12
250.532	207.12
250.765	200.12
250.998	196.12
251.231	186.12
251.465	181.12
251.698	213.12
251.931	195.12
252.164	196.12
252.397	214.12
252.63	210.12
252.863	195.12
253.096	219.12
253.329	226.12
253.562	201.12
253.795	202.12
254.028	204.12
254.261	217.12
254.494	218.12
254.727	209.12
254.96	214.12
255.193	232.12
255.426	218.12
255.659	214.12
255.892	235.12
256.124	228.12
256.357	216.12
256.59	229.12
256.823	236.12
257.056	222.12
257.289	243.12
257.521	235.12
257.754	226.12
257.987	215.12
258.22	241.12
258.452	234.12
258.685	230.12
258.918	228.12
259.151	232.12
259.383	235.12
259.616	236.12
259.849	240.12
260.081	252.12
260.314	251.12
260.547	224.12
260.779	264.12
261.012	234.12
261.244	252.12
261.477	258.12
261.71	242.12
261.942	232.12
262.175	255.12
262.407	248.12
262.64	255.12
262.872	219.12
263.105	252.12
263.337	250.12
263.57	248.12
263.802	264.12
264.035	254.12
264.267	271.12
264.499	242.12
264.732	283.12
264.964	248.12
265.197	276.12
265.429	269.12
265.661	283.12
265.894	273.12
266.126	263.12
266.358	265.12
266.591	259.12
266.823	271.12
267.055	260.12
267.287	270.12
267.52	264.12
267.752	284.12
267.984	283.12
268.216	264.12
268.448	293.12
268.681	274.12
268.913	273.12
269.145	289.12
269.377	295.12
269.609	290.12
269.841	286.12
270.073	288.12
270.306	265.12
270.538	275.12
270.77	288.12
271.002	271.12
271.234	283.12
271.466	294.12
271.698	296.12
271.93	293.12
272.162	310.12
272.394	284.12
272.626	276.12
272.858	290.12
273.09	326.12
273.322	308.12
273.553	303.12
273.785	287.12
274.017	308.12
274.249	298.12
274.481	305.12
274.713	299.12
274.945	308.12
275.176	321.12
275.408	318.12
275.64	320.12
275.872	297.12
276.104	315.12
276.335	333.12
276.567	316.12
276.799	298.12
277.031	304.12
277.262	330.12
277.494	317.12
277.726	303.12
277.957	331.12
278.189	322.12
278.421	304.12
278.652	326.12
278.884	318.12
279.115	332.12
279.347	335.12
279.579	342.12
279.81	329.12
280.042	323.12
280.273	324.12
280.505	331.12
280.736	336.12
280.968	339.12
281.199	342.12
281.431	349.12
281.662	339.12
281.894	345.12
282.125	341.12
282.356	345.12
282.588	323.12
282.819	340.12
283.051	358.12
283.282	354.12
283.513	359.12
283.745	371.12
283.976	368.12
284.207	345.12
284.439	364.12
284.67	355.12
284.901	354.12
285.132	375.12
285.364	350.12
285.595	356.12
285.826	385.12
286.057	364.12
286.288	367.12
286.52	373.12
286.751	383.12
286.982	376.12
287.213	375.12
287.444	359.12
287.675	357.12
287.906	381.12
288.138	348.12
288.369	376.12
288.6	375.12
288.831	392.12
289.062	375.12
289.293	376.12
289.524	401.12
289.755	374.12
289.986	382.12
290.217	396.12
290.448	383.12
290.679	378.12
290.91	398.12
291.141	398.12
291.371	397.12
291.602	404.12
291.833	404.12
292.064	387.12
292.295	391.12
292.526	397.12
292.757	399.12
292.987	400.12
293.218	388.12
293.449	394.12
293.68	410.12
293.91	402.12
294.141	411.12
294.372	404.12
294.603	403.12
294.833	407.12
295.064	388.12
295.295	403.12
295.525	395.12
295.756	393.12
295.987	378.12
296.217	399.12
296.448	417.12
296.679	402.12
296.909	398.12
297.14	411.12
297.37	426.12
297.601	442.12
297.831	417.12
298.062	417.12
298.292	423.12
298.523	446.12
298.753	428.12
298.984	430.12
299.214	417.12
299.445	426.12
299.675	405.12
299.905	422.12
300.136	446.12
300.366	442.12
300.597	431.12
300.827	442.12
301.057	447.12
301.288	436.12
301.518	416.12
301.748	443.12
301.979	448.12
302.209	444.12
302.439	424.12
302.669	454.12
302.9	423.12
303.13	422.12
303.36	438.12
303.59	443.12
303.82	421.12
304.051	446.12
304.281	438.12
304.511	430.12
304.741	450.12
304.971	436.12
305.201	428.12
305.431	436.12
305.661	451.12
305.891	440.12
306.121	423.12
306.352	432.12
306.582	449.12
306.812	431.12
307.042	430.12
307.272	412.12
307.502	428.12
307.731	414.12
307.961	438.12
308.191	427.12
308.421	421.12
308.651	435.12
308.881	408.12
309.111	415.12
309.341	425.12
309.571	416.12
309.8	446.12
310.03	447.12
310.26	452.12
310.49	416.12
310.72	431.12
310.949	438.12
311.179	443.12
311.409	440.12
311.639	433.12
311.868	455.12
312.098	444.12
312.328	449.12
312.557	466.12
312.787	451.12
313.017	475.12
313.246	457.12
313.476	468.12
313.706	463.12
313.935	447.12
314.165	473.12
314.394	472.12
314.624	459.12
314.853	483.12
315.083	472.12
315.312	457.12
315.542	459.12
315.771	447.12
316.001	454.12
316.23	443.12
316.46	463.12
316.689	456.12
316.919	448.12
317.148	447.12
317.377	448.12
317.607	451.12
317.836	466.12
318.065	457.12
318.295	470.12
318.524	441.12
318.753	431.12
318.983	439.12
319.212	458.12
319.441	456.12
319.67	476.12
319.9	459.12
320.129	443.12
320.358	450.12
320.587	456.12
320.816	459.12
321.046	482.12
321.275	440.12
321.504	438.12
321.733	459.12
321.962	466.12
322.191	454.12
322.42	480.12
322.649	444.12
322.878	477.12
323.108	475.12
323.337	470.12
323.566	461.12
323.795	466.12
324.024	455.12
324.253	455.12
324.482	469.12
324.71	476.12
324.939	470.12
325.168	483.12
325.397	479.12
325.626	504.12
325.855	498.12
326.084	500.12
326.313	535.12
326.542	528.12
326.77	518.12
326.999	486.12
327.228	517.12
327.457	500.12
327.686	496.12
327.914	516.12
328.143	495.12
328.372	493.12
328.6	496.12
328.829	512.12
329.058	502.12
329.287	508.12
329.515	504.12
329.744	494.12
329.972	520.12
330.201	514.12
330.43	516.12
330.658	512.12
330.887	539.12
331.115	551.12
331.344	538.12
331.572	525.12
331.801	526.12
332.03	556.12
332.258	578.12
332.486	573.12
332.715	607.12
332.943	646.12
333.172	656.12
333.4	669.12
333.629	712.12
333.857	679.12
334.085	692.12
334.314	682.12
334.542	618.12
334.771	642.12
334.999	639.12
335.227	631.12
335.455	646.12
335.684	636.12
335.912	606.12
336.14	616.12
336.369	631.12
336.597	606.12
336.825	630.12
337.053	583.12
337.281	597.12
337.51	583.12
337.738	568.12
337.966	559.12
338.194	555.12
338.422	533.12
338.65	549.12
338.878	545.12
339.106	559.12
339.334	549.12
339.562	544.12
339.79	528.12
340.018	556.12
340.246	541.12
340.474	523.12
340.702	531.12
340.93	533.12
341.158	510.12
341.386	531.12
341.614	529.12
341.842	516.12
342.07	528.12
342.298	530.12
342.526	520.12
342.754	518.12
342.981	528.12
343.209	553.12
343.437	584.12
343.665	592.12
343.893	639.12
344.12	656.12
344.348	641.12
344.576	605.12
344.804	588.12
345.031	539.12
345.259	539.12
345.487	519.12
345.714	547.12
345.942	529.12
346.17	507.12
346.397	515.12
346.625	531.12
346.853	506.12
347.08	514.12
347.308	531.12
347.535	522.12
347.763	532.12
347.99	521.12
348.218	532.12
348.445	521.12
348.673	532.12
348.9	532.12
349.128	511.12
349.355	510.12
349.583	488.12
349.81	511.12
350.037	498.12
350.265	492.12
350.492	500.12
350.72	520.12
350.947	503.12
351.174	487.12
351.402	516.12
351.629	522.12
351.856	486.12
352.083	474.12
352.311	498.12
352.538	504.12
352.765	483.12
352.992	492.12
353.22	486.12
353.447	485.12
353.674	477.12
353.901	488.12
354.128	471.12
354.355	475.12
354.583	490.12
354.81	486.12
355.037	479.12
355.264	505.12
355.491	491.12
355.718	512.12
355.945	502.12
356.172	516.12
356.399	506.12
356.626	504.12
356.853	498.12
357.08	491.12
357.307	499.12
357.534	496.12
357.761	505.12
357.988	504.12
358.215	492.12
358.441	486.12
358.668	500.12
358.895	493.12
359.122	493.12
359.349	477.12
359.576	488.12
359.802	494.12
360.029	482.12
360.256	492.12
360.483	500.12
360.709	508.12
360.936	499.12
361.163	500.12
361.39	495.12
361.616	490.12
361.843	483.12
362.07	468.12
362.296	491.12
362.523	493.12
362.749	506.12
362.976	486.12
363.203	481.12
363.429	504.12
363.656	492.12
363.882	492.12
364.109	503.12
364.335	491.12
364.562	484.12
364.788	485.12
365.015	479.12
365.241	475.12
365.468	470.12
365.694	495.12
365.92	498.12
366.147	498.12
366.373	503.12
366.599	484.12
366.826	500.12
367.052	513.12
367.278	516.12
367.505	496.12
367.731	498.12
367.957	491.12
368.184	505.12
368.41	484.12
368.636	483.12
368.862	528.12
369.089	522.12
369.315	527.12
369.541	498.12
369.767	524.12
369.993	504.12
370.219	503.12
370.445	488.12
370.672	518.12
370.898	519.12
371.124	545.12
371.35	542.12
371.576	547.12
371.802	544.12
372.028	537.12
372.254	535.12
372.48	534.12
372.706	558.12
372.932	565.12
373.158	582.12
373.384	549.12
373.61	543.12
373.835	542.12
374.061	555.12
374.287	549.12
374.513	553.12
374.739	575.12
374.965	591.12
375.191	601.12
375.416	582.12
375.642	552.12
375.868	566.12
376.094	569.12
376.319	568.12
376.545	548.12
376.771	565.12
376.997	529.12
377.222	543.12
377.448	551.12
377.674	532.12
377.899	521.12
378.125	557.12
378.35	543.12
378.576	535.12
378.802	540.12
379.027	542.12
379.253	524.12
379.478	515.12
379.704	519.12
379.929	540.12
380.155	542.12
380.38	509.12
380.606	532.12
380.831	534.12
381.057	544.12
381.282	550.12
381.507	529.12
381.733	572.12
381.958	534.12
382.184	567.12
382.409	552.12
382.634	565.12
382.86	581.12
383.085	583.12
383.31	560.12
383.535	598.12
383.761	586.12
383.986	619.12
384.211	610.12
384.436	626.12
384.662	631.12
384.887	619.12
385.112	644.12
385.337	650.12
385.562	653.12
385.787	645.12
386.013	680.12
386.238	644.12
386.463	663.12
386.688	668.12
386.913	658.12
387.138	645.12
387.363	646.12
387.588	632.12
387.813	623.12
388.038	639.12
388.263	654.12
388.488	630.12
388.713	630.12
388.938	642.12
389.163	621.12
389.387	646.12
389.612	640.12
389.837	638.12
390.062	631.12
390.287	627.12
390.512	620.12
390.736	649.12
390.961	633.12
391.186	661.12
391.411	686.12
391.636	686.12
391.86	705.12
392.085	744.12
392.31	743.12
392.534	699.12
392.759	696.12
392.984	679.12
393.208	667.12
393.433	669.12
393.658	719.12
393.882	681.12
394.107	702.12
394.331	710.12
394.556	710.12
394.78	671.12
395.005	707.12
395.229	698.12
395.454	726.12
395.678	715.12
395.903	719.12
396.127	696.12
396.352	685.12
396.576	683.12
396.801	680.12
397.025	676.12
397.249	708.12
397.474	709.12
397.698	738.12
397.922	733.12
398.147	702.12
398.371	728.12
398.595	763.12
398.82	788.12
399.044	825.12
399.268	941.12
399.492	1100.12
399.717	1251.12
399.941	1247.12
400.165	1077.12
400.389	965.12
400.613	884.12
400.837	852.12
401.062	805.12
401.286	796.12
401.51	822.12
401.734	794.12
401.958	822.12
402.182	806.12
402.406	828.12
402.63	850.12
402.854	853.12
403.078	886.12
403.302	886.12
403.526	943.12
403.75	951.12
403.974	988.12
404.198	965.12
404.422	944.12
404.645	922.12
404.869	917.12
405.093	920.12
405.317	923.12
405.541	887.12
405.765	859.12
405.988	870.12
406.212	872.12
406.436	872.12
406.66	902.12
406.883	930.12
407.107	971.12
407.331	997.12
407.555	1053.12
407.778	1047.12
408.002	1023.12
408.226	989.12
408.449	954.12
408.673	941.12
408.896	937.12
409.12	871.12
409.344	923.12
409.567	924.12
409.791	965.12
410.014	930.12
410.238	926.12
410.461	888.12
410.685	922.12
410.908	911.12
411.132	855.12
411.355	849.12
411.578	842.12
411.802	826.12
412.025	815.12
412.249	869.12
412.472	872.12
412.695	816.12
412.919	821.12
413.142	802.12
413.365	782.12
413.589	813.12
413.812	804.12
414.035	773.12
414.258	831.12
414.482	803.12
414.705	818.12
414.928	848.12
415.151	822.12
415.374	807.12
415.597	807.12
415.821	801.12
416.044	807.12
416.267	830.12
416.49	778.12
416.713	799.12
416.936	819.12
417.159	792.12
417.382	808.12
417.605	787.12
417.828	812.12
418.051	824.12
418.274	802.12
418.497	805.12
418.72	830.12
418.943	842.12
419.166	879.12
419.389	918.12
419.611	900.12
419.834	879.12
420.057	828.12
420.28	813.12
420.503	788.12
420.726	786.12
420.948	780.12
421.171	781.12
421.394	820.12
421.617	800.12
421.839	843.12
422.062	831.12
422.285	804.12
422.507	830.12
422.73	852.12
422.953	850.12
423.175	843.12
423.398	869.12
423.621	859.12
423.843	867.12
424.066	849.12
424.288	870.12
424.511	872.12
424.733	842.12
424.956	806.12
425.178	790.12
425.401	797.12
425.623	800.12
425.846	788.12
426.068	782.12
426.291	775.12
426.513	760.12
426.735	727.12
426.958	767.12
427.18	726.12
427.402	739.12
427.625	717.12
427.847	708.12
428.069	736.12
428.292	730.12
428.514	738.12
428.736	712.12
428.958	733.12
429.181	692.12
429.403	692.12
429.625	670.12
429.847	706.12
430.069	692.12
430.292	717.12
430.514	699.12
430.736	715.12
430.958	697.12
431.18	686.12
431.402	700.12
431.624	714.12
431.846	719.12
432.068	723.12
432.29	739.12
432.512	725.12
432.734	726.12
432.956	737.12
433.178	718.12
433.4	713.12
433.622	731.12
433.844	738.12
434.066	743.12
434.287	726.12
434.509	739.12
434.731	772.12
434.953	772.12
435.175	816.12
435.397	808.12
435.618	769.12
435.84	738.12
436.062	709.12
436.284	706.12
436.505	691.12
436.727	736.12
436.949	745.12
437.17	719.12
437.392	712.12
437.614	694.12
437.835	665.12
438.057	719.12
438.278	670.12
438.5	678.12
438.721	692.12
438.943	690.12
439.165	695.12
439.386	700.12
439.608	741.12
439.829	720.12
440.05	730.12
440.272	729.12
440.493	726.12
440.715	729.12
440.936	784.12
441.158	757.12
441.379	780.12
441.6	824.12
441.822	852.12
442.043	823.12
442.264	808.12
442.486	778.12
442.707	790.12
442.928	813.12
443.149	836.12
443.371	778.12
443.592	819.12
443.813	837.12
444.034	836.12
444.255	852.12
444.476	889.12
444.698	956.12
444.919	997.12
445.14	1040.12
445.361	930.12
445.582	841.12
445.803	774.12
446.024	778.12
446.245	764.12
446.466	778.12
446.687	762.12
446.908	749.12
447.129	744.12
447.35	716.12
447.571	697.12
447.792	695.12
448.013	679.12
448.234	675.12
448.455	691.12
448.675	682.12
448.896	668.12
449.117	665.12
449.338	687.12
449.559	671.12
449.779	664.12
450	662.12
450.221	671.12
450.442	717.12
450.662	678.12
450.883	696.12
451.104	687.12
451.324	675.12
451.545	679.12
451.766	690.12
451.986	675.12
452.207	670.12
452.428	663.12
452.648	683.12
452.869	658.12
453.089	649.12
453.31	668.12
453.53	673.12
453.751	668.12
453.971	636.12
454.192	659.12
454.412	640.12
454.633	632.12
454.853	628.12
455.073	616.12
455.294	634.12
455.514	622.12
455.734	628.12
455.955	622.12
456.175	606.12
456.395	589.12
456.616	628.12
456.836	630.12
457.056	640.12
457.276	604.12
457.497	629.12
457.717	619.12
457.937	644.12
458.157	640.12
458.377	635.12
458.598	667.12
458.818	666.12
459.038	686.12
459.258	692.12
459.478	721.12
459.698	743.12
459.918	767.12
460.138	789.12
460.358	854.12
460.578	855.12
460.798	874.12
461.018	842.12
461.238	862.12
461.458	818.12
461.678	857.12
461.898	867.12
462.118	879.12
462.338	945.12
462.558	952.12
462.777	972.12
462.997	1068.12
463.217	1179.12
463.437	1199.12
463.657	1065.12
463.876	1040.12
464.096	1014.12
464.316	1008.12
464.536	999.12
464.755	987.12
464.975	935.12
465.195	874.12
465.414	822.12
465.634	767.12
465.854	750.12
466.073	725.12
466.293	735.12
466.512	721.12
466.732	693.12
466.951	702.12
467.171	694.12
467.391	680.12
467.61	695.12
467.829	706.12
468.049	674.12
468.268	703.12
468.488	642.12
468.707	666.12
468.927	660.12
469.146	670.12
469.365	679.12
469.585	673.12
469.804	691.12
470.023	718.12
470.243	727.12
470.462	748.12
470.681	707.12
470.901	714.12
471.12	720.12
471.339	717.12
471.558	667.12
471.777	686.12
471.997	674.12
472.216	655.12
472.435	653.12
472.654	641.12
472.873	648.12
473.092	647.12
473.311	620.12
473.53	634.12
473.749	665.12
473.968	652.12
474.187	626.12
474.406	654.12
474.625	648.12
474.844	653.12
475.063	626.12
475.282	660.12
475.501	658.12
475.72	642.12
475.939	643.12
476.158	661.12
476.377	687.12
476.596	677.12
476.814	698.12
477.033	674.12
477.252	688.12
477.471	699.12
477.69	712.12
477.908	719.12
478.127	751.12
478.346	756.12
478.564	797.12
478.783	788.12
479.002	834.12
479.22	838.12
479.439	799.12
479.658	804.12
479.876	772.12
480.095	798.12
480.313	850.12
480.532	861.12
480.751	876.12
480.969	801.12
481.188	805.12
481.406	753.12
481.624	730.12
481.843	738.12
482.061	745.12
482.28	703.12
482.498	715.12
482.717	688.12
482.935	728.12
483.153	745.12
483.372	755.12
483.59	743.12
483.808	738.12
484.027	750.12
484.245	740.12
484.463	733.12
484.681	746.12
484.9	750.12
485.118	767.12
485.336	776.12
485.554	779.12
485.772	779.12
485.99	791.12
486.209	770.12
486.427	779.12
486.645	776.12
486.863	760.12
487.081	791.12
487.299	756.12
487.517	770.12
487.735	784.12
487.953	755.12
488.171	754.12
488.389	786.12
488.607	742.12
488.825	748.12
489.043	747.12
489.261	771.12
489.479	743.12
489.696	766.12
489.914	760.12
490.132	762.12
490.35	760.12
490.568	795.12
490.786	751.12
491.003	756.12
491.221	798.12
491.439	752.12
491.657	767.12
491.874	793.12
492.092	774.12
492.31	784.12
492.527	790.12
492.745	787.12
492.963	806.12
493.18	805.12
493.398	791.12
493.615	812.12
493.833	820.12
494.05	827.12
494.268	838.12
494.485	804.12
494.703	835.12
494.92	817.12
495.138	812.12
495.355	810.12
495.573	805.12
495.79	821.12
496.008	828.12
496.225	830.12
496.442	851.12
496.66	863.12
496.877	841.12
497.094	890.12
497.312	879.12
497.529	896.12
497.746	908.12
497.963	947.12
498.181	961.12
498.398	994.12
498.615	1071.12
498.832	1154.12
499.049	1254.12
499.267	1360.12
499.484	1500.12
499.701	1639.12
499.918	1808.12
500.135	2094.12
500.352	2495.12
500.569	2649.12
500.786	2556.12
501.003	2384.12
501.22	2087.12
