Data from Ni(NO3)2Standard.Agarose3%.GreenCap.LampEnergy5.5.E.O_HRD10591_14-41-37-187.txt Node
Date: Mon Jul 22 14:41:37 EDT 2019
User: cochatt
Spectrometer: HR+D1059
Trigger mode: 1
Integration Time (sec): 1.000000E-1
Scans to average: 1
Electric dark correction enabled: true
Nonlinearity correction enabled: false
Boxcar width: 0
XAxis mode: Wavelengths
Number of Pixels in Spectrum: 2048
>>>>>Begin Spectral Data<<<<<
223.165	-6.31
223.4	-6.31
223.635	-6.31
223.869	-19.31
224.104	-19.31
224.338	-8.31
224.573	-14.31
224.808	-13.31
225.042	-17.31
225.277	1.69
225.511	-5.31
225.746	8.69
225.98	6.69
226.215	-0.31
226.449	17.69
226.683	23.69
226.918	19.69
227.152	25.69
227.387	17.69
227.621	31.69
227.856	43.69
228.09	49.69
228.324	58.69
228.559	53.69
228.793	46.69
229.027	57.69
229.262	60.69
229.496	62.69
229.73	66.69
229.964	73.69
230.199	67.69
230.433	68.69
230.667	76.69
230.901	87.69
231.136	75.69
231.37	75.69
231.604	76.69
231.838	77.69
232.072	98.69
232.306	84.69
232.541	75.69
232.775	77.69
233.009	89.69
233.243	74.69
233.477	83.69
233.711	84.69
233.945	89.69
234.179	78.69
234.413	84.69
234.647	71.69
234.881	81.69
235.115	80.69
235.349	78.69
235.583	74.69
235.817	93.69
236.051	79.69
236.285	70.69
236.519	76.69
236.753	83.69
236.987	82.69
237.221	61.69
237.455	97.69
237.689	91.69
237.922	70.69
238.156	68.69
238.39	67.69
238.624	85.69
238.858	63.69
239.091	69.69
239.325	79.69
239.559	75.69
239.793	56.69
240.027	72.69
240.26	66.69
240.494	71.69
240.728	71.69
240.961	76.69
241.195	87.69
241.429	71.69
241.662	70.69
241.896	78.69
242.13	79.69
242.363	68.69
242.597	91.69
242.83	74.69
243.064	63.69
243.298	76.69
243.531	84.69
243.765	78.69
243.998	91.69
244.232	77.69
244.465	86.69
244.699	76.69
244.932	86.69
245.166	84.69
245.399	92.69
245.633	72.69
245.866	75.69
246.099	87.69
246.333	85.69
246.566	77.69
246.8	83.69
247.033	80.69
247.266	55.69
247.5	82.69
247.733	91.69
247.966	83.69
248.2	72.69
248.433	85.69
248.666	88.69
248.899	81.69
249.133	76.69
249.366	76.69
249.599	84.69
249.832	74.69
250.066	81.69
250.299	84.69
250.532	84.69
250.765	79.69
250.998	83.69
251.231	79.69
251.465	63.69
251.698	85.69
251.931	84.69
252.164	58.69
252.397	65.69
252.63	73.69
252.863	88.69
253.096	80.69
253.329	86.69
253.562	71.69
253.795	73.69
254.028	85.69
254.261	91.69
254.494	75.69
254.727	71.69
254.96	78.69
255.193	73.69
255.426	90.69
255.659	73.69
255.892	84.69
256.124	91.69
256.357	83.69
256.59	86.69
256.823	67.69
257.056	87.69
257.289	86.69
257.521	75.69
257.754	75.69
257.987	86.69
258.22	81.69
258.452	76.69
258.685	78.69
258.918	74.69
259.151	83.69
259.383	85.69
259.616	87.69
259.849	77.69
260.081	82.69
260.314	69.69
260.547	72.69
260.779	83.69
261.012	71.69
261.244	83.69
261.477	84.69
261.71	61.69
261.942	63.69
262.175	86.69
262.407	77.69
262.64	77.69
262.872	88.69
263.105	77.69
263.337	69.69
263.57	74.69
263.802	83.69
264.035	93.69
264.267	76.69
264.499	76.69
264.732	77.69
264.964	70.69
265.197	81.69
265.429	83.69
265.661	68.69
265.894	82.69
266.126	81.69
266.358	72.69
266.591	84.69
266.823	80.69
267.055	72.69
267.287	81.69
267.52	78.69
267.752	84.69
267.984	82.69
268.216	89.69
268.448	84.69
268.681	80.69
268.913	74.69
269.145	77.69
269.377	89.69
269.609	81.69
269.841	90.69
270.073	89.69
270.306	78.69
270.538	85.69
270.77	88.69
271.002	85.69
271.234	83.69
271.466	93.69
271.698	83.69
271.93	90.69
272.162	86.69
272.394	73.69
272.626	78.69
272.858	79.69
273.09	80.69
273.322	81.69
273.553	78.69
273.785	97.69
274.017	81.69
274.249	82.69
274.481	91.69
274.713	70.69
274.945	83.69
275.176	92.69
275.408	78.69
275.64	81.69
275.872	94.69
276.104	90.69
276.335	83.69
276.567	77.69
276.799	75.69
277.031	75.69
277.262	84.69
277.494	81.69
277.726	83.69
277.957	78.69
278.189	72.69
278.421	96.69
278.652	90.69
278.884	92.69
279.115	83.69
279.347	83.69
279.579	72.69
279.81	83.69
280.042	87.69
280.273	92.69
280.505	75.69
280.736	83.69
280.968	84.69
281.199	88.69
281.431	95.69
281.662	80.69
281.894	85.69
282.125	83.69
282.356	82.69
282.588	84.69
282.819	82.69
283.051	82.69
283.282	90.69
283.513	83.69
283.745	87.69
283.976	88.69
284.207	77.69
284.439	72.69
284.67	90.69
284.901	77.69
285.132	85.69
285.364	90.69
285.595	73.69
285.826	81.69
286.057	97.69
286.288	101.69
286.52	88.69
286.751	99.69
286.982	86.69
287.213	86.69
287.444	77.69
287.675	74.69
287.906	84.69
288.138	84.69
288.369	82.69
288.6	94.69
288.831	76.69
289.062	89.69
289.293	94.69
289.524	80.69
289.755	87.69
289.986	110.69
290.217	89.69
290.448	88.69
290.679	65.69
290.91	87.69
291.141	69.69
291.371	86.69
291.602	81.69
291.833	74.69
292.064	99.69
292.295	72.69
292.526	72.69
292.757	89.69
292.987	88.69
293.218	89.69
293.449	89.69
293.68	78.69
293.91	78.69
294.141	92.69
294.372	91.69
294.603	79.69
294.833	71.69
295.064	78.69
295.295	81.69
295.525	82.69
295.756	90.69
295.987	85.69
296.217	78.69
296.448	92.69
296.679	83.69
296.909	90.69
297.14	90.69
297.37	86.69
297.601	73.69
297.831	97.69
298.062	85.69
298.292	83.69
298.523	82.69
298.753	84.69
298.984	88.69
299.214	92.69
299.445	96.69
299.675	88.69
299.905	81.69
300.136	77.69
300.366	93.69
300.597	100.69
300.827	73.69
301.057	76.69
301.288	85.69
301.518	77.69
301.748	88.69
301.979	84.69
302.209	88.69
302.439	86.69
302.669	78.69
302.9	90.69
303.13	90.69
303.36	101.69
303.59	79.69
303.82	90.69
304.051	81.69
304.281	97.69
304.511	74.69
304.741	81.69
304.971	87.69
305.201	84.69
305.431	76.69
305.661	89.69
305.891	79.69
306.121	87.69
306.352	77.69
306.582	94.69
306.812	94.69
307.042	84.69
307.272	76.69
307.502	90.69
307.731	91.69
307.961	92.69
308.191	87.69
308.421	75.69
308.651	88.69
308.881	87.69
309.111	93.69
309.341	86.69
309.571	85.69
309.8	87.69
310.03	81.69
310.26	81.69
310.49	94.69
310.72	81.69
310.949	95.69
311.179	91.69
311.409	94.69
311.639	92.69
311.868	82.69
312.098	80.69
312.328	98.69
312.557	83.69
312.787	83.69
313.017	92.69
313.246	85.69
313.476	92.69
313.706	93.69
313.935	92.69
314.165	81.69
314.394	86.69
314.624	89.69
314.853	84.69
315.083	87.69
315.312	77.69
315.542	88.69
315.771	82.69
316.001	102.69
316.23	88.69
316.46	92.69
316.689	101.69
316.919	80.69
317.148	95.69
317.377	97.69
317.607	83.69
317.836	84.69
318.065	89.69
318.295	84.69
318.524	81.69
318.753	81.69
318.983	96.69
319.212	91.69
319.441	81.69
319.67	77.69
319.9	77.69
320.129	82.69
320.358	78.69
320.587	78.69
320.816	86.69
321.046	89.69
321.275	97.69
321.504	86.69
321.733	76.69
321.962	72.69
322.191	89.69
322.42	77.69
322.649	84.69
322.878	96.69
323.108	81.69
323.337	84.69
323.566	89.69
323.795	78.69
324.024	87.69
324.253	88.69
324.482	90.69
324.71	82.69
324.939	80.69
325.168	76.69
325.397	73.69
325.626	86.69
325.855	93.69
326.084	83.69
326.313	80.69
326.542	84.69
326.77	81.69
326.999	90.69
327.228	89.69
327.457	68.69
327.686	75.69
327.914	76.69
328.143	75.69
328.372	95.69
328.6	89.69
328.829	76.69
329.058	94.69
329.287	78.69
329.515	88.69
329.744	73.69
329.972	74.69
330.201	88.69
330.43	78.69
330.658	87.69
330.887	88.69
331.115	93.69
331.344	81.69
331.572	101.69
331.801	82.69
332.03	84.69
332.258	80.69
332.486	83.69
332.715	83.69
332.943	85.69
333.172	84.69
333.4	93.69
333.629	94.69
333.857	81.69
334.085	91.69
334.314	91.69
334.542	82.69
334.771	95.69
334.999	80.69
335.227	82.69
335.455	87.69
335.684	85.69
335.912	99.69
336.14	85.69
336.369	84.69
336.597	83.69
336.825	77.69
337.053	79.69
337.281	84.69
337.51	89.69
337.738	91.69
337.966	75.69
338.194	87.69
338.422	81.69
338.65	99.69
338.878	92.69
339.106	83.69
339.334	80.69
339.562	91.69
339.79	80.69
340.018	88.69
340.246	94.69
340.474	91.69
340.702	87.69
340.93	85.69
341.158	87.69
341.386	67.69
341.614	63.69
341.842	91.69
342.07	88.69
342.298	78.69
342.526	92.69
342.754	100.69
342.981	82.69
343.209	86.69
343.437	85.69
343.665	93.69
343.893	73.69
344.12	80.69
344.348	73.69
344.576	87.69
344.804	81.69
345.031	87.69
345.259	75.69
345.487	96.69
345.714	103.69
345.942	91.69
346.17	80.69
346.397	90.69
346.625	92.69
346.853	87.69
347.08	89.69
347.308	83.69
347.535	78.69
347.763	85.69
347.99	80.69
348.218	101.69
348.445	87.69
348.673	91.69
348.9	85.69
349.128	84.69
349.355	90.69
349.583	86.69
349.81	93.69
350.037	78.69
350.265	92.69
350.492	90.69
350.72	87.69
350.947	94.69
351.174	95.69
351.402	92.69
351.629	75.69
351.856	97.69
352.083	88.69
352.311	99.69
352.538	95.69
352.765	92.69
352.992	89.69
353.22	87.69
353.447	77.69
353.674	94.69
353.901	80.69
354.128	77.69
354.355	88.69
354.583	90.69
354.81	78.69
355.037	91.69
355.264	88.69
355.491	85.69
355.718	99.69
355.945	82.69
356.172	85.69
356.399	87.69
356.626	85.69
356.853	82.69
357.08	69.69
357.307	76.69
357.534	80.69
357.761	75.69
357.988	77.69
358.215	70.69
358.441	78.69
358.668	94.69
358.895	87.69
359.122	87.69
359.349	94.69
359.576	83.69
359.802	87.69
360.029	91.69
360.256	82.69
360.483	89.69
360.709	77.69
360.936	79.69
361.163	82.69
361.39	88.69
361.616	83.69
361.843	83.69
362.07	67.69
362.296	88.69
362.523	100.69
362.749	76.69
362.976	89.69
363.203	82.69
363.429	66.69
363.656	89.69
363.882	84.69
364.109	84.69
364.335	89.69
364.562	92.69
364.788	87.69
365.015	85.69
365.241	75.69
365.468	75.69
365.694	88.69
365.92	91.69
366.147	75.69
366.373	78.69
366.599	79.69
366.826	86.69
367.052	88.69
367.278	85.69
367.505	71.69
367.731	85.69
367.957	87.69
368.184	76.69
368.41	64.69
368.636	84.69
368.862	87.69
369.089	90.69
369.315	96.69
369.541	90.69
369.767	99.69
369.993	71.69
370.219	81.69
370.445	81.69
370.672	95.69
370.898	81.69
371.124	81.69
371.35	79.69
371.576	84.69
371.802	73.69
372.028	76.69
372.254	87.69
372.48	88.69
372.706	78.69
372.932	80.69
373.158	78.69
373.384	94.69
373.61	76.69
373.835	76.69
374.061	77.69
374.287	83.69
374.513	83.69
374.739	75.69
374.965	77.69
375.191	88.69
375.416	82.69
375.642	84.69
375.868	78.69
376.094	77.69
376.319	79.69
376.545	92.69
376.771	90.69
376.997	96.69
377.222	83.69
377.448	79.69
377.674	87.69
377.899	84.69
378.125	81.69
378.35	79.69
378.576	85.69
378.802	87.69
379.027	86.69
379.253	81.69
379.478	67.69
379.704	87.69
379.929	62.69
380.155	66.69
380.38	82.69
380.606	76.69
380.831	80.69
381.057	82.69
381.282	73.69
381.507	79.69
381.733	69.69
381.958	76.69
382.184	71.69
382.409	81.69
382.634	81.69
382.86	81.69
383.085	84.69
383.31	79.69
383.535	87.69
383.761	87.69
383.986	72.69
384.211	91.69
384.436	80.69
384.662	85.69
384.887	88.69
385.112	79.69
385.337	90.69
385.562	77.69
385.787	82.69
386.013	77.69
386.238	81.69
386.463	76.69
386.688	81.69
386.913	91.69
387.138	83.69
387.363	87.69
387.588	94.69
387.813	84.69
388.038	87.69
388.263	99.69
388.488	66.69
388.713	79.69
388.938	74.69
389.163	79.69
389.387	76.69
389.612	81.69
389.837	66.69
390.062	88.69
390.287	91.69
390.512	80.69
390.736	81.69
390.961	85.69
391.186	75.69
391.411	102.69
391.636	78.69
391.86	80.69
392.085	76.69
392.31	84.69
392.534	91.69
392.759	80.69
392.984	84.69
393.208	79.69
393.433	81.69
393.658	84.69
393.882	80.69
394.107	78.69
394.331	72.69
394.556	89.69
394.78	90.69
395.005	84.69
395.229	80.69
395.454	94.69
395.678	83.69
395.903	64.69
396.127	96.69
396.352	88.69
396.576	74.69
396.801	87.69
397.025	92.69
397.249	73.69
397.474	91.69
397.698	72.69
397.922	79.69
398.147	67.69
398.371	83.69
398.595	84.69
398.82	90.69
399.044	94.69
399.268	82.69
399.492	96.69
399.717	91.69
399.941	88.69
400.165	82.69
400.389	87.69
400.613	78.69
400.837	86.69
401.062	91.69
401.286	72.69
401.51	84.69
401.734	88.69
401.958	67.69
402.182	74.69
402.406	78.69
402.63	83.69
402.854	72.69
403.078	93.69
403.302	88.69
403.526	80.69
403.75	65.69
403.974	83.69
404.198	83.69
404.422	74.69
404.645	98.69
404.869	81.69
405.093	96.69
405.317	97.69
405.541	92.69
405.765	87.69
405.988	85.69
406.212	84.69
406.436	84.69
406.66	75.69
406.883	85.69
407.107	84.69
407.331	91.69
407.555	86.69
407.778	94.69
408.002	87.69
408.226	73.69
408.449	74.69
408.673	90.69
408.896	79.69
409.12	76.69
409.344	89.69
409.567	86.69
409.791	93.69
410.014	82.69
410.238	83.69
410.461	89.69
410.685	84.69
410.908	80.69
411.132	90.69
411.355	82.69
411.578	89.69
411.802	85.69
412.025	91.69
412.249	77.69
412.472	81.69
412.695	76.69
412.919	72.69
413.142	102.69
413.365	74.69
413.589	81.69
413.812	76.69
414.035	83.69
414.258	75.69
414.482	84.69
414.705	71.69
414.928	81.69
415.151	79.69
415.374	87.69
415.597	72.69
415.821	90.69
416.044	90.69
416.267	75.69
416.49	84.69
416.713	89.69
416.936	81.69
417.159	85.69
417.382	76.69
417.605	78.69
417.828	98.69
418.051	83.69
418.274	91.69
418.497	68.69
418.72	79.69
418.943	91.69
419.166	85.69
419.389	81.69
419.611	76.69
419.834	87.69
420.057	85.69
420.28	90.69
420.503	86.69
420.726	93.69
420.948	88.69
421.171	95.69
421.394	76.69
421.617	81.69
421.839	91.69
422.062	74.69
422.285	69.69
422.507	81.69
422.73	82.69
422.953	88.69
423.175	93.69
423.398	87.69
423.621	89.69
423.843	67.69
424.066	71.69
424.288	75.69
424.511	84.69
424.733	76.69
424.956	92.69
425.178	89.69
425.401	78.69
425.623	99.69
425.846	85.69
426.068	78.69
426.291	72.69
426.513	74.69
426.735	82.69
426.958	90.69
427.18	91.69
427.402	86.69
427.625	95.69
427.847	90.69
428.069	86.69
428.292	95.69
428.514	98.69
428.736	85.69
428.958	79.69
429.181	81.69
429.403	67.69
429.625	93.69
429.847	83.69
430.069	85.69
430.292	91.69
430.514	91.69
430.736	96.69
430.958	79.69
431.18	80.69
431.402	82.69
431.624	72.69
431.846	75.69
432.068	80.69
432.29	95.69
432.512	79.69
432.734	81.69
432.956	77.69
433.178	78.69
433.4	68.69
433.622	81.69
433.844	83.69
434.066	71.69
434.287	75.69
434.509	90.69
434.731	86.69
434.953	77.69
435.175	80.69
435.397	93.69
435.618	90.69
435.84	80.69
436.062	83.69
436.284	83.69
436.505	71.69
436.727	85.69
436.949	91.69
437.17	91.69
437.392	69.69
437.614	68.69
437.835	76.69
438.057	85.69
438.278	84.69
438.5	103.69
438.721	98.69
438.943	74.69
439.165	77.69
439.386	84.69
439.608	81.69
439.829	80.69
440.05	93.69
440.272	78.69
440.493	93.69
440.715	92.69
440.936	82.69
441.158	73.69
441.379	67.69
441.6	74.69
441.822	88.69
442.043	89.69
442.264	96.69
442.486	98.69
442.707	102.69
442.928	93.69
443.149	91.69
443.371	89.69
443.592	83.69
443.813	81.69
444.034	73.69
444.255	90.69
444.476	77.69
444.698	84.69
444.919	78.69
445.14	175.69
445.361	140.69
445.582	89.69
445.803	81.69
446.024	87.69
446.245	91.69
446.466	87.69
446.687	81.69
446.908	88.69
447.129	94.69
447.35	78.69
447.571	81.69
447.792	92.69
448.013	92.69
448.234	77.69
448.455	85.69
448.675	79.69
448.896	78.69
449.117	73.69
449.338	77.69
449.559	81.69
449.779	81.69
450	81.69
450.221	91.69
450.442	85.69
450.662	91.69
450.883	82.69
451.104	87.69
451.324	91.69
451.545	91.69
451.766	73.69
451.986	84.69
452.207	97.69
452.428	71.69
452.648	90.69
452.869	68.69
453.089	77.69
453.31	77.69
453.53	88.69
453.751	78.69
453.971	92.69
454.192	80.69
454.412	69.69
454.633	91.69
454.853	79.69
455.073	70.69
455.294	83.69
455.514	73.69
455.734	93.69
455.955	85.69
456.175	84.69
456.395	75.69
456.616	95.69
456.836	92.69
457.056	94.69
457.276	92.69
457.497	86.69
457.717	78.69
457.937	93.69
458.157	88.69
458.377	82.69
458.598	89.69
458.818	85.69
459.038	84.69
459.258	81.69
459.478	93.69
459.698	86.69
459.918	92.69
460.138	93.69
460.358	82.69
460.578	85.69
460.798	93.69
461.018	89.69
461.238	99.69
461.458	92.69
461.678	90.69
461.898	85.69
462.118	80.69
462.338	88.69
462.558	88.69
462.777	89.69
462.997	96.69
463.217	90.69
463.437	80.69
463.657	85.69
463.876	91.69
464.096	92.69
464.316	94.69
464.536	97.69
464.755	77.69
464.975	69.69
465.195	99.69
465.414	71.69
465.634	100.69
465.854	77.69
466.073	101.69
466.293	69.69
466.512	68.69
466.732	99.69
466.951	91.69
467.171	81.69
467.391	84.69
467.61	77.69
467.829	82.69
468.049	85.69
468.268	81.69
468.488	89.69
468.707	90.69
468.927	75.69
469.146	96.69
469.365	89.69
469.585	85.69
469.804	89.69
470.023	84.69
470.243	79.69
470.462	92.69
470.681	88.69
470.901	82.69
471.12	82.69
471.339	84.69
471.558	87.69
471.777	90.69
471.997	86.69
472.216	76.69
472.435	89.69
472.654	91.69
472.873	63.69
473.092	93.69
473.311	67.69
473.53	82.69
473.749	95.69
473.968	94.69
474.187	81.69
474.406	90.69
474.625	87.69
474.844	75.69
475.063	97.69
475.282	83.69
475.501	84.69
475.72	94.69
475.939	92.69
476.158	84.69
476.377	80.69
476.596	77.69
476.814	68.69
477.033	80.69
477.252	92.69
477.471	86.69
477.69	89.69
477.908	92.69
478.127	78.69
478.346	74.69
478.564	94.69
478.783	80.69
479.002	98.69
479.22	75.69
479.439	87.69
479.658	96.69
479.876	85.69
480.095	79.69
480.313	95.69
480.532	96.69
480.751	83.69
480.969	71.69
481.188	84.69
481.406	102.69
481.624	89.69
481.843	91.69
482.061	81.69
482.28	80.69
482.498	85.69
482.717	68.69
482.935	98.69
483.153	94.69
483.372	82.69
483.59	100.69
483.808	88.69
484.027	97.69
484.245	92.69
484.463	100.69
484.681	86.69
484.9	89.69
485.118	92.69
485.336	110.69
485.554	97.69
485.772	93.69
485.99	72.69
486.209	89.69
486.427	94.69
486.645	91.69
486.863	93.69
487.081	102.69
487.299	97.69
487.517	92.69
487.735	90.69
487.953	101.69
488.171	80.69
488.389	81.69
488.607	73.69
488.825	95.69
489.043	82.69
489.261	95.69
489.479	87.69
489.696	111.69
489.914	107.69
490.132	82.69
490.35	93.69
490.568	96.69
490.786	81.69
491.003	95.69
491.221	94.69
491.439	98.69
491.657	87.69
491.874	95.69
492.092	87.69
492.31	93.69
492.527	87.69
492.745	86.69
492.963	95.69
493.18	91.69
493.398	88.69
493.615	88.69
493.833	87.69
494.05	88.69
494.268	98.69
494.485	103.69
494.703	101.69
494.92	92.69
495.138	85.69
495.355	86.69
495.573	102.69
495.79	88.69
496.008	96.69
496.225	89.69
496.442	103.69
496.66	93.69
496.877	85.69
497.094	86.69
497.312	88.69
497.529	83.69
497.746	94.69
497.963	80.69
498.181	85.69
498.398	91.69
498.615	100.69
498.832	96.69
499.049	105.69
499.267	109.69
499.484	104.69
499.701	105.69
499.918	92.69
500.135	107.69
500.352	111.69
500.569	105.69
500.786	112.69
501.003	115.69
501.22	103.69
501.437	100.69
501.654	99.69
501.871	96.69
502.088	84.69
502.305	106.69
502.522	101.69
502.739	102.69
502.956	84.69
503.172	102.69
503.389	114.69
503.606	104.69
503.823	103.69
504.04	96.69
504.256	99.69
504.473	85.69
504.69	97.69
504.907	93.69
505.123	90.69
505.34	102.69
505.557	88.69
505.773	89.69
505.99	101.69
506.207	99.69
506.423	100.69
506.64	91.69
506.856	99.69
507.073	88.69
507.289	97.69
507.506	81.69
507.722	76.69
507.939	79.69
508.155	93.69
508.372	94.69
508.588	93.69
508.805	94.69
509.021	86.69
509.238	83.69
509.454	79.69
509.67	89.69
509.887	90.69
510.103	97.69
510.319	98.69
510.536	83.69
510.752	95.69
510.968	81.69
511.184	92.69
511.401	75.69
511.617	91.69
511.833	90.69
512.049	98.69
512.265	79.69
512.481	77.69
512.698	96.69
512.914	96.69
513.13	96.69
513.346	84.69
513.562	91.69
513.778	77.69
513.994	87.69
514.21	90.69
514.426	96.69
514.642	89.69
514.858	93.69
515.074	88.69
515.29	98.69
515.506	83.69
515.721	89.69
515.937	95.69
516.153	100.69
516.369	95.69
516.585	90.69
516.801	95.69
517.016	96.69
517.232	90.69
517.448	82.69
517.664	99.69
517.879	81.69
518.095	92.69
518.311	88.69
518.527	102.69
518.742	96.69
