Data from Ni(NO3)2Standard.Agarose3%.GreenCap.LampEnergy5.5.E.O_HRD10591_14-39-53-188.txt Node
Date: Mon Jul 22 14:39:53 EDT 2019
User: cochatt
Spectrometer: HR+D1059
Trigger mode: 1
Integration Time (sec): 1.000000E-1
Scans to average: 1
Electric dark correction enabled: true
Nonlinearity correction enabled: false
Boxcar width: 0
XAxis mode: Wavelengths
Number of Pixels in Spectrum: 2048
>>>>>Begin Spectral Data<<<<<
223.165	-8.94
223.4	-8.94
223.635	-8.94
223.869	-27.94
224.104	-29.94
224.338	-17.94
224.573	-20.94
224.808	-5.94
225.042	3.06
225.277	1.06
225.511	-9.94
225.746	2.06
225.98	-2.94
226.215	21.06
226.449	26.06
226.683	17.06
226.918	17.06
227.152	37.06
227.387	41.06
227.621	34.06
227.856	33.06
228.09	53.06
228.324	38.06
228.559	54.06
228.793	59.06
229.027	49.06
229.262	62.06
229.496	70.06
229.73	72.06
229.964	69.06
230.199	77.06
230.433	77.06
230.667	68.06
230.901	75.06
231.136	84.06
231.37	80.06
231.604	92.06
231.838	78.06
232.072	67.06
232.306	76.06
232.541	81.06
232.775	85.06
233.009	87.06
233.243	87.06
233.477	88.06
233.711	86.06
233.945	75.06
234.179	79.06
234.413	89.06
234.647	85.06
234.881	82.06
235.115	71.06
235.349	80.06
235.583	82.06
235.817	76.06
236.051	85.06
236.285	82.06
236.519	88.06
236.753	83.06
236.987	89.06
237.221	74.06
237.455	74.06
237.689	68.06
237.922	84.06
238.156	82.06
238.39	74.06
238.624	73.06
238.858	77.06
239.091	84.06
239.325	78.06
239.559	60.06
239.793	81.06
240.027	85.06
240.26	67.06
240.494	90.06
240.728	76.06
240.961	92.06
241.195	68.06
241.429	74.06
241.662	84.06
241.896	78.06
242.13	68.06
242.363	85.06
242.597	75.06
242.83	73.06
243.064	69.06
243.298	79.06
243.531	77.06
243.765	82.06
243.998	71.06
244.232	84.06
244.465	86.06
244.699	87.06
244.932	69.06
245.166	76.06
245.399	83.06
245.633	71.06
245.866	87.06
246.099	74.06
246.333	89.06
246.566	87.06
246.8	77.06
247.033	94.06
247.266	70.06
247.5	92.06
247.733	75.06
247.966	77.06
248.2	86.06
248.433	79.06
248.666	82.06
248.899	73.06
249.133	88.06
249.366	88.06
249.599	81.06
249.832	70.06
250.066	68.06
250.299	86.06
250.532	92.06
250.765	89.06
250.998	91.06
251.231	83.06
251.465	97.06
251.698	78.06
251.931	87.06
252.164	88.06
252.397	80.06
252.63	85.06
252.863	72.06
253.096	67.06
253.329	82.06
253.562	79.06
253.795	92.06
254.028	74.06
254.261	77.06
254.494	89.06
254.727	80.06
254.96	75.06
255.193	63.06
255.426	78.06
255.659	82.06
255.892	80.06
256.124	88.06
256.357	80.06
256.59	73.06
256.823	90.06
257.056	89.06
257.289	75.06
257.521	87.06
257.754	72.06
257.987	72.06
258.22	93.06
258.452	92.06
258.685	82.06
258.918	69.06
259.151	81.06
259.383	80.06
259.616	78.06
259.849	86.06
260.081	81.06
260.314	87.06
260.547	92.06
260.779	85.06
261.012	74.06
261.244	83.06
261.477	79.06
261.71	85.06
261.942	83.06
262.175	89.06
262.407	84.06
262.64	85.06
262.872	73.06
263.105	83.06
263.337	85.06
263.57	73.06
263.802	87.06
264.035	90.06
264.267	84.06
264.499	77.06
264.732	72.06
264.964	76.06
265.197	86.06
265.429	97.06
265.661	89.06
265.894	71.06
266.126	73.06
266.358	80.06
266.591	93.06
266.823	79.06
267.055	82.06
267.287	71.06
267.52	91.06
267.752	79.06
267.984	94.06
268.216	101.06
268.448	78.06
268.681	100.06
268.913	79.06
269.145	74.06
269.377	79.06
269.609	84.06
269.841	78.06
270.073	98.06
270.306	75.06
270.538	71.06
270.77	77.06
271.002	93.06
271.234	94.06
271.466	86.06
271.698	89.06
271.93	83.06
272.162	83.06
272.394	90.06
272.626	83.06
272.858	88.06
273.09	92.06
273.322	103.06
273.553	87.06
273.785	94.06
274.017	82.06
274.249	95.06
274.481	78.06
274.713	79.06
274.945	85.06
275.176	75.06
275.408	89.06
275.64	85.06
275.872	99.06
276.104	93.06
276.335	90.06
276.567	94.06
276.799	97.06
277.031	78.06
277.262	100.06
277.494	96.06
277.726	97.06
277.957	86.06
278.189	81.06
278.421	79.06
278.652	76.06
278.884	90.06
279.115	86.06
279.347	89.06
279.579	91.06
279.81	90.06
280.042	94.06
280.273	81.06
280.505	88.06
280.736	87.06
280.968	95.06
281.199	98.06
281.431	93.06
281.662	99.06
281.894	83.06
282.125	90.06
282.356	96.06
282.588	73.06
282.819	90.06
283.051	90.06
283.282	75.06
283.513	94.06
283.745	88.06
283.976	101.06
284.207	86.06
284.439	82.06
284.67	77.06
284.901	79.06
285.132	83.06
285.364	83.06
285.595	90.06
285.826	99.06
286.057	101.06
286.288	85.06
286.52	77.06
286.751	89.06
286.982	95.06
287.213	91.06
287.444	84.06
287.675	77.06
287.906	73.06
288.138	90.06
288.369	94.06
288.6	88.06
288.831	82.06
289.062	90.06
289.293	88.06
289.524	81.06
289.755	82.06
289.986	83.06
290.217	87.06
290.448	88.06
290.679	79.06
290.91	95.06
291.141	84.06
291.371	93.06
291.602	92.06
291.833	99.06
292.064	92.06
292.295	78.06
292.526	98.06
292.757	75.06
292.987	70.06
293.218	83.06
293.449	83.06
293.68	92.06
293.91	84.06
294.141	94.06
294.372	84.06
294.603	79.06
294.833	89.06
295.064	88.06
295.295	85.06
295.525	90.06
295.756	91.06
295.987	76.06
296.217	76.06
296.448	84.06
296.679	103.06
296.909	94.06
297.14	95.06
297.37	97.06
297.601	91.06
297.831	85.06
298.062	105.06
298.292	84.06
298.523	90.06
298.753	90.06
298.984	88.06
299.214	89.06
299.445	89.06
299.675	95.06
299.905	98.06
300.136	87.06
300.366	93.06
300.597	100.06
300.827	86.06
301.057	77.06
301.288	94.06
301.518	93.06
301.748	74.06
301.979	85.06
302.209	84.06
302.439	85.06
302.669	83.06
302.9	81.06
303.13	74.06
303.36	84.06
303.59	83.06
303.82	94.06
304.051	85.06
304.281	81.06
304.511	94.06
304.741	82.06
304.971	96.06
305.201	89.06
305.431	93.06
305.661	86.06
305.891	89.06
306.121	83.06
306.352	95.06
306.582	95.06
306.812	76.06
307.042	79.06
307.272	87.06
307.502	86.06
307.731	96.06
307.961	97.06
308.191	70.06
308.421	100.06
308.651	81.06
308.881	101.06
309.111	97.06
309.341	97.06
309.571	86.06
309.8	80.06
310.03	98.06
310.26	104.06
310.49	96.06
310.72	96.06
310.949	92.06
311.179	79.06
311.409	72.06
311.639	101.06
311.868	84.06
312.098	92.06
312.328	93.06
312.557	95.06
312.787	81.06
313.017	87.06
313.246	95.06
313.476	73.06
313.706	79.06
313.935	70.06
314.165	85.06
314.394	88.06
314.624	78.06
314.853	83.06
315.083	74.06
315.312	75.06
315.542	88.06
315.771	90.06
316.001	102.06
316.23	100.06
316.46	92.06
316.689	93.06
316.919	97.06
317.148	85.06
317.377	88.06
317.607	95.06
317.836	94.06
318.065	99.06
318.295	97.06
318.524	99.06
318.753	86.06
318.983	90.06
319.212	85.06
319.441	90.06
319.67	80.06
319.9	98.06
320.129	89.06
320.358	85.06
320.587	82.06
320.816	79.06
321.046	84.06
321.275	89.06
321.504	92.06
321.733	94.06
321.962	99.06
322.191	91.06
322.42	79.06
322.649	99.06
322.878	90.06
323.108	96.06
323.337	84.06
323.566	83.06
323.795	91.06
324.024	99.06
324.253	82.06
324.482	79.06
324.71	82.06
324.939	83.06
325.168	83.06
325.397	67.06
325.626	99.06
325.855	96.06
326.084	72.06
326.313	76.06
326.542	78.06
326.77	91.06
326.999	87.06
327.228	91.06
327.457	80.06
327.686	90.06
327.914	80.06
328.143	98.06
328.372	90.06
328.6	89.06
328.829	75.06
329.058	92.06
329.287	87.06
329.515	95.06
329.744	87.06
329.972	104.06
330.201	93.06
330.43	78.06
330.658	75.06
330.887	89.06
331.115	88.06
331.344	90.06
331.572	90.06
331.801	84.06
332.03	76.06
332.258	86.06
332.486	90.06
332.715	93.06
332.943	94.06
333.172	72.06
333.4	102.06
333.629	97.06
333.857	89.06
334.085	95.06
334.314	93.06
334.542	82.06
334.771	85.06
334.999	88.06
335.227	85.06
335.455	89.06
335.684	85.06
335.912	90.06
336.14	85.06
336.369	88.06
336.597	84.06
336.825	98.06
337.053	82.06
337.281	85.06
337.51	85.06
337.738	81.06
337.966	88.06
338.194	98.06
338.422	84.06
338.65	96.06
338.878	86.06
339.106	90.06
339.334	85.06
339.562	87.06
339.79	92.06
340.018	73.06
340.246	89.06
340.474	81.06
340.702	92.06
340.93	85.06
341.158	74.06
341.386	91.06
341.614	80.06
341.842	97.06
342.07	105.06
342.298	104.06
342.526	90.06
342.754	94.06
342.981	88.06
343.209	73.06
343.437	86.06
343.665	81.06
343.893	76.06
344.12	95.06
344.348	102.06
344.576	95.06
344.804	103.06
345.031	76.06
345.259	84.06
345.487	73.06
345.714	90.06
345.942	89.06
346.17	99.06
346.397	107.06
346.625	87.06
346.853	86.06
347.08	87.06
347.308	92.06
347.535	83.06
347.763	91.06
347.99	91.06
348.218	97.06
348.445	74.06
348.673	87.06
348.9	85.06
349.128	82.06
349.355	93.06
349.583	84.06
349.81	90.06
350.037	88.06
350.265	83.06
350.492	89.06
350.72	89.06
350.947	95.06
351.174	87.06
351.402	77.06
351.629	76.06
351.856	95.06
352.083	94.06
352.311	93.06
352.538	91.06
352.765	92.06
352.992	81.06
353.22	86.06
353.447	63.06
353.674	86.06
353.901	97.06
354.128	85.06
354.355	96.06
354.583	84.06
354.81	97.06
355.037	77.06
355.264	97.06
355.491	83.06
355.718	83.06
355.945	84.06
356.172	74.06
356.399	76.06
356.626	82.06
356.853	84.06
357.08	108.06
357.307	87.06
357.534	83.06
357.761	91.06
357.988	82.06
358.215	84.06
358.441	94.06
358.668	85.06
358.895	94.06
359.122	72.06
359.349	88.06
359.576	94.06
359.802	85.06
360.029	95.06
360.256	88.06
360.483	79.06
360.709	96.06
360.936	91.06
361.163	95.06
361.39	75.06
361.616	93.06
361.843	83.06
362.07	89.06
362.296	90.06
362.523	74.06
362.749	85.06
362.976	76.06
363.203	94.06
363.429	92.06
363.656	90.06
363.882	80.06
364.109	86.06
364.335	79.06
364.562	81.06
364.788	79.06
365.015	83.06
365.241	84.06
365.468	83.06
365.694	86.06
365.92	83.06
366.147	77.06
366.373	75.06
366.599	90.06
366.826	82.06
367.052	84.06
367.278	97.06
367.505	84.06
367.731	77.06
367.957	76.06
368.184	74.06
368.41	90.06
368.636	87.06
368.862	83.06
369.089	89.06
369.315	77.06
369.541	93.06
369.767	89.06
369.993	83.06
370.219	79.06
370.445	93.06
370.672	86.06
370.898	94.06
371.124	87.06
371.35	86.06
371.576	87.06
371.802	82.06
372.028	94.06
372.254	89.06
372.48	77.06
372.706	79.06
372.932	105.06
373.158	88.06
373.384	69.06
373.61	79.06
373.835	91.06
374.061	93.06
374.287	70.06
374.513	70.06
374.739	99.06
374.965	92.06
375.191	79.06
375.416	79.06
375.642	85.06
375.868	71.06
376.094	89.06
376.319	86.06
376.545	90.06
376.771	72.06
376.997	96.06
377.222	87.06
377.448	94.06
377.674	87.06
377.899	78.06
378.125	79.06
378.35	83.06
378.576	97.06
378.802	89.06
379.027	92.06
379.253	94.06
379.478	89.06
379.704	79.06
379.929	91.06
380.155	80.06
380.38	95.06
380.606	87.06
380.831	94.06
381.057	92.06
381.282	79.06
381.507	82.06
381.733	73.06
381.958	96.06
382.184	98.06
382.409	81.06
382.634	80.06
382.86	89.06
383.085	84.06
383.31	87.06
383.535	87.06
383.761	87.06
383.986	96.06
384.211	68.06
384.436	87.06
384.662	80.06
384.887	85.06
385.112	69.06
385.337	91.06
385.562	81.06
385.787	80.06
386.013	91.06
386.238	88.06
386.463	80.06
386.688	71.06
386.913	78.06
387.138	88.06
387.363	79.06
387.588	76.06
387.813	76.06
388.038	85.06
388.263	104.06
388.488	72.06
388.713	90.06
388.938	91.06
389.163	91.06
389.387	87.06
389.612	99.06
389.837	72.06
390.062	93.06
390.287	96.06
390.512	74.06
390.736	87.06
390.961	88.06
391.186	92.06
391.411	82.06
391.636	82.06
391.86	87.06
392.085	93.06
392.31	90.06
392.534	85.06
392.759	97.06
392.984	97.06
393.208	94.06
393.433	70.06
393.658	82.06
393.882	85.06
394.107	85.06
394.331	87.06
394.556	68.06
394.78	102.06
395.005	84.06
395.229	86.06
395.454	82.06
395.678	91.06
395.903	86.06
396.127	76.06
396.352	90.06
396.576	93.06
396.801	86.06
397.025	85.06
397.249	94.06
397.474	94.06
397.698	77.06
397.922	88.06
398.147	75.06
398.371	83.06
398.595	84.06
398.82	93.06
399.044	86.06
399.268	78.06
399.492	82.06
399.717	100.06
399.941	89.06
400.165	89.06
400.389	82.06
400.613	73.06
400.837	79.06
401.062	89.06
401.286	78.06
401.51	85.06
401.734	82.06
401.958	85.06
402.182	84.06
402.406	84.06
402.63	78.06
402.854	75.06
403.078	91.06
403.302	95.06
403.526	84.06
403.75	74.06
403.974	89.06
404.198	77.06
404.422	78.06
404.645	79.06
404.869	90.06
405.093	79.06
405.317	82.06
405.541	89.06
405.765	88.06
405.988	83.06
406.212	85.06
406.436	79.06
406.66	88.06
406.883	79.06
407.107	95.06
407.331	76.06
407.555	88.06
407.778	81.06
408.002	89.06
408.226	88.06
408.449	93.06
408.673	88.06
408.896	82.06
409.12	76.06
409.344	83.06
409.567	76.06
409.791	94.06
410.014	75.06
410.238	77.06
410.461	88.06
410.685	95.06
410.908	89.06
411.132	81.06
411.355	86.06
411.578	82.06
411.802	90.06
412.025	90.06
412.249	91.06
412.472	90.06
412.695	92.06
412.919	83.06
413.142	85.06
413.365	97.06
413.589	86.06
413.812	85.06
414.035	92.06
414.258	98.06
414.482	89.06
414.705	95.06
414.928	93.06
415.151	93.06
415.374	79.06
415.597	96.06
415.821	98.06
416.044	100.06
416.267	88.06
416.49	98.06
416.713	86.06
416.936	94.06
417.159	84.06
417.382	72.06
417.605	88.06
417.828	83.06
418.051	77.06
418.274	83.06
418.497	76.06
418.72	97.06
418.943	82.06
419.166	85.06
419.389	71.06
419.611	83.06
419.834	81.06
420.057	83.06
420.28	92.06
420.503	88.06
420.726	89.06
420.948	69.06
421.171	79.06
421.394	79.06
421.617	86.06
421.839	81.06
422.062	87.06
422.285	88.06
422.507	85.06
422.73	96.06
422.953	77.06
423.175	85.06
423.398	79.06
423.621	87.06
423.843	107.06
424.066	93.06
424.288	97.06
424.511	78.06
424.733	90.06
424.956	88.06
425.178	91.06
425.401	86.06
425.623	83.06
425.846	87.06
426.068	83.06
426.291	90.06
426.513	89.06
426.735	86.06
426.958	87.06
427.18	98.06
427.402	81.06
427.625	87.06
427.847	89.06
428.069	80.06
428.292	92.06
428.514	89.06
428.736	97.06
428.958	72.06
429.181	76.06
429.403	79.06
429.625	89.06
429.847	94.06
430.069	92.06
430.292	92.06
430.514	100.06
430.736	80.06
430.958	94.06
431.18	91.06
431.402	85.06
431.624	83.06
431.846	98.06
432.068	95.06
432.29	84.06
432.512	94.06
432.734	92.06
432.956	89.06
433.178	83.06
433.4	94.06
433.622	92.06
433.844	86.06
434.066	94.06
434.287	88.06
434.509	86.06
434.731	88.06
434.953	83.06
435.175	85.06
435.397	73.06
435.618	103.06
435.84	84.06
436.062	84.06
436.284	88.06
436.505	79.06
436.727	69.06
436.949	98.06
437.17	84.06
437.392	96.06
437.614	87.06
437.835	77.06
438.057	84.06
438.278	79.06
438.5	81.06
438.721	91.06
438.943	79.06
439.165	85.06
439.386	91.06
439.608	85.06
439.829	90.06
440.05	80.06
440.272	97.06
440.493	83.06
440.715	93.06
440.936	79.06
441.158	89.06
441.379	83.06
441.6	76.06
441.822	77.06
442.043	74.06
442.264	92.06
442.486	90.06
442.707	94.06
442.928	94.06
443.149	81.06
443.371	92.06
443.592	94.06
443.813	67.06
444.034	84.06
444.255	83.06
444.476	82.06
444.698	84.06
444.919	78.06
445.14	197.06
445.361	140.06
445.582	95.06
445.803	90.06
446.024	90.06
446.245	95.06
446.466	97.06
446.687	78.06
446.908	98.06
447.129	89.06
447.35	74.06
447.571	76.06
447.792	90.06
448.013	76.06
448.234	81.06
448.455	81.06
448.675	89.06
448.896	89.06
449.117	77.06
449.338	79.06
449.559	81.06
449.779	86.06
450	80.06
450.221	85.06
450.442	83.06
450.662	81.06
450.883	78.06
451.104	61.06
451.324	83.06
451.545	86.06
451.766	78.06
451.986	96.06
452.207	91.06
452.428	93.06
452.648	88.06
452.869	85.06
453.089	85.06
453.31	87.06
453.53	88.06
453.751	75.06
453.971	76.06
454.192	93.06
454.412	76.06
454.633	91.06
454.853	84.06
455.073	79.06
455.294	93.06
455.514	90.06
455.734	100.06
455.955	87.06
456.175	80.06
456.395	77.06
456.616	81.06
456.836	86.06
457.056	91.06
457.276	90.06
457.497	90.06
457.717	79.06
457.937	82.06
458.157	95.06
458.377	62.06
458.598	82.06
458.818	76.06
459.038	73.06
459.258	90.06
459.478	76.06
459.698	85.06
459.918	94.06
460.138	93.06
460.358	90.06
460.578	84.06
460.798	82.06
461.018	77.06
461.238	78.06
461.458	75.06
461.678	78.06
461.898	70.06
462.118	93.06
462.338	94.06
462.558	85.06
462.777	77.06
462.997	87.06
463.217	75.06
463.437	91.06
463.657	89.06
463.876	79.06
464.096	100.06
464.316	82.06
464.536	79.06
464.755	83.06
464.975	84.06
465.195	82.06
465.414	95.06
465.634	80.06
465.854	74.06
466.073	77.06
466.293	85.06
466.512	77.06
466.732	76.06
466.951	94.06
467.171	85.06
467.391	91.06
467.61	84.06
467.829	89.06
468.049	93.06
468.268	84.06
468.488	84.06
468.707	91.06
468.927	80.06
469.146	90.06
469.365	94.06
469.585	85.06
469.804	85.06
470.023	93.06
470.243	90.06
470.462	90.06
470.681	91.06
470.901	89.06
471.12	75.06
471.339	84.06
471.558	73.06
471.777	90.06
471.997	93.06
472.216	89.06
472.435	79.06
472.654	90.06
472.873	90.06
473.092	79.06
473.311	86.06
473.53	90.06
473.749	94.06
473.968	91.06
474.187	93.06
474.406	89.06
474.625	77.06
474.844	92.06
475.063	86.06
475.282	85.06
475.501	87.06
475.72	105.06
475.939	102.06
476.158	98.06
476.377	85.06
476.596	93.06
476.814	84.06
477.033	91.06
477.252	93.06
477.471	82.06
477.69	90.06
477.908	84.06
478.127	105.06
478.346	90.06
478.564	87.06
478.783	83.06
479.002	87.06
479.22	93.06
479.439	102.06
479.658	93.06
479.876	95.06
480.095	97.06
480.313	79.06
480.532	98.06
480.751	92.06
480.969	86.06
481.188	83.06
481.406	92.06
481.624	97.06
481.843	83.06
482.061	93.06
482.28	94.06
482.498	101.06
482.717	84.06
482.935	84.06
483.153	106.06
483.372	102.06
483.59	92.06
483.808	87.06
484.027	72.06
484.245	81.06
484.463	91.06
484.681	93.06
484.9	82.06
485.118	94.06
485.336	89.06
485.554	95.06
485.772	92.06
485.99	99.06
486.209	78.06
486.427	91.06
486.645	99.06
486.863	88.06
487.081	91.06
487.299	86.06
487.517	99.06
487.735	99.06
487.953	107.06
488.171	73.06
488.389	100.06
488.607	88.06
488.825	84.06
489.043	89.06
489.261	102.06
489.479	89.06
489.696	88.06
489.914	102.06
490.132	92.06
490.35	102.06
490.568	90.06
490.786	95.06
491.003	99.06
491.221	88.06
491.439	77.06
491.657	101.06
491.874	98.06
492.092	107.06
492.31	101.06
492.527	94.06
492.745	94.06
492.963	102.06
493.18	89.06
493.398	95.06
493.615	101.06
493.833	104.06
494.05	89.06
494.268	105.06
494.485	106.06
494.703	94.06
494.92	98.06
495.138	86.06
495.355	107.06
495.573	113.06
495.79	87.06
496.008	85.06
496.225	101.06
496.442	89.06
496.66	104.06
496.877	103.06
497.094	114.06
497.312	97.06
497.529	97.06
497.746	107.06
497.963	98.06
498.181	86.06
498.398	89.06
498.615	97.06
498.832	100.06
499.049	110.06
499.267	101.06
499.484	102.06
499.701	101.06
499.918	103.06
500.135	111.06
500.352	96.06
500.569	106.06
500.786	111.06
501.003	107.06
501.22	103.06
501.437	101.06
501.654	97.06
501.871	103.06
502.088	92.06
502.305	87.06
502.522	91.06
502.739	105.06
502.956	94.06
503.172	94.06
503.389	96.06
503.606	89.06
503.823	90.06
504.04	93.06
504.256	97.06
504.473	84.06
504.69	102.06
504.907	111.06
505.123	94.06
505.34	83.06
505.557	90.06
505.773	109.06
505.99	105.06
506.207	85.06
506.423	95.06
506.64	86.06
506.856	91.06
507.073	85.06
507.289	91.06
507.506	101.06
507.722	91.06
507.939	86.06
508.155	78.06
508.372	91.06
508.588	92.06
508.805	83.06
509.021	89.06
509.238	89.06
509.454	100.06
509.67	96.06
509.887	76.06
510.103	100.06
510.319	109.06
510.536	100.06
510.752	106.06
510.968	92.06
511.184	98.06
511.401	93.06
511.617	80.06
511.833	92.06
512.049	93.06
512.265	83.06
512.481	95.06
512.698	82.06
512.914	93.06
513.13	91.06
513.346	91.06
513.562	95.06
513.778	88.06
513.994	90.06
514.21	97.06
514.426	92.06
514.642	86.06
514.858	105.06
515.074	75.06
515.29	107.06
515.506	80.06
515.721	83.06
515.937	83.06
516.153	97.06
516.369	93.06
516.585	107.06
516.801	99.06
517.016	84.06
517.232	90.06
517.448	99.06
517.664	98.06
517.879	99.06
518.095	94.06
518.311	85.06
