Data from Ni(NO3)2@0.5M.TitratingCurve.Agarose3%dH2O.NegLispCup.LampEnergy10.LIBS07252019_HRD10591_17-57-20-563.txt Node
Date: Thu Jul 25 17:57:20 EDT 2019
User: cochatt
Spectrometer: HR+D1059
Trigger mode: 1
Integration Time (sec): 1.000000E-1
Scans to average: 1
Electric dark correction enabled: true
Nonlinearity correction enabled: false
Boxcar width: 0
XAxis mode: Wavelengths
Number of Pixels in Spectrum: 2048
>>>>>Begin Spectral Data<<<<<
223.165	-10.94
223.4	-10.94
223.635	-10.94
223.869	-27.94
224.104	-10.94
224.338	-19.94
224.573	-10.94
224.808	-14.94
225.042	-7.94
225.277	-11.94
225.511	-4.94
225.746	10.06
225.98	3.06
226.215	11.06
226.449	19.06
226.683	18.06
226.918	22.06
227.152	37.06
227.387	29.06
227.621	28.06
227.856	45.06
228.09	49.06
228.324	45.06
228.559	35.06
228.793	78.06
229.027	151.06
229.262	170.06
229.496	148.06
229.73	163.06
229.964	215.06
230.199	229.06
230.433	250.06
230.667	232.06
230.901	203.06
231.136	191.06
231.37	207.06
231.604	218.06
231.838	236.06
232.072	242.06
232.306	233.06
232.541	214.06
232.775	199.06
233.009	211.06
233.243	207.06
233.477	185.06
233.711	199.06
233.945	217.06
234.179	215.06
234.413	217.06
234.647	225.06
234.881	214.06
235.115	203.06
235.349	214.06
235.583	215.06
235.817	201.06
236.051	206.06
236.285	220.06
236.519	214.06
236.753	220.06
236.987	211.06
237.221	233.06
237.455	217.06
237.689	218.06
237.922	247.06
238.156	237.06
238.39	245.06
238.624	240.06
238.858	237.06
239.091	235.06
239.325	247.06
239.559	265.06
239.793	279.06
240.027	282.06
240.26	261.06
240.494	245.06
240.728	259.06
240.961	246.06
241.195	270.06
241.429	281.06
241.662	282.06
241.896	288.06
242.13	314.06
242.363	289.06
242.597	282.06
242.83	275.06
243.064	267.06
243.298	265.06
243.531	296.06
243.765	300.06
243.998	292.06
244.232	311.06
244.465	302.06
244.699	309.06
244.932	299.06
245.166	327.06
245.399	304.06
245.633	311.06
245.866	295.06
246.099	319.06
246.333	317.06
246.566	336.06
246.8	325.06
247.033	323.06
247.266	332.06
247.5	343.06
247.733	341.06
247.966	338.06
248.2	355.06
248.433	360.06
248.666	333.06
248.899	356.06
249.133	377.06
249.366	381.06
249.599	351.06
249.832	379.06
250.066	388.06
250.299	393.06
250.532	379.06
250.765	391.06
250.998	424.06
251.231	411.06
251.465	444.06
251.698	419.06
251.931	415.06
252.164	408.06
252.397	417.06
252.63	424.06
252.863	420.06
253.096	425.06
253.329	412.06
253.562	420.06
253.795	414.06
254.028	463.06
254.261	446.06
254.494	442.06
254.727	477.06
254.96	451.06
255.193	464.06
255.426	471.06
255.659	450.06
255.892	461.06
256.124	462.06
256.357	450.06
256.59	466.06
256.823	482.06
257.056	488.06
257.289	508.06
257.521	490.06
257.754	495.06
257.987	510.06
258.22	483.06
258.452	501.06
258.685	532.06
258.918	520.06
259.151	518.06
259.383	529.06
259.616	519.06
259.849	536.06
260.081	537.06
260.314	540.06
260.547	530.06
260.779	538.06
261.012	552.06
261.244	556.06
261.477	570.06
261.71	579.06
261.942	553.06
262.175	558.06
262.407	551.06
262.64	555.06
262.872	563.06
263.105	563.06
263.337	590.06
263.57	574.06
263.802	562.06
264.035	575.06
264.267	590.06
264.499	585.06
264.732	571.06
264.964	589.06
265.197	586.06
265.429	592.06
265.661	579.06
265.894	604.06
266.126	598.06
266.358	598.06
266.591	588.06
266.823	624.06
267.055	614.06
267.287	599.06
267.52	596.06
267.752	602.06
267.984	611.06
268.216	621.06
268.448	636.06
268.681	636.06
268.913	666.06
269.145	624.06
269.377	627.06
269.609	632.06
269.841	612.06
270.073	615.06
270.306	651.06
270.538	636.06
270.77	639.06
271.002	667.06
271.234	636.06
271.466	665.06
271.698	663.06
271.93	645.06
272.162	651.06
272.394	651.06
272.626	668.06
272.858	679.06
273.09	671.06
273.322	694.06
273.553	689.06
273.785	672.06
274.017	663.06
274.249	695.06
274.481	701.06
274.713	693.06
274.945	692.06
275.176	709.06
275.408	701.06
275.64	697.06
275.872	718.06
276.104	720.06
276.335	705.06
276.567	723.06
276.799	717.06
277.031	746.06
277.262	752.06
277.494	747.06
277.726	710.06
277.957	725.06
278.189	715.06
278.421	753.06
278.652	759.06
278.884	757.06
279.115	744.06
279.347	751.06
279.579	767.06
279.81	759.06
280.042	751.06
280.273	748.06
280.505	768.06
280.736	755.06
280.968	776.06
281.199	740.06
281.431	767.06
281.662	756.06
281.894	757.06
282.125	761.06
282.356	789.06
282.588	767.06
282.819	771.06
283.051	794.06
283.282	787.06
283.513	783.06
283.745	786.06
283.976	809.06
284.207	790.06
284.439	781.06
284.67	796.06
284.901	813.06
285.132	784.06
285.364	797.06
285.595	796.06
285.826	804.06
286.057	803.06
286.288	803.06
286.52	822.06
286.751	807.06
286.982	817.06
287.213	802.06
287.444	816.06
287.675	815.06
287.906	837.06
288.138	845.06
288.369	846.06
288.6	841.06
288.831	841.06
289.062	839.06
289.293	827.06
289.524	825.06
289.755	855.06
289.986	859.06
290.217	841.06
290.448	831.06
290.679	845.06
290.91	854.06
291.141	848.06
291.371	877.06
291.602	864.06
291.833	854.06
292.064	828.06
292.295	876.06
292.526	835.06
292.757	845.06
292.987	858.06
293.218	835.06
293.449	832.06
293.68	855.06
293.91	848.06
294.141	864.06
294.372	883.06
294.603	871.06
294.833	863.06
295.064	875.06
295.295	853.06
295.525	868.06
295.756	854.06
295.987	862.06
296.217	881.06
296.448	865.06
296.679	883.06
296.909	859.06
297.14	870.06
297.37	888.06
297.601	895.06
297.831	865.06
298.062	873.06
298.292	895.06
298.523	899.06
298.753	886.06
298.984	902.06
299.214	897.06
299.445	894.06
299.675	893.06
299.905	927.06
300.136	964.06
300.366	943.06
300.597	966.06
300.827	949.06
301.057	957.06
301.288	974.06
301.518	949.06
301.748	950.06
301.979	953.06
302.209	961.06
302.439	971.06
302.669	954.06
302.9	975.06
303.13	959.06
303.36	957.06
303.59	951.06
303.82	1004.06
304.051	1000.06
304.281	1009.06
304.511	976.06
304.741	964.06
304.971	982.06
305.201	998.06
305.431	1022.06
305.661	1001.06
305.891	999.06
306.121	997.06
306.352	994.06
306.582	979.06
306.812	979.06
307.042	989.06
307.272	995.06
307.502	986.06
307.731	1001.06
307.961	976.06
308.191	1005.06
308.421	965.06
308.651	1004.06
308.881	993.06
309.111	973.06
309.341	1028.06
309.571	1023.06
309.8	1013.06
310.03	1057.06
310.26	1081.06
310.49	1063.06
310.72	1065.06
310.949	1036.06
311.179	1047.06
311.409	1016.06
311.639	1011.06
311.868	1035.06
312.098	1049.06
312.328	1072.06
312.557	1078.06
312.787	1079.06
313.017	1037.06
313.246	1101.06
313.476	1079.06
313.706	1106.06
313.935	1111.06
314.165	1072.06
314.394	1108.06
314.624	1070.06
314.853	1099.06
315.083	1088.06
315.312	1095.06
315.542	1091.06
315.771	1088.06
316.001	1119.06
316.23	1099.06
316.46	1128.06
316.689	1132.06
316.919	1137.06
317.148	1096.06
317.377	1153.06
317.607	1111.06
317.836	1136.06
318.065	1132.06
318.295	1149.06
318.524	1166.06
318.753	1133.06
318.983	1157.06
319.212	1145.06
319.441	1171.06
319.67	1166.06
319.9	1187.06
320.129	1208.06
320.358	1199.06
320.587	1169.06
320.816	1179.06
321.046	1188.06
321.275	1189.06
321.504	1221.06
321.733	1225.06
321.962	1198.06
322.191	1239.06
322.42	1216.06
322.649	1232.06
322.878	1228.06
323.108	1246.06
323.337	1267.06
323.566	1244.06
323.795	1242.06
324.024	1245.06
324.253	1253.06
324.482	1215.06
324.71	1229.06
324.939	1247.06
325.168	1286.06
325.397	1231.06
325.626	1261.06
325.855	1268.06
326.084	1305.06
326.313	1269.06
326.542	1275.06
326.77	1305.06
326.999	1278.06
327.228	1278.06
327.457	1302.06
327.686	1318.06
327.914	1335.06
328.143	1324.06
328.372	1320.06
328.6	1308.06
328.829	1311.06
329.058	1301.06
329.287	1314.06
329.515	1331.06
329.744	1311.06
329.972	1361.06
330.201	1346.06
330.43	1339.06
330.658	1351.06
330.887	1327.06
331.115	1345.06
331.344	1358.06
331.572	1345.06
331.801	1375.06
332.03	1390.06
332.258	1408.06
332.486	1395.06
332.715	1397.06
332.943	1357.06
333.172	1360.06
333.4	1412.06
333.629	1380.06
333.857	1399.06
334.085	1415.06
334.314	1430.06
334.542	1415.06
334.771	1435.06
334.999	1400.06
335.227	1425.06
335.455	1444.06
335.684	1437.06
335.912	1461.06
336.14	1434.06
336.369	1439.06
336.597	1479.06
336.825	1498.06
337.053	1501.06
337.281	1488.06
337.51	1456.06
337.738	1465.06
337.966	1439.06
338.194	1433.06
338.422	1465.06
338.65	1456.06
338.878	1431.06
339.106	1431.06
339.334	1461.06
339.562	1480.06
339.79	1440.06
340.018	1406.06
340.246	1388.06
340.474	1456.06
340.702	1393.06
340.93	1415.06
341.158	1475.06
341.386	1462.06
341.614	1503.06
341.842	1492.06
342.07	1404.06
342.298	1457.06
342.526	1473.06
342.754	1449.06
342.981	1408.06
343.209	1417.06
343.437	1454.06
343.665	1481.06
343.893	1489.06
344.12	1464.06
344.348	1443.06
344.576	1459.06
344.804	1496.06
345.031	1461.06
345.259	1428.06
345.487	1443.06
345.714	1478.06
345.942	1472.06
346.17	1485.06
346.397	1477.06
346.625	1402.06
346.853	1382.06
347.08	1419.06
347.308	1419.06
347.535	1377.06
347.763	1367.06
347.99	1358.06
348.218	1399.06
348.445	1395.06
348.673	1376.06
348.9	1408.06
349.128	1419.06
349.355	1448.06
349.583	1417.06
349.81	1393.06
350.037	1361.06
350.265	1392.06
350.492	1390.06
350.72	1397.06
350.947	1395.06
351.174	1434.06
351.402	1432.06
351.629	1423.06
351.856	1425.06
352.083	1418.06
352.311	1424.06
352.538	1427.06
352.765	1428.06
352.992	1361.06
353.22	1355.06
353.447	1365.06
353.674	1364.06
353.901	1366.06
354.128	1360.06
354.355	1339.06
354.583	1309.06
354.81	1363.06
355.037	1332.06
355.264	1335.06
355.491	1320.06
355.718	1351.06
355.945	1343.06
356.172	1344.06
356.399	1355.06
356.626	1385.06
356.853	1366.06
357.08	1366.06
357.307	1359.06
357.534	1346.06
357.761	1359.06
357.988	1341.06
358.215	1377.06
358.441	1337.06
358.668	1309.06
358.895	1337.06
359.122	1380.06
359.349	1365.06
359.576	1337.06
359.802	1364.06
360.029	1348.06
360.256	1368.06
360.483	1344.06
360.709	1366.06
360.936	1366.06
361.163	1402.06
361.39	1357.06
361.616	1370.06
361.843	1404.06
362.07	1467.06
362.296	1410.06
362.523	1368.06
362.749	1379.06
362.976	1334.06
363.203	1344.06
363.429	1361.06
363.656	1308.06
363.882	1326.06
364.109	1374.06
364.335	1369.06
364.562	1345.06
364.788	1355.06
365.015	1365.06
365.241	1355.06
365.468	1344.06
365.694	1338.06
365.92	1365.06
366.147	1343.06
366.373	1359.06
366.599	1386.06
366.826	1339.06
367.052	1352.06
367.278	1396.06
367.505	1374.06
367.731	1401.06
367.957	1368.06
368.184	1375.06
368.41	1373.06
368.636	1369.06
368.862	1361.06
369.089	1341.06
369.315	1351.06
369.541	1355.06
369.767	1374.06
369.993	1373.06
370.219	1357.06
370.445	1412.06
370.672	1395.06
370.898	1382.06
371.124	1383.06
371.35	1384.06
371.576	1378.06
371.802	1385.06
372.028	1388.06
372.254	1392.06
372.48	1372.06
372.706	1432.06
372.932	1375.06
373.158	1394.06
373.384	1412.06
373.61	1381.06
373.835	1411.06
374.061	1403.06
374.287	1398.06
374.513	1367.06
374.739	1417.06
374.965	1376.06
375.191	1370.06
375.416	1391.06
375.642	1396.06
375.868	1393.06
376.094	1409.06
376.319	1374.06
376.545	1373.06
376.771	1359.06
376.997	1397.06
377.222	1379.06
377.448	1354.06
377.674	1367.06
377.899	1349.06
378.125	1369.06
378.35	1373.06
378.576	1368.06
378.802	1377.06
379.027	1345.06
379.253	1367.06
379.478	1376.06
379.704	1351.06
379.929	1387.06
380.155	1357.06
380.38	1324.06
380.606	1386.06
380.831	1345.06
381.057	1337.06
381.282	1312.06
381.507	1359.06
381.733	1364.06
381.958	1380.06
382.184	1356.06
382.409	1349.06
382.634	1368.06
382.86	1383.06
383.085	1400.06
383.31	1379.06
383.535	1375.06
383.761	1392.06
383.986	1387.06
384.211	1380.06
384.436	1424.06
384.662	1386.06
384.887	1433.06
385.112	1401.06
385.337	1401.06
385.562	1440.06
385.787	1454.06
386.013	1457.06
386.238	1454.06
386.463	1433.06
386.688	1455.06
386.913	1431.06
387.138	1447.06
387.363	1435.06
387.588	1427.06
387.813	1433.06
388.038	1448.06
388.263	1431.06
388.488	1435.06
388.713	1447.06
388.938	1479.06
389.163	1464.06
389.387	1484.06
389.612	1448.06
389.837	1454.06
390.062	1436.06
390.287	1436.06
390.512	1442.06
390.736	1471.06
390.961	1459.06
391.186	1482.06
391.411	1456.06
391.636	1469.06
391.86	1471.06
392.085	1454.06
392.31	1461.06
392.534	1471.06
392.759	1460.06
392.984	1454.06
393.208	1505.06
393.433	1471.06
393.658	1505.06
393.882	1449.06
394.107	1452.06
394.331	1454.06
394.556	1424.06
394.78	1486.06
395.005	1483.06
395.229	1455.06
395.454	1473.06
395.678	1472.06
395.903	1482.06
396.127	1496.06
396.352	1454.06
396.576	1489.06
396.801	1471.06
397.025	1500.06
397.249	1495.06
397.474	1549.06
397.698	1521.06
397.922	1503.06
398.147	1498.06
398.371	1538.06
398.595	1544.06
398.82	1558.06
399.044	1566.06
399.268	1578.06
399.492	1585.06
399.717	1617.06
399.941	1642.06
400.165	1662.06
400.389	1628.06
400.613	1625.06
400.837	1587.06
401.062	1574.06
401.286	1571.06
401.51	1584.06
401.734	1546.06
401.958	1585.06
402.182	1541.06
402.406	1587.06
402.63	1556.06
402.854	1528.06
403.078	1559.06
403.302	1603.06
403.526	1569.06
403.75	1570.06
403.974	1604.06
404.198	1573.06
404.422	1587.06
404.645	1553.06
404.869	1582.06
405.093	1594.06
405.317	1627.06
405.541	1617.06
405.765	1599.06
405.988	1581.06
406.212	1635.06
406.436	1625.06
406.66	1657.06
406.883	1651.06
407.107	1649.06
407.331	1635.06
407.555	1669.06
407.778	1669.06
408.002	1677.06
408.226	1677.06
408.449	1686.06
408.673	1632.06
408.896	1660.06
409.12	1631.06
409.344	1660.06
409.567	1615.06
409.791	1648.06
410.014	1671.06
410.238	1657.06
410.461	1641.06
410.685	1678.06
410.908	1626.06
411.132	1665.06
411.355	1597.06
411.578	1620.06
411.802	1597.06
412.025	1610.06
412.249	1611.06
412.472	1629.06
412.695	1565.06
412.919	1556.06
413.142	1594.06
413.365	1621.06
413.589	1595.06
413.812	1596.06
414.035	1585.06
414.258	1598.06
414.482	1574.06
414.705	1557.06
414.928	1573.06
415.151	1575.06
415.374	1589.06
415.597	1552.06
415.821	1531.06
416.044	1565.06
416.267	1547.06
416.49	1532.06
416.713	1539.06
416.936	1539.06
417.159	1515.06
417.382	1498.06
417.605	1515.06
417.828	1518.06
418.051	1542.06
418.274	1528.06
418.497	1481.06
418.72	1512.06
418.943	1517.06
419.166	1557.06
419.389	1654.06
419.611	1612.06
419.834	1578.06
420.057	1545.06
420.28	1500.06
420.503	1495.06
420.726	1501.06
420.948	1527.06
421.171	1493.06
421.394	1529.06
421.617	1461.06
421.839	1526.06
422.062	1485.06
422.285	1485.06
422.507	1495.06
422.73	1504.06
422.953	1489.06
423.175	1518.06
423.398	1492.06
423.621	1471.06
423.843	1503.06
424.066	1512.06
424.288	1520.06
424.511	1513.06
424.733	1527.06
424.956	1489.06
425.178	1525.06
425.401	1531.06
425.623	1523.06
425.846	1492.06
426.068	1523.06
426.291	1518.06
426.513	1508.06
426.735	1483.06
426.958	1495.06
427.18	1454.06
427.402	1489.06
427.625	1481.06
427.847	1483.06
428.069	1493.06
428.292	1520.06
428.514	1516.06
428.736	1501.06
428.958	1497.06
429.181	1470.06
429.403	1502.06
429.625	1475.06
429.847	1489.06
430.069	1491.06
430.292	1502.06
430.514	1484.06
430.736	1508.06
430.958	1490.06
431.18	1519.06
431.402	1519.06
431.624	1506.06
431.846	1476.06
432.068	1453.06
432.29	1488.06
432.512	1469.06
432.734	1536.06
432.956	1489.06
433.178	1579.06
433.4	1538.06
433.622	1569.06
433.844	1525.06
434.066	1578.06
434.287	1481.06
434.509	1483.06
434.731	1556.06
434.953	1544.06
435.175	1541.06
435.397	1604.06
435.618	1540.06
435.84	1497.06
436.062	1507.06
436.284	1541.06
436.505	1464.06
436.727	1497.06
436.949	1520.06
437.17	1494.06
437.392	1504.06
437.614	1504.06
437.835	1443.06
438.057	1461.06
438.278	1419.06
438.5	1447.06
438.721	1456.06
438.943	1488.06
439.165	1500.06
439.386	1463.06
439.608	1509.06
439.829	1470.06
440.05	1484.06
440.272	1463.06
440.493	1483.06
440.715	1498.06
440.936	1525.06
441.158	1491.06
441.379	1513.06
441.6	1535.06
441.822	1528.06
442.043	1529.06
442.264	1540.06
442.486	1539.06
442.707	1513.06
442.928	1499.06
443.149	1529.06
443.371	1599.06
443.592	1603.06
443.813	1596.06
444.034	1552.06
444.255	1536.06
444.476	1572.06
444.698	1554.06
444.919	1593.06
445.14	1703.06
445.361	1621.06
445.582	1547.06
445.803	1501.06
446.024	1525.06
446.245	1549.06
446.466	1513.06
446.687	1475.06
446.908	1443.06
447.129	1467.06
447.35	1447.06
447.571	1465.06
447.792	1423.06
448.013	1425.06
448.234	1407.06
448.455	1452.06
448.675	1421.06
448.896	1435.06
449.117	1369.06
449.338	1388.06
449.559	1344.06
449.779	1372.06
450	1413.06
450.221	1382.06
450.442	1407.06
450.662	1399.06
450.883	1379.06
451.104	1383.06
451.324	1365.06
451.545	1399.06
451.766	1398.06
451.986	1343.06
452.207	1351.06
452.428	1364.06
452.648	1360.06
452.869	1319.06
453.089	1352.06
453.31	1355.06
453.53	1339.06
453.751	1336.06
453.971	1344.06
454.192	1375.06
454.412	1377.06
454.633	1338.06
454.853	1350.06
455.073	1325.06
455.294	1343.06
455.514	1348.06
455.734	1353.06
455.955	1415.06
456.175	1388.06
456.395	1343.06
456.616	1312.06
456.836	1346.06
457.056	1376.06
457.276	1352.06
457.497	1384.06
457.717	1338.06
457.937	1355.06
458.157	1352.06
458.377	1331.06
458.598	1358.06
458.818	1406.06
459.038	1390.06
459.258	1395.06
459.478	1488.06
459.698	1510.06
459.918	1547.06
460.138	1513.06
460.358	1533.06
460.578	1457.06
460.798	1557.06
461.018	1528.06
461.238	1474.06
461.458	1516.06
461.678	1472.06
461.898	1486.06
462.118	1472.06
462.338	1544.06
462.558	1552.06
462.777	1575.06
462.997	1611.06
463.217	1605.06
463.437	1692.06
463.657	1644.06
463.876	1579.06
464.096	1580.06
464.316	1590.06
464.536	1576.06
464.755	1527.06
464.975	1561.06
465.195	1526.06
465.414	1493.06
465.634	1483.06
465.854	1437.06
466.073	1470.06
466.293	1411.06
466.512	1451.06
466.732	1482.06
466.951	1462.06
467.171	1445.06
467.391	1461.06
467.61	1470.06
467.829	1417.06
468.049	1431.06
468.268	1440.06
468.488	1446.06
468.707	1461.06
468.927	1447.06
469.146	1446.06
469.365	1496.06
469.585	1407.06
469.804	1437.06
470.023	1431.06
470.243	1433.06
470.462	1446.06
470.681	1458.06
470.901	1461.06
471.12	1439.06
471.339	1453.06
471.558	1473.06
471.777	1461.06
471.997	1499.06
472.216	1478.06
472.435	1453.06
472.654	1450.06
472.873	1461.06
473.092	1477.06
473.311	1467.06
473.53	1499.06
473.749	1490.06
473.968	1496.06
474.187	1491.06
474.406	1489.06
474.625	1525.06
474.844	1507.06
475.063	1526.06
475.282	1560.06
475.501	1561.06
475.72	1528.06
475.939	1535.06
476.158	1554.06
476.377	1575.06
476.596	1528.06
476.814	1547.06
477.033	1575.06
477.252	1595.06
477.471	1617.06
477.69	1628.06
477.908	1640.06
478.127	1633.06
478.346	1686.06
478.564	1686.06
478.783	1693.06
479.002	1696.06
479.22	1758.06
479.439	1788.06
479.658	1721.06
479.876	1718.06
480.095	1716.06
480.313	1729.06
480.532	1766.06
480.751	1707.06
480.969	1708.06
481.188	1715.06
481.406	1709.06
481.624	1732.06
481.843	1707.06
482.061	1742.06
482.28	1756.06
482.498	1751.06
482.717	1728.06
482.935	1783.06
483.153	1792.06
483.372	1853.06
483.59	1861.06
483.808	1793.06
484.027	1790.06
484.245	1808.06
484.463	1812.06
484.681	1857.06
484.9	1815.06
485.118	1835.06
485.336	1819.06
485.554	1845.06
485.772	1830.06
485.99	1781.06
486.209	1824.06
486.427	1831.06
486.645	1797.06
486.863	1817.06
487.081	1803.06
487.299	1845.06
487.517	1832.06
487.735	1831.06
487.953	1913.06
488.171	1902.06
488.389	1871.06
488.607	1874.06
488.825	1856.06
489.043	1845.06
489.261	1860.06
489.479	1807.06
489.696	1877.06
489.914	1830.06
490.132	1823.06
490.35	1859.06
