Data from Ni(NO3)2@0.5M.TitratingCurve.Agarose3%dH2O.NegLispCup.LampEnergy10.LIBS07252019_HRD10591_17-59-32-564.txt Node
Date: Thu Jul 25 17:59:32 EDT 2019
User: cochatt
Spectrometer: HR+D1059
Trigger mode: 1
Integration Time (sec): 1.000000E-1
Scans to average: 1
Electric dark correction enabled: true
Nonlinearity correction enabled: false
Boxcar width: 0
XAxis mode: Wavelengths
Number of Pixels in Spectrum: 2048
>>>>>Begin Spectral Data<<<<<
223.165	-17.75
223.4	-17.75
223.635	-17.75
223.869	-8.75
224.104	-23.75
224.338	-13.75
224.573	-8.75
224.808	-24.75
225.042	-19.75
225.277	-21.75
225.511	16.25
225.746	12.25
225.98	2.25
226.215	22.25
226.449	14.25
226.683	16.25
226.918	35.25
227.152	20.25
227.387	39.25
227.621	40.25
227.856	40.25
228.09	47.25
228.324	52.25
228.559	60.25
228.793	68.25
229.027	108.25
229.262	117.25
229.496	124.25
229.73	123.25
229.964	133.25
230.199	148.25
230.433	144.25
230.667	160.25
230.901	144.25
231.136	147.25
231.37	134.25
231.604	142.25
231.838	168.25
232.072	155.25
232.306	158.25
232.541	151.25
232.775	139.25
233.009	125.25
233.243	148.25
233.477	130.25
233.711	140.25
233.945	132.25
234.179	131.25
234.413	142.25
234.647	127.25
234.881	137.25
235.115	139.25
235.349	139.25
235.583	131.25
235.817	127.25
236.051	132.25
236.285	128.25
236.519	119.25
236.753	121.25
236.987	132.25
237.221	126.25
237.455	142.25
237.689	142.25
237.922	143.25
238.156	133.25
238.39	143.25
238.624	132.25
238.858	134.25
239.091	139.25
239.325	138.25
239.559	147.25
239.793	180.25
240.027	168.25
240.26	156.25
240.494	148.25
240.728	148.25
240.961	150.25
241.195	153.25
241.429	167.25
241.662	163.25
241.896	174.25
242.13	194.25
242.363	159.25
242.597	150.25
242.83	157.25
243.064	171.25
243.298	162.25
243.531	157.25
243.765	160.25
243.998	170.25
244.232	182.25
244.465	188.25
244.699	177.25
244.932	165.25
245.166	163.25
245.399	158.25
245.633	173.25
245.866	173.25
246.099	166.25
246.333	178.25
246.566	174.25
246.8	158.25
247.033	179.25
247.266	162.25
247.5	188.25
247.733	186.25
247.966	172.25
248.2	182.25
248.433	178.25
248.666	189.25
248.899	182.25
249.133	177.25
249.366	211.25
249.599	187.25
249.832	187.25
250.066	202.25
250.299	186.25
250.532	181.25
250.765	191.25
250.998	193.25
251.231	227.25
251.465	214.25
251.698	207.25
251.931	192.25
252.164	198.25
252.397	209.25
252.63	225.25
252.863	208.25
253.096	202.25
253.329	217.25
253.562	203.25
253.795	229.25
254.028	208.25
254.261	197.25
254.494	219.25
254.727	218.25
254.96	199.25
255.193	231.25
255.426	217.25
255.659	202.25
255.892	235.25
256.124	224.25
256.357	225.25
256.59	214.25
256.823	227.25
257.056	211.25
257.289	233.25
257.521	208.25
257.754	219.25
257.987	222.25
258.22	224.25
258.452	237.25
258.685	233.25
258.918	222.25
259.151	231.25
259.383	226.25
259.616	255.25
259.849	234.25
260.081	247.25
260.314	258.25
260.547	221.25
260.779	240.25
261.012	234.25
261.244	244.25
261.477	270.25
261.71	246.25
261.942	246.25
262.175	247.25
262.407	244.25
262.64	249.25
262.872	247.25
263.105	240.25
263.337	258.25
263.57	251.25
263.802	240.25
264.035	253.25
264.267	255.25
264.499	252.25
264.732	274.25
264.964	276.25
265.197	252.25
265.429	267.25
265.661	262.25
265.894	270.25
266.126	282.25
266.358	256.25
266.591	288.25
266.823	268.25
267.055	270.25
267.287	280.25
267.52	282.25
267.752	264.25
267.984	262.25
268.216	285.25
268.448	285.25
268.681	288.25
268.913	278.25
269.145	275.25
269.377	272.25
269.609	286.25
269.841	279.25
270.073	290.25
270.306	279.25
270.538	279.25
270.77	291.25
271.002	294.25
271.234	302.25
271.466	290.25
271.698	287.25
271.93	299.25
272.162	280.25
272.394	280.25
272.626	311.25
272.858	305.25
273.09	311.25
273.322	291.25
273.553	301.25
273.785	290.25
274.017	298.25
274.249	300.25
274.481	296.25
274.713	297.25
274.945	308.25
275.176	302.25
275.408	316.25
275.64	295.25
275.872	301.25
276.104	317.25
276.335	308.25
276.567	319.25
276.799	306.25
277.031	342.25
277.262	328.25
277.494	296.25
277.726	319.25
277.957	322.25
278.189	330.25
278.421	314.25
278.652	332.25
278.884	332.25
279.115	340.25
279.347	338.25
279.579	327.25
279.81	342.25
280.042	327.25
280.273	335.25
280.505	358.25
280.736	328.25
280.968	322.25
281.199	330.25
281.431	332.25
281.662	313.25
281.894	328.25
282.125	338.25
282.356	357.25
282.588	350.25
282.819	354.25
283.051	344.25
283.282	338.25
283.513	334.25
283.745	355.25
283.976	354.25
284.207	350.25
284.439	348.25
284.67	350.25
284.901	379.25
285.132	373.25
285.364	329.25
285.595	346.25
285.826	344.25
286.057	348.25
286.288	363.25
286.52	354.25
286.751	361.25
286.982	342.25
287.213	372.25
287.444	354.25
287.675	370.25
287.906	372.25
288.138	380.25
288.369	366.25
288.6	376.25
288.831	386.25
289.062	370.25
289.293	380.25
289.524	367.25
289.755	386.25
289.986	376.25
290.217	374.25
290.448	379.25
290.679	364.25
290.91	380.25
291.141	354.25
291.371	367.25
291.602	375.25
291.833	371.25
292.064	378.25
292.295	378.25
292.526	358.25
292.757	383.25
292.987	367.25
293.218	370.25
293.449	374.25
293.68	363.25
293.91	377.25
294.141	390.25
294.372	383.25
294.603	375.25
294.833	389.25
295.064	393.25
295.295	392.25
295.525	388.25
295.756	370.25
295.987	367.25
296.217	398.25
296.448	381.25
296.679	384.25
296.909	393.25
297.14	394.25
297.37	422.25
297.601	402.25
297.831	384.25
298.062	409.25
298.292	418.25
298.523	408.25
298.753	401.25
298.984	395.25
299.214	416.25
299.445	416.25
299.675	416.25
299.905	415.25
300.136	412.25
300.366	418.25
300.597	438.25
300.827	425.25
301.057	416.25
301.288	442.25
301.518	426.25
301.748	442.25
301.979	427.25
302.209	429.25
302.439	419.25
302.669	439.25
302.9	421.25
303.13	418.25
303.36	422.25
303.59	426.25
303.82	422.25
304.051	435.25
304.281	446.25
304.511	450.25
304.741	417.25
304.971	441.25
305.201	471.25
305.431	462.25
305.661	450.25
305.891	437.25
306.121	459.25
306.352	421.25
306.582	431.25
306.812	425.25
307.042	441.25
307.272	442.25
307.502	427.25
307.731	441.25
307.961	431.25
308.191	418.25
308.421	439.25
308.651	431.25
308.881	438.25
309.111	410.25
309.341	453.25
309.571	462.25
309.8	446.25
310.03	440.25
310.26	451.25
310.49	458.25
310.72	462.25
310.949	451.25
311.179	434.25
311.409	436.25
311.639	458.25
311.868	448.25
312.098	441.25
312.328	451.25
312.557	463.25
312.787	476.25
313.017	450.25
313.246	479.25
313.476	470.25
313.706	482.25
313.935	475.25
314.165	466.25
314.394	456.25
314.624	475.25
314.853	466.25
315.083	460.25
315.312	473.25
315.542	484.25
315.771	450.25
316.001	465.25
316.23	454.25
316.46	500.25
316.689	461.25
316.919	472.25
317.148	494.25
317.377	466.25
317.607	470.25
317.836	465.25
318.065	469.25
318.295	484.25
318.524	491.25
318.753	461.25
318.983	477.25
319.212	469.25
319.441	487.25
319.67	495.25
319.9	485.25
320.129	465.25
320.358	476.25
320.587	488.25
320.816	480.25
321.046	485.25
321.275	483.25
321.504	495.25
321.733	480.25
321.962	486.25
322.191	496.25
322.42	492.25
322.649	495.25
322.878	485.25
323.108	482.25
323.337	486.25
323.566	504.25
323.795	506.25
324.024	518.25
324.253	500.25
324.482	496.25
324.71	500.25
324.939	512.25
325.168	513.25
325.397	523.25
325.626	513.25
325.855	522.25
326.084	510.25
326.313	538.25
326.542	520.25
326.77	527.25
326.999	538.25
327.228	528.25
327.457	520.25
327.686	514.25
327.914	519.25
328.143	529.25
328.372	514.25
328.6	541.25
328.829	524.25
329.058	551.25
329.287	541.25
329.515	540.25
329.744	522.25
329.972	542.25
330.201	550.25
330.43	550.25
330.658	554.25
330.887	528.25
331.115	553.25
331.344	566.25
331.572	540.25
331.801	565.25
332.03	580.25
332.258	560.25
332.486	576.25
332.715	578.25
332.943	590.25
333.172	598.25
333.4	587.25
333.629	608.25
333.857	610.25
334.085	622.25
334.314	616.25
334.542	619.25
334.771	630.25
334.999	601.25
335.227	618.25
335.455	619.25
335.684	597.25
335.912	598.25
336.14	595.25
336.369	605.25
336.597	614.25
336.825	610.25
337.053	629.25
337.281	631.25
337.51	598.25
337.738	607.25
337.966	608.25
338.194	597.25
338.422	599.25
338.65	574.25
338.878	571.25
339.106	588.25
339.334	601.25
339.562	593.25
339.79	552.25
340.018	570.25
340.246	573.25
340.474	577.25
340.702	559.25
340.93	540.25
341.158	579.25
341.386	607.25
341.614	624.25
341.842	615.25
342.07	569.25
342.298	566.25
342.526	584.25
342.754	574.25
342.981	571.25
343.209	567.25
343.437	596.25
343.665	615.25
343.893	615.25
344.12	635.25
344.348	622.25
344.576	621.25
344.804	611.25
345.031	599.25
345.259	612.25
345.487	573.25
345.714	582.25
345.942	613.25
346.17	604.25
346.397	590.25
346.625	587.25
346.853	577.25
347.08	555.25
347.308	569.25
347.535	568.25
347.763	556.25
347.99	538.25
348.218	556.25
348.445	564.25
348.673	540.25
348.9	544.25
349.128	552.25
349.355	572.25
349.583	586.25
349.81	553.25
350.037	560.25
350.265	538.25
350.492	554.25
350.72	558.25
350.947	540.25
351.174	547.25
351.402	586.25
351.629	576.25
351.856	570.25
352.083	587.25
352.311	576.25
352.538	592.25
352.765	572.25
352.992	544.25
353.22	533.25
353.447	552.25
353.674	528.25
353.901	546.25
354.128	527.25
354.355	528.25
354.583	528.25
354.81	549.25
355.037	538.25
355.264	537.25
355.491	514.25
355.718	531.25
355.945	537.25
356.172	534.25
356.399	564.25
356.626	550.25
356.853	567.25
357.08	543.25
357.307	535.25
357.534	571.25
357.761	552.25
357.988	538.25
358.215	554.25
358.441	546.25
358.668	540.25
358.895	555.25
359.122	535.25
359.349	534.25
359.576	550.25
359.802	532.25
360.029	523.25
360.256	533.25
360.483	548.25
360.709	540.25
360.936	554.25
361.163	548.25
361.39	541.25
361.616	564.25
361.843	562.25
362.07	607.25
362.296	581.25
362.523	532.25
362.749	557.25
362.976	540.25
363.203	555.25
363.429	542.25
363.656	567.25
363.882	536.25
364.109	559.25
364.335	525.25
364.562	548.25
364.788	544.25
365.015	524.25
365.241	551.25
365.468	555.25
365.694	553.25
365.92	541.25
366.147	552.25
366.373	514.25
366.599	557.25
366.826	515.25
367.052	528.25
367.278	530.25
367.505	568.25
367.731	562.25
367.957	565.25
368.184	542.25
368.41	574.25
368.636	564.25
368.862	574.25
369.089	559.25
369.315	564.25
369.541	588.25
369.767	576.25
369.993	569.25
370.219	574.25
370.445	563.25
370.672	577.25
370.898	578.25
371.124	572.25
371.35	584.25
371.576	565.25
371.802	591.25
372.028	584.25
372.254	591.25
372.48	595.25
372.706	604.25
372.932	579.25
373.158	590.25
373.384	586.25
373.61	585.25
373.835	600.25
374.061	586.25
374.287	576.25
374.513	604.25
374.739	580.25
374.965	601.25
375.191	602.25
375.416	603.25
375.642	584.25
375.868	598.25
376.094	608.25
376.319	608.25
376.545	590.25
376.771	586.25
376.997	593.25
377.222	587.25
377.448	572.25
377.674	598.25
377.899	586.25
378.125	583.25
378.35	591.25
378.576	558.25
378.802	570.25
379.027	568.25
379.253	577.25
379.478	567.25
379.704	586.25
379.929	556.25
380.155	557.25
380.38	578.25
380.606	589.25
380.831	564.25
381.057	572.25
381.282	581.25
381.507	552.25
381.733	575.25
381.958	611.25
382.184	566.25
382.409	605.25
382.634	591.25
382.86	578.25
383.085	590.25
383.31	603.25
383.535	623.25
383.761	606.25
383.986	618.25
384.211	631.25
384.436	618.25
384.662	636.25
384.887	639.25
385.112	633.25
385.337	631.25
385.562	644.25
385.787	631.25
386.013	644.25
386.238	639.25
386.463	647.25
386.688	651.25
386.913	645.25
387.138	659.25
387.363	653.25
387.588	653.25
387.813	631.25
388.038	647.25
388.263	645.25
388.488	660.25
388.713	658.25
388.938	649.25
389.163	642.25
389.387	658.25
389.612	638.25
389.837	661.25
390.062	644.25
390.287	665.25
390.512	650.25
390.736	655.25
390.961	667.25
391.186	663.25
391.411	680.25
391.636	695.25
391.86	690.25
392.085	681.25
392.31	681.25
392.534	680.25
392.759	661.25
392.984	687.25
393.208	672.25
393.433	692.25
393.658	677.25
393.882	685.25
394.107	692.25
394.331	671.25
394.556	669.25
394.78	671.25
395.005	661.25
395.229	687.25
395.454	701.25
395.678	696.25
395.903	703.25
396.127	688.25
396.352	692.25
396.576	712.25
396.801	670.25
397.025	734.25
397.249	732.25
397.474	710.25
397.698	728.25
397.922	725.25
398.147	716.25
398.371	746.25
398.595	774.25
398.82	758.25
399.044	783.25
399.268	808.25
399.492	889.25
399.717	914.25
399.941	862.25
400.165	870.25
400.389	834.25
400.613	835.25
400.837	781.25
401.062	775.25
401.286	778.25
401.51	767.25
401.734	756.25
401.958	759.25
402.182	775.25
402.406	749.25
402.63	784.25
402.854	768.25
403.078	804.25
403.302	792.25
403.526	797.25
403.75	785.25
403.974	784.25
404.198	790.25
404.422	761.25
404.645	810.25
404.869	807.25
405.093	808.25
405.317	802.25
405.541	815.25
405.765	808.25
405.988	796.25
406.212	820.25
406.436	810.25
406.66	866.25
406.883	854.25
407.107	859.25
407.331	910.25
407.555	893.25
407.778	904.25
408.002	902.25
408.226	861.25
408.449	862.25
408.673	864.25
408.896	860.25
409.12	848.25
409.344	837.25
409.567	837.25
409.791	842.25
410.014	824.25
410.238	828.25
410.461	828.25
410.685	813.25
410.908	811.25
411.132	814.25
411.355	792.25
411.578	818.25
411.802	805.25
412.025	803.25
412.249	811.25
412.472	783.25
412.695	801.25
412.919	788.25
413.142	820.25
413.365	777.25
413.589	784.25
413.812	754.25
414.035	783.25
414.258	781.25
414.482	784.25
414.705	767.25
414.928	790.25
415.151	767.25
415.374	746.25
415.597	765.25
415.821	754.25
416.044	768.25
416.267	779.25
416.49	759.25
416.713	760.25
416.936	746.25
417.159	751.25
417.382	747.25
417.605	736.25
417.828	733.25
418.051	754.25
418.274	756.25
418.497	736.25
418.72	764.25
418.943	772.25
419.166	812.25
419.389	836.25
419.611	799.25
419.834	796.25
420.057	787.25
420.28	766.25
420.503	728.25
420.726	730.25
420.948	733.25
421.171	744.25
421.394	743.25
421.617	737.25
421.839	745.25
422.062	714.25
422.285	734.25
422.507	756.25
422.73	752.25
422.953	769.25
423.175	753.25
423.398	743.25
423.621	739.25
423.843	740.25
424.066	740.25
424.288	749.25
424.511	761.25
424.733	756.25
424.956	738.25
425.178	750.25
425.401	749.25
425.623	743.25
425.846	719.25
426.068	720.25
426.291	741.25
426.513	717.25
426.735	727.25
426.958	714.25
427.18	731.25
427.402	735.25
427.625	730.25
427.847	706.25
428.069	730.25
428.292	717.25
428.514	697.25
428.736	684.25
428.958	697.25
429.181	729.25
429.403	700.25
429.625	712.25
429.847	708.25
430.069	709.25
430.292	729.25
430.514	668.25
430.736	712.25
430.958	690.25
431.18	692.25
431.402	704.25
431.624	699.25
431.846	716.25
432.068	713.25
432.29	722.25
432.512	707.25
432.734	737.25
432.956	724.25
433.178	736.25
433.4	750.25
433.622	746.25
433.844	734.25
434.066	774.25
434.287	746.25
434.509	735.25
434.731	744.25
434.953	732.25
435.175	774.25
435.397	818.25
435.618	750.25
435.84	750.25
436.062	726.25
436.284	716.25
436.505	720.25
436.727	738.25
436.949	730.25
437.17	744.25
437.392	744.25
437.614	719.25
437.835	720.25
438.057	702.25
438.278	679.25
438.5	699.25
438.721	712.25
438.943	715.25
439.165	726.25
439.386	697.25
439.608	698.25
439.829	712.25
440.05	723.25
440.272	725.25
440.493	720.25
440.715	758.25
440.936	751.25
441.158	747.25
441.379	726.25
441.6	747.25
441.822	750.25
442.043	775.25
442.264	778.25
442.486	739.25
442.707	768.25
442.928	766.25
443.149	755.25
443.371	786.25
443.592	809.25
443.813	827.25
444.034	770.25
444.255	783.25
444.476	788.25
444.698	819.25
444.919	841.25
445.14	933.25
445.361	867.25
445.582	782.25
445.803	778.25
446.024	740.25
446.245	724.25
446.466	732.25
446.687	724.25
446.908	690.25
447.129	702.25
447.35	678.25
447.571	707.25
447.792	684.25
448.013	679.25
448.234	649.25
448.455	669.25
448.675	678.25
448.896	683.25
449.117	675.25
449.338	651.25
449.559	661.25
449.779	646.25
450	645.25
450.221	652.25
450.442	641.25
450.662	678.25
450.883	668.25
451.104	688.25
451.324	665.25
451.545	652.25
451.766	657.25
451.986	656.25
452.207	648.25
452.428	647.25
452.648	652.25
452.869	644.25
453.089	644.25
453.31	678.25
453.53	648.25
453.751	652.25
453.971	636.25
454.192	636.25
454.412	654.25
454.633	655.25
454.853	630.25
455.073	656.25
455.294	652.25
455.514	672.25
455.734	652.25
455.955	674.25
456.175	653.25
456.395	624.25
456.616	621.25
456.836	629.25
457.056	619.25
457.276	610.25
457.497	656.25
457.717	659.25
457.937	664.25
458.157	636.25
458.377	650.25
458.598	678.25
458.818	680.25
459.038	665.25
459.258	707.25
459.478	779.25
459.698	819.25
459.918	807.25
460.138	768.25
460.358	790.25
460.578	782.25
460.798	861.25
461.018	830.25
461.238	768.25
461.458	787.25
461.678	758.25
461.898	796.25
462.118	774.25
462.338	808.25
462.558	861.25
462.777	859.25
462.997	903.25
463.217	933.25
463.437	953.25
463.657	916.25
463.876	861.25
464.096	860.25
464.316	840.25
464.536	847.25
464.755	816.25
464.975	797.25
465.195	775.25
465.414	790.25
465.634	734.25
465.854	716.25
466.073	729.25
466.293	720.25
466.512	686.25
466.732	698.25
466.951	692.25
467.171	687.25
467.391	701.25
467.61	697.25
467.829	681.25
468.049	695.25
468.268	677.25
468.488	654.25
468.707	695.25
468.927	701.25
469.146	678.25
469.365	702.25
469.585	696.25
469.804	663.25
470.023	695.25
470.243	707.25
470.462	706.25
470.681	716.25
470.901	695.25
471.12	685.25
471.339	709.25
471.558	706.25
471.777	694.25
471.997	691.25
472.216	679.25
472.435	682.25
472.654	682.25
472.873	653.25
473.092	649.25
473.311	706.25
473.53	680.25
473.749	683.25
473.968	671.25
474.187	673.25
474.406	696.25
474.625	694.25
474.844	667.25
475.063	689.25
475.282	702.25
475.501	707.25
475.72	702.25
475.939	714.25
476.158	709.25
476.377	734.25
476.596	726.25
476.814	715.25
477.033	730.25
477.252	732.25
477.471	728.25
477.69	780.25
477.908	790.25
478.127	762.25
478.346	755.25
478.564	805.25
478.783	787.25
479.002	834.25
479.22	870.25
479.439	843.25
479.658	822.25
479.876	820.25
480.095	823.25
480.313	836.25
480.532	850.25
480.751	829.25
480.969	831.25
481.188	835.25
481.406	832.25
481.624	788.25
481.843	790.25
482.061	799.25
482.28	792.25
482.498	796.25
482.717	794.25
482.935	830.25
483.153	825.25
483.372	866.25
483.59	888.25
483.808	816.25
484.027	785.25
484.245	806.25
484.463	834.25
484.681	865.25
484.9	836.25
485.118	835.25
485.336	829.25
485.554	831.25
485.772	831.25
485.99	851.25
486.209	822.25
486.427	834.25
486.645	828.25
486.863	833.25
487.081	831.25
487.299	832.25
487.517	846.25
487.735	843.25
487.953	859.25
488.171	863.25
488.389	858.25
488.607	815.25
488.825	807.25
489.043	853.25
489.261	821.25
489.479	841.25
489.696	827.25
489.914	831.25
490.132	849.25
490.35	829.25
490.568	838.25
490.786	869.25
491.003	828.25
491.221	839.25
491.439	834.25
491.657	854.25
491.874	873.25
492.092	871.25
492.31	898.25
492.527	876.25
492.745	882.25
492.963	872.25
493.18	854.25
493.398	852.25
493.615	829.25
493.833	875.25
494.05	867.25
494.268	864.25
494.485	867.25
494.703	868.25
494.92	896.25
495.138	878.25
495.355	860.25
495.573	889.25
495.79	889.25
496.008	911.25
496.225	884.25
496.442	893.25
496.66	880.25
496.877	909.25
497.094	932.25
497.312	941.25
497.529	915.25
497.746	957.25
497.963	962.25
498.181	994.25
498.398	997.25
498.615	1032.25
498.832	1044.25
499.049	1095.25
499.267	1172.25
499.484	1220.25
499.701	1305.25
499.918	1318.25
500.135	1427.25
500.352	1494.25
500.569	1519.25
500.786	1524.25
501.003	1483.25
501.22	1405.25
501.437	1346.25
