Data from Ni(NO3)2Standard.Agarose3%.GreenCap.LampEnergy5.5.E.O_HRD10591_14-41-29-187.txt Node
Date: Mon Jul 22 14:41:29 EDT 2019
User: cochatt
Spectrometer: HR+D1059
Trigger mode: 1
Integration Time (sec): 1.000000E-1
Scans to average: 1
Electric dark correction enabled: true
Nonlinearity correction enabled: false
Boxcar width: 0
XAxis mode: Wavelengths
Number of Pixels in Spectrum: 2048
>>>>>Begin Spectral Data<<<<<
223.165	-21.69
223.4	-21.69
223.635	-21.69
223.869	-14.69
224.104	-21.69
224.338	-10.69
224.573	-9.69
224.808	-15.69
225.042	-18.69
225.277	-3.69
225.511	2.31
225.746	6.31
225.98	19.31
226.215	15.31
226.449	18.31
226.683	22.31
226.918	16.31
227.152	16.31
227.387	28.31
227.621	33.31
227.856	37.31
228.09	41.31
228.324	34.31
228.559	51.31
228.793	51.31
229.027	66.31
229.262	53.31
229.496	67.31
229.73	84.31
229.964	72.31
230.199	91.31
230.433	75.31
230.667	83.31
230.901	61.31
231.136	76.31
231.37	79.31
231.604	78.31
231.838	75.31
232.072	77.31
232.306	89.31
232.541	83.31
232.775	83.31
233.009	75.31
233.243	86.31
233.477	96.31
233.711	87.31
233.945	75.31
234.179	75.31
234.413	79.31
234.647	81.31
234.881	64.31
235.115	77.31
235.349	72.31
235.583	67.31
235.817	81.31
236.051	98.31
236.285	92.31
236.519	83.31
236.753	73.31
236.987	91.31
237.221	72.31
237.455	76.31
237.689	92.31
237.922	81.31
238.156	75.31
238.39	77.31
238.624	63.31
238.858	73.31
239.091	75.31
239.325	76.31
239.559	71.31
239.793	65.31
240.027	75.31
240.26	93.31
240.494	82.31
240.728	65.31
240.961	89.31
241.195	78.31
241.429	88.31
241.662	75.31
241.896	71.31
242.13	77.31
242.363	72.31
242.597	73.31
242.83	68.31
243.064	74.31
243.298	91.31
243.531	64.31
243.765	79.31
243.998	77.31
244.232	82.31
244.465	75.31
244.699	85.31
244.932	66.31
245.166	73.31
245.399	73.31
245.633	79.31
245.866	79.31
246.099	91.31
246.333	74.31
246.566	90.31
246.8	89.31
247.033	68.31
247.266	83.31
247.5	93.31
247.733	72.31
247.966	72.31
248.2	78.31
248.433	64.31
248.666	91.31
248.899	89.31
249.133	84.31
249.366	71.31
249.599	67.31
249.832	89.31
250.066	88.31
250.299	75.31
250.532	73.31
250.765	78.31
250.998	76.31
251.231	63.31
251.465	81.31
251.698	75.31
251.931	64.31
252.164	66.31
252.397	81.31
252.63	76.31
252.863	81.31
253.096	91.31
253.329	86.31
253.562	85.31
253.795	57.31
254.028	89.31
254.261	83.31
254.494	65.31
254.727	89.31
254.96	76.31
255.193	76.31
255.426	67.31
255.659	74.31
255.892	88.31
256.124	81.31
256.357	98.31
256.59	83.31
256.823	69.31
257.056	84.31
257.289	77.31
257.521	95.31
257.754	85.31
257.987	74.31
258.22	83.31
258.452	77.31
258.685	78.31
258.918	82.31
259.151	73.31
259.383	82.31
259.616	79.31
259.849	76.31
260.081	85.31
260.314	76.31
260.547	81.31
260.779	87.31
261.012	84.31
261.244	86.31
261.477	83.31
261.71	90.31
261.942	65.31
262.175	90.31
262.407	72.31
262.64	86.31
262.872	85.31
263.105	83.31
263.337	83.31
263.57	97.31
263.802	86.31
264.035	85.31
264.267	85.31
264.499	82.31
264.732	81.31
264.964	76.31
265.197	91.31
265.429	93.31
265.661	78.31
265.894	73.31
266.126	70.31
266.358	90.31
266.591	77.31
266.823	82.31
267.055	76.31
267.287	84.31
267.52	67.31
267.752	81.31
267.984	97.31
268.216	83.31
268.448	83.31
268.681	86.31
268.913	90.31
269.145	84.31
269.377	84.31
269.609	83.31
269.841	90.31
270.073	75.31
270.306	90.31
270.538	81.31
270.77	80.31
271.002	87.31
271.234	68.31
271.466	91.31
271.698	75.31
271.93	82.31
272.162	91.31
272.394	65.31
272.626	93.31
272.858	70.31
273.09	82.31
273.322	84.31
273.553	77.31
273.785	96.31
274.017	91.31
274.249	87.31
274.481	71.31
274.713	84.31
274.945	80.31
275.176	90.31
275.408	81.31
275.64	95.31
275.872	84.31
276.104	98.31
276.335	79.31
276.567	77.31
276.799	84.31
277.031	70.31
277.262	83.31
277.494	86.31
277.726	73.31
277.957	84.31
278.189	96.31
278.421	95.31
278.652	73.31
278.884	101.31
279.115	77.31
279.347	87.31
279.579	88.31
279.81	70.31
280.042	81.31
280.273	78.31
280.505	81.31
280.736	81.31
280.968	84.31
281.199	78.31
281.431	75.31
281.662	74.31
281.894	93.31
282.125	79.31
282.356	73.31
282.588	79.31
282.819	83.31
283.051	92.31
283.282	81.31
283.513	81.31
283.745	92.31
283.976	89.31
284.207	86.31
284.439	76.31
284.67	86.31
284.901	88.31
285.132	88.31
285.364	76.31
285.595	77.31
285.826	90.31
286.057	88.31
286.288	84.31
286.52	103.31
286.751	90.31
286.982	85.31
287.213	91.31
287.444	98.31
287.675	83.31
287.906	83.31
288.138	78.31
288.369	84.31
288.6	91.31
288.831	93.31
289.062	90.31
289.293	91.31
289.524	88.31
289.755	68.31
289.986	87.31
290.217	82.31
290.448	81.31
290.679	87.31
290.91	98.31
291.141	75.31
291.371	89.31
291.602	89.31
291.833	93.31
292.064	87.31
292.295	93.31
292.526	85.31
292.757	86.31
292.987	82.31
293.218	83.31
293.449	92.31
293.68	83.31
293.91	85.31
294.141	90.31
294.372	79.31
294.603	87.31
294.833	86.31
295.064	75.31
295.295	87.31
295.525	78.31
295.756	92.31
295.987	82.31
296.217	87.31
296.448	90.31
296.679	80.31
296.909	90.31
297.14	86.31
297.37	80.31
297.601	99.31
297.831	88.31
298.062	94.31
298.292	71.31
298.523	99.31
298.753	95.31
298.984	92.31
299.214	89.31
299.445	88.31
299.675	79.31
299.905	72.31
300.136	76.31
300.366	84.31
300.597	87.31
300.827	77.31
301.057	88.31
301.288	87.31
301.518	84.31
301.748	84.31
301.979	85.31
302.209	91.31
302.439	87.31
302.669	74.31
302.9	92.31
303.13	83.31
303.36	85.31
303.59	77.31
303.82	85.31
304.051	94.31
304.281	75.31
304.511	74.31
304.741	81.31
304.971	80.31
305.201	96.31
305.431	91.31
305.661	89.31
305.891	82.31
306.121	84.31
306.352	78.31
306.582	88.31
306.812	91.31
307.042	91.31
307.272	91.31
307.502	89.31
307.731	83.31
307.961	88.31
308.191	90.31
308.421	91.31
308.651	85.31
308.881	86.31
309.111	88.31
309.341	77.31
309.571	83.31
309.8	93.31
310.03	81.31
310.26	77.31
310.49	73.31
310.72	82.31
310.949	83.31
311.179	91.31
311.409	98.31
311.639	96.31
311.868	80.31
312.098	63.31
312.328	83.31
312.557	76.31
312.787	84.31
313.017	87.31
313.246	93.31
313.476	83.31
313.706	91.31
313.935	89.31
314.165	101.31
314.394	101.31
314.624	97.31
314.853	96.31
315.083	101.31
315.312	90.31
315.542	96.31
315.771	81.31
316.001	86.31
316.23	82.31
316.46	98.31
316.689	84.31
316.919	83.31
317.148	84.31
317.377	86.31
317.607	81.31
317.836	96.31
318.065	99.31
318.295	91.31
318.524	83.31
318.753	76.31
318.983	83.31
319.212	73.31
319.441	82.31
319.67	81.31
319.9	86.31
320.129	82.31
320.358	80.31
320.587	88.31
320.816	92.31
321.046	86.31
321.275	93.31
321.504	80.31
321.733	85.31
321.962	86.31
322.191	88.31
322.42	74.31
322.649	93.31
322.878	84.31
323.108	80.31
323.337	90.31
323.566	73.31
323.795	77.31
324.024	92.31
324.253	84.31
324.482	81.31
324.71	84.31
324.939	93.31
325.168	88.31
325.397	68.31
325.626	81.31
325.855	67.31
326.084	90.31
326.313	79.31
326.542	86.31
326.77	87.31
326.999	94.31
327.228	93.31
327.457	88.31
327.686	74.31
327.914	67.31
328.143	88.31
328.372	90.31
328.6	80.31
328.829	99.31
329.058	86.31
329.287	84.31
329.515	82.31
329.744	80.31
329.972	87.31
330.201	87.31
330.43	83.31
330.658	98.31
330.887	78.31
331.115	82.31
331.344	70.31
331.572	83.31
331.801	72.31
332.03	74.31
332.258	91.31
332.486	81.31
332.715	75.31
332.943	79.31
333.172	82.31
333.4	68.31
333.629	95.31
333.857	82.31
334.085	85.31
334.314	72.31
334.542	87.31
334.771	90.31
334.999	87.31
335.227	86.31
335.455	81.31
335.684	91.31
335.912	89.31
336.14	82.31
336.369	90.31
336.597	85.31
336.825	84.31
337.053	87.31
337.281	92.31
337.51	93.31
337.738	82.31
337.966	80.31
338.194	85.31
338.422	80.31
338.65	88.31
338.878	93.31
339.106	100.31
339.334	99.31
339.562	94.31
339.79	82.31
340.018	90.31
340.246	87.31
340.474	84.31
340.702	87.31
340.93	87.31
341.158	98.31
341.386	90.31
341.614	85.31
341.842	84.31
342.07	94.31
342.298	75.31
342.526	86.31
342.754	89.31
342.981	77.31
343.209	69.31
343.437	95.31
343.665	105.31
343.893	96.31
344.12	75.31
344.348	77.31
344.576	105.31
344.804	83.31
345.031	87.31
345.259	81.31
345.487	75.31
345.714	79.31
345.942	75.31
346.17	87.31
346.397	80.31
346.625	92.31
346.853	75.31
347.08	92.31
347.308	76.31
347.535	83.31
347.763	88.31
347.99	81.31
348.218	101.31
348.445	89.31
348.673	77.31
348.9	86.31
349.128	99.31
349.355	81.31
349.583	91.31
349.81	82.31
350.037	82.31
350.265	95.31
350.492	70.31
350.72	82.31
350.947	92.31
351.174	95.31
351.402	73.31
351.629	85.31
351.856	78.31
352.083	74.31
352.311	73.31
352.538	78.31
352.765	83.31
352.992	89.31
353.22	98.31
353.447	90.31
353.674	88.31
353.901	91.31
354.128	67.31
354.355	88.31
354.583	89.31
354.81	94.31
355.037	92.31
355.264	96.31
355.491	83.31
355.718	92.31
355.945	72.31
356.172	81.31
356.399	91.31
356.626	84.31
356.853	87.31
357.08	93.31
357.307	90.31
357.534	82.31
357.761	66.31
357.988	76.31
358.215	79.31
358.441	90.31
358.668	77.31
358.895	77.31
359.122	79.31
359.349	85.31
359.576	78.31
359.802	81.31
360.029	88.31
360.256	96.31
360.483	74.31
360.709	80.31
360.936	92.31
361.163	93.31
361.39	92.31
361.616	72.31
361.843	71.31
362.07	86.31
362.296	86.31
362.523	85.31
362.749	87.31
362.976	84.31
363.203	90.31
363.429	88.31
363.656	76.31
363.882	82.31
364.109	81.31
364.335	98.31
364.562	76.31
364.788	82.31
365.015	87.31
365.241	79.31
365.468	88.31
365.694	81.31
365.92	88.31
366.147	90.31
366.373	86.31
366.599	83.31
366.826	77.31
367.052	92.31
367.278	99.31
367.505	96.31
367.731	91.31
367.957	91.31
368.184	84.31
368.41	88.31
368.636	94.31
368.862	78.31
369.089	82.31
369.315	81.31
369.541	90.31
369.767	71.31
369.993	81.31
370.219	87.31
370.445	89.31
370.672	84.31
370.898	88.31
371.124	76.31
371.35	81.31
371.576	78.31
371.802	100.31
372.028	77.31
372.254	88.31
372.48	80.31
372.706	72.31
372.932	103.31
373.158	91.31
373.384	85.31
373.61	90.31
373.835	81.31
374.061	94.31
374.287	85.31
374.513	78.31
374.739	90.31
374.965	97.31
375.191	83.31
375.416	81.31
375.642	88.31
375.868	81.31
376.094	91.31
376.319	83.31
376.545	83.31
376.771	89.31
376.997	99.31
377.222	94.31
377.448	103.31
377.674	80.31
377.899	83.31
378.125	91.31
378.35	86.31
378.576	71.31
378.802	94.31
379.027	85.31
379.253	86.31
379.478	75.31
379.704	89.31
379.929	83.31
380.155	80.31
380.38	89.31
380.606	81.31
380.831	79.31
381.057	84.31
381.282	80.31
381.507	77.31
381.733	86.31
381.958	85.31
382.184	76.31
382.409	83.31
382.634	90.31
382.86	96.31
383.085	87.31
383.31	95.31
383.535	88.31
383.761	83.31
383.986	84.31
384.211	84.31
384.436	79.31
384.662	86.31
384.887	93.31
385.112	104.31
385.337	81.31
385.562	81.31
385.787	89.31
386.013	92.31
386.238	68.31
386.463	85.31
386.688	87.31
386.913	79.31
387.138	89.31
387.363	82.31
387.588	87.31
387.813	83.31
388.038	82.31
388.263	82.31
388.488	91.31
388.713	93.31
388.938	78.31
389.163	86.31
389.387	72.31
389.612	86.31
389.837	88.31
390.062	89.31
390.287	72.31
390.512	84.31
390.736	84.31
390.961	95.31
391.186	84.31
391.411	87.31
391.636	91.31
391.86	89.31
392.085	84.31
392.31	81.31
392.534	89.31
392.759	82.31
392.984	74.31
393.208	85.31
393.433	83.31
393.658	71.31
393.882	83.31
394.107	80.31
394.331	64.31
394.556	86.31
394.78	97.31
395.005	88.31
395.229	84.31
395.454	85.31
395.678	82.31
395.903	82.31
396.127	83.31
396.352	78.31
396.576	75.31
396.801	85.31
397.025	87.31
397.249	80.31
397.474	76.31
397.698	77.31
397.922	90.31
398.147	90.31
398.371	84.31
398.595	71.31
398.82	97.31
399.044	81.31
399.268	83.31
399.492	74.31
399.717	94.31
399.941	85.31
400.165	106.31
400.389	98.31
400.613	92.31
400.837	92.31
401.062	81.31
401.286	95.31
401.51	92.31
401.734	81.31
401.958	73.31
402.182	75.31
402.406	70.31
402.63	90.31
402.854	89.31
403.078	92.31
403.302	82.31
403.526	77.31
403.75	85.31
403.974	84.31
404.198	85.31
404.422	86.31
404.645	83.31
404.869	87.31
405.093	92.31
405.317	88.31
405.541	76.31
405.765	92.31
405.988	85.31
406.212	82.31
406.436	78.31
406.66	79.31
406.883	95.31
407.107	88.31
407.331	69.31
407.555	88.31
407.778	84.31
408.002	97.31
408.226	81.31
408.449	84.31
408.673	79.31
408.896	95.31
409.12	91.31
409.344	90.31
409.567	90.31
409.791	93.31
410.014	76.31
410.238	94.31
410.461	87.31
410.685	91.31
410.908	87.31
411.132	87.31
411.355	81.31
411.578	95.31
411.802	89.31
412.025	84.31
412.249	79.31
412.472	90.31
412.695	89.31
412.919	85.31
413.142	68.31
413.365	81.31
413.589	87.31
413.812	93.31
414.035	91.31
414.258	100.31
414.482	82.31
414.705	81.31
414.928	93.31
415.151	82.31
415.374	85.31
415.597	81.31
415.821	79.31
416.044	70.31
416.267	86.31
416.49	83.31
416.713	84.31
416.936	81.31
417.159	91.31
417.382	86.31
417.605	95.31
417.828	90.31
418.051	77.31
418.274	82.31
418.497	76.31
418.72	79.31
418.943	93.31
419.166	88.31
419.389	98.31
419.611	81.31
419.834	87.31
420.057	76.31
420.28	90.31
420.503	79.31
420.726	84.31
420.948	82.31
421.171	92.31
421.394	91.31
421.617	91.31
421.839	76.31
422.062	74.31
422.285	77.31
422.507	89.31
422.73	84.31
422.953	85.31
423.175	91.31
423.398	69.31
423.621	75.31
423.843	79.31
424.066	63.31
424.288	82.31
424.511	82.31
424.733	79.31
424.956	82.31
425.178	77.31
425.401	81.31
425.623	81.31
425.846	76.31
426.068	81.31
426.291	63.31
426.513	76.31
426.735	92.31
426.958	74.31
427.18	86.31
427.402	82.31
427.625	89.31
427.847	81.31
428.069	76.31
428.292	87.31
428.514	85.31
428.736	97.31
428.958	73.31
429.181	95.31
429.403	96.31
429.625	89.31
429.847	85.31
430.069	81.31
430.292	86.31
430.514	88.31
430.736	83.31
430.958	97.31
431.18	96.31
431.402	90.31
431.624	96.31
431.846	83.31
432.068	77.31
432.29	87.31
432.512	85.31
432.734	91.31
432.956	98.31
433.178	101.31
433.4	92.31
433.622	105.31
433.844	78.31
434.066	101.31
434.287	83.31
434.509	71.31
434.731	90.31
434.953	96.31
435.175	88.31
435.397	85.31
435.618	82.31
435.84	92.31
436.062	76.31
436.284	92.31
436.505	86.31
436.727	79.31
436.949	91.31
437.17	71.31
437.392	83.31
437.614	76.31
437.835	84.31
438.057	85.31
438.278	95.31
438.5	79.31
438.721	87.31
438.943	82.31
439.165	87.31
439.386	80.31
439.608	75.31
439.829	85.31
440.05	84.31
440.272	86.31
440.493	86.31
440.715	81.31
440.936	85.31
441.158	97.31
441.379	81.31
441.6	92.31
441.822	94.31
442.043	93.31
442.264	89.31
442.486	79.31
442.707	85.31
442.928	81.31
443.149	84.31
443.371	83.31
443.592	71.31
443.813	83.31
444.034	73.31
444.255	89.31
444.476	105.31
444.698	91.31
444.919	77.31
445.14	180.31
445.361	135.31
445.582	85.31
445.803	79.31
446.024	87.31
446.245	94.31
446.466	83.31
446.687	93.31
446.908	80.31
447.129	98.31
447.35	87.31
447.571	87.31
447.792	99.31
448.013	80.31
448.234	87.31
448.455	91.31
448.675	81.31
448.896	84.31
449.117	82.31
449.338	89.31
449.559	87.31
449.779	78.31
450	78.31
450.221	73.31
450.442	87.31
450.662	87.31
450.883	74.31
451.104	89.31
451.324	92.31
451.545	76.31
451.766	89.31
451.986	87.31
452.207	82.31
452.428	77.31
452.648	91.31
452.869	87.31
453.089	91.31
453.31	93.31
453.53	79.31
453.751	99.31
453.971	93.31
454.192	82.31
454.412	80.31
454.633	84.31
454.853	75.31
455.073	81.31
455.294	81.31
455.514	82.31
455.734	91.31
455.955	91.31
456.175	87.31
456.395	87.31
456.616	83.31
456.836	89.31
457.056	82.31
457.276	78.31
457.497	61.31
457.717	86.31
457.937	79.31
458.157	76.31
458.377	73.31
458.598	84.31
458.818	87.31
459.038	90.31
459.258	82.31
459.478	79.31
459.698	89.31
459.918	87.31
460.138	83.31
460.358	66.31
460.578	92.31
460.798	80.31
461.018	82.31
461.238	87.31
461.458	64.31
461.678	91.31
461.898	90.31
462.118	85.31
462.338	99.31
462.558	94.31
462.777	75.31
462.997	101.31
463.217	108.31
463.437	93.31
463.657	89.31
463.876	69.31
464.096	95.31
464.316	81.31
464.536	84.31
464.755	77.31
464.975	75.31
465.195	79.31
465.414	81.31
465.634	78.31
465.854	79.31
466.073	80.31
466.293	83.31
466.512	96.31
466.732	86.31
466.951	80.31
467.171	83.31
467.391	81.31
467.61	82.31
467.829	88.31
468.049	69.31
468.268	69.31
468.488	88.31
468.707	87.31
468.927	89.31
469.146	86.31
469.365	71.31
469.585	91.31
469.804	83.31
470.023	85.31
470.243	80.31
470.462	102.31
470.681	74.31
470.901	93.31
471.12	87.31
471.339	77.31
471.558	83.31
471.777	72.31
471.997	74.31
472.216	77.31
472.435	84.31
472.654	79.31
472.873	76.31
473.092	93.31
473.311	77.31
473.53	68.31
473.749	97.31
473.968	96.31
474.187	94.31
474.406	89.31
474.625	100.31
474.844	88.31
475.063	89.31
475.282	94.31
475.501	94.31
475.72	99.31
475.939	94.31
476.158	75.31
476.377	93.31
476.596	75.31
476.814	80.31
477.033	91.31
477.252	98.31
477.471	83.31
477.69	88.31
477.908	86.31
478.127	100.31
478.346	91.31
478.564	85.31
478.783	80.31
479.002	92.31
479.22	85.31
479.439	75.31
479.658	91.31
479.876	94.31
480.095	83.31
480.313	78.31
480.532	91.31
480.751	94.31
480.969	96.31
481.188	92.31
481.406	95.31
481.624	92.31
481.843	82.31
482.061	81.31
482.28	76.31
482.498	90.31
482.717	81.31
482.935	107.31
483.153	89.31
483.372	95.31
483.59	88.31
483.808	83.31
484.027	88.31
484.245	100.31
484.463	89.31
484.681	92.31
484.9	89.31
485.118	93.31
485.336	94.31
485.554	93.31
485.772	97.31
485.99	81.31
486.209	84.31
486.427	89.31
486.645	80.31
486.863	91.31
487.081	89.31
487.299	91.31
487.517	87.31
487.735	92.31
487.953	99.31
488.171	87.31
488.389	98.31
488.607	92.31
488.825	92.31
489.043	90.31
489.261	87.31
489.479	75.31
489.696	93.31
489.914	91.31
490.132	94.31
490.35	96.31
490.568	71.31
490.786	89.31
491.003	77.31
491.221	87.31
491.439	99.31
491.657	87.31
491.874	102.31
492.092	98.31
492.31	96.31
492.527	93.31
492.745	91.31
492.963	100.31
493.18	94.31
493.398	91.31
493.615	100.31
493.833	103.31
494.05	89.31
494.268	92.31
494.485	95.31
494.703	93.31
494.92	99.31
495.138	91.31
495.355	101.31
495.573	101.31
495.79	93.31
496.008	102.31
496.225	90.31
496.442	93.31
496.66	84.31
496.877	102.31
497.094	77.31
497.312	99.31
497.529	92.31
497.746	81.31
497.963	100.31
498.181	100.31
498.398	96.31
498.615	97.31
498.832	87.31
499.049	92.31
499.267	96.31
499.484	98.31
499.701	93.31
499.918	112.31
500.135	106.31
500.352	112.31
500.569	115.31
500.786	101.31
501.003	97.31
501.22	106.31
501.437	103.31
501.654	92.31
501.871	87.31
502.088	104.31
502.305	100.31
502.522	88.31
502.739	101.31
502.956	104.31
503.172	96.31
503.389	84.31
503.606	88.31
503.823	106.31
504.04	92.31
504.256	94.31
504.473	104.31
504.69	90.31
504.907	95.31
505.123	97.31
505.34	106.31
505.557	107.31
505.773	88.31
505.99	86.31
506.207	94.31
506.423	94.31
506.64	92.31
506.856	91.31
507.073	95.31
507.289	102.31
507.506	90.31
507.722	89.31
507.939	85.31
508.155	83.31
508.372	82.31
508.588	101.31
508.805	89.31
509.021	105.31
509.238	90.31
509.454	86.31
509.67	79.31
509.887	102.31
510.103	89.31
510.319	84.31
510.536	96.31
510.752	94.31
510.968	105.31
511.184	95.31
511.401	73.31
511.617	92.31
511.833	84.31
512.049	99.31
512.265	87.31
512.481	88.31
512.698	82.31
512.914	87.31
513.13	97.31
513.346	91.31
513.562	93.31
513.778	92.31
513.994	88.31
514.21	85.31
514.426	84.31
514.642	89.31
514.858	87.31
515.074	89.31
515.29	86.31
515.506	84.31
515.721	86.31
515.937	95.31
516.153	77.31
516.369	88.31
516.585	83.31
516.801	107.31
517.016	96.31
517.232	97.31
517.448	85.31
517.664	79.31
517.879	93.31
518.095	81.31
518.311	82.31
518.527	104.31
