Data from Ni(NO3)2Standard.Agarose3%.GreenCap.LampEnergy5.5.E.O_HRD10591_14-40-01-188.txt Node
Date: Mon Jul 22 14:40:01 EDT 2019
User: cochatt
Spectrometer: HR+D1059
Trigger mode: 1
Integration Time (sec): 1.000000E-1
Scans to average: 1
Electric dark correction enabled: true
Nonlinearity correction enabled: false
Boxcar width: 0
XAxis mode: Wavelengths
Number of Pixels in Spectrum: 2048
>>>>>Begin Spectral Data<<<<<
223.165	-17.56
223.4	-17.56
223.635	-17.56
223.869	-3.56
224.104	-26.56
224.338	-22.56
224.573	-8.56
224.808	-19.56
225.042	-10.56
225.277	7.44
225.511	-5.56
225.746	-4.56
225.98	14.44
226.215	11.44
226.449	15.44
226.683	6.44
226.918	31.44
227.152	32.44
227.387	26.44
227.621	35.44
227.856	20.44
228.09	31.44
228.324	55.44
228.559	48.44
228.793	67.44
229.027	48.44
229.262	48.44
229.496	54.44
229.73	76.44
229.964	44.44
230.199	70.44
230.433	71.44
230.667	67.44
230.901	65.44
231.136	84.44
231.37	80.44
231.604	69.44
231.838	81.44
232.072	66.44
232.306	70.44
232.541	79.44
232.775	86.44
233.009	84.44
233.243	71.44
233.477	68.44
233.711	77.44
233.945	77.44
234.179	74.44
234.413	92.44
234.647	79.44
234.881	81.44
235.115	80.44
235.349	60.44
235.583	80.44
235.817	77.44
236.051	74.44
236.285	54.44
236.519	77.44
236.753	72.44
236.987	62.44
237.221	69.44
237.455	68.44
237.689	80.44
237.922	82.44
238.156	52.44
238.39	62.44
238.624	75.44
238.858	60.44
239.091	71.44
239.325	78.44
239.559	84.44
239.793	79.44
240.027	68.44
240.26	79.44
240.494	83.44
240.728	70.44
240.961	70.44
241.195	64.44
241.429	68.44
241.662	64.44
241.896	55.44
242.13	78.44
242.363	72.44
242.597	64.44
242.83	74.44
243.064	61.44
243.298	67.44
243.531	68.44
243.765	76.44
243.998	65.44
244.232	88.44
244.465	72.44
244.699	69.44
244.932	60.44
245.166	81.44
245.399	73.44
245.633	71.44
245.866	85.44
246.099	72.44
246.333	66.44
246.566	62.44
246.8	71.44
247.033	70.44
247.266	68.44
247.5	77.44
247.733	69.44
247.966	64.44
248.2	72.44
248.433	70.44
248.666	67.44
248.899	88.44
249.133	66.44
249.366	74.44
249.599	78.44
249.832	78.44
250.066	90.44
250.299	88.44
250.532	81.44
250.765	73.44
250.998	74.44
251.231	84.44
251.465	80.44
251.698	73.44
251.931	80.44
252.164	81.44
252.397	78.44
252.63	66.44
252.863	85.44
253.096	73.44
253.329	82.44
253.562	81.44
253.795	74.44
254.028	64.44
254.261	65.44
254.494	78.44
254.727	85.44
254.96	64.44
255.193	78.44
255.426	78.44
255.659	85.44
255.892	80.44
256.124	69.44
256.357	86.44
256.59	78.44
256.823	71.44
257.056	82.44
257.289	89.44
257.521	77.44
257.754	84.44
257.987	80.44
258.22	92.44
258.452	67.44
258.685	78.44
258.918	77.44
259.151	85.44
259.383	70.44
259.616	69.44
259.849	68.44
260.081	68.44
260.314	86.44
260.547	68.44
260.779	62.44
261.012	69.44
261.244	68.44
261.477	67.44
261.71	82.44
261.942	68.44
262.175	77.44
262.407	69.44
262.64	71.44
262.872	86.44
263.105	86.44
263.337	62.44
263.57	89.44
263.802	62.44
264.035	73.44
264.267	78.44
264.499	90.44
264.732	80.44
264.964	79.44
265.197	68.44
265.429	81.44
265.661	79.44
265.894	74.44
266.126	82.44
266.358	69.44
266.591	80.44
266.823	98.44
267.055	74.44
267.287	95.44
267.52	75.44
267.752	69.44
267.984	84.44
268.216	68.44
268.448	66.44
268.681	74.44
268.913	76.44
269.145	78.44
269.377	66.44
269.609	69.44
269.841	86.44
270.073	87.44
270.306	76.44
270.538	95.44
270.77	80.44
271.002	77.44
271.234	87.44
271.466	77.44
271.698	82.44
271.93	89.44
272.162	80.44
272.394	80.44
272.626	77.44
272.858	84.44
273.09	72.44
273.322	79.44
273.553	85.44
273.785	78.44
274.017	87.44
274.249	91.44
274.481	91.44
274.713	87.44
274.945	84.44
275.176	64.44
275.408	74.44
275.64	71.44
275.872	80.44
276.104	76.44
276.335	71.44
276.567	85.44
276.799	82.44
277.031	86.44
277.262	83.44
277.494	84.44
277.726	79.44
277.957	92.44
278.189	82.44
278.421	70.44
278.652	75.44
278.884	81.44
279.115	74.44
279.347	77.44
279.579	85.44
279.81	92.44
280.042	84.44
280.273	77.44
280.505	86.44
280.736	74.44
280.968	76.44
281.199	78.44
281.431	64.44
281.662	74.44
281.894	92.44
282.125	85.44
282.356	86.44
282.588	97.44
282.819	97.44
283.051	71.44
283.282	81.44
283.513	90.44
283.745	70.44
283.976	79.44
284.207	74.44
284.439	84.44
284.67	88.44
284.901	86.44
285.132	71.44
285.364	69.44
285.595	95.44
285.826	80.44
286.057	81.44
286.288	79.44
286.52	74.44
286.751	82.44
286.982	76.44
287.213	83.44
287.444	73.44
287.675	60.44
287.906	78.44
288.138	77.44
288.369	75.44
288.6	76.44
288.831	76.44
289.062	89.44
289.293	105.44
289.524	66.44
289.755	66.44
289.986	69.44
290.217	72.44
290.448	69.44
290.679	77.44
290.91	76.44
291.141	75.44
291.371	70.44
291.602	81.44
291.833	87.44
292.064	69.44
292.295	83.44
292.526	75.44
292.757	79.44
292.987	66.44
293.218	81.44
293.449	84.44
293.68	78.44
293.91	87.44
294.141	75.44
294.372	77.44
294.603	87.44
294.833	94.44
295.064	68.44
295.295	77.44
295.525	77.44
295.756	80.44
295.987	72.44
296.217	75.44
296.448	84.44
296.679	81.44
296.909	68.44
297.14	90.44
297.37	102.44
297.601	85.44
297.831	67.44
298.062	85.44
298.292	58.44
298.523	75.44
298.753	73.44
298.984	88.44
299.214	102.44
299.445	86.44
299.675	86.44
299.905	70.44
300.136	80.44
300.366	96.44
300.597	79.44
300.827	65.44
301.057	88.44
301.288	92.44
301.518	91.44
301.748	79.44
301.979	95.44
302.209	90.44
302.439	57.44
302.669	81.44
302.9	83.44
303.13	80.44
303.36	81.44
303.59	82.44
303.82	76.44
304.051	86.44
304.281	77.44
304.511	79.44
304.741	79.44
304.971	89.44
305.201	78.44
305.431	80.44
305.661	94.44
305.891	85.44
306.121	84.44
306.352	77.44
306.582	79.44
306.812	81.44
307.042	96.44
307.272	89.44
307.502	78.44
307.731	77.44
307.961	78.44
308.191	82.44
308.421	78.44
308.651	81.44
308.881	73.44
309.111	76.44
309.341	72.44
309.571	88.44
309.8	73.44
310.03	77.44
310.26	64.44
310.49	77.44
310.72	65.44
310.949	84.44
311.179	70.44
311.409	74.44
311.639	81.44
311.868	97.44
312.098	84.44
312.328	86.44
312.557	75.44
312.787	82.44
313.017	79.44
313.246	71.44
313.476	88.44
313.706	67.44
313.935	72.44
314.165	92.44
314.394	92.44
314.624	87.44
314.853	75.44
315.083	78.44
315.312	82.44
315.542	80.44
315.771	70.44
316.001	88.44
316.23	88.44
316.46	88.44
316.689	86.44
316.919	64.44
317.148	96.44
317.377	93.44
317.607	85.44
317.836	82.44
318.065	72.44
318.295	80.44
318.524	68.44
318.753	85.44
318.983	85.44
319.212	74.44
319.441	76.44
319.67	85.44
319.9	80.44
320.129	75.44
320.358	81.44
320.587	67.44
320.816	71.44
321.046	72.44
321.275	86.44
321.504	81.44
321.733	78.44
321.962	81.44
322.191	82.44
322.42	80.44
322.649	81.44
322.878	86.44
323.108	88.44
323.337	87.44
323.566	87.44
323.795	77.44
324.024	90.44
324.253	105.44
324.482	74.44
324.71	89.44
324.939	87.44
325.168	91.44
325.397	89.44
325.626	97.44
325.855	85.44
326.084	83.44
326.313	93.44
326.542	70.44
326.77	80.44
326.999	83.44
327.228	86.44
327.457	68.44
327.686	73.44
327.914	92.44
328.143	78.44
328.372	90.44
328.6	72.44
328.829	95.44
329.058	77.44
329.287	84.44
329.515	73.44
329.744	78.44
329.972	81.44
330.201	71.44
330.43	98.44
330.658	84.44
330.887	93.44
331.115	95.44
331.344	86.44
331.572	89.44
331.801	70.44
332.03	80.44
332.258	92.44
332.486	82.44
332.715	88.44
332.943	71.44
333.172	77.44
333.4	82.44
333.629	93.44
333.857	74.44
334.085	72.44
334.314	70.44
334.542	77.44
334.771	82.44
334.999	82.44
335.227	83.44
335.455	94.44
335.684	92.44
335.912	88.44
336.14	89.44
336.369	87.44
336.597	85.44
336.825	79.44
337.053	65.44
337.281	86.44
337.51	72.44
337.738	87.44
337.966	94.44
338.194	83.44
338.422	85.44
338.65	78.44
338.878	85.44
339.106	73.44
339.334	76.44
339.562	72.44
339.79	84.44
340.018	79.44
340.246	93.44
340.474	85.44
340.702	75.44
340.93	80.44
341.158	77.44
341.386	71.44
341.614	95.44
341.842	84.44
342.07	85.44
342.298	91.44
342.526	81.44
342.754	74.44
342.981	74.44
343.209	79.44
343.437	69.44
343.665	84.44
343.893	80.44
344.12	95.44
344.348	88.44
344.576	81.44
344.804	70.44
345.031	74.44
345.259	86.44
345.487	85.44
345.714	76.44
345.942	82.44
346.17	81.44
346.397	81.44
346.625	79.44
346.853	77.44
347.08	84.44
347.308	87.44
347.535	81.44
347.763	88.44
347.99	85.44
348.218	73.44
348.445	91.44
348.673	86.44
348.9	83.44
349.128	92.44
349.355	80.44
349.583	86.44
349.81	83.44
350.037	73.44
350.265	85.44
350.492	78.44
350.72	67.44
350.947	69.44
351.174	77.44
351.402	73.44
351.629	80.44
351.856	83.44
352.083	82.44
352.311	72.44
352.538	88.44
352.765	81.44
352.992	71.44
353.22	89.44
353.447	80.44
353.674	94.44
353.901	83.44
354.128	78.44
354.355	80.44
354.583	79.44
354.81	70.44
355.037	86.44
355.264	80.44
355.491	81.44
355.718	79.44
355.945	78.44
356.172	78.44
356.399	68.44
356.626	85.44
356.853	85.44
357.08	76.44
357.307	77.44
357.534	80.44
357.761	76.44
357.988	86.44
358.215	83.44
358.441	77.44
358.668	75.44
358.895	77.44
359.122	89.44
359.349	72.44
359.576	80.44
359.802	80.44
360.029	78.44
360.256	89.44
360.483	78.44
360.709	80.44
360.936	70.44
361.163	76.44
361.39	79.44
361.616	82.44
361.843	82.44
362.07	83.44
362.296	89.44
362.523	81.44
362.749	81.44
362.976	79.44
363.203	70.44
363.429	75.44
363.656	70.44
363.882	85.44
364.109	82.44
364.335	82.44
364.562	84.44
364.788	80.44
365.015	86.44
365.241	80.44
365.468	82.44
365.694	78.44
365.92	73.44
366.147	70.44
366.373	67.44
366.599	74.44
366.826	82.44
367.052	80.44
367.278	83.44
367.505	81.44
367.731	77.44
367.957	86.44
368.184	69.44
368.41	81.44
368.636	73.44
368.862	82.44
369.089	79.44
369.315	74.44
369.541	81.44
369.767	86.44
369.993	69.44
370.219	82.44
370.445	78.44
370.672	71.44
370.898	80.44
371.124	68.44
371.35	82.44
371.576	85.44
371.802	76.44
372.028	64.44
372.254	85.44
372.48	81.44
372.706	70.44
372.932	81.44
373.158	94.44
373.384	81.44
373.61	88.44
373.835	71.44
374.061	68.44
374.287	85.44
374.513	78.44
374.739	74.44
374.965	75.44
375.191	82.44
375.416	73.44
375.642	88.44
375.868	75.44
376.094	85.44
376.319	84.44
376.545	84.44
376.771	62.44
376.997	82.44
377.222	84.44
377.448	81.44
377.674	82.44
377.899	82.44
378.125	81.44
378.35	76.44
378.576	95.44
378.802	70.44
379.027	81.44
379.253	85.44
379.478	79.44
379.704	70.44
379.929	73.44
380.155	70.44
380.38	76.44
380.606	85.44
380.831	95.44
381.057	70.44
381.282	80.44
381.507	72.44
381.733	76.44
381.958	71.44
382.184	83.44
382.409	67.44
382.634	94.44
382.86	85.44
383.085	80.44
383.31	84.44
383.535	73.44
383.761	84.44
383.986	80.44
384.211	73.44
384.436	81.44
384.662	76.44
384.887	73.44
385.112	78.44
385.337	87.44
385.562	74.44
385.787	80.44
386.013	84.44
386.238	73.44
386.463	67.44
386.688	87.44
386.913	102.44
387.138	81.44
387.363	85.44
387.588	80.44
387.813	74.44
388.038	78.44
388.263	87.44
388.488	85.44
388.713	84.44
388.938	72.44
389.163	84.44
389.387	69.44
389.612	90.44
389.837	64.44
390.062	72.44
390.287	77.44
390.512	84.44
390.736	81.44
390.961	73.44
391.186	90.44
391.411	72.44
391.636	74.44
391.86	92.44
392.085	76.44
392.31	80.44
392.534	81.44
392.759	78.44
392.984	74.44
393.208	80.44
393.433	89.44
393.658	90.44
393.882	88.44
394.107	77.44
394.331	94.44
394.556	78.44
394.78	80.44
395.005	74.44
395.229	71.44
395.454	84.44
395.678	85.44
395.903	90.44
396.127	80.44
396.352	91.44
396.576	90.44
396.801	73.44
397.025	84.44
397.249	73.44
397.474	84.44
397.698	76.44
397.922	81.44
398.147	89.44
398.371	86.44
398.595	79.44
398.82	77.44
399.044	82.44
399.268	82.44
399.492	86.44
399.717	81.44
399.941	73.44
400.165	75.44
400.389	74.44
400.613	80.44
400.837	82.44
401.062	84.44
401.286	88.44
401.51	87.44
401.734	82.44
401.958	72.44
402.182	87.44
402.406	79.44
402.63	83.44
402.854	91.44
403.078	94.44
403.302	79.44
403.526	94.44
403.75	69.44
403.974	74.44
404.198	72.44
404.422	75.44
404.645	87.44
404.869	84.44
405.093	69.44
405.317	63.44
405.541	79.44
405.765	69.44
405.988	85.44
406.212	80.44
406.436	84.44
406.66	80.44
406.883	85.44
407.107	84.44
407.331	82.44
407.555	70.44
407.778	86.44
408.002	86.44
408.226	84.44
408.449	78.44
408.673	94.44
408.896	76.44
409.12	90.44
409.344	81.44
409.567	78.44
409.791	78.44
410.014	96.44
410.238	77.44
410.461	81.44
410.685	75.44
410.908	83.44
411.132	88.44
411.355	88.44
411.578	85.44
411.802	75.44
412.025	74.44
412.249	79.44
412.472	80.44
412.695	84.44
412.919	83.44
413.142	76.44
413.365	77.44
413.589	92.44
413.812	85.44
414.035	79.44
414.258	92.44
414.482	80.44
414.705	87.44
414.928	81.44
415.151	75.44
415.374	80.44
415.597	76.44
415.821	81.44
416.044	73.44
416.267	84.44
416.49	82.44
416.713	89.44
416.936	72.44
417.159	81.44
417.382	55.44
417.605	85.44
417.828	84.44
418.051	78.44
418.274	84.44
418.497	71.44
418.72	81.44
418.943	82.44
419.166	82.44
419.389	93.44
419.611	70.44
419.834	78.44
420.057	82.44
420.28	77.44
420.503	81.44
420.726	91.44
420.948	87.44
421.171	92.44
421.394	77.44
421.617	82.44
421.839	87.44
422.062	88.44
422.285	90.44
422.507	88.44
422.73	87.44
422.953	74.44
423.175	84.44
423.398	91.44
423.621	92.44
423.843	84.44
424.066	85.44
424.288	79.44
424.511	78.44
424.733	72.44
424.956	87.44
425.178	76.44
425.401	73.44
425.623	79.44
425.846	93.44
426.068	85.44
426.291	74.44
426.513	80.44
426.735	84.44
426.958	64.44
427.18	88.44
427.402	79.44
427.625	82.44
427.847	79.44
428.069	73.44
428.292	69.44
428.514	86.44
428.736	90.44
428.958	89.44
429.181	96.44
429.403	78.44
429.625	80.44
429.847	97.44
430.069	89.44
430.292	62.44
430.514	86.44
430.736	78.44
430.958	82.44
431.18	94.44
431.402	74.44
431.624	94.44
431.846	76.44
432.068	79.44
432.29	80.44
432.512	95.44
432.734	74.44
432.956	90.44
433.178	84.44
433.4	85.44
433.622	74.44
433.844	74.44
434.066	84.44
434.287	78.44
434.509	84.44
434.731	81.44
434.953	74.44
435.175	82.44
435.397	79.44
435.618	78.44
435.84	92.44
436.062	97.44
436.284	84.44
436.505	81.44
436.727	74.44
436.949	91.44
437.17	79.44
437.392	79.44
437.614	88.44
437.835	78.44
438.057	80.44
438.278	75.44
438.5	95.44
438.721	88.44
438.943	65.44
439.165	78.44
439.386	75.44
439.608	78.44
439.829	78.44
440.05	86.44
440.272	80.44
440.493	68.44
440.715	89.44
440.936	75.44
441.158	80.44
441.379	75.44
441.6	91.44
441.822	91.44
442.043	81.44
442.264	89.44
442.486	92.44
442.707	93.44
442.928	83.44
443.149	78.44
443.371	70.44
443.592	78.44
443.813	91.44
444.034	87.44
444.255	75.44
444.476	91.44
444.698	96.44
444.919	86.44
445.14	192.44
445.361	124.44
445.582	89.44
445.803	89.44
446.024	76.44
446.245	82.44
446.466	74.44
446.687	93.44
446.908	78.44
447.129	81.44
447.35	88.44
447.571	80.44
447.792	92.44
448.013	80.44
448.234	86.44
448.455	76.44
448.675	74.44
448.896	79.44
449.117	83.44
449.338	87.44
449.559	73.44
449.779	96.44
450	74.44
450.221	91.44
450.442	82.44
450.662	90.44
450.883	76.44
451.104	89.44
451.324	80.44
451.545	89.44
451.766	70.44
451.986	85.44
452.207	80.44
452.428	79.44
452.648	80.44
452.869	93.44
453.089	82.44
453.31	71.44
453.53	71.44
453.751	74.44
453.971	83.44
454.192	81.44
454.412	94.44
454.633	87.44
454.853	80.44
455.073	85.44
455.294	89.44
455.514	97.44
455.734	92.44
455.955	92.44
456.175	79.44
456.395	72.44
456.616	65.44
456.836	79.44
457.056	88.44
457.276	74.44
457.497	82.44
457.717	72.44
457.937	100.44
458.157	65.44
458.377	81.44
458.598	82.44
458.818	67.44
459.038	88.44
459.258	61.44
459.478	85.44
459.698	83.44
459.918	93.44
460.138	91.44
460.358	79.44
460.578	74.44
460.798	74.44
461.018	79.44
461.238	68.44
461.458	78.44
461.678	65.44
461.898	97.44
462.118	79.44
462.338	93.44
462.558	102.44
462.777	80.44
462.997	80.44
463.217	87.44
463.437	83.44
463.657	82.44
463.876	85.44
464.096	71.44
464.316	80.44
464.536	89.44
464.755	67.44
464.975	86.44
465.195	92.44
465.414	80.44
465.634	72.44
465.854	81.44
466.073	87.44
466.293	87.44
466.512	86.44
466.732	87.44
466.951	89.44
467.171	88.44
467.391	85.44
467.61	87.44
467.829	85.44
468.049	87.44
468.268	87.44
468.488	75.44
468.707	80.44
468.927	98.44
469.146	95.44
469.365	83.44
469.585	90.44
469.804	87.44
470.023	90.44
470.243	78.44
470.462	96.44
470.681	95.44
470.901	79.44
471.12	86.44
471.339	86.44
471.558	82.44
471.777	84.44
471.997	85.44
472.216	84.44
472.435	82.44
472.654	88.44
472.873	79.44
473.092	74.44
473.311	88.44
473.53	93.44
473.749	82.44
473.968	74.44
474.187	92.44
474.406	87.44
474.625	87.44
474.844	89.44
475.063	79.44
475.282	80.44
475.501	84.44
475.72	90.44
475.939	84.44
476.158	75.44
476.377	87.44
476.596	81.44
476.814	88.44
477.033	95.44
477.252	88.44
477.471	72.44
477.69	88.44
477.908	72.44
478.127	77.44
478.346	84.44
478.564	91.44
478.783	78.44
479.002	93.44
479.22	81.44
479.439	90.44
479.658	82.44
479.876	81.44
480.095	67.44
480.313	89.44
480.532	79.44
480.751	90.44
480.969	87.44
481.188	90.44
481.406	95.44
481.624	92.44
481.843	99.44
482.061	85.44
482.28	97.44
482.498	91.44
482.717	76.44
482.935	87.44
483.153	99.44
483.372	84.44
483.59	89.44
483.808	84.44
484.027	94.44
484.245	88.44
484.463	82.44
484.681	90.44
484.9	79.44
485.118	90.44
485.336	88.44
485.554	88.44
485.772	84.44
485.99	83.44
486.209	80.44
486.427	77.44
486.645	91.44
486.863	78.44
487.081	82.44
487.299	90.44
487.517	92.44
487.735	84.44
487.953	103.44
488.171	82.44
488.389	73.44
488.607	88.44
488.825	84.44
489.043	98.44
489.261	91.44
489.479	89.44
489.696	82.44
489.914	91.44
490.132	102.44
490.35	86.44
490.568	93.44
490.786	72.44
491.003	81.44
491.221	88.44
491.439	81.44
491.657	92.44
491.874	93.44
492.092	111.44
492.31	96.44
492.527	102.44
492.745	86.44
492.963	84.44
493.18	88.44
493.398	90.44
493.615	83.44
493.833	81.44
494.05	82.44
494.268	85.44
494.485	86.44
494.703	87.44
494.92	102.44
495.138	67.44
495.355	90.44
495.573	97.44
495.79	87.44
496.008	80.44
496.225	103.44
496.442	91.44
496.66	88.44
496.877	84.44
497.094	93.44
497.312	91.44
497.529	80.44
497.746	88.44
497.963	89.44
498.181	85.44
498.398	87.44
498.615	98.44
498.832	100.44
499.049	93.44
499.267	81.44
499.484	109.44
499.701	113.44
499.918	103.44
500.135	104.44
500.352	102.44
500.569	114.44
500.786	99.44
501.003	112.44
501.22	111.44
501.437	89.44
501.654	88.44
501.871	85.44
502.088	84.44
502.305	87.44
502.522	79.44
502.739	101.44
502.956	93.44
503.172	80.44
503.389	104.44
503.606	97.44
503.823	88.44
504.04	87.44
504.256	95.44
504.473	104.44
504.69	102.44
504.907	95.44
505.123	103.44
505.34	90.44
505.557	84.44
505.773	98.44
505.99	95.44
506.207	80.44
506.423	85.44
506.64	89.44
506.856	85.44
507.073	84.44
507.289	99.44
507.506	98.44
507.722	90.44
507.939	92.44
508.155	96.44
508.372	97.44
508.588	96.44
508.805	67.44
509.021	84.44
509.238	84.44
509.454	95.44
509.67	82.44
509.887	87.44
510.103	87.44
510.319	93.44
510.536	87.44
510.752	88.44
510.968	84.44
511.184	88.44
511.401	85.44
511.617	101.44
511.833	97.44
512.049	86.44
512.265	74.44
512.481	84.44
512.698	81.44
512.914	77.44
513.13	80.44
513.346	89.44
513.562	92.44
513.778	89.44
513.994	89.44
514.21	91.44
514.426	91.44
514.642	77.44
514.858	77.44
515.074	93.44
515.29	96.44
515.506	84.44
515.721	86.44
515.937	94.44
516.153	94.44
516.369	88.44
516.585	94.44
516.801	73.44
517.016	84.44
517.232	64.44
517.448	89.44
517.664	80.44
517.879	86.44
518.095	100.44
518.311	83.44
518.527	98.44
518.742	92.44
518.958	89.44
