Data from Ni(NO3)2Standard.Agarose3%.GreenCap.LampEnergy5.5.E.O_HRD10591_14-42-01-188.txt Node
Date: Mon Jul 22 14:42:01 EDT 2019
User: cochatt
Spectrometer: HR+D1059
Trigger mode: 1
Integration Time (sec): 1.000000E-1
Scans to average: 1
Electric dark correction enabled: true
Nonlinearity correction enabled: false
Boxcar width: 0
XAxis mode: Wavelengths
Number of Pixels in Spectrum: 2048
>>>>>Begin Spectral Data<<<<<
223.165	-1.44
223.4	-1.44
223.635	-1.44
223.869	-15.44
224.104	-13.44
224.338	-21.44
224.573	-2.44
224.808	-12.44
225.042	-8.44
225.277	-6.44
225.511	-1.44
225.746	-2.44
225.98	4.56
226.215	11.56
226.449	12.56
226.683	15.56
226.918	13.56
227.152	27.56
227.387	34.56
227.621	27.56
227.856	41.56
228.09	42.56
228.324	51.56
228.559	60.56
228.793	59.56
229.027	45.56
229.262	58.56
229.496	59.56
229.73	67.56
229.964	66.56
230.199	62.56
230.433	79.56
230.667	69.56
230.901	66.56
231.136	69.56
231.37	74.56
231.604	63.56
231.838	78.56
232.072	88.56
232.306	75.56
232.541	90.56
232.775	75.56
233.009	75.56
233.243	76.56
233.477	73.56
233.711	80.56
233.945	97.56
234.179	95.56
234.413	73.56
234.647	64.56
234.881	82.56
235.115	68.56
235.349	86.56
235.583	81.56
235.817	65.56
236.051	79.56
236.285	71.56
236.519	84.56
236.753	77.56
236.987	74.56
237.221	61.56
237.455	65.56
237.689	79.56
237.922	78.56
238.156	73.56
238.39	69.56
238.624	68.56
238.858	79.56
239.091	79.56
239.325	78.56
239.559	70.56
239.793	78.56
240.027	83.56
240.26	63.56
240.494	77.56
240.728	75.56
240.961	72.56
241.195	68.56
241.429	72.56
241.662	75.56
241.896	65.56
242.13	65.56
242.363	83.56
242.597	85.56
242.83	76.56
243.064	81.56
243.298	64.56
243.531	67.56
243.765	73.56
243.998	82.56
244.232	67.56
244.465	79.56
244.699	76.56
244.932	73.56
245.166	86.56
245.399	83.56
245.633	64.56
245.866	89.56
246.099	79.56
246.333	81.56
246.566	84.56
246.8	85.56
247.033	81.56
247.266	91.56
247.5	81.56
247.733	80.56
247.966	83.56
248.2	84.56
248.433	71.56
248.666	67.56
248.899	80.56
249.133	89.56
249.366	81.56
249.599	94.56
249.832	70.56
250.066	77.56
250.299	82.56
250.532	75.56
250.765	68.56
250.998	65.56
251.231	79.56
251.465	83.56
251.698	73.56
251.931	69.56
252.164	82.56
252.397	69.56
252.63	80.56
252.863	76.56
253.096	84.56
253.329	80.56
253.562	74.56
253.795	82.56
254.028	83.56
254.261	81.56
254.494	90.56
254.727	77.56
254.96	81.56
255.193	83.56
255.426	74.56
255.659	88.56
255.892	74.56
256.124	70.56
256.357	75.56
256.59	80.56
256.823	70.56
257.056	66.56
257.289	79.56
257.521	87.56
257.754	79.56
257.987	88.56
258.22	78.56
258.452	87.56
258.685	74.56
258.918	78.56
259.151	76.56
259.383	79.56
259.616	96.56
259.849	87.56
260.081	74.56
260.314	77.56
260.547	68.56
260.779	83.56
261.012	82.56
261.244	78.56
261.477	81.56
261.71	83.56
261.942	82.56
262.175	87.56
262.407	83.56
262.64	76.56
262.872	59.56
263.105	81.56
263.337	81.56
263.57	87.56
263.802	71.56
264.035	67.56
264.267	69.56
264.499	73.56
264.732	78.56
264.964	84.56
265.197	83.56
265.429	84.56
265.661	89.56
265.894	73.56
266.126	76.56
266.358	80.56
266.591	79.56
266.823	62.56
267.055	80.56
267.287	79.56
267.52	89.56
267.752	85.56
267.984	74.56
268.216	94.56
268.448	84.56
268.681	84.56
268.913	95.56
269.145	91.56
269.377	79.56
269.609	73.56
269.841	77.56
270.073	90.56
270.306	80.56
270.538	87.56
270.77	82.56
271.002	106.56
271.234	79.56
271.466	82.56
271.698	82.56
271.93	94.56
272.162	71.56
272.394	73.56
272.626	80.56
272.858	82.56
273.09	94.56
273.322	78.56
273.553	72.56
273.785	84.56
274.017	86.56
274.249	82.56
274.481	75.56
274.713	80.56
274.945	97.56
275.176	74.56
275.408	80.56
275.64	87.56
275.872	98.56
276.104	86.56
276.335	73.56
276.567	90.56
276.799	72.56
277.031	83.56
277.262	93.56
277.494	83.56
277.726	84.56
277.957	87.56
278.189	83.56
278.421	94.56
278.652	84.56
278.884	88.56
279.115	97.56
279.347	87.56
279.579	76.56
279.81	92.56
280.042	76.56
280.273	74.56
280.505	79.56
280.736	84.56
280.968	92.56
281.199	96.56
281.431	80.56
281.662	89.56
281.894	81.56
282.125	90.56
282.356	90.56
282.588	85.56
282.819	81.56
283.051	94.56
283.282	97.56
283.513	83.56
283.745	82.56
283.976	83.56
284.207	80.56
284.439	85.56
284.67	76.56
284.901	90.56
285.132	85.56
285.364	79.56
285.595	82.56
285.826	70.56
286.057	88.56
286.288	90.56
286.52	76.56
286.751	81.56
286.982	76.56
287.213	80.56
287.444	92.56
287.675	82.56
287.906	70.56
288.138	89.56
288.369	92.56
288.6	77.56
288.831	72.56
289.062	87.56
289.293	72.56
289.524	76.56
289.755	92.56
289.986	86.56
290.217	100.56
290.448	89.56
290.679	73.56
290.91	84.56
291.141	74.56
291.371	74.56
291.602	76.56
291.833	82.56
292.064	72.56
292.295	96.56
292.526	87.56
292.757	76.56
292.987	93.56
293.218	78.56
293.449	88.56
293.68	98.56
293.91	88.56
294.141	93.56
294.372	86.56
294.603	86.56
294.833	83.56
295.064	103.56
295.295	84.56
295.525	85.56
295.756	97.56
295.987	92.56
296.217	85.56
296.448	89.56
296.679	86.56
296.909	78.56
297.14	90.56
297.37	80.56
297.601	77.56
297.831	74.56
298.062	85.56
298.292	95.56
298.523	87.56
298.753	78.56
298.984	88.56
299.214	66.56
299.445	89.56
299.675	79.56
299.905	98.56
300.136	89.56
300.366	69.56
300.597	80.56
300.827	80.56
301.057	81.56
301.288	94.56
301.518	94.56
301.748	89.56
301.979	87.56
302.209	83.56
302.439	99.56
302.669	86.56
302.9	87.56
303.13	84.56
303.36	86.56
303.59	82.56
303.82	67.56
304.051	86.56
304.281	89.56
304.511	98.56
304.741	81.56
304.971	74.56
305.201	84.56
305.431	89.56
305.661	89.56
305.891	87.56
306.121	91.56
306.352	90.56
306.582	88.56
306.812	76.56
307.042	87.56
307.272	64.56
307.502	65.56
307.731	67.56
307.961	71.56
308.191	86.56
308.421	79.56
308.651	97.56
308.881	70.56
309.111	93.56
309.341	87.56
309.571	75.56
309.8	82.56
310.03	66.56
310.26	85.56
310.49	75.56
310.72	73.56
310.949	86.56
311.179	92.56
311.409	79.56
311.639	84.56
311.868	83.56
312.098	86.56
312.328	95.56
312.557	98.56
312.787	75.56
313.017	88.56
313.246	89.56
313.476	83.56
313.706	75.56
313.935	72.56
314.165	88.56
314.394	83.56
314.624	79.56
314.853	98.56
315.083	76.56
315.312	93.56
315.542	82.56
315.771	80.56
316.001	74.56
316.23	99.56
316.46	82.56
316.689	90.56
316.919	101.56
317.148	87.56
317.377	87.56
317.607	87.56
317.836	81.56
318.065	74.56
318.295	85.56
318.524	88.56
318.753	90.56
318.983	73.56
319.212	88.56
319.441	75.56
319.67	86.56
319.9	91.56
320.129	80.56
320.358	98.56
320.587	97.56
320.816	81.56
321.046	79.56
321.275	84.56
321.504	78.56
321.733	82.56
321.962	89.56
322.191	76.56
322.42	79.56
322.649	86.56
322.878	94.56
323.108	85.56
323.337	81.56
323.566	87.56
323.795	93.56
324.024	88.56
324.253	84.56
324.482	87.56
324.71	88.56
324.939	90.56
325.168	88.56
325.397	79.56
325.626	81.56
325.855	71.56
326.084	84.56
326.313	102.56
326.542	82.56
326.77	81.56
326.999	90.56
327.228	84.56
327.457	75.56
327.686	89.56
327.914	94.56
328.143	79.56
328.372	87.56
328.6	82.56
328.829	85.56
329.058	81.56
329.287	75.56
329.515	76.56
329.744	75.56
329.972	76.56
330.201	78.56
330.43	84.56
330.658	77.56
330.887	87.56
331.115	88.56
331.344	88.56
331.572	90.56
331.801	84.56
332.03	71.56
332.258	82.56
332.486	87.56
332.715	67.56
332.943	84.56
333.172	78.56
333.4	84.56
333.629	92.56
333.857	79.56
334.085	89.56
334.314	85.56
334.542	104.56
334.771	92.56
334.999	77.56
335.227	81.56
335.455	90.56
335.684	91.56
335.912	80.56
336.14	73.56
336.369	72.56
336.597	75.56
336.825	92.56
337.053	79.56
337.281	85.56
337.51	91.56
337.738	87.56
337.966	97.56
338.194	80.56
338.422	80.56
338.65	83.56
338.878	76.56
339.106	82.56
339.334	75.56
339.562	91.56
339.79	86.56
340.018	85.56
340.246	75.56
340.474	80.56
340.702	80.56
340.93	84.56
341.158	89.56
341.386	88.56
341.614	82.56
341.842	76.56
342.07	85.56
342.298	82.56
342.526	87.56
342.754	78.56
342.981	79.56
343.209	84.56
343.437	91.56
343.665	89.56
343.893	91.56
344.12	83.56
344.348	83.56
344.576	79.56
344.804	96.56
345.031	82.56
345.259	74.56
345.487	92.56
345.714	94.56
345.942	68.56
346.17	89.56
346.397	85.56
346.625	87.56
346.853	94.56
347.08	79.56
347.308	84.56
347.535	86.56
347.763	87.56
347.99	80.56
348.218	90.56
348.445	80.56
348.673	83.56
348.9	87.56
349.128	81.56
349.355	76.56
349.583	95.56
349.81	95.56
350.037	76.56
350.265	86.56
350.492	72.56
350.72	86.56
350.947	83.56
351.174	81.56
351.402	94.56
351.629	92.56
351.856	78.56
352.083	83.56
352.311	96.56
352.538	79.56
352.765	70.56
352.992	91.56
353.22	79.56
353.447	85.56
353.674	76.56
353.901	81.56
354.128	71.56
354.355	77.56
354.583	83.56
354.81	83.56
355.037	88.56
355.264	79.56
355.491	95.56
355.718	83.56
355.945	83.56
356.172	85.56
356.399	79.56
356.626	75.56
356.853	88.56
357.08	84.56
357.307	81.56
357.534	86.56
357.761	85.56
357.988	81.56
358.215	78.56
358.441	84.56
358.668	81.56
358.895	58.56
359.122	79.56
359.349	84.56
359.576	81.56
359.802	84.56
360.029	84.56
360.256	80.56
360.483	86.56
360.709	91.56
360.936	89.56
361.163	79.56
361.39	82.56
361.616	102.56
361.843	72.56
362.07	88.56
362.296	101.56
362.523	88.56
362.749	81.56
362.976	70.56
363.203	84.56
363.429	89.56
363.656	85.56
363.882	89.56
364.109	84.56
364.335	90.56
364.562	84.56
364.788	77.56
365.015	83.56
365.241	74.56
365.468	87.56
365.694	72.56
365.92	84.56
366.147	84.56
366.373	73.56
366.599	95.56
366.826	89.56
367.052	82.56
367.278	99.56
367.505	73.56
367.731	96.56
367.957	84.56
368.184	96.56
368.41	92.56
368.636	83.56
368.862	73.56
369.089	102.56
369.315	94.56
369.541	99.56
369.767	94.56
369.993	71.56
370.219	76.56
370.445	87.56
370.672	82.56
370.898	86.56
371.124	75.56
371.35	90.56
371.576	86.56
371.802	86.56
372.028	71.56
372.254	98.56
372.48	75.56
372.706	83.56
372.932	82.56
373.158	95.56
373.384	94.56
373.61	98.56
373.835	87.56
374.061	82.56
374.287	92.56
374.513	89.56
374.739	93.56
374.965	75.56
375.191	69.56
375.416	93.56
375.642	100.56
375.868	73.56
376.094	83.56
376.319	71.56
376.545	68.56
376.771	87.56
376.997	80.56
377.222	93.56
377.448	76.56
377.674	80.56
377.899	94.56
378.125	83.56
378.35	99.56
378.576	91.56
378.802	78.56
379.027	85.56
379.253	83.56
379.478	87.56
379.704	82.56
379.929	72.56
380.155	90.56
380.38	72.56
380.606	81.56
380.831	102.56
381.057	88.56
381.282	96.56
381.507	85.56
381.733	83.56
381.958	61.56
382.184	78.56
382.409	84.56
382.634	84.56
382.86	89.56
383.085	97.56
383.31	80.56
383.535	91.56
383.761	95.56
383.986	86.56
384.211	78.56
384.436	89.56
384.662	81.56
384.887	88.56
385.112	77.56
385.337	90.56
385.562	88.56
385.787	82.56
386.013	76.56
386.238	86.56
386.463	83.56
386.688	81.56
386.913	95.56
387.138	92.56
387.363	87.56
387.588	91.56
387.813	94.56
388.038	90.56
388.263	73.56
388.488	75.56
388.713	88.56
388.938	91.56
389.163	96.56
389.387	82.56
389.612	76.56
389.837	97.56
390.062	88.56
390.287	76.56
390.512	79.56
390.736	90.56
390.961	73.56
391.186	81.56
391.411	91.56
391.636	89.56
391.86	86.56
392.085	74.56
392.31	86.56
392.534	75.56
392.759	77.56
392.984	76.56
393.208	77.56
393.433	91.56
393.658	86.56
393.882	90.56
394.107	81.56
394.331	89.56
394.556	82.56
394.78	81.56
395.005	90.56
395.229	76.56
395.454	87.56
395.678	82.56
395.903	85.56
396.127	92.56
396.352	84.56
396.576	98.56
396.801	68.56
397.025	67.56
397.249	87.56
397.474	79.56
397.698	89.56
397.922	75.56
398.147	81.56
398.371	96.56
398.595	87.56
398.82	89.56
399.044	82.56
399.268	73.56
399.492	88.56
399.717	83.56
399.941	75.56
400.165	77.56
400.389	94.56
400.613	92.56
400.837	74.56
401.062	90.56
401.286	95.56
401.51	87.56
401.734	85.56
401.958	84.56
402.182	81.56
402.406	77.56
402.63	84.56
402.854	79.56
403.078	81.56
403.302	70.56
403.526	90.56
403.75	73.56
403.974	75.56
404.198	85.56
404.422	81.56
404.645	91.56
404.869	89.56
405.093	87.56
405.317	92.56
405.541	83.56
405.765	89.56
405.988	83.56
406.212	96.56
406.436	89.56
406.66	76.56
406.883	95.56
407.107	82.56
407.331	89.56
407.555	83.56
407.778	85.56
408.002	76.56
408.226	72.56
408.449	72.56
408.673	84.56
408.896	81.56
409.12	88.56
409.344	81.56
409.567	76.56
409.791	85.56
410.014	92.56
410.238	85.56
410.461	86.56
410.685	68.56
410.908	86.56
411.132	82.56
411.355	82.56
411.578	95.56
411.802	91.56
412.025	81.56
412.249	79.56
412.472	84.56
412.695	76.56
412.919	87.56
413.142	98.56
413.365	94.56
413.589	89.56
413.812	95.56
414.035	92.56
414.258	85.56
414.482	78.56
414.705	79.56
414.928	77.56
415.151	84.56
415.374	86.56
415.597	73.56
415.821	80.56
416.044	74.56
416.267	78.56
416.49	88.56
416.713	85.56
416.936	71.56
417.159	92.56
417.382	79.56
417.605	76.56
417.828	83.56
418.051	72.56
418.274	85.56
418.497	80.56
418.72	67.56
418.943	89.56
419.166	76.56
419.389	87.56
419.611	76.56
419.834	77.56
420.057	88.56
420.28	83.56
420.503	79.56
420.726	79.56
420.948	85.56
421.171	101.56
421.394	100.56
421.617	82.56
421.839	81.56
422.062	80.56
422.285	76.56
422.507	88.56
422.73	76.56
422.953	80.56
423.175	95.56
423.398	103.56
423.621	80.56
423.843	71.56
424.066	67.56
424.288	81.56
424.511	74.56
424.733	64.56
424.956	76.56
425.178	73.56
425.401	84.56
425.623	78.56
425.846	80.56
426.068	76.56
426.291	82.56
426.513	80.56
426.735	83.56
426.958	86.56
427.18	81.56
427.402	85.56
427.625	88.56
427.847	83.56
428.069	87.56
428.292	87.56
428.514	77.56
428.736	79.56
428.958	76.56
429.181	80.56
429.403	87.56
429.625	90.56
429.847	89.56
430.069	88.56
430.292	84.56
430.514	89.56
430.736	80.56
430.958	86.56
431.18	88.56
431.402	103.56
431.624	86.56
431.846	87.56
432.068	80.56
432.29	84.56
432.512	100.56
432.734	94.56
432.956	79.56
433.178	92.56
433.4	76.56
433.622	90.56
433.844	82.56
434.066	79.56
434.287	77.56
434.509	85.56
434.731	90.56
434.953	83.56
435.175	80.56
435.397	79.56
435.618	79.56
435.84	78.56
436.062	82.56
436.284	85.56
436.505	88.56
436.727	82.56
436.949	76.56
437.17	77.56
437.392	80.56
437.614	86.56
437.835	86.56
438.057	68.56
438.278	89.56
438.5	75.56
438.721	80.56
438.943	62.56
439.165	77.56
439.386	77.56
439.608	71.56
439.829	76.56
440.05	89.56
440.272	90.56
440.493	75.56
440.715	79.56
440.936	87.56
441.158	88.56
441.379	87.56
441.6	90.56
441.822	76.56
442.043	86.56
442.264	84.56
442.486	83.56
442.707	69.56
442.928	92.56
443.149	82.56
443.371	86.56
443.592	78.56
443.813	76.56
444.034	92.56
444.255	78.56
444.476	85.56
444.698	89.56
444.919	89.56
445.14	213.56
445.361	150.56
445.582	106.56
445.803	80.56
446.024	80.56
446.245	92.56
446.466	84.56
446.687	87.56
446.908	83.56
447.129	89.56
447.35	80.56
447.571	74.56
447.792	86.56
448.013	81.56
448.234	77.56
448.455	74.56
448.675	79.56
448.896	90.56
449.117	86.56
449.338	79.56
449.559	90.56
449.779	95.56
450	87.56
450.221	73.56
450.442	84.56
450.662	83.56
450.883	91.56
451.104	95.56
451.324	77.56
451.545	78.56
451.766	75.56
451.986	85.56
452.207	69.56
452.428	63.56
452.648	88.56
452.869	85.56
453.089	73.56
453.31	91.56
453.53	83.56
453.751	88.56
453.971	85.56
454.192	75.56
454.412	93.56
454.633	82.56
454.853	84.56
455.073	73.56
455.294	73.56
455.514	63.56
455.734	83.56
455.955	76.56
456.175	70.56
456.395	60.56
456.616	82.56
456.836	78.56
457.056	80.56
457.276	77.56
457.497	78.56
457.717	75.56
457.937	82.56
458.157	79.56
458.377	73.56
458.598	75.56
458.818	87.56
459.038	83.56
459.258	68.56
459.478	76.56
459.698	81.56
459.918	91.56
460.138	81.56
460.358	87.56
460.578	82.56
460.798	82.56
461.018	80.56
461.238	73.56
461.458	74.56
461.678	89.56
461.898	99.56
462.118	77.56
462.338	80.56
462.558	86.56
462.777	77.56
462.997	97.56
463.217	100.56
463.437	96.56
463.657	72.56
463.876	86.56
464.096	81.56
464.316	80.56
464.536	91.56
464.755	88.56
464.975	92.56
465.195	99.56
465.414	85.56
465.634	72.56
465.854	88.56
466.073	88.56
466.293	90.56
466.512	79.56
466.732	76.56
466.951	80.56
467.171	75.56
467.391	67.56
467.61	84.56
467.829	78.56
468.049	91.56
468.268	78.56
468.488	95.56
468.707	87.56
468.927	72.56
469.146	88.56
469.365	64.56
469.585	76.56
469.804	87.56
470.023	84.56
470.243	95.56
470.462	86.56
470.681	77.56
470.901	90.56
471.12	85.56
471.339	80.56
471.558	77.56
471.777	84.56
471.997	82.56
472.216	75.56
472.435	88.56
472.654	92.56
472.873	87.56
473.092	92.56
473.311	87.56
473.53	82.56
473.749	84.56
473.968	86.56
474.187	83.56
474.406	80.56
474.625	93.56
474.844	91.56
475.063	91.56
475.282	74.56
475.501	76.56
475.72	78.56
475.939	94.56
476.158	76.56
476.377	99.56
476.596	88.56
476.814	73.56
477.033	96.56
477.252	78.56
477.471	91.56
477.69	77.56
477.908	89.56
478.127	78.56
478.346	96.56
478.564	91.56
478.783	86.56
479.002	85.56
479.22	84.56
479.439	95.56
479.658	73.56
479.876	77.56
480.095	93.56
480.313	82.56
480.532	94.56
480.751	95.56
480.969	80.56
481.188	88.56
481.406	81.56
481.624	74.56
481.843	86.56
482.061	76.56
482.28	88.56
482.498	85.56
482.717	83.56
482.935	78.56
483.153	82.56
483.372	73.56
483.59	100.56
483.808	97.56
484.027	93.56
484.245	88.56
484.463	88.56
484.681	92.56
484.9	82.56
485.118	97.56
485.336	93.56
485.554	96.56
485.772	87.56
485.99	79.56
486.209	92.56
486.427	101.56
486.645	82.56
486.863	82.56
487.081	73.56
487.299	79.56
487.517	92.56
487.735	99.56
487.953	101.56
488.171	85.56
488.389	76.56
488.607	79.56
488.825	76.56
489.043	75.56
489.261	87.56
489.479	87.56
489.696	105.56
489.914	94.56
490.132	94.56
490.35	85.56
490.568	90.56
490.786	87.56
491.003	81.56
491.221	81.56
491.439	84.56
491.657	92.56
491.874	97.56
492.092	96.56
492.31	100.56
492.527	77.56
492.745	83.56
492.963	89.56
493.18	81.56
493.398	94.56
493.615	93.56
493.833	98.56
494.05	102.56
494.268	75.56
494.485	97.56
494.703	102.56
494.92	90.56
495.138	96.56
495.355	99.56
495.573	92.56
495.79	90.56
496.008	87.56
496.225	78.56
496.442	79.56
496.66	74.56
496.877	91.56
497.094	105.56
497.312	94.56
497.529	89.56
497.746	75.56
497.963	84.56
498.181	80.56
498.398	105.56
498.615	99.56
498.832	100.56
499.049	103.56
499.267	84.56
499.484	102.56
499.701	94.56
499.918	100.56
500.135	105.56
500.352	102.56
500.569	104.56
500.786	110.56
501.003	99.56
501.22	99.56
501.437	112.56
501.654	96.56
501.871	96.56
502.088	94.56
502.305	106.56
502.522	82.56
502.739	83.56
502.956	100.56
503.172	103.56
503.389	105.56
503.606	97.56
503.823	93.56
504.04	73.56
504.256	79.56
504.473	83.56
504.69	81.56
504.907	76.56
505.123	86.56
505.34	91.56
505.557	102.56
505.773	83.56
505.99	82.56
506.207	95.56
506.423	100.56
506.64	87.56
506.856	92.56
507.073	94.56
507.289	95.56
507.506	92.56
507.722	88.56
507.939	71.56
508.155	76.56
508.372	76.56
508.588	89.56
508.805	94.56
509.021	84.56
509.238	95.56
509.454	73.56
509.67	83.56
509.887	94.56
510.103	80.56
510.319	86.56
510.536	86.56
510.752	90.56
510.968	83.56
511.184	84.56
511.401	88.56
511.617	90.56
511.833	100.56
512.049	97.56
512.265	105.56
512.481	81.56
512.698	91.56
512.914	96.56
513.13	64.56
513.346	81.56
513.562	80.56
513.778	86.56
513.994	79.56
514.21	88.56
514.426	96.56
514.642	91.56
514.858	100.56
515.074	95.56
515.29	80.56
515.506	89.56
515.721	92.56
515.937	91.56
516.153	96.56
516.369	86.56
516.585	93.56
516.801	83.56
517.016	92.56
517.232	79.56
517.448	88.56
517.664	82.56
517.879	87.56
518.095	87.56
518.311	97.56
518.527	98.56
518.742	79.56
518.958	71.56
