Data from Ni(NO3)2@0.0625M.TitratingCurve.Agarose3%dH2O.NegLispCup.LampEnergy10.LIBS07252019_HRD10591_18-13-00-568.txt Node
Date: Thu Jul 25 18:13:00 EDT 2019
User: cochatt
Spectrometer: HR+D1059
Trigger mode: 1
Integration Time (sec): 1.000000E-1
Scans to average: 1
Electric dark correction enabled: true
Nonlinearity correction enabled: false
Boxcar width: 0
XAxis mode: Wavelengths
Number of Pixels in Spectrum: 2048
>>>>>Begin Spectral Data<<<<<
223.165	-24.31
223.4	-24.31
223.635	-24.31
223.869	-4.31
224.104	-23.31
224.338	-23.31
224.573	-11.31
224.808	-12.31
225.042	-2.31
225.277	-4.31
225.511	-9.31
225.746	9.69
225.98	10.69
226.215	-0.31
226.449	15.69
226.683	36.69
226.918	21.69
227.152	20.69
227.387	51.69
227.621	24.69
227.856	44.69
228.09	53.69
228.324	44.69
228.559	38.69
228.793	69.69
229.027	88.69
229.262	94.69
229.496	103.69
229.73	100.69
229.964	131.69
230.199	106.69
230.433	121.69
230.667	128.69
230.901	117.69
231.136	122.69
231.37	114.69
231.604	132.69
231.838	107.69
232.072	123.69
232.306	134.69
232.541	136.69
232.775	137.69
233.009	129.69
233.243	136.69
233.477	120.69
233.711	124.69
233.945	110.69
234.179	123.69
234.413	130.69
234.647	137.69
234.881	148.69
235.115	137.69
235.349	145.69
235.583	132.69
235.817	117.69
236.051	122.69
236.285	142.69
236.519	146.69
236.753	138.69
236.987	147.69
237.221	137.69
237.455	136.69
237.689	135.69
237.922	135.69
238.156	137.69
238.39	150.69
238.624	129.69
238.858	143.69
239.091	136.69
239.325	138.69
239.559	142.69
239.793	137.69
240.027	148.69
240.26	151.69
240.494	152.69
240.728	138.69
240.961	143.69
241.195	156.69
241.429	161.69
241.662	161.69
241.896	167.69
242.13	165.69
242.363	149.69
242.597	166.69
242.83	160.69
243.064	171.69
243.298	171.69
243.531	163.69
243.765	174.69
243.998	185.69
244.232	150.69
244.465	178.69
244.699	172.69
244.932	171.69
245.166	176.69
245.399	173.69
245.633	178.69
245.866	182.69
246.099	169.69
246.333	184.69
246.566	182.69
246.8	181.69
247.033	189.69
247.266	190.69
247.5	185.69
247.733	186.69
247.966	204.69
248.2	193.69
248.433	192.69
248.666	195.69
248.899	200.69
249.133	184.69
249.366	214.69
249.599	201.69
249.832	185.69
250.066	202.69
250.299	211.69
250.532	207.69
250.765	205.69
250.998	178.69
251.231	188.69
251.465	207.69
251.698	224.69
251.931	205.69
252.164	214.69
252.397	206.69
252.63	209.69
252.863	224.69
253.096	224.69
253.329	226.69
253.562	220.69
253.795	223.69
254.028	232.69
254.261	221.69
254.494	216.69
254.727	223.69
254.96	227.69
255.193	221.69
255.426	215.69
255.659	222.69
255.892	239.69
256.124	226.69
256.357	232.69
256.59	225.69
256.823	244.69
257.056	226.69
257.289	244.69
257.521	222.69
257.754	228.69
257.987	236.69
258.22	246.69
258.452	240.69
258.685	264.69
258.918	243.69
259.151	237.69
259.383	233.69
259.616	245.69
259.849	262.69
260.081	232.69
260.314	270.69
260.547	267.69
260.779	234.69
261.012	248.69
261.244	256.69
261.477	257.69
261.71	260.69
261.942	253.69
262.175	248.69
262.407	266.69
262.64	257.69
262.872	257.69
263.105	264.69
263.337	256.69
263.57	293.69
263.802	263.69
264.035	265.69
264.267	264.69
264.499	295.69
264.732	271.69
264.964	261.69
265.197	273.69
265.429	284.69
265.661	263.69
265.894	274.69
266.126	285.69
266.358	287.69
266.591	294.69
266.823	285.69
267.055	290.69
267.287	294.69
267.52	283.69
267.752	282.69
267.984	307.69
268.216	297.69
268.448	288.69
268.681	292.69
268.913	304.69
269.145	302.69
269.377	286.69
269.609	296.69
269.841	312.69
270.073	292.69
270.306	308.69
270.538	312.69
270.77	297.69
271.002	278.69
271.234	290.69
271.466	305.69
271.698	299.69
271.93	301.69
272.162	280.69
272.394	305.69
272.626	314.69
272.858	313.69
273.09	323.69
273.322	326.69
273.553	315.69
273.785	308.69
274.017	324.69
274.249	302.69
274.481	328.69
274.713	314.69
274.945	317.69
275.176	322.69
275.408	338.69
275.64	335.69
275.872	311.69
276.104	311.69
276.335	331.69
276.567	322.69
276.799	332.69
277.031	324.69
277.262	333.69
277.494	321.69
277.726	353.69
277.957	324.69
278.189	333.69
278.421	328.69
278.652	324.69
278.884	330.69
279.115	331.69
279.347	344.69
279.579	352.69
279.81	340.69
280.042	343.69
280.273	345.69
280.505	351.69
280.736	355.69
280.968	366.69
281.199	341.69
281.431	360.69
281.662	352.69
281.894	352.69
282.125	328.69
282.356	347.69
282.588	368.69
282.819	365.69
283.051	374.69
283.282	364.69
283.513	378.69
283.745	361.69
283.976	349.69
284.207	366.69
284.439	358.69
284.67	357.69
284.901	372.69
285.132	396.69
285.364	380.69
285.595	364.69
285.826	373.69
286.057	372.69
286.288	384.69
286.52	393.69
286.751	379.69
286.982	377.69
287.213	390.69
287.444	393.69
287.675	399.69
287.906	397.69
288.138	402.69
288.369	394.69
288.6	406.69
288.831	415.69
289.062	390.69
289.293	404.69
289.524	404.69
289.755	401.69
289.986	403.69
290.217	407.69
290.448	401.69
290.679	381.69
290.91	405.69
291.141	385.69
291.371	423.69
291.602	410.69
291.833	403.69
292.064	408.69
292.295	414.69
292.526	417.69
292.757	401.69
292.987	420.69
293.218	400.69
293.449	405.69
293.68	414.69
293.91	412.69
294.141	405.69
294.372	403.69
294.603	413.69
294.833	419.69
295.064	414.69
295.295	414.69
295.525	437.69
295.756	422.69
295.987	430.69
296.217	413.69
296.448	412.69
296.679	413.69
296.909	410.69
297.14	437.69
297.37	420.69
297.601	437.69
297.831	436.69
298.062	446.69
298.292	440.69
298.523	448.69
298.753	445.69
298.984	441.69
299.214	450.69
299.445	453.69
299.675	451.69
299.905	440.69
300.136	437.69
300.366	435.69
300.597	442.69
300.827	464.69
301.057	456.69
301.288	467.69
301.518	457.69
301.748	475.69
301.979	458.69
302.209	452.69
302.439	473.69
302.669	467.69
302.9	460.69
303.13	453.69
303.36	456.69
303.59	457.69
303.82	483.69
304.051	475.69
304.281	470.69
304.511	452.69
304.741	450.69
304.971	440.69
305.201	461.69
305.431	450.69
305.661	461.69
305.891	452.69
306.121	449.69
306.352	444.69
306.582	433.69
306.812	439.69
307.042	429.69
307.272	450.69
307.502	459.69
307.731	450.69
307.961	440.69
308.191	448.69
308.421	441.69
308.651	429.69
308.881	430.69
309.111	424.69
309.341	429.69
309.571	441.69
309.8	434.69
310.03	448.69
310.26	463.69
310.49	431.69
310.72	439.69
310.949	455.69
311.179	439.69
311.409	470.69
311.639	442.69
311.868	453.69
312.098	451.69
312.328	466.69
312.557	461.69
312.787	438.69
313.017	467.69
313.246	482.69
313.476	477.69
313.706	489.69
313.935	484.69
314.165	488.69
314.394	483.69
314.624	498.69
314.853	473.69
315.083	488.69
315.312	485.69
315.542	470.69
315.771	464.69
316.001	473.69
316.23	453.69
316.46	491.69
316.689	476.69
316.919	473.69
317.148	468.69
317.377	465.69
317.607	465.69
317.836	452.69
318.065	458.69
318.295	466.69
318.524	471.69
318.753	463.69
318.983	474.69
319.212	471.69
319.441	463.69
319.67	471.69
319.9	477.69
320.129	471.69
320.358	470.69
320.587	452.69
320.816	491.69
321.046	468.69
321.275	449.69
321.504	466.69
321.733	484.69
321.962	489.69
322.191	468.69
322.42	482.69
322.649	465.69
322.878	490.69
323.108	464.69
323.337	507.69
323.566	480.69
323.795	491.69
324.024	489.69
324.253	493.69
324.482	477.69
324.71	504.69
324.939	486.69
325.168	515.69
325.397	492.69
325.626	521.69
325.855	534.69
326.084	527.69
326.313	527.69
326.542	529.69
326.77	525.69
326.999	524.69
327.228	515.69
327.457	523.69
327.686	534.69
327.914	497.69
328.143	515.69
328.372	514.69
328.6	515.69
328.829	553.69
329.058	519.69
329.287	520.69
329.515	514.69
329.744	516.69
329.972	512.69
330.201	527.69
330.43	552.69
330.658	551.69
330.887	515.69
331.115	543.69
331.344	546.69
331.572	560.69
331.801	564.69
332.03	581.69
332.258	582.69
332.486	607.69
332.715	615.69
332.943	653.69
333.172	686.69
333.4	689.69
333.629	738.69
333.857	701.69
334.085	675.69
334.314	670.69
334.542	692.69
334.771	668.69
334.999	631.69
335.227	655.69
335.455	646.69
335.684	662.69
335.912	631.69
336.14	634.69
336.369	626.69
336.597	631.69
336.825	651.69
337.053	620.69
337.281	598.69
337.51	615.69
337.738	598.69
337.966	590.69
338.194	584.69
338.422	571.69
338.65	557.69
338.878	539.69
339.106	568.69
339.334	578.69
339.562	556.69
339.79	548.69
340.018	564.69
340.246	537.69
340.474	545.69
340.702	547.69
340.93	564.69
341.158	552.69
341.386	548.69
341.614	531.69
341.842	534.69
342.07	529.69
342.298	544.69
342.526	550.69
342.754	525.69
342.981	554.69
343.209	551.69
343.437	563.69
343.665	599.69
343.893	662.69
344.12	716.69
344.348	655.69
344.576	608.69
344.804	580.69
345.031	563.69
345.259	560.69
345.487	568.69
345.714	578.69
345.942	564.69
346.17	522.69
346.397	557.69
346.625	545.69
346.853	530.69
347.08	534.69
347.308	540.69
347.535	556.69
347.763	529.69
347.99	569.69
348.218	540.69
348.445	536.69
348.673	532.69
348.9	523.69
349.128	545.69
349.355	523.69
349.583	540.69
349.81	539.69
350.037	506.69
350.265	520.69
350.492	507.69
350.72	530.69
350.947	522.69
351.174	515.69
351.402	539.69
351.629	523.69
351.856	535.69
352.083	502.69
352.311	518.69
352.538	516.69
352.765	518.69
352.992	513.69
353.22	505.69
353.447	517.69
353.674	498.69
353.901	508.69
354.128	505.69
354.355	514.69
354.583	515.69
354.81	544.69
355.037	529.69
355.264	521.69
355.491	500.69
355.718	517.69
355.945	520.69
356.172	493.69
356.399	525.69
356.626	516.69
356.853	537.69
357.08	503.69
357.307	525.69
357.534	511.69
357.761	510.69
357.988	509.69
358.215	513.69
358.441	522.69
358.668	519.69
358.895	515.69
359.122	497.69
359.349	503.69
359.576	509.69
359.802	513.69
360.029	532.69
360.256	502.69
360.483	524.69
360.709	526.69
360.936	518.69
361.163	523.69
361.39	514.69
361.616	492.69
361.843	494.69
362.07	509.69
362.296	506.69
362.523	510.69
362.749	511.69
362.976	509.69
363.203	518.69
363.429	494.69
363.656	518.69
363.882	524.69
364.109	528.69
364.335	493.69
364.562	489.69
364.788	517.69
365.015	534.69
365.241	497.69
365.468	499.69
365.694	520.69
365.92	506.69
366.147	509.69
366.373	496.69
366.599	521.69
366.826	526.69
367.052	502.69
367.278	511.69
367.505	525.69
367.731	530.69
367.957	516.69
368.184	506.69
368.41	532.69
368.636	527.69
368.862	521.69
369.089	523.69
369.315	515.69
369.541	532.69
369.767	542.69
369.993	528.69
370.219	527.69
370.445	538.69
370.672	556.69
370.898	534.69
371.124	562.69
371.35	559.69
371.576	550.69
371.802	578.69
372.028	566.69
372.254	561.69
372.48	578.69
372.706	581.69
372.932	572.69
373.158	568.69
373.384	554.69
373.61	563.69
373.835	550.69
374.061	571.69
374.287	562.69
374.513	564.69
374.739	578.69
374.965	610.69
375.191	616.69
375.416	628.69
375.642	602.69
375.868	629.69
376.094	597.69
376.319	587.69
376.545	583.69
376.771	584.69
376.997	561.69
377.222	554.69
377.448	558.69
377.674	561.69
377.899	560.69
378.125	557.69
378.35	574.69
378.576	542.69
378.802	551.69
379.027	563.69
379.253	562.69
379.478	546.69
379.704	549.69
379.929	556.69
380.155	556.69
380.38	547.69
380.606	540.69
380.831	556.69
381.057	564.69
381.282	568.69
381.507	564.69
381.733	588.69
381.958	561.69
382.184	575.69
382.409	573.69
382.634	601.69
382.86	587.69
383.085	576.69
383.31	582.69
383.535	613.69
383.761	624.69
383.986	634.69
384.211	640.69
384.436	684.69
384.662	666.69
384.887	680.69
385.112	677.69
385.337	673.69
385.562	702.69
385.787	683.69
386.013	683.69
386.238	675.69
386.463	678.69
386.688	673.69
386.913	657.69
387.138	660.69
387.363	647.69
387.588	653.69
387.813	648.69
388.038	651.69
388.263	630.69
388.488	659.69
388.713	644.69
388.938	650.69
389.163	654.69
389.387	640.69
389.612	627.69
389.837	665.69
390.062	642.69
390.287	642.69
390.512	653.69
390.736	653.69
390.961	653.69
391.186	659.69
391.411	699.69
391.636	746.69
391.86	759.69
392.085	761.69
392.31	738.69
392.534	749.69
392.759	721.69
392.984	710.69
393.208	723.69
393.433	707.69
393.658	713.69
393.882	727.69
394.107	722.69
394.331	711.69
394.556	706.69
394.78	706.69
395.005	742.69
395.229	731.69
395.454	733.69
395.678	748.69
395.903	770.69
396.127	729.69
396.352	716.69
396.576	685.69
396.801	677.69
397.025	686.69
397.249	730.69
397.474	740.69
397.698	749.69
397.922	744.69
398.147	727.69
398.371	757.69
398.595	776.69
398.82	808.69
399.044	861.69
399.268	963.69
399.492	1117.69
399.717	1344.69
399.941	1288.69
400.165	1121.69
400.389	1008.69
400.613	912.69
400.837	883.69
401.062	852.69
401.286	830.69
401.51	842.69
401.734	837.69
401.958	841.69
402.182	850.69
402.406	848.69
402.63	866.69
402.854	912.69
403.078	916.69
403.302	933.69
403.526	975.69
403.75	954.69
403.974	1018.69
404.198	988.69
404.422	998.69
404.645	962.69
404.869	955.69
405.093	950.69
405.317	919.69
405.541	942.69
405.765	942.69
405.988	909.69
406.212	914.69
406.436	922.69
406.66	944.69
406.883	947.69
407.107	1001.69
407.331	1066.69
407.555	1104.69
407.778	1083.69
408.002	1049.69
408.226	992.69
408.449	997.69
408.673	960.69
408.896	987.69
409.12	944.69
409.344	985.69
409.567	944.69
409.791	999.69
410.014	956.69
410.238	954.69
410.461	955.69
410.685	937.69
410.908	922.69
411.132	898.69
411.355	856.69
411.578	868.69
411.802	854.69
412.025	856.69
412.249	858.69
412.472	898.69
412.695	864.69
412.919	810.69
413.142	839.69
413.365	814.69
413.589	814.69
413.812	840.69
414.035	849.69
414.258	813.69
414.482	840.69
414.705	868.69
414.928	862.69
415.151	860.69
415.374	862.69
415.597	839.69
415.821	822.69
416.044	834.69
416.267	801.69
416.49	788.69
416.713	829.69
416.936	821.69
417.159	816.69
417.382	847.69
417.605	838.69
417.828	830.69
418.051	828.69
418.274	836.69
418.497	829.69
418.72	836.69
418.943	850.69
419.166	940.69
419.389	972.69
419.611	957.69
419.834	902.69
420.057	862.69
420.28	848.69
420.503	836.69
420.726	843.69
420.948	827.69
421.171	804.69
421.394	830.69
421.617	806.69
421.839	848.69
422.062	837.69
422.285	826.69
422.507	893.69
422.73	882.69
422.953	845.69
423.175	866.69
423.398	911.69
423.621	897.69
423.843	906.69
424.066	913.69
424.288	898.69
424.511	891.69
424.733	873.69
424.956	850.69
425.178	851.69
425.401	827.69
425.623	857.69
425.846	813.69
426.068	807.69
426.291	793.69
426.513	797.69
426.735	768.69
426.958	778.69
427.18	749.69
427.402	738.69
427.625	769.69
427.847	765.69
428.069	741.69
428.292	752.69
428.514	740.69
428.736	717.69
428.958	751.69
429.181	722.69
429.403	737.69
429.625	745.69
429.847	757.69
430.069	726.69
430.292	714.69
430.514	716.69
430.736	721.69
430.958	716.69
431.18	705.69
431.402	741.69
431.624	734.69
431.846	766.69
432.068	762.69
432.29	744.69
432.512	739.69
432.734	743.69
432.956	740.69
433.178	754.69
433.4	771.69
433.622	765.69
433.844	744.69
434.066	778.69
434.287	770.69
434.509	781.69
434.731	844.69
434.953	864.69
435.175	833.69
435.397	832.69
435.618	800.69
435.84	770.69
436.062	779.69
436.284	746.69
436.505	752.69
436.727	754.69
436.949	760.69
437.17	734.69
437.392	723.69
437.614	751.69
437.835	735.69
438.057	744.69
438.278	747.69
438.5	705.69
438.721	697.69
438.943	715.69
439.165	709.69
439.386	734.69
439.608	732.69
439.829	744.69
440.05	756.69
440.272	761.69
440.493	744.69
440.715	746.69
440.936	762.69
441.158	761.69
441.379	818.69
441.6	857.69
441.822	872.69
442.043	874.69
442.264	852.69
442.486	843.69
442.707	844.69
442.928	842.69
443.149	842.69
443.371	842.69
443.592	832.69
443.813	842.69
444.034	880.69
444.255	878.69
444.476	893.69
444.698	981.69
444.919	1073.69
445.14	1117.69
445.361	954.69
445.582	861.69
445.803	814.69
446.024	805.69
446.245	786.69
446.466	770.69
446.687	756.69
446.908	774.69
447.129	748.69
447.35	744.69
447.571	754.69
447.792	699.69
448.013	714.69
448.234	704.69
448.455	697.69
448.675	687.69
448.896	689.69
449.117	670.69
449.338	698.69
449.559	696.69
449.779	690.69
450	701.69
450.221	678.69
450.442	691.69
450.662	700.69
450.883	718.69
451.104	737.69
451.324	701.69
451.545	734.69
451.766	711.69
451.986	704.69
452.207	690.69
452.428	695.69
452.648	707.69
452.869	662.69
453.089	686.69
453.31	696.69
453.53	713.69
453.751	666.69
453.971	667.69
454.192	656.69
454.412	659.69
454.633	665.69
454.853	672.69
455.073	636.69
455.294	636.69
455.514	668.69
455.734	639.69
455.955	639.69
456.175	635.69
456.395	638.69
456.616	634.69
456.836	653.69
457.056	637.69
457.276	611.69
457.497	642.69
457.717	621.69
457.937	651.69
458.157	654.69
458.377	664.69
458.598	688.69
458.818	700.69
459.038	718.69
459.258	740.69
459.478	777.69
459.698	760.69
459.918	822.69
460.138	849.69
460.358	877.69
460.578	884.69
460.798	924.69
461.018	922.69
461.238	866.69
461.458	901.69
461.678	896.69
461.898	908.69
462.118	877.69
462.338	962.69
462.558	955.69
462.777	1038.69
462.997	1073.69
463.217	1193.69
463.437	1243.69
463.657	1124.69
463.876	1023.69
464.096	1048.69
464.316	1082.69
464.536	1049.69
464.755	1014.69
464.975	960.69
465.195	906.69
465.414	868.69
465.634	828.69
465.854	777.69
466.073	779.69
466.293	788.69
466.512	740.69
466.732	724.69
466.951	757.69
467.171	746.69
467.391	708.69
467.61	726.69
467.829	723.69
468.049	722.69
468.268	686.69
468.488	703.69
468.707	690.69
468.927	704.69
469.146	722.69
469.365	678.69
469.585	714.69
469.804	710.69
470.023	745.69
470.243	757.69
470.462	760.69
470.681	772.69
470.901	769.69
471.12	733.69
471.339	741.69
471.558	724.69
471.777	695.69
471.997	725.69
472.216	709.69
472.435	680.69
472.654	677.69
472.873	670.69
473.092	680.69
473.311	657.69
473.53	662.69
473.749	682.69
473.968	657.69
474.187	652.69
474.406	672.69
474.625	678.69
474.844	684.69
475.063	671.69
475.282	681.69
475.501	695.69
475.72	683.69
475.939	689.69
476.158	694.69
476.377	686.69
476.596	693.69
476.814	694.69
477.033	700.69
477.252	729.69
477.471	749.69
477.69	743.69
477.908	752.69
478.127	806.69
478.346	813.69
478.564	803.69
478.783	830.69
479.002	844.69
479.22	848.69
479.439	850.69
479.658	790.69
479.876	807.69
480.095	845.69
480.313	889.69
480.532	946.69
480.751	928.69
480.969	857.69
481.188	832.69
481.406	798.69
481.624	763.69
481.843	784.69
482.061	760.69
482.28	798.69
482.498	755.69
482.717	736.69
482.935	748.69
483.153	758.69
483.372	755.69
483.59	783.69
483.808	781.69
484.027	784.69
484.245	772.69
484.463	779.69
484.681	783.69
484.9	793.69
485.118	808.69
485.336	790.69
485.554	789.69
485.772	811.69
485.99	812.69
486.209	822.69
486.427	838.69
486.645	817.69
486.863	831.69
487.081	809.69
487.299	817.69
487.517	809.69
487.735	812.69
487.953	805.69
488.171	801.69
488.389	801.69
488.607	794.69
488.825	772.69
489.043	776.69
489.261	780.69
489.479	788.69
489.696	768.69
489.914	786.69
490.132	822.69
490.35	817.69
490.568	796.69
490.786	796.69
491.003	803.69
491.221	826.69
491.439	814.69
491.657	808.69
491.874	799.69
492.092	842.69
492.31	809.69
492.527	828.69
492.745	820.69
492.963	839.69
493.18	834.69
493.398	832.69
493.615	832.69
493.833	847.69
494.05	860.69
494.268	852.69
494.485	864.69
494.703	881.69
494.92	850.69
495.138	842.69
495.355	837.69
495.573	881.69
495.79	856.69
496.008	864.69
496.225	851.69
496.442	838.69
496.66	872.69
496.877	887.69
497.094	909.69
497.312	910.69
497.529	918.69
497.746	947.69
497.963	974.69
498.181	1011.69
498.398	1056.69
498.615	1080.69
498.832	1205.69
499.049	1304.69
499.267	1389.69
499.484	1532.69
499.701	1703.69
499.918	1901.69
500.135	2189.69
500.352	2552.69
500.569	2714.69
500.786	2721.69
501.003	2480.69
