Data from Ni(NO3)2@0.125M.TitratingCurve.Agarose3%dH2O.NegLispCup.LampEnergy10.LIBS07252019_HRD10591_18-11-20-568.txt Node
Date: Thu Jul 25 18:11:20 EDT 2019
User: cochatt
Spectrometer: HR+D1059
Trigger mode: 1
Integration Time (sec): 1.000000E-1
Scans to average: 1
Electric dark correction enabled: true
Nonlinearity correction enabled: false
Boxcar width: 0
XAxis mode: Wavelengths
Number of Pixels in Spectrum: 2048
>>>>>Begin Spectral Data<<<<<
223.165	-20.62
223.4	-20.62
223.635	-20.62
223.869	-34.62
224.104	-21.62
224.338	-20.62
224.573	-5.62
224.808	-2.62
225.042	-9.62
225.277	-4.62
225.511	-5.62
225.746	-2.62
225.98	15.38
226.215	21.38
226.449	16.38
226.683	21.38
226.918	15.38
227.152	38.38
227.387	32.38
227.621	28.38
227.856	42.38
228.09	61.38
228.324	46.38
228.559	55.38
228.793	76.38
229.027	111.38
229.262	105.38
229.496	120.38
229.73	135.38
229.964	122.38
230.199	134.38
230.433	131.38
230.667	139.38
230.901	137.38
231.136	136.38
231.37	144.38
231.604	137.38
231.838	141.38
232.072	152.38
232.306	160.38
232.541	155.38
232.775	159.38
233.009	155.38
233.243	163.38
233.477	160.38
233.711	148.38
233.945	169.38
234.179	145.38
234.413	145.38
234.647	156.38
234.881	149.38
235.115	156.38
235.349	156.38
235.583	160.38
235.817	155.38
236.051	177.38
236.285	165.38
236.519	170.38
236.753	154.38
236.987	171.38
237.221	168.38
237.455	187.38
237.689	167.38
237.922	170.38
238.156	173.38
238.39	170.38
238.624	175.38
238.858	166.38
239.091	171.38
239.325	176.38
239.559	181.38
239.793	188.38
240.027	178.38
240.26	183.38
240.494	170.38
240.728	192.38
240.961	185.38
241.195	180.38
241.429	196.38
241.662	180.38
241.896	186.38
242.13	203.38
242.363	185.38
242.597	202.38
242.83	197.38
243.064	212.38
243.298	213.38
243.531	219.38
243.765	200.38
243.998	228.38
244.232	206.38
244.465	212.38
244.699	227.38
244.932	205.38
245.166	224.38
245.399	238.38
245.633	237.38
245.866	236.38
246.099	225.38
246.333	202.38
246.566	247.38
246.8	225.38
247.033	245.38
247.266	227.38
247.5	249.38
247.733	248.38
247.966	228.38
248.2	236.38
248.433	233.38
248.666	236.38
248.899	269.38
249.133	258.38
249.366	249.38
249.599	278.38
249.832	271.38
250.066	252.38
250.299	264.38
250.532	251.38
250.765	277.38
250.998	266.38
251.231	285.38
251.465	268.38
251.698	275.38
251.931	291.38
252.164	293.38
252.397	299.38
252.63	261.38
252.863	273.38
253.096	289.38
253.329	283.38
253.562	279.38
253.795	293.38
254.028	300.38
254.261	307.38
254.494	295.38
254.727	283.38
254.96	292.38
255.193	293.38
255.426	301.38
255.659	302.38
255.892	300.38
256.124	298.38
256.357	310.38
256.59	323.38
256.823	295.38
257.056	306.38
257.289	306.38
257.521	306.38
257.754	326.38
257.987	319.38
258.22	328.38
258.452	332.38
258.685	328.38
258.918	308.38
259.151	329.38
259.383	335.38
259.616	331.38
259.849	308.38
260.081	327.38
260.314	333.38
260.547	336.38
260.779	341.38
261.012	333.38
261.244	345.38
261.477	337.38
261.71	356.38
261.942	358.38
262.175	332.38
262.407	343.38
262.64	350.38
262.872	353.38
263.105	362.38
263.337	349.38
263.57	352.38
263.802	348.38
264.035	357.38
264.267	356.38
264.499	357.38
264.732	375.38
264.964	377.38
265.197	361.38
265.429	369.38
265.661	362.38
265.894	375.38
266.126	385.38
266.358	377.38
266.591	365.38
266.823	396.38
267.055	379.38
267.287	377.38
267.52	381.38
267.752	386.38
267.984	393.38
268.216	383.38
268.448	397.38
268.681	395.38
268.913	395.38
269.145	393.38
269.377	385.38
269.609	412.38
269.841	394.38
270.073	399.38
270.306	411.38
270.538	391.38
270.77	395.38
271.002	420.38
271.234	401.38
271.466	415.38
271.698	391.38
271.93	418.38
272.162	415.38
272.394	426.38
272.626	397.38
272.858	409.38
273.09	408.38
273.322	413.38
273.553	415.38
273.785	427.38
274.017	453.38
274.249	431.38
274.481	415.38
274.713	444.38
274.945	442.38
275.176	456.38
275.408	451.38
275.64	458.38
275.872	449.38
276.104	456.38
276.335	448.38
276.567	443.38
276.799	437.38
277.031	448.38
277.262	451.38
277.494	470.38
277.726	461.38
277.957	457.38
278.189	452.38
278.421	450.38
278.652	456.38
278.884	484.38
279.115	455.38
279.347	461.38
279.579	479.38
279.81	471.38
280.042	475.38
280.273	486.38
280.505	512.38
280.736	482.38
280.968	479.38
281.199	466.38
281.431	477.38
281.662	485.38
281.894	476.38
282.125	495.38
282.356	531.38
282.588	538.38
282.819	515.38
283.051	510.38
283.282	506.38
283.513	512.38
283.745	503.38
283.976	485.38
284.207	513.38
284.439	520.38
284.67	528.38
284.901	517.38
285.132	519.38
285.364	517.38
285.595	533.38
285.826	514.38
286.057	509.38
286.288	541.38
286.52	511.38
286.751	541.38
286.982	531.38
287.213	533.38
287.444	539.38
287.675	523.38
287.906	548.38
288.138	557.38
288.369	558.38
288.6	557.38
288.831	550.38
289.062	555.38
289.293	544.38
289.524	575.38
289.755	559.38
289.986	555.38
290.217	553.38
290.448	572.38
290.679	575.38
290.91	552.38
291.141	567.38
291.371	568.38
291.602	560.38
291.833	566.38
292.064	548.38
292.295	568.38
292.526	574.38
292.757	564.38
292.987	567.38
293.218	572.38
293.449	581.38
293.68	564.38
293.91	569.38
294.141	571.38
294.372	566.38
294.603	585.38
294.833	567.38
295.064	554.38
295.295	573.38
295.525	568.38
295.756	602.38
295.987	565.38
296.217	583.38
296.448	585.38
296.679	584.38
296.909	584.38
297.14	576.38
297.37	589.38
297.601	577.38
297.831	627.38
298.062	615.38
298.292	585.38
298.523	629.38
298.753	626.38
298.984	623.38
299.214	634.38
299.445	613.38
299.675	594.38
299.905	615.38
300.136	578.38
300.366	615.38
300.597	624.38
300.827	651.38
301.057	647.38
301.288	636.38
301.518	632.38
301.748	651.38
301.979	644.38
302.209	661.38
302.439	648.38
302.669	650.38
302.9	635.38
303.13	631.38
303.36	634.38
303.59	627.38
303.82	653.38
304.051	634.38
304.281	641.38
304.511	629.38
304.741	638.38
304.971	627.38
305.201	640.38
305.431	637.38
305.661	632.38
305.891	605.38
306.121	636.38
306.352	643.38
306.582	608.38
306.812	614.38
307.042	653.38
307.272	643.38
307.502	640.38
307.731	619.38
307.961	607.38
308.191	597.38
308.421	595.38
308.651	614.38
308.881	617.38
309.111	657.38
309.341	593.38
309.571	635.38
309.8	609.38
310.03	621.38
310.26	601.38
310.49	628.38
310.72	623.38
310.949	641.38
311.179	647.38
311.409	646.38
311.639	629.38
311.868	643.38
312.098	652.38
312.328	663.38
312.557	639.38
312.787	652.38
313.017	662.38
313.246	674.38
313.476	671.38
313.706	653.38
313.935	693.38
314.165	691.38
314.394	677.38
314.624	665.38
314.853	679.38
315.083	691.38
315.312	679.38
315.542	674.38
315.771	664.38
316.001	651.38
316.23	673.38
316.46	681.38
316.689	648.38
316.919	661.38
317.148	650.38
317.377	675.38
317.607	660.38
317.836	644.38
318.065	675.38
318.295	674.38
318.524	683.38
318.753	674.38
318.983	666.38
319.212	653.38
319.441	653.38
319.67	680.38
319.9	681.38
320.129	652.38
320.358	658.38
320.587	684.38
320.816	673.38
321.046	661.38
321.275	675.38
321.504	667.38
321.733	678.38
321.962	659.38
322.191	672.38
322.42	675.38
322.649	686.38
322.878	677.38
323.108	665.38
323.337	708.38
323.566	673.38
323.795	669.38
324.024	664.38
324.253	695.38
324.482	674.38
324.71	700.38
324.939	688.38
325.168	711.38
325.397	690.38
325.626	688.38
325.855	717.38
326.084	738.38
326.313	732.38
326.542	748.38
326.77	741.38
326.999	745.38
327.228	699.38
327.457	705.38
327.686	729.38
327.914	752.38
328.143	740.38
328.372	742.38
328.6	727.38
328.829	731.38
329.058	697.38
329.287	740.38
329.515	730.38
329.744	747.38
329.972	757.38
330.201	746.38
330.43	740.38
330.658	743.38
330.887	748.38
331.115	782.38
331.344	771.38
331.572	772.38
331.801	796.38
332.03	806.38
332.258	818.38
332.486	869.38
332.715	872.38
332.943	914.38
333.172	979.38
333.4	999.38
333.629	1029.38
333.857	1039.38
334.085	1036.38
334.314	991.38
334.542	947.38
334.771	933.38
334.999	953.38
335.227	919.38
335.455	945.38
335.684	931.38
335.912	930.38
336.14	851.38
336.369	851.38
336.597	887.38
336.825	888.38
337.053	899.38
337.281	875.38
337.51	848.38
337.738	855.38
337.966	825.38
338.194	809.38
338.422	805.38
338.65	804.38
338.878	809.38
339.106	811.38
339.334	811.38
339.562	808.38
339.79	772.38
340.018	769.38
340.246	757.38
340.474	787.38
340.702	773.38
340.93	778.38
341.158	782.38
341.386	781.38
341.614	792.38
341.842	779.38
342.07	772.38
342.298	753.38
342.526	776.38
342.754	749.38
342.981	752.38
343.209	793.38
343.437	804.38
343.665	885.38
343.893	954.38
344.12	984.38
344.348	932.38
344.576	870.38
344.804	843.38
345.031	793.38
345.259	799.38
345.487	777.38
345.714	786.38
345.942	817.38
346.17	763.38
346.397	748.38
346.625	753.38
346.853	742.38
347.08	738.38
347.308	751.38
347.535	742.38
347.763	785.38
347.99	740.38
348.218	730.38
348.445	741.38
348.673	735.38
348.9	749.38
349.128	711.38
349.355	738.38
349.583	714.38
349.81	722.38
350.037	727.38
350.265	729.38
350.492	733.38
350.72	721.38
350.947	739.38
351.174	716.38
351.402	715.38
351.629	701.38
351.856	713.38
352.083	693.38
352.311	686.38
352.538	717.38
352.765	720.38
352.992	706.38
353.22	725.38
353.447	695.38
353.674	706.38
353.901	708.38
354.128	709.38
354.355	725.38
354.583	713.38
354.81	711.38
355.037	704.38
355.264	720.38
355.491	684.38
355.718	723.38
355.945	689.38
356.172	744.38
356.399	741.38
356.626	742.38
356.853	733.38
357.08	712.38
357.307	708.38
357.534	712.38
357.761	731.38
357.988	739.38
358.215	708.38
358.441	701.38
358.668	709.38
358.895	692.38
359.122	705.38
359.349	710.38
359.576	705.38
359.802	699.38
360.029	718.38
360.256	712.38
360.483	704.38
360.709	725.38
360.936	715.38
361.163	735.38
361.39	728.38
361.616	739.38
361.843	717.38
362.07	731.38
362.296	735.38
362.523	716.38
362.749	701.38
362.976	725.38
363.203	722.38
363.429	701.38
363.656	705.38
363.882	714.38
364.109	708.38
364.335	719.38
364.562	703.38
364.788	695.38
365.015	700.38
365.241	705.38
365.468	707.38
365.694	726.38
365.92	712.38
366.147	725.38
366.373	698.38
366.599	704.38
366.826	689.38
367.052	704.38
367.278	715.38
367.505	729.38
367.731	698.38
367.957	717.38
368.184	742.38
368.41	747.38
368.636	724.38
368.862	739.38
369.089	712.38
369.315	735.38
369.541	754.38
369.767	729.38
369.993	753.38
370.219	749.38
370.445	757.38
370.672	762.38
370.898	751.38
371.124	752.38
371.35	780.38
371.576	761.38
371.802	781.38
372.028	782.38
372.254	811.38
372.48	785.38
372.706	805.38
372.932	799.38
373.158	813.38
373.384	795.38
373.61	793.38
373.835	784.38
374.061	802.38
374.287	803.38
374.513	804.38
374.739	803.38
374.965	842.38
375.191	867.38
375.416	876.38
375.642	844.38
375.868	817.38
376.094	808.38
376.319	781.38
376.545	796.38
376.771	804.38
376.997	785.38
377.222	795.38
377.448	794.38
377.674	779.38
377.899	789.38
378.125	782.38
378.35	757.38
378.576	777.38
378.802	767.38
379.027	758.38
379.253	758.38
379.478	776.38
379.704	733.38
379.929	746.38
380.155	766.38
380.38	767.38
380.606	801.38
380.831	797.38
381.057	778.38
381.282	779.38
381.507	762.38
381.733	771.38
381.958	781.38
382.184	777.38
382.409	796.38
382.634	793.38
382.86	818.38
383.085	850.38
383.31	842.38
383.535	856.38
383.761	861.38
383.986	876.38
384.211	897.38
384.436	910.38
384.662	923.38
384.887	936.38
385.112	948.38
385.337	949.38
385.562	966.38
385.787	957.38
386.013	970.38
386.238	969.38
386.463	933.38
386.688	951.38
386.913	923.38
387.138	957.38
387.363	931.38
387.588	918.38
387.813	940.38
388.038	941.38
388.263	928.38
388.488	940.38
388.713	936.38
388.938	925.38
389.163	917.38
389.387	928.38
389.612	925.38
389.837	948.38
390.062	911.38
390.287	915.38
390.512	920.38
390.736	880.38
390.961	955.38
391.186	959.38
391.411	1007.38
391.636	1019.38
391.86	1054.38
392.085	1071.38
392.31	1062.38
392.534	1026.38
392.759	1003.38
392.984	995.38
393.208	975.38
393.433	972.38
393.658	978.38
393.882	1001.38
394.107	987.38
394.331	1006.38
394.556	1023.38
394.78	1028.38
395.005	1027.38
395.229	1030.38
395.454	1033.38
395.678	1097.38
395.903	1059.38
396.127	1013.38
396.352	987.38
396.576	987.38
396.801	988.38
397.025	989.38
397.249	1037.38
397.474	1057.38
397.698	1080.38
397.922	1037.38
398.147	1059.38
398.371	1095.38
398.595	1094.38
398.82	1144.38
399.044	1256.38
399.268	1394.38
399.492	1651.38
399.717	1845.38
399.941	1815.38
400.165	1574.38
400.389	1400.38
400.613	1293.38
400.837	1215.38
401.062	1194.38
401.286	1194.38
401.51	1178.38
401.734	1168.38
401.958	1180.38
402.182	1200.38
402.406	1226.38
402.63	1241.38
402.854	1245.38
403.078	1280.38
403.302	1304.38
403.526	1347.38
403.75	1364.38
403.974	1362.38
404.198	1382.38
404.422	1413.38
404.645	1384.38
404.869	1327.38
405.093	1312.38
405.317	1335.38
405.541	1335.38
405.765	1289.38
405.988	1258.38
406.212	1279.38
406.436	1285.38
406.66	1328.38
406.883	1351.38
407.107	1427.38
407.331	1530.38
407.555	1536.38
407.778	1545.38
408.002	1499.38
408.226	1443.38
408.449	1416.38
408.673	1336.38
408.896	1325.38
409.12	1318.38
409.344	1337.38
409.567	1343.38
409.791	1320.38
410.014	1358.38
410.238	1309.38
410.461	1287.38
410.685	1309.38
410.908	1300.38
411.132	1287.38
411.355	1233.38
411.578	1243.38
411.802	1211.38
412.025	1255.38
412.249	1256.38
412.472	1226.38
412.695	1195.38
412.919	1153.38
413.142	1162.38
413.365	1192.38
413.589	1203.38
413.812	1192.38
414.035	1143.38
414.258	1157.38
414.482	1179.38
414.705	1188.38
414.928	1225.38
415.151	1211.38
415.374	1188.38
415.597	1156.38
415.821	1153.38
416.044	1148.38
416.267	1167.38
416.49	1161.38
416.713	1159.38
416.936	1169.38
417.159	1149.38
417.382	1139.38
417.605	1171.38
417.828	1193.38
418.051	1185.38
418.274	1154.38
418.497	1173.38
418.72	1208.38
418.943	1201.38
419.166	1259.38
419.389	1355.38
419.611	1297.38
419.834	1244.38
420.057	1241.38
420.28	1199.38
420.503	1151.38
420.726	1160.38
420.948	1163.38
421.171	1155.38
421.394	1130.38
421.617	1155.38
421.839	1139.38
422.062	1151.38
422.285	1162.38
422.507	1220.38
422.73	1233.38
422.953	1225.38
423.175	1233.38
423.398	1212.38
423.621	1255.38
423.843	1250.38
424.066	1269.38
424.288	1247.38
424.511	1241.38
424.733	1288.38
424.956	1217.38
425.178	1224.38
425.401	1163.38
425.623	1160.38
425.846	1115.38
426.068	1135.38
426.291	1087.38
426.513	1102.38
426.735	1088.38
426.958	1092.38
427.18	1084.38
427.402	1034.38
427.625	1057.38
427.847	1036.38
428.069	1035.38
428.292	1050.38
428.514	1007.38
428.736	1023.38
428.958	1036.38
429.181	1003.38
429.403	1017.38
429.625	1007.38
429.847	986.38
430.069	1023.38
430.292	1003.38
430.514	1002.38
430.736	1004.38
430.958	991.38
431.18	1011.38
431.402	1023.38
431.624	1008.38
431.846	1036.38
432.068	1058.38
432.29	1071.38
432.512	1010.38
432.734	1038.38
432.956	1014.38
433.178	1064.38
433.4	1023.38
433.622	1059.38
433.844	1044.38
434.066	1068.38
434.287	1051.38
434.509	1081.38
434.731	1146.38
434.953	1171.38
435.175	1205.38
435.397	1188.38
435.618	1131.38
435.84	1058.38
436.062	1036.38
436.284	1050.38
436.505	1027.38
436.727	1034.38
436.949	1059.38
437.17	1045.38
437.392	1005.38
437.614	1019.38
437.835	991.38
438.057	985.38
438.278	959.38
438.5	978.38
438.721	977.38
438.943	999.38
439.165	975.38
439.386	999.38
439.608	1047.38
439.829	1017.38
440.05	1031.38
440.272	1049.38
440.493	1058.38
440.715	1030.38
440.936	1093.38
441.158	1093.38
441.379	1128.38
441.6	1180.38
441.822	1221.38
442.043	1157.38
442.264	1140.38
442.486	1120.38
442.707	1128.38
442.928	1141.38
443.149	1139.38
443.371	1157.38
443.592	1140.38
443.813	1143.38
444.034	1176.38
444.255	1202.38
444.476	1279.38
444.698	1383.38
444.919	1407.38
445.14	1483.38
445.361	1295.38
445.582	1216.38
445.803	1169.38
446.024	1089.38
446.245	1095.38
446.466	1068.38
446.687	1039.38
446.908	1039.38
447.129	1002.38
447.35	1002.38
447.571	975.38
447.792	959.38
448.013	969.38
448.234	967.38
448.455	944.38
448.675	964.38
448.896	931.38
449.117	937.38
449.338	940.38
449.559	944.38
449.779	943.38
450	884.38
450.221	940.38
450.442	936.38
450.662	981.38
450.883	957.38
451.104	966.38
451.324	949.38
451.545	952.38
451.766	979.38
451.986	963.38
452.207	924.38
452.428	965.38
452.648	963.38
452.869	943.38
453.089	935.38
453.31	954.38
453.53	936.38
453.751	911.38
453.971	924.38
454.192	894.38
454.412	886.38
454.633	894.38
454.853	880.38
455.073	867.38
455.294	887.38
455.514	875.38
455.734	923.38
455.955	881.38
456.175	882.38
456.395	859.38
456.616	867.38
456.836	879.38
457.056	917.38
457.276	841.38
457.497	877.38
457.717	865.38
457.937	907.38
458.157	891.38
458.377	884.38
458.598	932.38
458.818	925.38
459.038	996.38
459.258	975.38
459.478	1043.38
459.698	1029.38
459.918	1079.38
460.138	1145.38
460.358	1234.38
460.578	1205.38
460.798	1229.38
461.018	1243.38
461.238	1194.38
461.458	1163.38
461.678	1195.38
461.898	1210.38
462.118	1209.38
462.338	1293.38
462.558	1288.38
462.777	1391.38
462.997	1521.38
463.217	1636.38
463.437	1678.38
463.657	1500.38
463.876	1405.38
464.096	1425.38
464.316	1445.38
464.536	1450.38
464.755	1379.38
464.975	1343.38
465.195	1291.38
465.414	1203.38
465.634	1123.38
465.854	1091.38
466.073	1057.38
466.293	1043.38
466.512	1000.38
466.732	995.38
466.951	995.38
467.171	991.38
467.391	987.38
467.61	980.38
467.829	972.38
468.049	978.38
468.268	929.38
468.488	943.38
468.707	907.38
468.927	916.38
469.146	945.38
469.365	952.38
469.585	952.38
469.804	993.38
470.023	1014.38
470.243	1025.38
470.462	1013.38
470.681	984.38
470.901	1023.38
471.12	990.38
471.339	976.38
471.558	965.38
471.777	971.38
471.997	940.38
472.216	959.38
472.435	905.38
472.654	916.38
472.873	905.38
473.092	936.38
473.311	908.38
473.53	884.38
473.749	900.38
473.968	888.38
474.187	895.38
474.406	896.38
474.625	908.38
474.844	892.38
475.063	912.38
475.282	923.38
475.501	923.38
475.72	921.38
475.939	937.38
476.158	950.38
476.377	948.38
476.596	951.38
476.814	951.38
477.033	963.38
477.252	1002.38
477.471	1000.38
477.69	1021.38
477.908	1053.38
478.127	1095.38
478.346	1102.38
478.564	1117.38
478.783	1107.38
479.002	1171.38
479.22	1155.38
479.439	1128.38
479.658	1110.38
479.876	1152.38
480.095	1193.38
480.313	1217.38
480.532	1278.38
480.751	1244.38
480.969	1193.38
481.188	1119.38
481.406	1076.38
481.624	1074.38
481.843	1051.38
482.061	1050.38
482.28	1080.38
482.498	1002.38
482.717	1017.38
482.935	1056.38
483.153	1008.38
483.372	1050.38
483.59	1042.38
483.808	1032.38
484.027	1058.38
484.245	1031.38
484.463	1057.38
484.681	1065.38
484.9	1068.38
485.118	1060.38
485.336	1082.38
485.554	1119.38
485.772	1099.38
485.99	1101.38
486.209	1139.38
486.427	1105.38
486.645	1088.38
486.863	1119.38
487.081	1090.38
487.299	1107.38
487.517	1101.38
487.735	1098.38
487.953	1081.38
488.171	1110.38
488.389	1078.38
488.607	1060.38
488.825	1077.38
489.043	1053.38
489.261	1068.38
489.479	1086.38
489.696	1081.38
489.914	1064.38
490.132	1120.38
490.35	1069.38
490.568	1120.38
490.786	1090.38
491.003	1078.38
491.221	1107.38
491.439	1115.38
491.657	1117.38
491.874	1105.38
492.092	1105.38
492.31	1105.38
492.527	1096.38
492.745	1113.38
492.963	1128.38
493.18	1097.38
493.398	1141.38
493.615	1148.38
493.833	1153.38
494.05	1132.38
494.268	1126.38
494.485	1156.38
494.703	1187.38
494.92	1142.38
495.138	1138.38
495.355	1128.38
495.573	1153.38
495.79	1156.38
496.008	1172.38
496.225	1184.38
496.442	1204.38
496.66	1161.38
