Data from Ni(NO3)2@0.25M.TitratingCurve.Agarose3%dH2O.NegLispCup.LampEnergy10.LIBS07252019_HRD10591_18-05-19-566.txt Node
Date: Thu Jul 25 18:05:19 EDT 2019
User: cochatt
Spectrometer: HR+D1059
Trigger mode: 1
Integration Time (sec): 1.000000E-1
Scans to average: 1
Electric dark correction enabled: true
Nonlinearity correction enabled: false
Boxcar width: 0
XAxis mode: Wavelengths
Number of Pixels in Spectrum: 2048
>>>>>Begin Spectral Data<<<<<
223.165	-20.5
223.4	-20.5
223.635	-20.5
223.869	-21.5
224.104	-24.5
224.338	-27.5
224.573	-7.5
224.808	1.5
225.042	0.5
225.277	-6.5
225.511	-6.5
225.746	5.5
225.98	14.5
226.215	2.5
226.449	20.5
226.683	8.5
226.918	35.5
227.152	25.5
227.387	42.5
227.621	51.5
227.856	34.5
228.09	46.5
228.324	44.5
228.559	57.5
228.793	69.5
229.027	118.5
229.262	104.5
229.496	121.5
229.73	111.5
229.964	140.5
230.199	123.5
230.433	137.5
230.667	145.5
230.901	144.5
231.136	133.5
231.37	148.5
231.604	147.5
231.838	157.5
232.072	142.5
232.306	159.5
232.541	161.5
232.775	151.5
233.009	162.5
233.243	149.5
233.477	148.5
233.711	156.5
233.945	167.5
234.179	171.5
234.413	168.5
234.647	159.5
234.881	165.5
235.115	149.5
235.349	166.5
235.583	179.5
235.817	154.5
236.051	178.5
236.285	173.5
236.519	173.5
236.753	188.5
236.987	172.5
237.221	190.5
237.455	177.5
237.689	167.5
237.922	198.5
238.156	181.5
238.39	183.5
238.624	173.5
238.858	201.5
239.091	184.5
239.325	190.5
239.559	204.5
239.793	198.5
240.027	205.5
240.26	192.5
240.494	196.5
240.728	204.5
240.961	197.5
241.195	204.5
241.429	204.5
241.662	195.5
241.896	216.5
242.13	216.5
242.363	221.5
242.597	221.5
242.83	216.5
243.064	209.5
243.298	220.5
243.531	232.5
243.765	237.5
243.998	228.5
244.232	233.5
244.465	247.5
244.699	234.5
244.932	249.5
245.166	236.5
245.399	242.5
245.633	240.5
245.866	260.5
246.099	250.5
246.333	244.5
246.566	257.5
246.8	263.5
247.033	260.5
247.266	255.5
247.5	273.5
247.733	267.5
247.966	279.5
248.2	272.5
248.433	261.5
248.666	275.5
248.899	275.5
249.133	276.5
249.366	280.5
249.599	284.5
249.832	300.5
250.066	300.5
250.299	289.5
250.532	298.5
250.765	297.5
250.998	309.5
251.231	294.5
251.465	315.5
251.698	314.5
251.931	303.5
252.164	326.5
252.397	315.5
252.63	309.5
252.863	322.5
253.096	331.5
253.329	336.5
253.562	330.5
253.795	319.5
254.028	328.5
254.261	332.5
254.494	334.5
254.727	359.5
254.96	335.5
255.193	333.5
255.426	336.5
255.659	351.5
255.892	348.5
256.124	360.5
256.357	346.5
256.59	349.5
256.823	343.5
257.056	350.5
257.289	364.5
257.521	379.5
257.754	358.5
257.987	345.5
258.22	372.5
258.452	377.5
258.685	373.5
258.918	356.5
259.151	376.5
259.383	379.5
259.616	399.5
259.849	390.5
260.081	393.5
260.314	377.5
260.547	412.5
260.779	386.5
261.012	401.5
261.244	399.5
261.477	410.5
261.71	405.5
261.942	408.5
262.175	397.5
262.407	391.5
262.64	392.5
262.872	406.5
263.105	408.5
263.337	421.5
263.57	418.5
263.802	428.5
264.035	440.5
264.267	433.5
264.499	412.5
264.732	426.5
264.964	442.5
265.197	456.5
265.429	442.5
265.661	424.5
265.894	437.5
266.126	459.5
266.358	440.5
266.591	447.5
266.823	441.5
267.055	473.5
267.287	441.5
267.52	468.5
267.752	445.5
267.984	439.5
268.216	452.5
268.448	459.5
268.681	449.5
268.913	461.5
269.145	487.5
269.377	483.5
269.609	462.5
269.841	475.5
270.073	480.5
270.306	452.5
270.538	476.5
270.77	483.5
271.002	461.5
271.234	482.5
271.466	496.5
271.698	490.5
271.93	487.5
272.162	492.5
272.394	483.5
272.626	489.5
272.858	501.5
273.09	471.5
273.322	502.5
273.553	488.5
273.785	511.5
274.017	520.5
274.249	524.5
274.481	515.5
274.713	501.5
274.945	534.5
275.176	531.5
275.408	501.5
275.64	503.5
275.872	515.5
276.104	542.5
276.335	538.5
276.567	546.5
276.799	538.5
277.031	520.5
277.262	520.5
277.494	500.5
277.726	520.5
277.957	532.5
278.189	555.5
278.421	551.5
278.652	553.5
278.884	550.5
279.115	547.5
279.347	557.5
279.579	565.5
279.81	567.5
280.042	559.5
280.273	579.5
280.505	579.5
280.736	548.5
280.968	580.5
281.199	575.5
281.431	562.5
281.662	579.5
281.894	586.5
282.125	593.5
282.356	598.5
282.588	583.5
282.819	587.5
283.051	578.5
283.282	578.5
283.513	596.5
283.745	591.5
283.976	601.5
284.207	590.5
284.439	602.5
284.67	587.5
284.901	628.5
285.132	614.5
285.364	618.5
285.595	591.5
285.826	610.5
286.057	622.5
286.288	607.5
286.52	611.5
286.751	653.5
286.982	613.5
287.213	616.5
287.444	613.5
287.675	617.5
287.906	626.5
288.138	609.5
288.369	619.5
288.6	645.5
288.831	659.5
289.062	641.5
289.293	625.5
289.524	628.5
289.755	642.5
289.986	624.5
290.217	635.5
290.448	625.5
290.679	647.5
290.91	654.5
291.141	652.5
291.371	647.5
291.602	634.5
291.833	628.5
292.064	672.5
292.295	643.5
292.526	653.5
292.757	637.5
292.987	658.5
293.218	637.5
293.449	661.5
293.68	657.5
293.91	644.5
294.141	627.5
294.372	626.5
294.603	640.5
294.833	634.5
295.064	657.5
295.295	645.5
295.525	658.5
295.756	647.5
295.987	662.5
296.217	684.5
296.448	657.5
296.679	674.5
296.909	639.5
297.14	673.5
297.37	704.5
297.601	689.5
297.831	698.5
298.062	699.5
298.292	713.5
298.523	723.5
298.753	729.5
298.984	708.5
299.214	691.5
299.445	726.5
299.675	704.5
299.905	707.5
300.136	695.5
300.366	711.5
300.597	727.5
300.827	723.5
301.057	728.5
301.288	753.5
301.518	734.5
301.748	727.5
301.979	726.5
302.209	764.5
302.439	746.5
302.669	732.5
302.9	771.5
303.13	745.5
303.36	729.5
303.59	758.5
303.82	753.5
304.051	757.5
304.281	736.5
304.511	736.5
304.741	728.5
304.971	769.5
305.201	750.5
305.431	755.5
305.661	755.5
305.891	738.5
306.121	756.5
306.352	727.5
306.582	745.5
306.812	707.5
307.042	713.5
307.272	748.5
307.502	716.5
307.731	715.5
307.961	727.5
308.191	735.5
308.421	700.5
308.651	735.5
308.881	732.5
309.111	724.5
309.341	716.5
309.571	751.5
309.8	767.5
310.03	753.5
310.26	762.5
310.49	761.5
310.72	748.5
310.949	729.5
311.179	763.5
311.409	764.5
311.639	770.5
311.868	782.5
312.098	781.5
312.328	763.5
312.557	780.5
312.787	778.5
313.017	767.5
313.246	799.5
313.476	800.5
313.706	804.5
313.935	783.5
314.165	802.5
314.394	808.5
314.624	811.5
314.853	800.5
315.083	794.5
315.312	845.5
315.542	803.5
315.771	805.5
316.001	793.5
316.23	809.5
316.46	809.5
316.689	808.5
316.919	799.5
317.148	808.5
317.377	773.5
317.607	799.5
317.836	809.5
318.065	790.5
318.295	824.5
318.524	809.5
318.753	811.5
318.983	795.5
319.212	790.5
319.441	809.5
319.67	832.5
319.9	840.5
320.129	824.5
320.358	823.5
320.587	809.5
320.816	836.5
321.046	831.5
321.275	832.5
321.504	816.5
321.733	817.5
321.962	819.5
322.191	816.5
322.42	830.5
322.649	863.5
322.878	848.5
323.108	821.5
323.337	848.5
323.566	859.5
323.795	864.5
324.024	881.5
324.253	852.5
324.482	850.5
324.71	835.5
324.939	869.5
325.168	843.5
325.397	884.5
325.626	889.5
325.855	904.5
326.084	922.5
326.313	941.5
326.542	900.5
326.77	927.5
326.999	920.5
327.228	916.5
327.457	922.5
327.686	916.5
327.914	909.5
328.143	925.5
328.372	900.5
328.6	936.5
328.829	941.5
329.058	923.5
329.287	943.5
329.515	925.5
329.744	903.5
329.972	928.5
330.201	944.5
330.43	969.5
330.658	961.5
330.887	965.5
331.115	965.5
331.344	1002.5
331.572	968.5
331.801	1017.5
332.03	1043.5
332.258	1051.5
332.486	1075.5
332.715	1109.5
332.943	1137.5
333.172	1150.5
333.4	1224.5
333.629	1242.5
333.857	1239.5
334.085	1235.5
334.314	1203.5
334.542	1218.5
334.771	1220.5
334.999	1236.5
335.227	1250.5
335.455	1205.5
335.684	1195.5
335.912	1167.5
336.14	1163.5
336.369	1143.5
336.597	1156.5
336.825	1151.5
337.053	1153.5
337.281	1129.5
337.51	1128.5
337.738	1087.5
337.966	1098.5
338.194	1076.5
338.422	1047.5
338.65	1057.5
338.878	1055.5
339.106	1058.5
339.334	1032.5
339.562	1034.5
339.79	1023.5
340.018	1050.5
340.246	1016.5
340.474	997.5
340.702	1016.5
340.93	983.5
341.158	1001.5
341.386	1005.5
341.614	1012.5
341.842	1037.5
342.07	972.5
342.298	993.5
342.526	1017.5
342.754	985.5
342.981	1002.5
343.209	1004.5
343.437	1058.5
343.665	1124.5
343.893	1181.5
344.12	1199.5
344.348	1216.5
344.576	1181.5
344.804	1124.5
345.031	1067.5
345.259	1041.5
345.487	1008.5
345.714	993.5
345.942	995.5
346.17	1009.5
346.397	983.5
346.625	988.5
346.853	953.5
347.08	961.5
347.308	947.5
347.535	951.5
347.763	955.5
347.99	970.5
348.218	982.5
348.445	983.5
348.673	944.5
348.9	958.5
349.128	938.5
349.355	976.5
349.583	973.5
349.81	932.5
350.037	943.5
350.265	904.5
350.492	936.5
350.72	940.5
350.947	915.5
351.174	936.5
351.402	955.5
351.629	926.5
351.856	923.5
352.083	940.5
352.311	915.5
352.538	960.5
352.765	935.5
352.992	916.5
353.22	909.5
353.447	889.5
353.674	880.5
353.901	918.5
354.128	938.5
354.355	936.5
354.583	922.5
354.81	919.5
355.037	900.5
355.264	919.5
355.491	927.5
355.718	922.5
355.945	922.5
356.172	932.5
356.399	913.5
356.626	955.5
356.853	967.5
357.08	946.5
357.307	949.5
357.534	927.5
357.761	939.5
357.988	939.5
358.215	951.5
358.441	919.5
358.668	916.5
358.895	931.5
359.122	932.5
359.349	894.5
359.576	920.5
359.802	940.5
360.029	906.5
360.256	924.5
360.483	926.5
360.709	923.5
360.936	942.5
361.163	951.5
361.39	944.5
361.616	913.5
361.843	944.5
362.07	953.5
362.296	932.5
362.523	931.5
362.749	924.5
362.976	926.5
363.203	932.5
363.429	933.5
363.656	900.5
363.882	914.5
364.109	932.5
364.335	916.5
364.562	903.5
364.788	916.5
365.015	918.5
365.241	915.5
365.468	919.5
365.694	916.5
365.92	897.5
366.147	935.5
366.373	927.5
366.599	913.5
366.826	879.5
367.052	903.5
367.278	906.5
367.505	895.5
367.731	927.5
367.957	910.5
368.184	923.5
368.41	932.5
368.636	917.5
368.862	932.5
369.089	935.5
369.315	959.5
369.541	955.5
369.767	931.5
369.993	947.5
370.219	952.5
370.445	945.5
370.672	993.5
370.898	952.5
371.124	993.5
371.35	996.5
371.576	985.5
371.802	1000.5
372.028	1016.5
372.254	973.5
372.48	980.5
372.706	1007.5
372.932	1065.5
373.158	1021.5
373.384	985.5
373.61	996.5
373.835	1004.5
374.061	993.5
374.287	1030.5
374.513	994.5
374.739	1043.5
374.965	1081.5
375.191	1091.5
375.416	1082.5
375.642	1047.5
375.868	1062.5
376.094	1044.5
376.319	972.5
376.545	1001.5
376.771	1011.5
376.997	1000.5
377.222	986.5
377.448	966.5
377.674	973.5
377.899	980.5
378.125	956.5
378.35	936.5
378.576	972.5
378.802	946.5
379.027	978.5
379.253	968.5
379.478	1005.5
379.704	939.5
379.929	975.5
380.155	959.5
380.38	968.5
380.606	957.5
380.831	973.5
381.057	1000.5
381.282	959.5
381.507	980.5
381.733	975.5
381.958	977.5
382.184	991.5
382.409	991.5
382.634	1025.5
382.86	1025.5
383.085	1020.5
383.31	1034.5
383.535	1061.5
383.761	1072.5
383.986	1081.5
384.211	1106.5
384.436	1114.5
384.662	1098.5
384.887	1156.5
385.112	1141.5
385.337	1170.5
385.562	1170.5
385.787	1209.5
386.013	1193.5
386.238	1162.5
386.463	1170.5
386.688	1182.5
386.913	1168.5
387.138	1160.5
387.363	1203.5
387.588	1183.5
387.813	1154.5
388.038	1178.5
388.263	1172.5
388.488	1163.5
388.713	1161.5
388.938	1159.5
389.163	1138.5
389.387	1183.5
389.612	1155.5
389.837	1169.5
390.062	1132.5
390.287	1161.5
390.512	1148.5
390.736	1178.5
390.961	1187.5
391.186	1219.5
391.411	1241.5
391.636	1260.5
391.86	1309.5
392.085	1347.5
392.31	1310.5
392.534	1295.5
392.759	1264.5
392.984	1252.5
393.208	1256.5
393.433	1251.5
393.658	1228.5
393.882	1246.5
394.107	1268.5
394.331	1257.5
394.556	1263.5
394.78	1288.5
395.005	1297.5
395.229	1300.5
395.454	1337.5
395.678	1345.5
395.903	1311.5
396.127	1319.5
396.352	1302.5
396.576	1284.5
396.801	1274.5
397.025	1314.5
397.249	1362.5
397.474	1337.5
397.698	1340.5
397.922	1341.5
398.147	1350.5
398.371	1388.5
398.595	1452.5
398.82	1506.5
399.044	1613.5
399.268	1739.5
399.492	1959.5
399.717	2095.5
399.941	2114.5
400.165	1975.5
400.389	1852.5
400.613	1693.5
400.837	1646.5
401.062	1616.5
401.286	1552.5
401.51	1536.5
401.734	1520.5
401.958	1516.5
402.182	1541.5
402.406	1506.5
402.63	1537.5
402.854	1566.5
403.078	1577.5
403.302	1600.5
403.526	1621.5
403.75	1644.5
403.974	1667.5
404.198	1643.5
404.422	1642.5
404.645	1655.5
404.869	1657.5
405.093	1646.5
405.317	1610.5
405.541	1653.5
405.765	1663.5
405.988	1654.5
406.212	1626.5
406.436	1654.5
406.66	1668.5
406.883	1698.5
407.107	1817.5
407.331	1863.5
407.555	1943.5
407.778	1903.5
408.002	1872.5
408.226	1856.5
408.449	1799.5
408.673	1772.5
408.896	1732.5
409.12	1680.5
409.344	1699.5
409.567	1661.5
409.791	1674.5
410.014	1675.5
410.238	1641.5
410.461	1636.5
410.685	1615.5
410.908	1637.5
411.132	1632.5
411.355	1566.5
411.578	1583.5
411.802	1588.5
412.025	1600.5
412.249	1595.5
412.472	1597.5
412.695	1512.5
412.919	1514.5
413.142	1539.5
413.365	1482.5
413.589	1499.5
413.812	1526.5
414.035	1496.5
414.258	1542.5
414.482	1514.5
414.705	1500.5
414.928	1583.5
415.151	1570.5
415.374	1536.5
415.597	1510.5
415.821	1490.5
416.044	1456.5
416.267	1466.5
416.49	1459.5
416.713	1458.5
416.936	1495.5
417.159	1461.5
417.382	1520.5
417.605	1477.5
417.828	1482.5
418.051	1513.5
418.274	1500.5
418.497	1497.5
418.72	1529.5
418.943	1549.5
419.166	1647.5
419.389	1724.5
419.611	1689.5
419.834	1627.5
420.057	1539.5
420.28	1519.5
420.503	1493.5
420.726	1497.5
420.948	1484.5
421.171	1460.5
421.394	1481.5
421.617	1484.5
421.839	1501.5
422.062	1523.5
422.285	1443.5
422.507	1502.5
422.73	1480.5
422.953	1497.5
423.175	1521.5
423.398	1537.5
423.621	1527.5
423.843	1567.5
424.066	1547.5
424.288	1535.5
424.511	1534.5
424.733	1525.5
424.956	1501.5
425.178	1563.5
425.401	1495.5
425.623	1508.5
425.846	1454.5
426.068	1491.5
426.291	1464.5
426.513	1414.5
426.735	1423.5
426.958	1422.5
427.18	1411.5
427.402	1393.5
427.625	1379.5
427.847	1384.5
428.069	1367.5
428.292	1360.5
428.514	1345.5
428.736	1347.5
428.958	1312.5
429.181	1322.5
429.403	1299.5
429.625	1272.5
429.847	1346.5
430.069	1303.5
430.292	1337.5
430.514	1313.5
430.736	1311.5
430.958	1312.5
431.18	1320.5
431.402	1351.5
431.624	1319.5
431.846	1346.5
432.068	1361.5
432.29	1351.5
432.512	1347.5
432.734	1356.5
432.956	1332.5
433.178	1364.5
433.4	1336.5
433.622	1348.5
433.844	1351.5
434.066	1352.5
434.287	1372.5
434.509	1427.5
434.731	1487.5
434.953	1488.5
435.175	1495.5
435.397	1468.5
435.618	1418.5
435.84	1396.5
436.062	1361.5
436.284	1355.5
436.505	1348.5
436.727	1367.5
436.949	1362.5
437.17	1314.5
437.392	1303.5
437.614	1314.5
437.835	1279.5
438.057	1288.5
438.278	1301.5
438.5	1308.5
438.721	1281.5
438.943	1323.5
439.165	1297.5
439.386	1330.5
439.608	1320.5
439.829	1354.5
440.05	1322.5
440.272	1365.5
440.493	1347.5
440.715	1380.5
440.936	1379.5
441.158	1404.5
441.379	1429.5
441.6	1502.5
441.822	1490.5
442.043	1500.5
442.264	1491.5
442.486	1431.5
442.707	1465.5
442.928	1481.5
443.149	1471.5
443.371	1477.5
443.592	1477.5
443.813	1539.5
444.034	1537.5
444.255	1548.5
444.476	1634.5
444.698	1699.5
444.919	1763.5
445.14	1811.5
445.361	1682.5
445.582	1580.5
445.803	1490.5
446.024	1469.5
446.245	1460.5
446.466	1430.5
446.687	1371.5
446.908	1381.5
447.129	1352.5
447.35	1369.5
447.571	1334.5
447.792	1285.5
448.013	1262.5
448.234	1261.5
448.455	1248.5
448.675	1259.5
448.896	1264.5
449.117	1199.5
449.338	1207.5
449.559	1220.5
449.779	1231.5
450	1183.5
450.221	1226.5
450.442	1253.5
450.662	1228.5
450.883	1227.5
451.104	1269.5
451.324	1227.5
451.545	1218.5
451.766	1249.5
451.986	1192.5
452.207	1245.5
452.428	1211.5
452.648	1201.5
452.869	1207.5
453.089	1181.5
453.31	1165.5
453.53	1190.5
453.751	1144.5
453.971	1160.5
454.192	1186.5
454.412	1162.5
454.633	1148.5
454.853	1153.5
455.073	1127.5
455.294	1156.5
455.514	1159.5
455.734	1155.5
455.955	1133.5
456.175	1155.5
456.395	1094.5
456.616	1159.5
456.836	1133.5
457.056	1127.5
457.276	1136.5
457.497	1142.5
457.717	1138.5
457.937	1193.5
458.157	1184.5
458.377	1211.5
458.598	1233.5
458.818	1240.5
459.038	1264.5
459.258	1319.5
459.478	1321.5
459.698	1396.5
459.918	1439.5
460.138	1481.5
460.358	1536.5
460.578	1569.5
460.798	1582.5
461.018	1599.5
461.238	1540.5
461.458	1585.5
461.678	1548.5
461.898	1632.5
462.118	1576.5
462.338	1720.5
462.558	1738.5
462.777	1807.5
462.997	1915.5
463.217	1991.5
463.437	2036.5
463.657	1963.5
463.876	1866.5
464.096	1816.5
464.316	1801.5
464.536	1806.5
464.755	1753.5
464.975	1665.5
465.195	1625.5
465.414	1544.5
465.634	1471.5
465.854	1406.5
466.073	1355.5
466.293	1310.5
466.512	1329.5
466.732	1309.5
466.951	1298.5
467.171	1301.5
467.391	1280.5
467.61	1242.5
467.829	1274.5
468.049	1288.5
468.268	1238.5
468.488	1233.5
468.707	1228.5
468.927	1225.5
469.146	1213.5
469.365	1235.5
469.585	1251.5
469.804	1320.5
470.023	1308.5
470.243	1285.5
470.462	1323.5
470.681	1311.5
470.901	1334.5
471.12	1316.5
471.339	1313.5
471.558	1258.5
471.777	1279.5
471.997	1250.5
472.216	1222.5
472.435	1219.5
472.654	1204.5
472.873	1207.5
473.092	1214.5
473.311	1218.5
473.53	1179.5
473.749	1219.5
473.968	1194.5
474.187	1168.5
474.406	1161.5
474.625	1203.5
474.844	1189.5
475.063	1169.5
475.282	1205.5
475.501	1244.5
475.72	1208.5
475.939	1236.5
476.158	1246.5
476.377	1243.5
476.596	1263.5
476.814	1299.5
477.033	1263.5
477.252	1307.5
477.471	1318.5
477.69	1345.5
477.908	1384.5
478.127	1424.5
478.346	1461.5
478.564	1434.5
478.783	1433.5
479.002	1474.5
479.22	1495.5
479.439	1495.5
479.658	1479.5
479.876	1532.5
480.095	1507.5
480.313	1522.5
480.532	1580.5
480.751	1623.5
480.969	1531.5
481.188	1496.5
481.406	1452.5
481.624	1440.5
481.843	1399.5
482.061	1364.5
482.28	1401.5
482.498	1337.5
482.717	1369.5
482.935	1317.5
483.153	1361.5
483.372	1385.5
483.59	1353.5
483.808	1369.5
484.027	1372.5
484.245	1371.5
484.463	1343.5
484.681	1395.5
484.9	1381.5
485.118	1396.5
485.336	1380.5
485.554	1410.5
485.772	1422.5
485.99	1414.5
486.209	1413.5
486.427	1421.5
486.645	1393.5
486.863	1416.5
487.081	1422.5
487.299	1422.5
487.517	1405.5
487.735	1416.5
487.953	1422.5
488.171	1404.5
488.389	1435.5
488.607	1420.5
488.825	1396.5
489.043	1413.5
489.261	1369.5
489.479	1393.5
489.696	1401.5
489.914	1403.5
490.132	1426.5
490.35	1436.5
490.568	1434.5
490.786	1491.5
491.003	1452.5
491.221	1502.5
491.439	1459.5
491.657	1461.5
491.874	1481.5
492.092	1457.5
492.31	1485.5
492.527	1483.5
492.745	1483.5
492.963	1478.5
493.18	1501.5
493.398	1500.5
493.615	1492.5
493.833	1505.5
494.05	1543.5
494.268	1532.5
494.485	1523.5
494.703	1553.5
494.92	1563.5
495.138	1596.5
495.355	1554.5
495.573	1551.5
495.79	1543.5
496.008	1572.5
496.225	1583.5
496.442	1590.5
496.66	1637.5
496.877	1657.5
497.094	1661.5
497.312	1695.5
497.529	1743.5
497.746	1827.5
497.963	1874.5
498.181	1936.5
498.398	2015.5
498.615	2150.5
498.832	2291.5
499.049	2451.5
499.267	2631.5
499.484	2846.5
499.701	3133.5
499.918	3396.5
500.135	3798.5
500.352	4157.5
500.569	4241.5
500.786	4245.5
501.003	3988.5
501.22	3717.5
501.437	3308.5
501.654	2991.5
501.871	2783.5
502.088	2592.5
502.305	2435.5
502.522	2293.5
502.739	2185.5
502.956	2093.5
503.172	2003.5
503.389	1908.5
503.606	1852.5
503.823	1839.5
504.04	1829.5
504.256	1801.5
504.473	1802.5
504.69	1805.5
504.907	1792.5
505.123	1716.5
505.34	1621.5
505.557	1545.5
505.773	1512.5
505.99	1516.5
506.207	1452.5
506.423	1451.5
506.64	1407.5
506.856	1371.5
507.073	1418.5
507.289	1333.5
507.506	1347.5
507.722	1351.5
507.939	1356.5
508.155	1312.5
508.372	1334.5
508.588	1292.5
508.805	1311.5
509.021	1267.5
509.238	1303.5
509.454	1263.5
509.67	1271.5
509.887	1250.5
510.103	1220.5
