Data from Ni(NO3)2Standard.Agarose3%.GreenCap.LampEnergy5.5.E.O_HRD10591_14-43-09-188.txt Node
Date: Mon Jul 22 14:43:09 EDT 2019
User: cochatt
Spectrometer: HR+D1059
Trigger mode: 1
Integration Time (sec): 1.000000E-1
Scans to average: 1
Electric dark correction enabled: true
Nonlinearity correction enabled: false
Boxcar width: 0
XAxis mode: Wavelengths
Number of Pixels in Spectrum: 2048
>>>>>Begin Spectral Data<<<<<
223.165	-18.56
223.4	-18.56
223.635	-18.56
223.869	-13.56
224.104	-22.56
224.338	-32.56
224.573	-8.56
224.808	-24.56
225.042	-5.56
225.277	-14.56
225.511	1.44
225.746	16.44
225.98	-0.56
226.215	13.44
226.449	19.44
226.683	31.44
226.918	32.44
227.152	26.44
227.387	31.44
227.621	25.44
227.856	36.44
228.09	35.44
228.324	43.44
228.559	58.44
228.793	54.44
229.027	48.44
229.262	60.44
229.496	52.44
229.73	59.44
229.964	75.44
230.199	76.44
230.433	76.44
230.667	73.44
230.901	74.44
231.136	72.44
231.37	76.44
231.604	80.44
231.838	73.44
232.072	80.44
232.306	76.44
232.541	83.44
232.775	81.44
233.009	83.44
233.243	74.44
233.477	71.44
233.711	85.44
233.945	86.44
234.179	82.44
234.413	76.44
234.647	80.44
234.881	79.44
235.115	67.44
235.349	86.44
235.583	68.44
235.817	65.44
236.051	80.44
236.285	79.44
236.519	77.44
236.753	72.44
236.987	71.44
237.221	91.44
237.455	69.44
237.689	75.44
237.922	86.44
238.156	69.44
238.39	87.44
238.624	76.44
238.858	77.44
239.091	71.44
239.325	70.44
239.559	60.44
239.793	92.44
240.027	85.44
240.26	66.44
240.494	63.44
240.728	74.44
240.961	68.44
241.195	90.44
241.429	71.44
241.662	73.44
241.896	67.44
242.13	67.44
242.363	82.44
242.597	78.44
242.83	83.44
243.064	55.44
243.298	76.44
243.531	88.44
243.765	79.44
243.998	84.44
244.232	83.44
244.465	72.44
244.699	82.44
244.932	73.44
245.166	78.44
245.399	87.44
245.633	79.44
245.866	85.44
246.099	84.44
246.333	69.44
246.566	71.44
246.8	73.44
247.033	91.44
247.266	74.44
247.5	84.44
247.733	81.44
247.966	80.44
248.2	73.44
248.433	84.44
248.666	85.44
248.899	86.44
249.133	90.44
249.366	75.44
249.599	84.44
249.832	79.44
250.066	77.44
250.299	75.44
250.532	82.44
250.765	77.44
250.998	64.44
251.231	65.44
251.465	70.44
251.698	80.44
251.931	74.44
252.164	77.44
252.397	68.44
252.63	70.44
252.863	76.44
253.096	85.44
253.329	83.44
253.562	96.44
253.795	72.44
254.028	75.44
254.261	82.44
254.494	85.44
254.727	98.44
254.96	77.44
255.193	69.44
255.426	65.44
255.659	68.44
255.892	92.44
256.124	88.44
256.357	88.44
256.59	78.44
256.823	90.44
257.056	84.44
257.289	88.44
257.521	85.44
257.754	79.44
257.987	76.44
258.22	70.44
258.452	76.44
258.685	80.44
258.918	71.44
259.151	67.44
259.383	89.44
259.616	73.44
259.849	76.44
260.081	85.44
260.314	76.44
260.547	84.44
260.779	90.44
261.012	73.44
261.244	64.44
261.477	85.44
261.71	81.44
261.942	86.44
262.175	81.44
262.407	90.44
262.64	68.44
262.872	75.44
263.105	82.44
263.337	96.44
263.57	74.44
263.802	92.44
264.035	77.44
264.267	78.44
264.499	86.44
264.732	74.44
264.964	81.44
265.197	83.44
265.429	74.44
265.661	83.44
265.894	84.44
266.126	70.44
266.358	73.44
266.591	80.44
266.823	70.44
267.055	61.44
267.287	76.44
267.52	82.44
267.752	74.44
267.984	87.44
268.216	73.44
268.448	76.44
268.681	74.44
268.913	78.44
269.145	87.44
269.377	74.44
269.609	76.44
269.841	78.44
270.073	80.44
270.306	89.44
270.538	84.44
270.77	77.44
271.002	72.44
271.234	81.44
271.466	89.44
271.698	82.44
271.93	78.44
272.162	85.44
272.394	90.44
272.626	76.44
272.858	78.44
273.09	87.44
273.322	79.44
273.553	85.44
273.785	92.44
274.017	76.44
274.249	69.44
274.481	79.44
274.713	77.44
274.945	81.44
275.176	66.44
275.408	77.44
275.64	66.44
275.872	82.44
276.104	93.44
276.335	95.44
276.567	77.44
276.799	89.44
277.031	80.44
277.262	93.44
277.494	96.44
277.726	76.44
277.957	65.44
278.189	68.44
278.421	72.44
278.652	72.44
278.884	90.44
279.115	87.44
279.347	71.44
279.579	103.44
279.81	84.44
280.042	92.44
280.273	88.44
280.505	89.44
280.736	68.44
280.968	83.44
281.199	88.44
281.431	73.44
281.662	85.44
281.894	89.44
282.125	84.44
282.356	87.44
282.588	79.44
282.819	84.44
283.051	84.44
283.282	78.44
283.513	86.44
283.745	76.44
283.976	87.44
284.207	83.44
284.439	86.44
284.67	77.44
284.901	80.44
285.132	85.44
285.364	91.44
285.595	82.44
285.826	76.44
286.057	91.44
286.288	72.44
286.52	79.44
286.751	82.44
286.982	80.44
287.213	81.44
287.444	75.44
287.675	83.44
287.906	82.44
288.138	87.44
288.369	99.44
288.6	79.44
288.831	90.44
289.062	82.44
289.293	87.44
289.524	82.44
289.755	78.44
289.986	81.44
290.217	84.44
290.448	81.44
290.679	85.44
290.91	87.44
291.141	83.44
291.371	88.44
291.602	81.44
291.833	68.44
292.064	82.44
292.295	71.44
292.526	90.44
292.757	78.44
292.987	81.44
293.218	90.44
293.449	79.44
293.68	87.44
293.91	96.44
294.141	85.44
294.372	77.44
294.603	82.44
294.833	84.44
295.064	85.44
295.295	77.44
295.525	85.44
295.756	87.44
295.987	69.44
296.217	74.44
296.448	89.44
296.679	101.44
296.909	87.44
297.14	95.44
297.37	87.44
297.601	71.44
297.831	87.44
298.062	87.44
298.292	80.44
298.523	94.44
298.753	95.44
298.984	85.44
299.214	79.44
299.445	92.44
299.675	71.44
299.905	76.44
300.136	84.44
300.366	88.44
300.597	92.44
300.827	84.44
301.057	85.44
301.288	68.44
301.518	85.44
301.748	84.44
301.979	83.44
302.209	96.44
302.439	89.44
302.669	96.44
302.9	92.44
303.13	79.44
303.36	81.44
303.59	87.44
303.82	73.44
304.051	95.44
304.281	91.44
304.511	87.44
304.741	85.44
304.971	84.44
305.201	77.44
305.431	83.44
305.661	85.44
305.891	58.44
306.121	88.44
306.352	80.44
306.582	76.44
306.812	76.44
307.042	85.44
307.272	76.44
307.502	82.44
307.731	90.44
307.961	88.44
308.191	73.44
308.421	87.44
308.651	89.44
308.881	77.44
309.111	70.44
309.341	80.44
309.571	87.44
309.8	70.44
310.03	85.44
310.26	79.44
310.49	86.44
310.72	98.44
310.949	88.44
311.179	78.44
311.409	73.44
311.639	95.44
311.868	87.44
312.098	90.44
312.328	83.44
312.557	86.44
312.787	81.44
313.017	85.44
313.246	84.44
313.476	77.44
313.706	86.44
313.935	86.44
314.165	92.44
314.394	70.44
314.624	76.44
314.853	80.44
315.083	77.44
315.312	83.44
315.542	79.44
315.771	88.44
316.001	74.44
316.23	79.44
316.46	76.44
316.689	87.44
316.919	86.44
317.148	82.44
317.377	83.44
317.607	87.44
317.836	76.44
318.065	83.44
318.295	88.44
318.524	88.44
318.753	87.44
318.983	86.44
319.212	82.44
319.441	82.44
319.67	89.44
319.9	68.44
320.129	86.44
320.358	82.44
320.587	79.44
320.816	76.44
321.046	89.44
321.275	76.44
321.504	84.44
321.733	76.44
321.962	86.44
322.191	70.44
322.42	76.44
322.649	70.44
322.878	82.44
323.108	94.44
323.337	92.44
323.566	81.44
323.795	101.44
324.024	86.44
324.253	82.44
324.482	83.44
324.71	82.44
324.939	85.44
325.168	82.44
325.397	74.44
325.626	79.44
325.855	77.44
326.084	85.44
326.313	75.44
326.542	76.44
326.77	75.44
326.999	87.44
327.228	84.44
327.457	93.44
327.686	80.44
327.914	86.44
328.143	88.44
328.372	85.44
328.6	90.44
328.829	85.44
329.058	80.44
329.287	90.44
329.515	78.44
329.744	88.44
329.972	82.44
330.201	91.44
330.43	90.44
330.658	78.44
330.887	85.44
331.115	70.44
331.344	79.44
331.572	94.44
331.801	82.44
332.03	74.44
332.258	79.44
332.486	75.44
332.715	90.44
332.943	83.44
333.172	98.44
333.4	83.44
333.629	79.44
333.857	94.44
334.085	77.44
334.314	82.44
334.542	89.44
334.771	97.44
334.999	96.44
335.227	91.44
335.455	92.44
335.684	90.44
335.912	87.44
336.14	86.44
336.369	90.44
336.597	93.44
336.825	82.44
337.053	73.44
337.281	83.44
337.51	98.44
337.738	85.44
337.966	91.44
338.194	85.44
338.422	89.44
338.65	101.44
338.878	87.44
339.106	77.44
339.334	90.44
339.562	89.44
339.79	88.44
340.018	93.44
340.246	85.44
340.474	67.44
340.702	80.44
340.93	85.44
341.158	76.44
341.386	79.44
341.614	81.44
341.842	90.44
342.07	89.44
342.298	74.44
342.526	84.44
342.754	84.44
342.981	103.44
343.209	88.44
343.437	82.44
343.665	93.44
343.893	82.44
344.12	83.44
344.348	75.44
344.576	70.44
344.804	76.44
345.031	78.44
345.259	95.44
345.487	89.44
345.714	96.44
345.942	89.44
346.17	88.44
346.397	90.44
346.625	78.44
346.853	88.44
347.08	81.44
347.308	82.44
347.535	80.44
347.763	91.44
347.99	99.44
348.218	87.44
348.445	83.44
348.673	77.44
348.9	84.44
349.128	97.44
349.355	96.44
349.583	87.44
349.81	75.44
350.037	87.44
350.265	96.44
350.492	90.44
350.72	84.44
350.947	85.44
351.174	74.44
351.402	69.44
351.629	84.44
351.856	79.44
352.083	72.44
352.311	96.44
352.538	73.44
352.765	78.44
352.992	76.44
353.22	87.44
353.447	72.44
353.674	78.44
353.901	68.44
354.128	93.44
354.355	77.44
354.583	96.44
354.81	89.44
355.037	87.44
355.264	79.44
355.491	87.44
355.718	85.44
355.945	88.44
356.172	99.44
356.399	86.44
356.626	89.44
356.853	103.44
357.08	103.44
357.307	81.44
357.534	101.44
357.761	87.44
357.988	91.44
358.215	88.44
358.441	74.44
358.668	80.44
358.895	89.44
359.122	80.44
359.349	97.44
359.576	85.44
359.802	84.44
360.029	96.44
360.256	98.44
360.483	86.44
360.709	90.44
360.936	82.44
361.163	100.44
361.39	82.44
361.616	81.44
361.843	68.44
362.07	85.44
362.296	70.44
362.523	75.44
362.749	83.44
362.976	84.44
363.203	104.44
363.429	80.44
363.656	75.44
363.882	96.44
364.109	94.44
364.335	95.44
364.562	84.44
364.788	102.44
365.015	88.44
365.241	86.44
365.468	82.44
365.694	83.44
365.92	84.44
366.147	88.44
366.373	79.44
366.599	83.44
366.826	81.44
367.052	76.44
367.278	79.44
367.505	85.44
367.731	103.44
367.957	83.44
368.184	76.44
368.41	69.44
368.636	76.44
368.862	65.44
369.089	76.44
369.315	73.44
369.541	87.44
369.767	82.44
369.993	78.44
370.219	81.44
370.445	75.44
370.672	73.44
370.898	95.44
371.124	84.44
371.35	74.44
371.576	72.44
371.802	93.44
372.028	85.44
372.254	80.44
372.48	71.44
372.706	84.44
372.932	82.44
373.158	84.44
373.384	87.44
373.61	92.44
373.835	95.44
374.061	76.44
374.287	80.44
374.513	76.44
374.739	68.44
374.965	91.44
375.191	84.44
375.416	81.44
375.642	81.44
375.868	72.44
376.094	74.44
376.319	77.44
376.545	74.44
376.771	92.44
376.997	84.44
377.222	89.44
377.448	77.44
377.674	77.44
377.899	86.44
378.125	88.44
378.35	72.44
378.576	82.44
378.802	73.44
379.027	105.44
379.253	89.44
379.478	89.44
379.704	84.44
379.929	81.44
380.155	71.44
380.38	81.44
380.606	83.44
380.831	75.44
381.057	75.44
381.282	93.44
381.507	77.44
381.733	87.44
381.958	80.44
382.184	81.44
382.409	83.44
382.634	89.44
382.86	78.44
383.085	80.44
383.31	99.44
383.535	103.44
383.761	85.44
383.986	93.44
384.211	72.44
384.436	77.44
384.662	77.44
384.887	66.44
385.112	76.44
385.337	68.44
385.562	82.44
385.787	83.44
386.013	96.44
386.238	80.44
386.463	75.44
386.688	73.44
386.913	92.44
387.138	86.44
387.363	75.44
387.588	98.44
387.813	83.44
388.038	90.44
388.263	80.44
388.488	57.44
388.713	76.44
388.938	82.44
389.163	99.44
389.387	74.44
389.612	91.44
389.837	76.44
390.062	94.44
390.287	75.44
390.512	92.44
390.736	84.44
390.961	81.44
391.186	74.44
391.411	99.44
391.636	86.44
391.86	83.44
392.085	88.44
392.31	79.44
392.534	93.44
392.759	80.44
392.984	82.44
393.208	87.44
393.433	85.44
393.658	87.44
393.882	76.44
394.107	77.44
394.331	73.44
394.556	80.44
394.78	85.44
395.005	77.44
395.229	78.44
395.454	88.44
395.678	92.44
395.903	93.44
396.127	78.44
396.352	83.44
396.576	83.44
396.801	71.44
397.025	87.44
397.249	82.44
397.474	87.44
397.698	72.44
397.922	73.44
398.147	71.44
398.371	83.44
398.595	79.44
398.82	87.44
399.044	82.44
399.268	77.44
399.492	84.44
399.717	82.44
399.941	98.44
400.165	90.44
400.389	77.44
400.613	86.44
400.837	73.44
401.062	87.44
401.286	75.44
401.51	81.44
401.734	71.44
401.958	84.44
402.182	83.44
402.406	84.44
402.63	83.44
402.854	84.44
403.078	87.44
403.302	85.44
403.526	86.44
403.75	92.44
403.974	78.44
404.198	75.44
404.422	88.44
404.645	82.44
404.869	72.44
405.093	80.44
405.317	92.44
405.541	78.44
405.765	94.44
405.988	79.44
406.212	98.44
406.436	84.44
406.66	67.44
406.883	90.44
407.107	87.44
407.331	73.44
407.555	91.44
407.778	81.44
408.002	76.44
408.226	81.44
408.449	80.44
408.673	77.44
408.896	86.44
409.12	81.44
409.344	75.44
409.567	88.44
409.791	89.44
410.014	90.44
410.238	82.44
410.461	74.44
410.685	92.44
410.908	87.44
411.132	86.44
411.355	80.44
411.578	85.44
411.802	80.44
412.025	83.44
412.249	65.44
412.472	69.44
412.695	69.44
412.919	87.44
413.142	75.44
413.365	70.44
413.589	89.44
413.812	78.44
414.035	73.44
414.258	86.44
414.482	92.44
414.705	83.44
414.928	78.44
415.151	92.44
415.374	87.44
415.597	97.44
415.821	99.44
416.044	70.44
416.267	86.44
416.49	76.44
416.713	81.44
416.936	70.44
417.159	76.44
417.382	101.44
417.605	78.44
417.828	87.44
418.051	81.44
418.274	71.44
418.497	87.44
418.72	77.44
418.943	100.44
419.166	77.44
419.389	81.44
419.611	80.44
419.834	67.44
420.057	81.44
420.28	76.44
420.503	77.44
420.726	101.44
420.948	79.44
421.171	84.44
421.394	90.44
421.617	76.44
421.839	92.44
422.062	79.44
422.285	75.44
422.507	74.44
422.73	73.44
422.953	80.44
423.175	91.44
423.398	73.44
423.621	79.44
423.843	62.44
424.066	94.44
424.288	70.44
424.511	72.44
424.733	79.44
424.956	79.44
425.178	76.44
425.401	99.44
425.623	74.44
425.846	92.44
426.068	81.44
426.291	88.44
426.513	92.44
426.735	83.44
426.958	76.44
427.18	75.44
427.402	78.44
427.625	77.44
427.847	77.44
428.069	80.44
428.292	87.44
428.514	92.44
428.736	82.44
428.958	79.44
429.181	97.44
429.403	73.44
429.625	81.44
429.847	75.44
430.069	86.44
430.292	72.44
430.514	86.44
430.736	76.44
430.958	83.44
431.18	74.44
431.402	85.44
431.624	75.44
431.846	82.44
432.068	95.44
432.29	99.44
432.512	87.44
432.734	80.44
432.956	83.44
433.178	82.44
433.4	70.44
433.622	88.44
433.844	83.44
434.066	95.44
434.287	81.44
434.509	71.44
434.731	86.44
434.953	77.44
435.175	75.44
435.397	75.44
435.618	96.44
435.84	71.44
436.062	78.44
436.284	64.44
436.505	89.44
436.727	83.44
436.949	82.44
437.17	76.44
437.392	79.44
437.614	81.44
437.835	86.44
438.057	92.44
438.278	69.44
438.5	77.44
438.721	87.44
438.943	89.44
439.165	77.44
439.386	80.44
439.608	73.44
439.829	69.44
440.05	74.44
440.272	87.44
440.493	81.44
440.715	84.44
440.936	84.44
441.158	88.44
441.379	89.44
441.6	65.44
441.822	88.44
442.043	84.44
442.264	88.44
442.486	92.44
442.707	77.44
442.928	84.44
443.149	81.44
443.371	87.44
443.592	70.44
443.813	84.44
444.034	78.44
444.255	90.44
444.476	87.44
444.698	76.44
444.919	89.44
445.14	207.44
445.361	123.44
445.582	90.44
445.803	75.44
446.024	80.44
446.245	72.44
446.466	88.44
446.687	80.44
446.908	74.44
447.129	74.44
447.35	95.44
447.571	81.44
447.792	97.44
448.013	69.44
448.234	82.44
448.455	73.44
448.675	74.44
448.896	79.44
449.117	83.44
449.338	96.44
449.559	83.44
449.779	85.44
450	73.44
450.221	63.44
450.442	74.44
450.662	73.44
450.883	89.44
451.104	87.44
451.324	84.44
451.545	84.44
451.766	85.44
451.986	82.44
452.207	79.44
452.428	77.44
452.648	85.44
452.869	96.44
453.089	74.44
453.31	70.44
453.53	81.44
453.751	77.44
453.971	80.44
454.192	79.44
454.412	78.44
454.633	91.44
454.853	78.44
455.073	80.44
455.294	95.44
455.514	76.44
455.734	83.44
455.955	79.44
456.175	76.44
456.395	77.44
456.616	84.44
456.836	79.44
457.056	77.44
457.276	70.44
457.497	86.44
457.717	77.44
457.937	87.44
458.157	71.44
458.377	83.44
458.598	89.44
458.818	75.44
459.038	80.44
459.258	100.44
459.478	79.44
459.698	90.44
459.918	88.44
460.138	81.44
460.358	84.44
460.578	95.44
460.798	81.44
461.018	93.44
461.238	101.44
461.458	76.44
461.678	89.44
461.898	73.44
462.118	94.44
462.338	84.44
462.558	80.44
462.777	77.44
462.997	79.44
463.217	93.44
463.437	80.44
463.657	87.44
463.876	88.44
464.096	80.44
464.316	86.44
464.536	106.44
464.755	86.44
464.975	83.44
465.195	72.44
465.414	87.44
465.634	66.44
465.854	86.44
466.073	82.44
466.293	82.44
466.512	89.44
466.732	87.44
466.951	84.44
467.171	89.44
467.391	81.44
467.61	73.44
467.829	95.44
468.049	89.44
468.268	94.44
468.488	68.44
468.707	85.44
468.927	88.44
469.146	81.44
469.365	87.44
469.585	69.44
469.804	87.44
470.023	90.44
470.243	78.44
470.462	64.44
470.681	91.44
470.901	67.44
471.12	93.44
471.339	99.44
471.558	71.44
471.777	80.44
471.997	77.44
472.216	90.44
472.435	80.44
472.654	77.44
472.873	91.44
473.092	82.44
473.311	81.44
473.53	70.44
473.749	81.44
473.968	81.44
474.187	106.44
474.406	81.44
474.625	87.44
474.844	91.44
475.063	92.44
475.282	89.44
475.501	77.44
475.72	84.44
475.939	93.44
476.158	67.44
476.377	98.44
476.596	88.44
476.814	97.44
477.033	92.44
477.252	96.44
477.471	85.44
477.69	89.44
477.908	102.44
478.127	75.44
478.346	91.44
478.564	85.44
478.783	85.44
479.002	94.44
479.22	91.44
479.439	84.44
479.658	101.44
479.876	83.44
480.095	84.44
480.313	89.44
480.532	83.44
480.751	78.44
480.969	65.44
481.188	77.44
481.406	82.44
481.624	82.44
481.843	84.44
482.061	96.44
482.28	83.44
482.498	98.44
482.717	89.44
482.935	76.44
483.153	80.44
483.372	86.44
483.59	85.44
483.808	80.44
484.027	88.44
484.245	85.44
484.463	89.44
484.681	88.44
484.9	104.44
485.118	96.44
485.336	77.44
485.554	95.44
485.772	111.44
485.99	81.44
486.209	79.44
486.427	83.44
486.645	90.44
486.863	97.44
487.081	86.44
487.299	72.44
487.517	85.44
487.735	87.44
487.953	76.44
488.171	96.44
488.389	108.44
488.607	71.44
488.825	80.44
489.043	76.44
489.261	86.44
489.479	82.44
489.696	102.44
489.914	85.44
490.132	91.44
490.35	86.44
490.568	99.44
490.786	85.44
491.003	94.44
491.221	93.44
491.439	80.44
491.657	87.44
491.874	84.44
492.092	89.44
492.31	93.44
492.527	95.44
492.745	90.44
492.963	80.44
493.18	101.44
493.398	82.44
493.615	98.44
493.833	100.44
494.05	82.44
494.268	86.44
494.485	98.44
494.703	75.44
494.92	88.44
495.138	91.44
495.355	91.44
495.573	83.44
495.79	93.44
496.008	95.44
496.225	99.44
496.442	80.44
496.66	105.44
496.877	107.44
497.094	78.44
497.312	113.44
497.529	93.44
497.746	96.44
497.963	87.44
498.181	91.44
498.398	100.44
498.615	100.44
498.832	99.44
499.049	90.44
499.267	92.44
499.484	103.44
499.701	92.44
499.918	100.44
500.135	113.44
500.352	100.44
500.569	87.44
500.786	111.44
501.003	88.44
501.22	101.44
501.437	90.44
501.654	94.44
501.871	91.44
502.088	79.44
502.305	95.44
502.522	80.44
502.739	93.44
502.956	93.44
503.172	74.44
503.389	94.44
503.606	88.44
503.823	99.44
504.04	84.44
504.256	89.44
504.473	83.44
504.69	90.44
504.907	91.44
505.123	90.44
505.34	76.44
505.557	95.44
505.773	86.44
505.99	90.44
506.207	106.44
506.423	87.44
506.64	94.44
506.856	82.44
507.073	75.44
507.289	75.44
507.506	88.44
507.722	93.44
507.939	86.44
508.155	84.44
508.372	98.44
508.588	89.44
508.805	82.44
509.021	76.44
509.238	85.44
509.454	83.44
509.67	90.44
509.887	71.44
510.103	86.44
510.319	89.44
510.536	76.44
510.752	83.44
510.968	92.44
511.184	88.44
511.401	82.44
511.617	80.44
511.833	90.44
512.049	93.44
512.265	87.44
512.481	79.44
512.698	81.44
512.914	85.44
513.13	84.44
513.346	68.44
513.562	86.44
513.778	83.44
513.994	99.44
514.21	85.44
514.426	88.44
514.642	76.44
514.858	96.44
515.074	92.44
515.29	82.44
515.506	87.44
515.721	89.44
515.937	87.44
516.153	71.44
516.369	83.44
516.585	78.44
516.801	108.44
517.016	83.44
517.232	79.44
517.448	90.44
517.664	83.44
517.879	83.44
518.095	91.44
518.311	86.44
518.527	84.44
518.742	84.44
