Data from Ni(NO3)2@0.125M.TitratingCurve.Agarose3%dH2O.NegLispCup.LampEnergy10.LIBS07252019_HRD10591_18-08-37-567.txt Node
Date: Thu Jul 25 18:08:37 EDT 2019
User: cochatt
Spectrometer: HR+D1059
Trigger mode: 1
Integration Time (sec): 1.000000E-1
Scans to average: 1
Electric dark correction enabled: true
Nonlinearity correction enabled: false
Boxcar width: 0
XAxis mode: Wavelengths
Number of Pixels in Spectrum: 2048
>>>>>Begin Spectral Data<<<<<
223.165	-13.94
223.4	-13.94
223.635	-13.94
223.869	-6.94
224.104	-18.94
224.338	-24.94
224.573	-8.94
224.808	-5.94
225.042	-2.94
225.277	-3.94
225.511	-22.94
225.746	1.06
225.98	10.06
226.215	12.06
226.449	16.06
226.683	21.06
226.918	18.06
227.152	31.06
227.387	33.06
227.621	39.06
227.856	37.06
228.09	28.06
228.324	68.06
228.559	67.06
228.793	70.06
229.027	118.06
229.262	128.06
229.496	149.06
229.73	137.06
229.964	155.06
230.199	148.06
230.433	151.06
230.667	153.06
230.901	148.06
231.136	160.06
231.37	144.06
231.604	152.06
231.838	152.06
232.072	166.06
232.306	162.06
232.541	157.06
232.775	156.06
233.009	166.06
233.243	163.06
233.477	154.06
233.711	161.06
233.945	176.06
234.179	168.06
234.413	152.06
234.647	166.06
234.881	161.06
235.115	165.06
235.349	155.06
235.583	163.06
235.817	184.06
236.051	176.06
236.285	180.06
236.519	171.06
236.753	198.06
236.987	172.06
237.221	192.06
237.455	186.06
237.689	181.06
237.922	194.06
238.156	185.06
238.39	178.06
238.624	183.06
238.858	181.06
239.091	197.06
239.325	191.06
239.559	204.06
239.793	202.06
240.027	202.06
240.26	213.06
240.494	200.06
240.728	219.06
240.961	204.06
241.195	224.06
241.429	239.06
241.662	205.06
241.896	226.06
242.13	224.06
242.363	230.06
242.597	225.06
242.83	216.06
243.064	231.06
243.298	224.06
243.531	224.06
243.765	236.06
243.998	227.06
244.232	257.06
244.465	249.06
244.699	261.06
244.932	255.06
245.166	252.06
245.399	250.06
245.633	245.06
245.866	234.06
246.099	242.06
246.333	260.06
246.566	263.06
246.8	275.06
247.033	276.06
247.266	259.06
247.5	260.06
247.733	278.06
247.966	290.06
248.2	275.06
248.433	267.06
248.666	293.06
248.899	287.06
249.133	284.06
249.366	288.06
249.599	286.06
249.832	295.06
250.066	298.06
250.299	301.06
250.532	307.06
250.765	316.06
250.998	313.06
251.231	296.06
251.465	330.06
251.698	342.06
251.931	314.06
252.164	320.06
252.397	328.06
252.63	335.06
252.863	325.06
253.096	305.06
253.329	340.06
253.562	324.06
253.795	339.06
254.028	340.06
254.261	355.06
254.494	343.06
254.727	343.06
254.96	341.06
255.193	350.06
255.426	362.06
255.659	356.06
255.892	360.06
256.124	361.06
256.357	361.06
256.59	347.06
256.823	352.06
257.056	361.06
257.289	370.06
257.521	375.06
257.754	385.06
257.987	376.06
258.22	378.06
258.452	399.06
258.685	374.06
258.918	368.06
259.151	368.06
259.383	378.06
259.616	404.06
259.849	380.06
260.081	389.06
260.314	392.06
260.547	383.06
260.779	382.06
261.012	383.06
261.244	424.06
261.477	386.06
261.71	411.06
261.942	397.06
262.175	406.06
262.407	417.06
262.64	391.06
262.872	391.06
263.105	421.06
263.337	428.06
263.57	422.06
263.802	422.06
264.035	410.06
264.267	424.06
264.499	431.06
264.732	445.06
264.964	435.06
265.197	448.06
265.429	447.06
265.661	462.06
265.894	454.06
266.126	457.06
266.358	448.06
266.591	443.06
266.823	448.06
267.055	452.06
267.287	440.06
267.52	427.06
267.752	479.06
267.984	457.06
268.216	454.06
268.448	449.06
268.681	454.06
268.913	466.06
269.145	469.06
269.377	457.06
269.609	452.06
269.841	461.06
270.073	482.06
270.306	465.06
270.538	461.06
270.77	456.06
271.002	476.06
271.234	481.06
271.466	482.06
271.698	465.06
271.93	483.06
272.162	499.06
272.394	489.06
272.626	483.06
272.858	488.06
273.09	492.06
273.322	488.06
273.553	508.06
273.785	495.06
274.017	495.06
274.249	488.06
274.481	511.06
274.713	497.06
274.945	522.06
275.176	536.06
275.408	510.06
275.64	527.06
275.872	528.06
276.104	526.06
276.335	525.06
276.567	511.06
276.799	507.06
277.031	543.06
277.262	547.06
277.494	541.06
277.726	527.06
277.957	526.06
278.189	537.06
278.421	552.06
278.652	565.06
278.884	537.06
279.115	553.06
279.347	549.06
279.579	554.06
279.81	523.06
280.042	547.06
280.273	552.06
280.505	544.06
280.736	553.06
280.968	562.06
281.199	574.06
281.431	574.06
281.662	593.06
281.894	591.06
282.125	557.06
282.356	584.06
282.588	548.06
282.819	581.06
283.051	580.06
283.282	591.06
283.513	588.06
283.745	609.06
283.976	601.06
284.207	596.06
284.439	621.06
284.67	608.06
284.901	614.06
285.132	621.06
285.364	601.06
285.595	611.06
285.826	600.06
286.057	616.06
286.288	599.06
286.52	599.06
286.751	626.06
286.982	636.06
287.213	622.06
287.444	623.06
287.675	625.06
287.906	626.06
288.138	633.06
288.369	637.06
288.6	607.06
288.831	614.06
289.062	614.06
289.293	616.06
289.524	639.06
289.755	639.06
289.986	624.06
290.217	644.06
290.448	630.06
290.679	645.06
290.91	657.06
291.141	648.06
291.371	651.06
291.602	627.06
291.833	636.06
292.064	639.06
292.295	650.06
292.526	668.06
292.757	632.06
292.987	660.06
293.218	634.06
293.449	641.06
293.68	639.06
293.91	653.06
294.141	669.06
294.372	650.06
294.603	654.06
294.833	656.06
295.064	647.06
295.295	653.06
295.525	656.06
295.756	657.06
295.987	659.06
296.217	665.06
296.448	687.06
296.679	685.06
296.909	653.06
297.14	667.06
297.37	698.06
297.601	683.06
297.831	681.06
298.062	662.06
298.292	717.06
298.523	706.06
298.753	705.06
298.984	706.06
299.214	737.06
299.445	695.06
299.675	692.06
299.905	728.06
300.136	699.06
300.366	698.06
300.597	746.06
300.827	711.06
301.057	711.06
301.288	725.06
301.518	767.06
301.748	752.06
301.979	775.06
302.209	739.06
302.439	757.06
302.669	744.06
302.9	744.06
303.13	738.06
303.36	738.06
303.59	740.06
303.82	723.06
304.051	725.06
304.281	735.06
304.511	723.06
304.741	735.06
304.971	734.06
305.201	747.06
305.431	736.06
305.661	780.06
305.891	705.06
306.121	738.06
306.352	718.06
306.582	722.06
306.812	708.06
307.042	703.06
307.272	717.06
307.502	722.06
307.731	697.06
307.961	705.06
308.191	705.06
308.421	723.06
308.651	734.06
308.881	716.06
309.111	720.06
309.341	724.06
309.571	707.06
309.8	727.06
310.03	713.06
310.26	730.06
310.49	723.06
310.72	739.06
310.949	695.06
311.179	718.06
311.409	718.06
311.639	714.06
311.868	731.06
312.098	730.06
312.328	768.06
312.557	748.06
312.787	742.06
313.017	784.06
313.246	777.06
313.476	777.06
313.706	752.06
313.935	784.06
314.165	776.06
314.394	805.06
314.624	779.06
314.853	767.06
315.083	797.06
315.312	761.06
315.542	756.06
315.771	759.06
316.001	791.06
316.23	753.06
316.46	759.06
316.689	791.06
316.919	803.06
317.148	793.06
317.377	739.06
317.607	740.06
317.836	771.06
318.065	719.06
318.295	763.06
318.524	748.06
318.753	771.06
318.983	765.06
319.212	774.06
319.441	753.06
319.67	771.06
319.9	771.06
320.129	769.06
320.358	759.06
320.587	776.06
320.816	781.06
321.046	825.06
321.275	790.06
321.504	781.06
321.733	778.06
321.962	800.06
322.191	746.06
322.42	796.06
322.649	772.06
322.878	796.06
323.108	787.06
323.337	828.06
323.566	813.06
323.795	807.06
324.024	819.06
324.253	819.06
324.482	807.06
324.71	815.06
324.939	829.06
325.168	825.06
325.397	822.06
325.626	839.06
325.855	836.06
326.084	815.06
326.313	858.06
326.542	894.06
326.77	931.06
326.999	869.06
327.228	878.06
327.457	847.06
327.686	852.06
327.914	865.06
328.143	870.06
328.372	879.06
328.6	873.06
328.829	851.06
329.058	880.06
329.287	871.06
329.515	881.06
329.744	904.06
329.972	908.06
330.201	903.06
330.43	897.06
330.658	889.06
330.887	896.06
331.115	940.06
331.344	920.06
331.572	929.06
331.801	951.06
332.03	962.06
332.258	1014.06
332.486	1047.06
332.715	1048.06
332.943	1088.06
333.172	1136.06
333.4	1191.06
333.629	1225.06
333.857	1236.06
334.085	1226.06
334.314	1178.06
334.542	1157.06
334.771	1150.06
334.999	1140.06
335.227	1127.06
335.455	1121.06
335.684	1081.06
335.912	1123.06
336.14	1078.06
336.369	1087.06
336.597	1077.06
336.825	1075.06
337.053	1081.06
337.281	1038.06
337.51	1052.06
337.738	1028.06
337.966	978.06
338.194	1012.06
338.422	1002.06
338.65	967.06
338.878	981.06
339.106	993.06
339.334	970.06
339.562	939.06
339.79	962.06
340.018	955.06
340.246	902.06
340.474	951.06
340.702	910.06
340.93	957.06
341.158	938.06
341.386	948.06
341.614	979.06
341.842	958.06
342.07	907.06
342.298	929.06
342.526	936.06
342.754	913.06
342.981	927.06
343.209	919.06
343.437	968.06
343.665	1066.06
343.893	1146.06
344.12	1159.06
344.348	1128.06
344.576	1092.06
344.804	1045.06
345.031	1007.06
345.259	945.06
345.487	959.06
345.714	919.06
345.942	930.06
346.17	947.06
346.397	960.06
346.625	922.06
346.853	918.06
347.08	911.06
347.308	915.06
347.535	923.06
347.763	903.06
347.99	931.06
348.218	924.06
348.445	915.06
348.673	926.06
348.9	891.06
349.128	901.06
349.355	916.06
349.583	889.06
349.81	895.06
350.037	896.06
350.265	866.06
350.492	895.06
350.72	867.06
350.947	873.06
351.174	851.06
351.402	873.06
351.629	872.06
351.856	858.06
352.083	889.06
352.311	873.06
352.538	856.06
352.765	874.06
352.992	845.06
353.22	850.06
353.447	874.06
353.674	867.06
353.901	865.06
354.128	851.06
354.355	858.06
354.583	871.06
354.81	875.06
355.037	890.06
355.264	883.06
355.491	883.06
355.718	887.06
355.945	871.06
356.172	857.06
356.399	881.06
356.626	865.06
356.853	886.06
357.08	875.06
357.307	868.06
357.534	871.06
357.761	885.06
357.988	876.06
358.215	851.06
358.441	882.06
358.668	848.06
358.895	884.06
359.122	862.06
359.349	858.06
359.576	874.06
359.802	867.06
360.029	875.06
360.256	864.06
360.483	891.06
360.709	872.06
360.936	860.06
361.163	872.06
361.39	857.06
361.616	874.06
361.843	879.06
362.07	882.06
362.296	868.06
362.523	845.06
362.749	851.06
362.976	853.06
363.203	857.06
363.429	860.06
363.656	861.06
363.882	840.06
364.109	841.06
364.335	863.06
364.562	869.06
364.788	845.06
365.015	835.06
365.241	868.06
365.468	864.06
365.694	844.06
365.92	857.06
366.147	843.06
366.373	879.06
366.599	860.06
366.826	863.06
367.052	857.06
367.278	872.06
367.505	864.06
367.731	873.06
367.957	820.06
368.184	852.06
368.41	856.06
368.636	865.06
368.862	883.06
369.089	883.06
369.315	848.06
369.541	883.06
369.767	899.06
369.993	890.06
370.219	898.06
370.445	924.06
370.672	891.06
370.898	914.06
371.124	922.06
371.35	917.06
371.576	909.06
371.802	937.06
372.028	922.06
372.254	915.06
372.48	935.06
372.706	967.06
372.932	963.06
373.158	980.06
373.384	922.06
373.61	944.06
373.835	946.06
374.061	922.06
374.287	927.06
374.513	953.06
374.739	993.06
374.965	1007.06
375.191	1030.06
375.416	999.06
375.642	978.06
375.868	965.06
376.094	959.06
376.319	945.06
376.545	936.06
376.771	931.06
376.997	902.06
377.222	931.06
377.448	937.06
377.674	949.06
377.899	911.06
378.125	921.06
378.35	916.06
378.576	904.06
378.802	913.06
379.027	910.06
379.253	915.06
379.478	913.06
379.704	881.06
379.929	889.06
380.155	937.06
380.38	904.06
380.606	913.06
380.831	909.06
381.057	917.06
381.282	932.06
381.507	909.06
381.733	932.06
381.958	947.06
382.184	939.06
382.409	928.06
382.634	984.06
382.86	971.06
383.085	992.06
383.31	985.06
383.535	989.06
383.761	1024.06
383.986	1035.06
384.211	1052.06
384.436	1090.06
384.662	1087.06
384.887	1115.06
385.112	1099.06
385.337	1116.06
385.562	1132.06
385.787	1114.06
386.013	1132.06
386.238	1144.06
386.463	1128.06
386.688	1125.06
386.913	1079.06
387.138	1115.06
387.363	1063.06
387.588	1100.06
387.813	1073.06
388.038	1075.06
388.263	1092.06
388.488	1084.06
388.713	1099.06
388.938	1082.06
389.163	1074.06
389.387	1065.06
389.612	1081.06
389.837	1095.06
390.062	1077.06
390.287	1063.06
390.512	1055.06
390.736	1107.06
390.961	1102.06
391.186	1135.06
391.411	1177.06
391.636	1213.06
391.86	1239.06
392.085	1258.06
392.31	1277.06
392.534	1225.06
392.759	1205.06
392.984	1173.06
393.208	1168.06
393.433	1157.06
393.658	1161.06
393.882	1171.06
394.107	1201.06
394.331	1195.06
394.556	1198.06
394.78	1210.06
395.005	1197.06
395.229	1188.06
395.454	1261.06
395.678	1238.06
395.903	1246.06
396.127	1264.06
396.352	1190.06
396.576	1167.06
396.801	1155.06
397.025	1187.06
397.249	1211.06
397.474	1231.06
397.698	1251.06
397.922	1257.06
398.147	1228.06
398.371	1288.06
398.595	1331.06
398.82	1367.06
399.044	1473.06
399.268	1596.06
399.492	1882.06
399.717	2207.06
399.941	2163.06
400.165	1955.06
400.389	1712.06
400.613	1547.06
400.837	1481.06
401.062	1440.06
401.286	1409.06
401.51	1364.06
401.734	1385.06
401.958	1421.06
402.182	1455.06
402.406	1429.06
402.63	1491.06
402.854	1449.06
403.078	1480.06
403.302	1548.06
403.526	1592.06
403.75	1645.06
403.974	1658.06
404.198	1634.06
404.422	1619.06
404.645	1635.06
404.869	1584.06
405.093	1598.06
405.317	1552.06
405.541	1576.06
405.765	1532.06
405.988	1552.06
406.212	1579.06
406.436	1557.06
406.66	1564.06
406.883	1599.06
407.107	1664.06
407.331	1777.06
407.555	1868.06
407.778	1840.06
408.002	1760.06
408.226	1719.06
408.449	1695.06
408.673	1646.06
408.896	1600.06
409.12	1565.06
409.344	1615.06
409.567	1570.06
409.791	1609.06
410.014	1588.06
410.238	1569.06
410.461	1549.06
410.685	1518.06
410.908	1511.06
411.132	1513.06
411.355	1441.06
411.578	1449.06
411.802	1461.06
412.025	1492.06
412.249	1513.06
412.472	1515.06
412.695	1436.06
412.919	1422.06
413.142	1412.06
413.365	1387.06
413.589	1393.06
413.812	1383.06
414.035	1393.06
414.258	1371.06
414.482	1402.06
414.705	1451.06
414.928	1440.06
415.151	1447.06
415.374	1423.06
415.597	1406.06
415.821	1368.06
416.044	1359.06
416.267	1351.06
416.49	1362.06
416.713	1379.06
416.936	1412.06
417.159	1366.06
417.382	1386.06
417.605	1389.06
417.828	1397.06
418.051	1404.06
418.274	1384.06
418.497	1375.06
418.72	1423.06
418.943	1465.06
419.166	1543.06
419.389	1650.06
419.611	1622.06
419.834	1521.06
420.057	1505.06
420.28	1376.06
420.503	1376.06
420.726	1376.06
420.948	1376.06
421.171	1400.06
421.394	1416.06
421.617	1393.06
421.839	1431.06
422.062	1413.06
422.285	1408.06
422.507	1419.06
422.73	1452.06
422.953	1445.06
423.175	1466.06
423.398	1493.06
423.621	1445.06
423.843	1504.06
424.066	1525.06
424.288	1485.06
424.511	1485.06
424.733	1476.06
424.956	1461.06
425.178	1405.06
425.401	1431.06
425.623	1395.06
425.846	1384.06
426.068	1369.06
426.291	1334.06
426.513	1372.06
426.735	1345.06
426.958	1334.06
427.18	1284.06
427.402	1322.06
427.625	1308.06
427.847	1241.06
428.069	1266.06
428.292	1252.06
428.514	1237.06
428.736	1249.06
428.958	1267.06
429.181	1232.06
429.403	1243.06
429.625	1234.06
429.847	1216.06
430.069	1212.06
430.292	1228.06
430.514	1216.06
430.736	1257.06
430.958	1234.06
431.18	1242.06
431.402	1236.06
431.624	1228.06
431.846	1239.06
432.068	1227.06
432.29	1297.06
432.512	1238.06
432.734	1253.06
432.956	1284.06
433.178	1296.06
433.4	1284.06
433.622	1268.06
433.844	1290.06
434.066	1295.06
434.287	1243.06
434.509	1329.06
434.731	1373.06
434.953	1455.06
435.175	1499.06
435.397	1443.06
435.618	1348.06
435.84	1318.06
436.062	1309.06
436.284	1263.06
436.505	1226.06
436.727	1281.06
436.949	1245.06
437.17	1266.06
437.392	1254.06
437.614	1251.06
437.835	1202.06
438.057	1226.06
438.278	1197.06
438.5	1224.06
438.721	1212.06
438.943	1236.06
439.165	1225.06
439.386	1232.06
439.608	1249.06
439.829	1286.06
440.05	1281.06
440.272	1270.06
440.493	1299.06
440.715	1299.06
440.936	1316.06
441.158	1367.06
441.379	1409.06
441.6	1440.06
441.822	1448.06
442.043	1458.06
442.264	1417.06
442.486	1435.06
442.707	1403.06
442.928	1426.06
443.149	1422.06
443.371	1468.06
443.592	1448.06
443.813	1450.06
444.034	1441.06
444.255	1523.06
444.476	1601.06
444.698	1691.06
444.919	1742.06
445.14	1841.06
445.361	1672.06
445.582	1536.06
445.803	1380.06
446.024	1346.06
446.245	1331.06
446.466	1322.06
446.687	1275.06
446.908	1277.06
447.129	1267.06
447.35	1228.06
447.571	1224.06
447.792	1183.06
448.013	1213.06
448.234	1205.06
448.455	1179.06
448.675	1198.06
448.896	1187.06
449.117	1159.06
449.338	1187.06
449.559	1175.06
449.779	1146.06
450	1141.06
450.221	1169.06
450.442	1175.06
450.662	1185.06
450.883	1195.06
451.104	1199.06
451.324	1220.06
451.545	1196.06
451.766	1167.06
451.986	1149.06
452.207	1138.06
452.428	1150.06
452.648	1163.06
452.869	1142.06
453.089	1155.06
453.31	1152.06
453.53	1130.06
453.751	1129.06
453.971	1087.06
454.192	1141.06
454.412	1111.06
454.633	1124.06
454.853	1090.06
455.073	1092.06
455.294	1069.06
455.514	1104.06
455.734	1099.06
455.955	1065.06
456.175	1091.06
456.395	1075.06
456.616	1060.06
456.836	1101.06
457.056	1094.06
457.276	1058.06
457.497	1093.06
457.717	1071.06
457.937	1096.06
458.157	1108.06
458.377	1119.06
458.598	1157.06
458.818	1170.06
459.038	1212.06
459.258	1275.06
459.478	1299.06
459.698	1327.06
459.918	1380.06
460.138	1427.06
460.358	1510.06
460.578	1553.06
460.798	1559.06
461.018	1597.06
461.238	1514.06
461.458	1509.06
461.678	1470.06
461.898	1537.06
462.118	1539.06
462.338	1641.06
462.558	1700.06
462.777	1756.06
462.997	1908.06
463.217	2069.06
463.437	2140.06
463.657	1927.06
463.876	1823.06
464.096	1803.06
464.316	1797.06
464.536	1829.06
464.755	1732.06
464.975	1654.06
465.195	1610.06
465.414	1467.06
465.634	1377.06
465.854	1365.06
466.073	1302.06
466.293	1285.06
466.512	1271.06
466.732	1241.06
466.951	1244.06
467.171	1223.06
467.391	1251.06
467.61	1236.06
467.829	1260.06
468.049	1249.06
468.268	1174.06
468.488	1179.06
468.707	1155.06
468.927	1183.06
469.146	1163.06
469.365	1192.06
469.585	1180.06
469.804	1244.06
470.023	1250.06
470.243	1266.06
470.462	1260.06
470.681	1318.06
470.901	1281.06
471.12	1240.06
471.339	1227.06
471.558	1229.06
471.777	1202.06
471.997	1187.06
472.216	1181.06
472.435	1165.06
472.654	1155.06
472.873	1092.06
473.092	1122.06
473.311	1145.06
473.53	1129.06
473.749	1105.06
473.968	1136.06
474.187	1132.06
474.406	1132.06
474.625	1168.06
474.844	1157.06
475.063	1149.06
475.282	1166.06
475.501	1143.06
475.72	1171.06
475.939	1162.06
476.158	1200.06
476.377	1215.06
476.596	1196.06
476.814	1227.06
477.033	1219.06
477.252	1235.06
477.471	1275.06
477.69	1290.06
477.908	1329.06
478.127	1375.06
478.346	1362.06
478.564	1403.06
478.783	1407.06
479.002	1492.06
479.22	1443.06
479.439	1439.06
479.658	1445.06
479.876	1440.06
480.095	1499.06
480.313	1539.06
480.532	1591.06
480.751	1569.06
480.969	1475.06
481.188	1464.06
481.406	1391.06
481.624	1337.06
481.843	1308.06
482.061	1313.06
482.28	1338.06
482.498	1315.06
482.717	1332.06
482.935	1333.06
483.153	1301.06
483.372	1338.06
483.59	1300.06
483.808	1337.06
484.027	1301.06
484.245	1299.06
484.463	1334.06
484.681	1350.06
484.9	1331.06
485.118	1348.06
485.336	1348.06
485.554	1384.06
485.772	1411.06
485.99	1354.06
486.209	1383.06
486.427	1394.06
486.645	1380.06
486.863	1411.06
487.081	1381.06
487.299	1367.06
487.517	1361.06
487.735	1362.06
487.953	1389.06
488.171	1375.06
488.389	1357.06
488.607	1368.06
488.825	1376.06
489.043	1354.06
489.261	1344.06
489.479	1349.06
489.696	1375.06
489.914	1384.06
490.132	1369.06
490.35	1392.06
490.568	1419.06
490.786	1366.06
491.003	1378.06
491.221	1381.06
491.439	1412.06
491.657	1397.06
491.874	1389.06
492.092	1438.06
492.31	1385.06
492.527	1413.06
492.745	1435.06
492.963	1438.06
493.18	1438.06
493.398	1462.06
493.615	1461.06
493.833	1444.06
494.05	1450.06
494.268	1468.06
