Data from Ni(NO3)2@0.25M.TitratingCurve.Agarose3%dH2O.NegLispCup.LampEnergy10.LIBS07252019_HRD10591_18-04-51-566.txt Node
Date: Thu Jul 25 18:04:51 EDT 2019
User: cochatt
Spectrometer: HR+D1059
Trigger mode: 1
Integration Time (sec): 1.000000E-1
Scans to average: 1
Electric dark correction enabled: true
Nonlinearity correction enabled: false
Boxcar width: 0
XAxis mode: Wavelengths
Number of Pixels in Spectrum: 2048
>>>>>Begin Spectral Data<<<<<
223.165	-23.25
223.4	-23.25
223.635	-23.25
223.869	-26.25
224.104	-24.25
224.338	0.75
224.573	0.75
224.808	-13.25
225.042	-7.25
225.277	-7.25
225.511	1.75
225.746	7.75
225.98	3.75
226.215	11.75
226.449	-6.25
226.683	5.75
226.918	39.75
227.152	35.75
227.387	39.75
227.621	45.75
227.856	55.75
228.09	50.75
228.324	52.75
228.559	60.75
228.793	75.75
229.027	110.75
229.262	101.75
229.496	115.75
229.73	120.75
229.964	124.75
230.199	136.75
230.433	121.75
230.667	128.75
230.901	139.75
231.136	136.75
231.37	150.75
231.604	146.75
231.838	132.75
232.072	148.75
232.306	151.75
232.541	146.75
232.775	142.75
233.009	142.75
233.243	147.75
233.477	142.75
233.711	144.75
233.945	146.75
234.179	138.75
234.413	145.75
234.647	141.75
234.881	154.75
235.115	164.75
235.349	150.75
235.583	157.75
235.817	150.75
236.051	145.75
236.285	127.75
236.519	143.75
236.753	153.75
236.987	161.75
237.221	143.75
237.455	158.75
237.689	164.75
237.922	156.75
238.156	166.75
238.39	172.75
238.624	159.75
238.858	156.75
239.091	161.75
239.325	169.75
239.559	174.75
239.793	171.75
240.027	172.75
240.26	165.75
240.494	164.75
240.728	184.75
240.961	170.75
241.195	171.75
241.429	176.75
241.662	175.75
241.896	185.75
242.13	186.75
242.363	195.75
242.597	192.75
242.83	184.75
243.064	195.75
243.298	206.75
243.531	199.75
243.765	190.75
243.998	230.75
244.232	215.75
244.465	203.75
244.699	231.75
244.932	203.75
245.166	204.75
245.399	202.75
245.633	226.75
245.866	211.75
246.099	216.75
246.333	215.75
246.566	210.75
246.8	211.75
247.033	221.75
247.266	218.75
247.5	221.75
247.733	208.75
247.966	236.75
248.2	238.75
248.433	235.75
248.666	255.75
248.899	229.75
249.133	244.75
249.366	264.75
249.599	251.75
249.832	245.75
250.066	258.75
250.299	253.75
250.532	272.75
250.765	265.75
250.998	258.75
251.231	266.75
251.465	284.75
251.698	275.75
251.931	276.75
252.164	272.75
252.397	287.75
252.63	291.75
252.863	298.75
253.096	290.75
253.329	303.75
253.562	288.75
253.795	291.75
254.028	294.75
254.261	306.75
254.494	292.75
254.727	308.75
254.96	295.75
255.193	331.75
255.426	322.75
255.659	308.75
255.892	316.75
256.124	333.75
256.357	334.75
256.59	320.75
256.823	317.75
257.056	343.75
257.289	323.75
257.521	342.75
257.754	343.75
257.987	345.75
258.22	344.75
258.452	337.75
258.685	354.75
258.918	367.75
259.151	359.75
259.383	337.75
259.616	359.75
259.849	350.75
260.081	361.75
260.314	376.75
260.547	352.75
260.779	365.75
261.012	364.75
261.244	360.75
261.477	360.75
261.71	359.75
261.942	373.75
262.175	376.75
262.407	371.75
262.64	363.75
262.872	374.75
263.105	372.75
263.337	383.75
263.57	378.75
263.802	385.75
264.035	390.75
264.267	384.75
264.499	384.75
264.732	404.75
264.964	406.75
265.197	399.75
265.429	399.75
265.661	390.75
265.894	391.75
266.126	387.75
266.358	416.75
266.591	403.75
266.823	406.75
267.055	396.75
267.287	427.75
267.52	418.75
267.752	415.75
267.984	417.75
268.216	419.75
268.448	412.75
268.681	416.75
268.913	404.75
269.145	434.75
269.377	430.75
269.609	434.75
269.841	421.75
270.073	428.75
270.306	437.75
270.538	431.75
270.77	441.75
271.002	436.75
271.234	417.75
271.466	435.75
271.698	432.75
271.93	456.75
272.162	457.75
272.394	438.75
272.626	446.75
272.858	459.75
273.09	453.75
273.322	458.75
273.553	444.75
273.785	461.75
274.017	457.75
274.249	451.75
274.481	473.75
274.713	467.75
274.945	458.75
275.176	464.75
275.408	483.75
275.64	476.75
275.872	459.75
276.104	471.75
276.335	480.75
276.567	452.75
276.799	467.75
277.031	478.75
277.262	475.75
277.494	494.75
277.726	481.75
277.957	486.75
278.189	483.75
278.421	467.75
278.652	495.75
278.884	487.75
279.115	485.75
279.347	506.75
279.579	488.75
279.81	493.75
280.042	483.75
280.273	503.75
280.505	486.75
280.736	508.75
280.968	516.75
281.199	495.75
281.431	490.75
281.662	513.75
281.894	496.75
282.125	506.75
282.356	541.75
282.588	535.75
282.819	511.75
283.051	507.75
283.282	499.75
283.513	539.75
283.745	548.75
283.976	534.75
284.207	530.75
284.439	526.75
284.67	526.75
284.901	520.75
285.132	519.75
285.364	532.75
285.595	522.75
285.826	522.75
286.057	524.75
286.288	536.75
286.52	533.75
286.751	542.75
286.982	541.75
287.213	551.75
287.444	534.75
287.675	551.75
287.906	537.75
288.138	535.75
288.369	557.75
288.6	541.75
288.831	539.75
289.062	546.75
289.293	562.75
289.524	552.75
289.755	570.75
289.986	541.75
290.217	539.75
290.448	541.75
290.679	568.75
290.91	566.75
291.141	547.75
291.371	575.75
291.602	566.75
291.833	516.75
292.064	542.75
292.295	568.75
292.526	565.75
292.757	548.75
292.987	554.75
293.218	564.75
293.449	566.75
293.68	575.75
293.91	565.75
294.141	576.75
294.372	554.75
294.603	576.75
294.833	558.75
295.064	564.75
295.295	560.75
295.525	557.75
295.756	557.75
295.987	566.75
296.217	590.75
296.448	555.75
296.679	584.75
296.909	582.75
297.14	557.75
297.37	574.75
297.601	589.75
297.831	604.75
298.062	587.75
298.292	623.75
298.523	625.75
298.753	606.75
298.984	588.75
299.214	610.75
299.445	609.75
299.675	612.75
299.905	624.75
300.136	626.75
300.366	614.75
300.597	612.75
300.827	639.75
301.057	633.75
301.288	626.75
301.518	623.75
301.748	638.75
301.979	641.75
302.209	644.75
302.439	655.75
302.669	628.75
302.9	635.75
303.13	607.75
303.36	644.75
303.59	629.75
303.82	656.75
304.051	640.75
304.281	641.75
304.511	645.75
304.741	655.75
304.971	643.75
305.201	661.75
305.431	646.75
305.661	659.75
305.891	638.75
306.121	630.75
306.352	630.75
306.582	617.75
306.812	630.75
307.042	607.75
307.272	618.75
307.502	621.75
307.731	623.75
307.961	620.75
308.191	640.75
308.421	626.75
308.651	647.75
308.881	646.75
309.111	650.75
309.341	611.75
309.571	638.75
309.8	638.75
310.03	647.75
310.26	680.75
310.49	651.75
310.72	663.75
310.949	630.75
311.179	664.75
311.409	668.75
311.639	653.75
311.868	639.75
312.098	659.75
312.328	649.75
312.557	685.75
312.787	670.75
313.017	671.75
313.246	708.75
313.476	676.75
313.706	711.75
313.935	698.75
314.165	710.75
314.394	710.75
314.624	702.75
314.853	702.75
315.083	715.75
315.312	714.75
315.542	699.75
315.771	694.75
316.001	722.75
316.23	702.75
316.46	710.75
316.689	698.75
316.919	714.75
317.148	734.75
317.377	720.75
317.607	695.75
317.836	713.75
318.065	731.75
318.295	744.75
318.524	736.75
318.753	728.75
318.983	712.75
319.212	733.75
319.441	742.75
319.67	755.75
319.9	730.75
320.129	736.75
320.358	726.75
320.587	743.75
320.816	745.75
321.046	750.75
321.275	782.75
321.504	795.75
321.733	764.75
321.962	752.75
322.191	755.75
322.42	785.75
322.649	766.75
322.878	774.75
323.108	781.75
323.337	765.75
323.566	795.75
323.795	808.75
324.024	796.75
324.253	806.75
324.482	806.75
324.71	799.75
324.939	822.75
325.168	838.75
325.397	812.75
325.626	843.75
325.855	848.75
326.084	829.75
326.313	879.75
326.542	853.75
326.77	887.75
326.999	862.75
327.228	850.75
327.457	869.75
327.686	850.75
327.914	862.75
328.143	869.75
328.372	908.75
328.6	862.75
328.829	852.75
329.058	876.75
329.287	877.75
329.515	902.75
329.744	910.75
329.972	919.75
330.201	913.75
330.43	924.75
330.658	923.75
330.887	938.75
331.115	950.75
331.344	955.75
331.572	971.75
331.801	947.75
332.03	971.75
332.258	969.75
332.486	1012.75
332.715	1048.75
332.943	1047.75
333.172	1054.75
333.4	1064.75
333.629	1086.75
333.857	1130.75
334.085	1114.75
334.314	1146.75
334.542	1089.75
334.771	1140.75
334.999	1160.75
335.227	1151.75
335.455	1143.75
335.684	1116.75
335.912	1127.75
336.14	1130.75
336.369	1166.75
336.597	1119.75
336.825	1133.75
337.053	1116.75
337.281	1100.75
337.51	1065.75
337.738	1065.75
337.966	1063.75
338.194	1074.75
338.422	1018.75
338.65	1027.75
338.878	1011.75
339.106	1032.75
339.334	1058.75
339.562	1046.75
339.79	1019.75
340.018	986.75
340.246	989.75
340.474	976.75
340.702	960.75
340.93	991.75
341.158	999.75
341.386	1010.75
341.614	1030.75
341.842	1017.75
342.07	984.75
342.298	986.75
342.526	997.75
342.754	967.75
342.981	990.75
343.209	980.75
343.437	1024.75
343.665	1074.75
343.893	1097.75
344.12	1102.75
344.348	1119.75
344.576	1078.75
344.804	1080.75
345.031	1047.75
345.259	1048.75
345.487	998.75
345.714	995.75
345.942	1009.75
346.17	1029.75
346.397	978.75
346.625	945.75
346.853	928.75
347.08	910.75
347.308	974.75
347.535	963.75
347.763	942.75
347.99	970.75
348.218	949.75
348.445	952.75
348.673	965.75
348.9	958.75
349.128	922.75
349.355	953.75
349.583	962.75
349.81	938.75
350.037	902.75
350.265	898.75
350.492	921.75
350.72	936.75
350.947	912.75
351.174	939.75
351.402	932.75
351.629	968.75
351.856	950.75
352.083	900.75
352.311	930.75
352.538	950.75
352.765	948.75
352.992	926.75
353.22	927.75
353.447	894.75
353.674	896.75
353.901	924.75
354.128	903.75
354.355	913.75
354.583	894.75
354.81	892.75
355.037	908.75
355.264	919.75
355.491	903.75
355.718	891.75
355.945	920.75
356.172	904.75
356.399	911.75
356.626	910.75
356.853	950.75
357.08	942.75
357.307	924.75
357.534	906.75
357.761	904.75
357.988	923.75
358.215	902.75
358.441	897.75
358.668	901.75
358.895	909.75
359.122	910.75
359.349	904.75
359.576	926.75
359.802	894.75
360.029	898.75
360.256	879.75
360.483	902.75
360.709	917.75
360.936	911.75
361.163	941.75
361.39	900.75
361.616	924.75
361.843	926.75
362.07	982.75
362.296	941.75
362.523	918.75
362.749	917.75
362.976	935.75
363.203	914.75
363.429	889.75
363.656	898.75
363.882	913.75
364.109	897.75
364.335	894.75
364.562	900.75
364.788	897.75
365.015	896.75
365.241	933.75
365.468	916.75
365.694	889.75
365.92	887.75
366.147	894.75
366.373	891.75
366.599	918.75
366.826	876.75
367.052	898.75
367.278	885.75
367.505	896.75
367.731	911.75
367.957	893.75
368.184	912.75
368.41	883.75
368.636	904.75
368.862	930.75
369.089	909.75
369.315	919.75
369.541	933.75
369.767	929.75
369.993	919.75
370.219	908.75
370.445	931.75
370.672	940.75
370.898	929.75
371.124	952.75
371.35	970.75
371.576	941.75
371.802	972.75
372.028	959.75
372.254	966.75
372.48	990.75
372.706	962.75
372.932	984.75
373.158	962.75
373.384	984.75
373.61	954.75
373.835	980.75
374.061	947.75
374.287	960.75
374.513	947.75
374.739	979.75
374.965	1013.75
375.191	1037.75
375.416	1024.75
375.642	987.75
375.868	976.75
376.094	1005.75
376.319	960.75
376.545	968.75
376.771	946.75
376.997	961.75
377.222	942.75
377.448	943.75
377.674	928.75
377.899	937.75
378.125	917.75
378.35	927.75
378.576	911.75
378.802	921.75
379.027	943.75
379.253	933.75
379.478	922.75
379.704	915.75
379.929	942.75
380.155	924.75
380.38	932.75
380.606	959.75
380.831	924.75
381.057	933.75
381.282	903.75
381.507	931.75
381.733	934.75
381.958	916.75
382.184	922.75
382.409	981.75
382.634	970.75
382.86	946.75
383.085	969.75
383.31	965.75
383.535	1006.75
383.761	990.75
383.986	983.75
384.211	1002.75
384.436	1022.75
384.662	1024.75
384.887	1056.75
385.112	1032.75
385.337	1074.75
385.562	1062.75
385.787	1080.75
386.013	1090.75
386.238	1091.75
386.463	1097.75
386.688	1075.75
386.913	1085.75
387.138	1074.75
387.363	1101.75
387.588	1084.75
387.813	1100.75
388.038	1108.75
388.263	1096.75
388.488	1117.75
388.713	1094.75
388.938	1088.75
389.163	1065.75
389.387	1082.75
389.612	1067.75
389.837	1088.75
390.062	1055.75
390.287	1097.75
390.512	1104.75
390.736	1092.75
390.961	1133.75
391.186	1125.75
391.411	1116.75
391.636	1149.75
391.86	1202.75
392.085	1197.75
392.31	1182.75
392.534	1189.75
392.759	1203.75
392.984	1171.75
393.208	1130.75
393.433	1152.75
393.658	1149.75
393.882	1138.75
394.107	1146.75
394.331	1163.75
394.556	1156.75
394.78	1193.75
395.005	1181.75
395.229	1177.75
395.454	1206.75
395.678	1194.75
395.903	1204.75
396.127	1209.75
396.352	1228.75
396.576	1182.75
396.801	1172.75
397.025	1207.75
397.249	1188.75
397.474	1238.75
397.698	1238.75
397.922	1275.75
398.147	1270.75
398.371	1314.75
398.595	1325.75
398.82	1357.75
399.044	1449.75
399.268	1505.75
399.492	1661.75
399.717	1743.75
399.941	1772.75
400.165	1683.75
400.389	1638.75
400.613	1543.75
400.837	1469.75
401.062	1433.75
401.286	1419.75
401.51	1403.75
401.734	1388.75
401.958	1378.75
402.182	1386.75
402.406	1348.75
402.63	1417.75
402.854	1397.75
403.078	1389.75
403.302	1446.75
403.526	1450.75
403.75	1436.75
403.974	1475.75
404.198	1426.75
404.422	1454.75
404.645	1429.75
404.869	1451.75
405.093	1474.75
405.317	1426.75
405.541	1449.75
405.765	1500.75
405.988	1474.75
406.212	1495.75
406.436	1487.75
406.66	1542.75
406.883	1530.75
407.107	1580.75
407.331	1610.75
407.555	1670.75
407.778	1664.75
408.002	1662.75
408.226	1634.75
408.449	1635.75
408.673	1588.75
408.896	1552.75
409.12	1556.75
409.344	1538.75
409.567	1508.75
409.791	1545.75
410.014	1518.75
410.238	1490.75
410.461	1507.75
410.685	1514.75
410.908	1458.75
411.132	1438.75
411.355	1422.75
411.578	1461.75
411.802	1435.75
412.025	1423.75
412.249	1469.75
412.472	1426.75
412.695	1424.75
412.919	1400.75
413.142	1455.75
413.365	1403.75
413.589	1446.75
413.812	1386.75
414.035	1407.75
414.258	1414.75
414.482	1447.75
414.705	1426.75
414.928	1414.75
415.151	1412.75
415.374	1411.75
415.597	1420.75
415.821	1395.75
416.044	1374.75
416.267	1342.75
416.49	1354.75
416.713	1362.75
416.936	1352.75
417.159	1360.75
417.382	1343.75
417.605	1335.75
417.828	1307.75
418.051	1384.75
418.274	1379.75
418.497	1349.75
418.72	1372.75
418.943	1378.75
419.166	1478.75
419.389	1566.75
419.611	1555.75
419.834	1494.75
420.057	1440.75
420.28	1405.75
420.503	1349.75
420.726	1371.75
420.948	1366.75
421.171	1353.75
421.394	1377.75
421.617	1362.75
421.839	1386.75
422.062	1402.75
422.285	1388.75
422.507	1422.75
422.73	1396.75
422.953	1390.75
423.175	1409.75
423.398	1382.75
423.621	1358.75
423.843	1456.75
424.066	1428.75
424.288	1414.75
424.511	1404.75
424.733	1404.75
424.956	1376.75
425.178	1418.75
425.401	1348.75
425.623	1373.75
425.846	1331.75
426.068	1374.75
426.291	1368.75
426.513	1356.75
426.735	1341.75
426.958	1348.75
427.18	1330.75
427.402	1342.75
427.625	1353.75
427.847	1323.75
428.069	1308.75
428.292	1294.75
428.514	1284.75
428.736	1310.75
428.958	1332.75
429.181	1280.75
429.403	1261.75
429.625	1290.75
429.847	1274.75
430.069	1291.75
430.292	1265.75
430.514	1229.75
430.736	1271.75
430.958	1304.75
431.18	1314.75
431.402	1311.75
431.624	1274.75
431.846	1286.75
432.068	1314.75
432.29	1324.75
432.512	1277.75
432.734	1302.75
432.956	1262.75
433.178	1350.75
433.4	1342.75
433.622	1302.75
433.844	1305.75
434.066	1339.75
434.287	1331.75
434.509	1356.75
434.731	1362.75
434.953	1406.75
435.175	1406.75
435.397	1420.75
435.618	1339.75
435.84	1325.75
436.062	1342.75
436.284	1326.75
436.505	1308.75
436.727	1314.75
436.949	1312.75
437.17	1282.75
437.392	1268.75
437.614	1274.75
437.835	1247.75
438.057	1266.75
438.278	1254.75
438.5	1272.75
438.721	1266.75
438.943	1270.75
439.165	1252.75
439.386	1255.75
439.608	1274.75
439.829	1310.75
440.05	1291.75
440.272	1340.75
440.493	1348.75
440.715	1343.75
440.936	1358.75
441.158	1360.75
441.379	1395.75
441.6	1403.75
441.822	1403.75
442.043	1392.75
442.264	1380.75
442.486	1350.75
442.707	1422.75
442.928	1402.75
443.149	1425.75
443.371	1382.75
443.592	1418.75
443.813	1450.75
444.034	1435.75
444.255	1476.75
444.476	1492.75
444.698	1531.75
444.919	1566.75
445.14	1622.75
445.361	1545.75
445.582	1515.75
445.803	1447.75
446.024	1405.75
446.245	1395.75
446.466	1346.75
446.687	1320.75
446.908	1360.75
447.129	1294.75
447.35	1290.75
447.571	1294.75
447.792	1262.75
448.013	1274.75
448.234	1238.75
448.455	1230.75
448.675	1233.75
448.896	1209.75
449.117	1201.75
449.338	1215.75
449.559	1222.75
449.779	1208.75
450	1207.75
450.221	1184.75
450.442	1183.75
450.662	1193.75
450.883	1221.75
451.104	1251.75
451.324	1190.75
451.545	1214.75
451.766	1200.75
451.986	1210.75
452.207	1216.75
452.428	1200.75
452.648	1183.75
452.869	1177.75
453.089	1145.75
453.31	1189.75
453.53	1162.75
453.751	1150.75
453.971	1133.75
454.192	1166.75
454.412	1126.75
454.633	1144.75
454.853	1139.75
455.073	1122.75
455.294	1130.75
455.514	1158.75
455.734	1145.75
455.955	1123.75
456.175	1130.75
456.395	1128.75
456.616	1119.75
456.836	1125.75
457.056	1110.75
457.276	1107.75
457.497	1150.75
457.717	1158.75
457.937	1153.75
458.157	1162.75
458.377	1208.75
458.598	1176.75
458.818	1219.75
459.038	1237.75
459.258	1243.75
459.478	1312.75
459.698	1308.75
459.918	1383.75
460.138	1439.75
460.358	1471.75
460.578	1433.75
460.798	1463.75
461.018	1481.75
461.238	1495.75
461.458	1492.75
461.678	1479.75
461.898	1514.75
462.118	1532.75
462.338	1584.75
462.558	1608.75
462.777	1668.75
462.997	1774.75
463.217	1785.75
463.437	1846.75
463.657	1764.75
463.876	1746.75
464.096	1698.75
464.316	1684.75
464.536	1716.75
464.755	1611.75
464.975	1588.75
465.195	1534.75
465.414	1496.75
465.634	1405.75
465.854	1371.75
466.073	1330.75
466.293	1354.75
466.512	1330.75
466.732	1297.75
466.951	1293.75
467.171	1264.75
467.391	1275.75
467.61	1288.75
467.829	1253.75
468.049	1242.75
468.268	1258.75
468.488	1230.75
468.707	1234.75
468.927	1222.75
469.146	1230.75
469.365	1232.75
469.585	1243.75
469.804	1231.75
470.023	1283.75
470.243	1282.75
470.462	1246.75
470.681	1282.75
470.901	1284.75
471.12	1285.75
471.339	1278.75
471.558	1227.75
471.777	1275.75
471.997	1255.75
472.216	1230.75
472.435	1227.75
472.654	1213.75
472.873	1216.75
473.092	1202.75
473.311	1214.75
473.53	1213.75
473.749	1207.75
473.968	1218.75
474.187	1203.75
474.406	1191.75
474.625	1202.75
474.844	1193.75
475.063	1213.75
475.282	1215.75
475.501	1203.75
475.72	1237.75
475.939	1245.75
476.158	1262.75
476.377	1287.75
476.596	1270.75
476.814	1291.75
477.033	1270.75
477.252	1316.75
477.471	1369.75
477.69	1356.75
477.908	1343.75
478.127	1408.75
478.346	1410.75
478.564	1433.75
478.783	1449.75
479.002	1491.75
479.22	1508.75
479.439	1473.75
479.658	1500.75
479.876	1470.75
480.095	1494.75
480.313	1508.75
480.532	1490.75
480.751	1538.75
480.969	1505.75
481.188	1434.75
481.406	1467.75
481.624	1427.75
481.843	1398.75
482.061	1397.75
482.28	1408.75
482.498	1401.75
482.717	1403.75
482.935	1398.75
483.153	1409.75
483.372	1394.75
483.59	1443.75
483.808	1402.75
484.027	1416.75
484.245	1426.75
484.463	1398.75
484.681	1436.75
484.9	1424.75
485.118	1450.75
485.336	1421.75
485.554	1471.75
485.772	1417.75
485.99	1412.75
486.209	1432.75
486.427	1455.75
486.645	1431.75
486.863	1470.75
487.081	1468.75
487.299	1440.75
487.517	1425.75
487.735	1448.75
487.953	1481.75
488.171	1480.75
488.389	1460.75
488.607	1418.75
488.825	1442.75
489.043	1454.75
489.261	1431.75
489.479	1451.75
489.696	1412.75
489.914	1445.75
490.132	1448.75
490.35	1474.75
490.568	1497.75
490.786	1476.75
491.003	1460.75
491.221	1469.75
491.439	1474.75
491.657	1482.75
491.874	1503.75
492.092	1515.75
492.31	1546.75
492.527	1512.75
492.745	1523.75
492.963	1520.75
493.18	1526.75
493.398	1529.75
493.615	1526.75
493.833	1556.75
494.05	1571.75
