Data from Ni(NO3)2Standard.Agarose3%.GreenCap.LampEnergy5.5.E.O_HRD10591_14-40-58-188.txt Node
Date: Mon Jul 22 14:40:58 EDT 2019
User: cochatt
Spectrometer: HR+D1059
Trigger mode: 1
Integration Time (sec): 1.000000E-1
Scans to average: 1
Electric dark correction enabled: true
Nonlinearity correction enabled: false
Boxcar width: 0
XAxis mode: Wavelengths
Number of Pixels in Spectrum: 2048
>>>>>Begin Spectral Data<<<<<
223.165	-2.06
223.4	-2.06
223.635	-2.06
223.869	-16.06
224.104	-29.06
224.338	-31.06
224.573	-21.06
224.808	-22.06
225.042	-12.06
225.277	-3.06
225.511	-7.06
225.746	2.94
225.98	9.94
226.215	17.94
226.449	24.94
226.683	28.94
226.918	26.94
227.152	31.94
227.387	28.94
227.621	55.94
227.856	50.94
228.09	40.94
228.324	53.94
228.559	46.94
228.793	52.94
229.027	70.94
229.262	62.94
229.496	61.94
229.73	69.94
229.964	56.94
230.199	71.94
230.433	66.94
230.667	73.94
230.901	81.94
231.136	73.94
231.37	82.94
231.604	84.94
231.838	72.94
232.072	77.94
232.306	85.94
232.541	80.94
232.775	79.94
233.009	72.94
233.243	69.94
233.477	81.94
233.711	76.94
233.945	85.94
234.179	68.94
234.413	85.94
234.647	75.94
234.881	74.94
235.115	76.94
235.349	75.94
235.583	82.94
235.817	73.94
236.051	65.94
236.285	87.94
236.519	82.94
236.753	63.94
236.987	61.94
237.221	78.94
237.455	80.94
237.689	78.94
237.922	75.94
238.156	64.94
238.39	74.94
238.624	69.94
238.858	75.94
239.091	80.94
239.325	69.94
239.559	68.94
239.793	80.94
240.027	70.94
240.26	63.94
240.494	75.94
240.728	75.94
240.961	51.94
241.195	70.94
241.429	69.94
241.662	75.94
241.896	89.94
242.13	74.94
242.363	61.94
242.597	74.94
242.83	65.94
243.064	58.94
243.298	66.94
243.531	77.94
243.765	64.94
243.998	69.94
244.232	66.94
244.465	87.94
244.699	78.94
244.932	69.94
245.166	65.94
245.399	52.94
245.633	78.94
245.866	71.94
246.099	64.94
246.333	82.94
246.566	65.94
246.8	74.94
247.033	68.94
247.266	75.94
247.5	65.94
247.733	69.94
247.966	73.94
248.2	62.94
248.433	88.94
248.666	86.94
248.899	79.94
249.133	78.94
249.366	82.94
249.599	77.94
249.832	69.94
250.066	84.94
250.299	66.94
250.532	83.94
250.765	77.94
250.998	77.94
251.231	82.94
251.465	73.94
251.698	91.94
251.931	86.94
252.164	89.94
252.397	67.94
252.63	85.94
252.863	77.94
253.096	68.94
253.329	87.94
253.562	70.94
253.795	85.94
254.028	95.94
254.261	87.94
254.494	77.94
254.727	68.94
254.96	65.94
255.193	74.94
255.426	90.94
255.659	76.94
255.892	97.94
256.124	93.94
256.357	68.94
256.59	88.94
256.823	75.94
257.056	73.94
257.289	74.94
257.521	77.94
257.754	74.94
257.987	88.94
258.22	80.94
258.452	86.94
258.685	72.94
258.918	94.94
259.151	64.94
259.383	75.94
259.616	90.94
259.849	70.94
260.081	71.94
260.314	92.94
260.547	83.94
260.779	63.94
261.012	80.94
261.244	78.94
261.477	85.94
261.71	92.94
261.942	74.94
262.175	86.94
262.407	79.94
262.64	82.94
262.872	74.94
263.105	88.94
263.337	89.94
263.57	70.94
263.802	77.94
264.035	67.94
264.267	76.94
264.499	82.94
264.732	69.94
264.964	74.94
265.197	80.94
265.429	88.94
265.661	69.94
265.894	74.94
266.126	75.94
266.358	64.94
266.591	74.94
266.823	68.94
267.055	86.94
267.287	86.94
267.52	84.94
267.752	58.94
267.984	74.94
268.216	85.94
268.448	71.94
268.681	77.94
268.913	82.94
269.145	74.94
269.377	86.94
269.609	95.94
269.841	78.94
270.073	83.94
270.306	94.94
270.538	83.94
270.77	68.94
271.002	71.94
271.234	77.94
271.466	80.94
271.698	76.94
271.93	92.94
272.162	80.94
272.394	73.94
272.626	78.94
272.858	84.94
273.09	75.94
273.322	83.94
273.553	79.94
273.785	74.94
274.017	83.94
274.249	75.94
274.481	72.94
274.713	78.94
274.945	85.94
275.176	71.94
275.408	85.94
275.64	79.94
275.872	87.94
276.104	81.94
276.335	75.94
276.567	71.94
276.799	92.94
277.031	73.94
277.262	79.94
277.494	80.94
277.726	88.94
277.957	81.94
278.189	89.94
278.421	80.94
278.652	85.94
278.884	86.94
279.115	82.94
279.347	99.94
279.579	79.94
279.81	81.94
280.042	83.94
280.273	54.94
280.505	72.94
280.736	70.94
280.968	79.94
281.199	86.94
281.431	80.94
281.662	72.94
281.894	83.94
282.125	71.94
282.356	93.94
282.588	70.94
282.819	92.94
283.051	77.94
283.282	80.94
283.513	78.94
283.745	82.94
283.976	90.94
284.207	84.94
284.439	73.94
284.67	72.94
284.901	79.94
285.132	83.94
285.364	69.94
285.595	74.94
285.826	65.94
286.057	76.94
286.288	82.94
286.52	84.94
286.751	73.94
286.982	83.94
287.213	70.94
287.444	74.94
287.675	80.94
287.906	81.94
288.138	89.94
288.369	77.94
288.6	80.94
288.831	79.94
289.062	94.94
289.293	83.94
289.524	84.94
289.755	67.94
289.986	72.94
290.217	91.94
290.448	79.94
290.679	77.94
290.91	78.94
291.141	102.94
291.371	70.94
291.602	66.94
291.833	74.94
292.064	97.94
292.295	89.94
292.526	79.94
292.757	81.94
292.987	82.94
293.218	93.94
293.449	93.94
293.68	86.94
293.91	84.94
294.141	86.94
294.372	72.94
294.603	85.94
294.833	74.94
295.064	82.94
295.295	82.94
295.525	80.94
295.756	87.94
295.987	82.94
296.217	81.94
296.448	88.94
296.679	89.94
296.909	78.94
297.14	87.94
297.37	83.94
297.601	84.94
297.831	80.94
298.062	94.94
298.292	67.94
298.523	88.94
298.753	79.94
298.984	63.94
299.214	81.94
299.445	88.94
299.675	78.94
299.905	82.94
300.136	81.94
300.366	80.94
300.597	70.94
300.827	91.94
301.057	91.94
301.288	81.94
301.518	85.94
301.748	90.94
301.979	92.94
302.209	86.94
302.439	81.94
302.669	80.94
302.9	74.94
303.13	72.94
303.36	81.94
303.59	91.94
303.82	89.94
304.051	92.94
304.281	86.94
304.511	74.94
304.741	81.94
304.971	83.94
305.201	78.94
305.431	97.94
305.661	88.94
305.891	80.94
306.121	94.94
306.352	97.94
306.582	87.94
306.812	73.94
307.042	70.94
307.272	80.94
307.502	74.94
307.731	90.94
307.961	75.94
308.191	72.94
308.421	93.94
308.651	96.94
308.881	84.94
309.111	75.94
309.341	85.94
309.571	78.94
309.8	85.94
310.03	88.94
310.26	88.94
310.49	86.94
310.72	88.94
310.949	76.94
311.179	81.94
311.409	80.94
311.639	76.94
311.868	80.94
312.098	85.94
312.328	90.94
312.557	85.94
312.787	77.94
313.017	88.94
313.246	82.94
313.476	70.94
313.706	90.94
313.935	68.94
314.165	80.94
314.394	71.94
314.624	71.94
314.853	86.94
315.083	84.94
315.312	79.94
315.542	67.94
315.771	79.94
316.001	99.94
316.23	82.94
316.46	88.94
316.689	71.94
316.919	75.94
317.148	83.94
317.377	71.94
317.607	79.94
317.836	83.94
318.065	73.94
318.295	82.94
318.524	78.94
318.753	81.94
318.983	74.94
319.212	87.94
319.441	87.94
319.67	83.94
319.9	80.94
320.129	77.94
320.358	91.94
320.587	78.94
320.816	94.94
321.046	78.94
321.275	69.94
321.504	87.94
321.733	75.94
321.962	78.94
322.191	82.94
322.42	83.94
322.649	88.94
322.878	102.94
323.108	77.94
323.337	89.94
323.566	94.94
323.795	74.94
324.024	86.94
324.253	71.94
324.482	78.94
324.71	86.94
324.939	84.94
325.168	80.94
325.397	71.94
325.626	81.94
325.855	97.94
326.084	78.94
326.313	82.94
326.542	83.94
326.77	87.94
326.999	79.94
327.228	90.94
327.457	84.94
327.686	93.94
327.914	86.94
328.143	77.94
328.372	80.94
328.6	77.94
328.829	87.94
329.058	93.94
329.287	84.94
329.515	91.94
329.744	73.94
329.972	89.94
330.201	93.94
330.43	74.94
330.658	79.94
330.887	80.94
331.115	86.94
331.344	82.94
331.572	77.94
331.801	89.94
332.03	80.94
332.258	76.94
332.486	88.94
332.715	77.94
332.943	89.94
333.172	76.94
333.4	81.94
333.629	93.94
333.857	83.94
334.085	72.94
334.314	81.94
334.542	89.94
334.771	92.94
334.999	79.94
335.227	91.94
335.455	88.94
335.684	86.94
335.912	79.94
336.14	90.94
336.369	83.94
336.597	70.94
336.825	79.94
337.053	86.94
337.281	85.94
337.51	80.94
337.738	97.94
337.966	83.94
338.194	86.94
338.422	92.94
338.65	82.94
338.878	100.94
339.106	66.94
339.334	86.94
339.562	88.94
339.79	97.94
340.018	93.94
340.246	81.94
340.474	81.94
340.702	91.94
340.93	86.94
341.158	93.94
341.386	78.94
341.614	81.94
341.842	92.94
342.07	81.94
342.298	80.94
342.526	78.94
342.754	71.94
342.981	84.94
343.209	72.94
343.437	93.94
343.665	77.94
343.893	88.94
344.12	96.94
344.348	105.94
344.576	84.94
344.804	81.94
345.031	68.94
345.259	86.94
345.487	74.94
345.714	81.94
345.942	80.94
346.17	86.94
346.397	85.94
346.625	94.94
346.853	82.94
347.08	81.94
347.308	88.94
347.535	82.94
347.763	69.94
347.99	87.94
348.218	85.94
348.445	72.94
348.673	74.94
348.9	93.94
349.128	89.94
349.355	88.94
349.583	63.94
349.81	83.94
350.037	73.94
350.265	83.94
350.492	83.94
350.72	93.94
350.947	81.94
351.174	98.94
351.402	82.94
351.629	72.94
351.856	83.94
352.083	84.94
352.311	82.94
352.538	74.94
352.765	76.94
352.992	65.94
353.22	77.94
353.447	70.94
353.674	82.94
353.901	93.94
354.128	84.94
354.355	68.94
354.583	88.94
354.81	66.94
355.037	87.94
355.264	67.94
355.491	67.94
355.718	85.94
355.945	78.94
356.172	89.94
356.399	81.94
356.626	84.94
356.853	74.94
357.08	78.94
357.307	80.94
357.534	77.94
357.761	81.94
357.988	78.94
358.215	99.94
358.441	94.94
358.668	77.94
358.895	68.94
359.122	81.94
359.349	72.94
359.576	75.94
359.802	100.94
360.029	90.94
360.256	84.94
360.483	89.94
360.709	80.94
360.936	89.94
361.163	74.94
361.39	84.94
361.616	79.94
361.843	96.94
362.07	83.94
362.296	92.94
362.523	87.94
362.749	83.94
362.976	93.94
363.203	82.94
363.429	91.94
363.656	87.94
363.882	92.94
364.109	85.94
364.335	96.94
364.562	77.94
364.788	71.94
365.015	61.94
365.241	89.94
365.468	81.94
365.694	87.94
365.92	83.94
366.147	70.94
366.373	84.94
366.599	91.94
366.826	79.94
367.052	90.94
367.278	87.94
367.505	81.94
367.731	81.94
367.957	78.94
368.184	81.94
368.41	93.94
368.636	94.94
368.862	75.94
369.089	78.94
369.315	80.94
369.541	97.94
369.767	90.94
369.993	71.94
370.219	78.94
370.445	79.94
370.672	87.94
370.898	88.94
371.124	88.94
371.35	75.94
371.576	94.94
371.802	77.94
372.028	81.94
372.254	85.94
372.48	84.94
372.706	88.94
372.932	80.94
373.158	78.94
373.384	82.94
373.61	93.94
373.835	92.94
374.061	88.94
374.287	80.94
374.513	84.94
374.739	70.94
374.965	87.94
375.191	79.94
375.416	79.94
375.642	65.94
375.868	88.94
376.094	77.94
376.319	69.94
376.545	85.94
376.771	71.94
376.997	79.94
377.222	93.94
377.448	79.94
377.674	84.94
377.899	72.94
378.125	89.94
378.35	79.94
378.576	73.94
378.802	90.94
379.027	73.94
379.253	82.94
379.478	91.94
379.704	62.94
379.929	74.94
380.155	84.94
380.38	71.94
380.606	77.94
380.831	77.94
381.057	87.94
381.282	82.94
381.507	80.94
381.733	82.94
381.958	84.94
382.184	92.94
382.409	74.94
382.634	86.94
382.86	77.94
383.085	81.94
383.31	68.94
383.535	68.94
383.761	52.94
383.986	82.94
384.211	83.94
384.436	76.94
384.662	87.94
384.887	64.94
385.112	70.94
385.337	81.94
385.562	74.94
385.787	90.94
386.013	78.94
386.238	89.94
386.463	73.94
386.688	88.94
386.913	82.94
387.138	82.94
387.363	73.94
387.588	76.94
387.813	74.94
388.038	88.94
388.263	79.94
388.488	80.94
388.713	65.94
388.938	85.94
389.163	71.94
389.387	72.94
389.612	68.94
389.837	85.94
390.062	84.94
390.287	80.94
390.512	83.94
390.736	88.94
390.961	79.94
391.186	85.94
391.411	82.94
391.636	80.94
391.86	83.94
392.085	62.94
392.31	85.94
392.534	91.94
392.759	85.94
392.984	82.94
393.208	84.94
393.433	79.94
393.658	66.94
393.882	91.94
394.107	83.94
394.331	91.94
394.556	81.94
394.78	81.94
395.005	75.94
395.229	87.94
395.454	82.94
395.678	84.94
395.903	83.94
396.127	81.94
396.352	77.94
396.576	88.94
396.801	72.94
397.025	82.94
397.249	72.94
397.474	82.94
397.698	73.94
397.922	92.94
398.147	58.94
398.371	84.94
398.595	81.94
398.82	92.94
399.044	80.94
399.268	81.94
399.492	81.94
399.717	74.94
399.941	91.94
400.165	81.94
400.389	77.94
400.613	78.94
400.837	88.94
401.062	89.94
401.286	87.94
401.51	79.94
401.734	79.94
401.958	81.94
402.182	99.94
402.406	82.94
402.63	73.94
402.854	74.94
403.078	80.94
403.302	82.94
403.526	83.94
403.75	76.94
403.974	84.94
404.198	66.94
404.422	89.94
404.645	74.94
404.869	88.94
405.093	74.94
405.317	79.94
405.541	83.94
405.765	85.94
405.988	82.94
406.212	81.94
406.436	71.94
406.66	89.94
406.883	90.94
407.107	78.94
407.331	96.94
407.555	81.94
407.778	95.94
408.002	88.94
408.226	85.94
408.449	94.94
408.673	75.94
408.896	96.94
409.12	86.94
409.344	89.94
409.567	83.94
409.791	77.94
410.014	85.94
410.238	74.94
410.461	94.94
410.685	71.94
410.908	72.94
411.132	91.94
411.355	78.94
411.578	85.94
411.802	84.94
412.025	79.94
412.249	84.94
412.472	94.94
412.695	76.94
412.919	89.94
413.142	81.94
413.365	81.94
413.589	100.94
413.812	82.94
414.035	90.94
414.258	73.94
414.482	87.94
414.705	91.94
414.928	84.94
415.151	94.94
415.374	78.94
415.597	79.94
415.821	94.94
416.044	95.94
416.267	68.94
416.49	103.94
416.713	77.94
416.936	92.94
417.159	83.94
417.382	84.94
417.605	79.94
417.828	77.94
418.051	78.94
418.274	72.94
418.497	104.94
418.72	82.94
418.943	83.94
419.166	74.94
419.389	87.94
419.611	86.94
419.834	92.94
420.057	72.94
420.28	84.94
420.503	81.94
420.726	80.94
420.948	78.94
421.171	80.94
421.394	82.94
421.617	71.94
421.839	84.94
422.062	83.94
422.285	87.94
422.507	84.94
422.73	79.94
422.953	77.94
423.175	73.94
423.398	74.94
423.621	74.94
423.843	73.94
424.066	87.94
424.288	74.94
424.511	81.94
424.733	92.94
424.956	91.94
425.178	82.94
425.401	79.94
425.623	86.94
425.846	83.94
426.068	93.94
426.291	91.94
426.513	83.94
426.735	92.94
426.958	84.94
427.18	76.94
427.402	84.94
427.625	78.94
427.847	88.94
428.069	89.94
428.292	93.94
428.514	83.94
428.736	78.94
428.958	82.94
429.181	85.94
429.403	83.94
429.625	76.94
429.847	86.94
430.069	79.94
430.292	92.94
430.514	84.94
430.736	64.94
430.958	73.94
431.18	82.94
431.402	78.94
431.624	76.94
431.846	77.94
432.068	78.94
432.29	70.94
432.512	79.94
432.734	83.94
432.956	85.94
433.178	94.94
433.4	74.94
433.622	83.94
433.844	80.94
434.066	81.94
434.287	74.94
434.509	68.94
434.731	80.94
434.953	66.94
435.175	81.94
435.397	100.94
435.618	87.94
435.84	88.94
436.062	73.94
436.284	86.94
436.505	71.94
436.727	80.94
436.949	85.94
437.17	82.94
437.392	70.94
437.614	78.94
437.835	80.94
438.057	63.94
438.278	89.94
438.5	89.94
438.721	87.94
438.943	82.94
439.165	72.94
439.386	78.94
439.608	84.94
439.829	72.94
440.05	84.94
440.272	86.94
440.493	75.94
440.715	81.94
440.936	74.94
441.158	85.94
441.379	93.94
441.6	90.94
441.822	83.94
442.043	77.94
442.264	70.94
442.486	81.94
442.707	85.94
442.928	79.94
443.149	81.94
443.371	83.94
443.592	79.94
443.813	93.94
444.034	95.94
444.255	82.94
444.476	83.94
444.698	74.94
444.919	88.94
445.14	226.94
445.361	159.94
445.582	78.94
445.803	82.94
446.024	85.94
446.245	77.94
446.466	88.94
446.687	92.94
446.908	89.94
447.129	89.94
447.35	81.94
447.571	82.94
447.792	80.94
448.013	68.94
448.234	92.94
448.455	84.94
448.675	94.94
448.896	79.94
449.117	80.94
449.338	91.94
449.559	93.94
449.779	77.94
450	74.94
450.221	87.94
450.442	94.94
450.662	86.94
450.883	94.94
451.104	74.94
451.324	69.94
451.545	75.94
451.766	93.94
451.986	92.94
452.207	89.94
452.428	80.94
452.648	92.94
452.869	90.94
453.089	62.94
453.31	86.94
453.53	94.94
453.751	67.94
453.971	76.94
454.192	88.94
454.412	77.94
454.633	82.94
454.853	80.94
455.073	72.94
455.294	91.94
455.514	91.94
455.734	82.94
455.955	83.94
456.175	74.94
456.395	85.94
456.616	82.94
456.836	91.94
457.056	77.94
457.276	79.94
457.497	69.94
457.717	76.94
457.937	87.94
458.157	74.94
458.377	85.94
458.598	88.94
458.818	74.94
459.038	88.94
459.258	79.94
459.478	93.94
459.698	80.94
459.918	89.94
460.138	82.94
460.358	94.94
460.578	82.94
460.798	72.94
461.018	81.94
461.238	80.94
461.458	88.94
461.678	70.94
461.898	88.94
462.118	83.94
462.338	72.94
462.558	78.94
462.777	90.94
462.997	84.94
463.217	78.94
463.437	93.94
463.657	84.94
463.876	98.94
464.096	96.94
464.316	79.94
464.536	84.94
464.755	78.94
464.975	75.94
465.195	87.94
465.414	78.94
465.634	86.94
465.854	89.94
466.073	88.94
466.293	91.94
466.512	85.94
466.732	90.94
466.951	88.94
467.171	76.94
467.391	85.94
467.61	75.94
467.829	81.94
468.049	92.94
468.268	93.94
468.488	86.94
468.707	78.94
468.927	81.94
469.146	72.94
469.365	86.94
469.585	80.94
469.804	87.94
470.023	72.94
470.243	76.94
470.462	86.94
470.681	77.94
470.901	87.94
471.12	86.94
471.339	69.94
471.558	71.94
471.777	83.94
471.997	81.94
472.216	84.94
472.435	70.94
472.654	84.94
472.873	88.94
473.092	66.94
473.311	92.94
473.53	80.94
473.749	74.94
473.968	87.94
474.187	102.94
474.406	83.94
474.625	77.94
474.844	90.94
475.063	82.94
475.282	73.94
475.501	86.94
475.72	82.94
475.939	90.94
476.158	72.94
476.377	82.94
476.596	92.94
476.814	85.94
477.033	92.94
477.252	79.94
477.471	83.94
477.69	79.94
477.908	81.94
478.127	86.94
478.346	66.94
478.564	85.94
478.783	87.94
479.002	83.94
479.22	95.94
479.439	90.94
479.658	89.94
479.876	95.94
480.095	96.94
480.313	86.94
480.532	93.94
480.751	94.94
480.969	96.94
481.188	85.94
481.406	88.94
481.624	82.94
481.843	91.94
482.061	81.94
482.28	97.94
482.498	90.94
482.717	88.94
482.935	87.94
483.153	86.94
483.372	93.94
483.59	101.94
483.808	83.94
484.027	95.94
484.245	96.94
484.463	86.94
484.681	77.94
484.9	86.94
485.118	70.94
485.336	89.94
485.554	92.94
485.772	97.94
485.99	93.94
486.209	91.94
486.427	97.94
486.645	96.94
486.863	96.94
487.081	115.94
487.299	83.94
487.517	87.94
487.735	99.94
487.953	94.94
488.171	81.94
488.389	98.94
488.607	83.94
488.825	90.94
489.043	97.94
489.261	86.94
489.479	85.94
489.696	88.94
489.914	92.94
490.132	88.94
490.35	92.94
490.568	89.94
490.786	84.94
491.003	91.94
491.221	101.94
491.439	106.94
491.657	91.94
491.874	93.94
492.092	92.94
492.31	104.94
492.527	102.94
492.745	103.94
492.963	103.94
493.18	85.94
493.398	108.94
493.615	94.94
493.833	86.94
494.05	94.94
494.268	99.94
494.485	94.94
494.703	87.94
494.92	85.94
495.138	98.94
495.355	83.94
495.573	105.94
495.79	89.94
496.008	89.94
496.225	85.94
496.442	99.94
496.66	95.94
496.877	88.94
497.094	101.94
497.312	91.94
497.529	89.94
497.746	97.94
497.963	89.94
498.181	88.94
498.398	87.94
498.615	96.94
498.832	96.94
499.049	96.94
499.267	103.94
499.484	95.94
499.701	97.94
499.918	95.94
500.135	103.94
500.352	93.94
500.569	112.94
500.786	103.94
501.003	97.94
501.22	93.94
501.437	105.94
501.654	104.94
501.871	93.94
502.088	98.94
502.305	104.94
502.522	101.94
502.739	92.94
502.956	80.94
503.172	92.94
503.389	95.94
503.606	91.94
503.823	103.94
504.04	92.94
504.256	97.94
504.473	92.94
504.69	92.94
504.907	102.94
505.123	94.94
505.34	106.94
505.557	81.94
505.773	97.94
505.99	89.94
506.207	78.94
506.423	88.94
506.64	87.94
506.856	101.94
507.073	93.94
507.289	73.94
507.506	89.94
507.722	73.94
507.939	77.94
508.155	90.94
508.372	99.94
508.588	102.94
508.805	87.94
509.021	87.94
509.238	96.94
509.454	99.94
509.67	84.94
509.887	94.94
510.103	95.94
510.319	79.94
510.536	98.94
510.752	89.94
510.968	91.94
511.184	88.94
511.401	94.94
511.617	90.94
511.833	82.94
512.049	84.94
512.265	104.94
512.481	95.94
512.698	88.94
512.914	83.94
513.13	74.94
513.346	87.94
513.562	77.94
513.778	72.94
513.994	83.94
514.21	96.94
514.426	79.94
514.642	76.94
514.858	93.94
515.074	104.94
515.29	86.94
515.506	85.94
515.721	95.94
515.937	108.94
516.153	89.94
516.369	81.94
516.585	95.94
516.801	92.94
517.016	99.94
517.232	85.94
517.448	91.94
517.664	90.94
517.879	85.94
518.095	95.94
518.311	85.94
518.527	90.94
518.742	93.94
518.958	87.94
