Data from Ni(NO3)2@0.5M.TitratingCurve.Agarose3%dH2O.NegLispCup.LampEnergy10.LIBS07252019_HRD10591_17-58-29-564.txt Node
Date: Thu Jul 25 17:58:29 EDT 2019
User: cochatt
Spectrometer: HR+D1059
Trigger mode: 1
Integration Time (sec): 1.000000E-1
Scans to average: 1
Electric dark correction enabled: true
Nonlinearity correction enabled: false
Boxcar width: 0
XAxis mode: Wavelengths
Number of Pixels in Spectrum: 2048
>>>>>Begin Spectral Data<<<<<
223.165	-22.19
223.4	-22.19
223.635	-22.19
223.869	-28.19
224.104	-14.19
224.338	-14.19
224.573	-4.19
224.808	-11.19
225.042	-18.19
225.277	-4.19
225.511	5.81
225.746	7.81
225.98	-11.19
226.215	23.81
226.449	14.81
226.683	19.81
226.918	29.81
227.152	25.81
227.387	28.81
227.621	34.81
227.856	33.81
228.09	55.81
228.324	42.81
228.559	57.81
228.793	67.81
229.027	104.81
229.262	121.81
229.496	141.81
229.73	124.81
229.964	145.81
230.199	184.81
230.433	188.81
230.667	159.81
230.901	168.81
231.136	143.81
231.37	152.81
231.604	176.81
231.838	166.81
232.072	176.81
232.306	182.81
232.541	165.81
232.775	149.81
233.009	173.81
233.243	139.81
233.477	145.81
233.711	142.81
233.945	164.81
234.179	150.81
234.413	155.81
234.647	146.81
234.881	146.81
235.115	164.81
235.349	145.81
235.583	148.81
235.817	142.81
236.051	139.81
236.285	139.81
236.519	149.81
236.753	150.81
236.987	158.81
237.221	140.81
237.455	155.81
237.689	161.81
237.922	157.81
238.156	154.81
238.39	147.81
238.624	160.81
238.858	158.81
239.091	168.81
239.325	165.81
239.559	159.81
239.793	195.81
240.027	199.81
240.26	179.81
240.494	169.81
240.728	163.81
240.961	163.81
241.195	180.81
241.429	177.81
241.662	183.81
241.896	192.81
242.13	197.81
242.363	188.81
242.597	185.81
242.83	195.81
243.064	162.81
243.298	183.81
243.531	197.81
243.765	196.81
243.998	197.81
244.232	210.81
244.465	189.81
244.699	200.81
244.932	187.81
245.166	199.81
245.399	200.81
245.633	189.81
245.866	205.81
246.099	195.81
246.333	194.81
246.566	205.81
246.8	200.81
247.033	187.81
247.266	209.81
247.5	217.81
247.733	216.81
247.966	201.81
248.2	211.81
248.433	222.81
248.666	235.81
248.899	219.81
249.133	217.81
249.366	219.81
249.599	212.81
249.832	221.81
250.066	229.81
250.299	225.81
250.532	226.81
250.765	233.81
250.998	268.81
251.231	259.81
251.465	263.81
251.698	269.81
251.931	241.81
252.164	276.81
252.397	239.81
252.63	255.81
252.863	252.81
253.096	236.81
253.329	258.81
253.562	247.81
253.795	237.81
254.028	256.81
254.261	267.81
254.494	266.81
254.727	283.81
254.96	267.81
255.193	265.81
255.426	241.81
255.659	274.81
255.892	271.81
256.124	270.81
256.357	260.81
256.59	282.81
256.823	256.81
257.056	265.81
257.289	283.81
257.521	281.81
257.754	273.81
257.987	269.81
258.22	300.81
258.452	290.81
258.685	268.81
258.918	277.81
259.151	313.81
259.383	293.81
259.616	296.81
259.849	302.81
260.081	295.81
260.314	295.81
260.547	289.81
260.779	308.81
261.012	322.81
261.244	310.81
261.477	317.81
261.71	308.81
261.942	308.81
262.175	332.81
262.407	305.81
262.64	309.81
262.872	305.81
263.105	329.81
263.337	315.81
263.57	311.81
263.802	325.81
264.035	341.81
264.267	333.81
264.499	333.81
264.732	329.81
264.964	348.81
265.197	334.81
265.429	331.81
265.661	324.81
265.894	347.81
266.126	346.81
266.358	336.81
266.591	367.81
266.823	367.81
267.055	342.81
267.287	357.81
267.52	343.81
267.752	333.81
267.984	347.81
268.216	353.81
268.448	351.81
268.681	359.81
268.913	345.81
269.145	362.81
269.377	360.81
269.609	371.81
269.841	355.81
270.073	375.81
270.306	376.81
270.538	383.81
270.77	361.81
271.002	369.81
271.234	383.81
271.466	377.81
271.698	381.81
271.93	380.81
272.162	380.81
272.394	381.81
272.626	349.81
272.858	375.81
273.09	368.81
273.322	397.81
273.553	381.81
273.785	379.81
274.017	402.81
274.249	389.81
274.481	396.81
274.713	383.81
274.945	395.81
275.176	411.81
275.408	379.81
275.64	408.81
275.872	400.81
276.104	400.81
276.335	390.81
276.567	403.81
276.799	416.81
277.031	400.81
277.262	423.81
277.494	419.81
277.726	408.81
277.957	417.81
278.189	412.81
278.421	422.81
278.652	411.81
278.884	417.81
279.115	417.81
279.347	431.81
279.579	407.81
279.81	436.81
280.042	415.81
280.273	418.81
280.505	429.81
280.736	423.81
280.968	442.81
281.199	431.81
281.431	445.81
281.662	445.81
281.894	445.81
282.125	439.81
282.356	446.81
282.588	455.81
282.819	469.81
283.051	435.81
283.282	441.81
283.513	437.81
283.745	471.81
283.976	447.81
284.207	467.81
284.439	452.81
284.67	457.81
284.901	466.81
285.132	459.81
285.364	465.81
285.595	469.81
285.826	434.81
286.057	449.81
286.288	450.81
286.52	477.81
286.751	473.81
286.982	465.81
287.213	486.81
287.444	479.81
287.675	454.81
287.906	487.81
288.138	490.81
288.369	506.81
288.6	491.81
288.831	495.81
289.062	467.81
289.293	484.81
289.524	481.81
289.755	476.81
289.986	484.81
290.217	491.81
290.448	478.81
290.679	496.81
290.91	485.81
291.141	480.81
291.371	495.81
291.602	490.81
291.833	488.81
292.064	487.81
292.295	491.81
292.526	489.81
292.757	488.81
292.987	482.81
293.218	489.81
293.449	498.81
293.68	495.81
293.91	493.81
294.141	487.81
294.372	505.81
294.603	484.81
294.833	507.81
295.064	483.81
295.295	512.81
295.525	500.81
295.756	496.81
295.987	509.81
296.217	511.81
296.448	533.81
296.679	519.81
296.909	529.81
297.14	518.81
297.37	515.81
297.601	528.81
297.831	526.81
298.062	515.81
298.292	511.81
298.523	531.81
298.753	529.81
298.984	530.81
299.214	553.81
299.445	517.81
299.675	554.81
299.905	539.81
300.136	534.81
300.366	551.81
300.597	567.81
300.827	563.81
301.057	566.81
301.288	561.81
301.518	575.81
301.748	578.81
301.979	569.81
302.209	565.81
302.439	556.81
302.669	559.81
302.9	579.81
303.13	573.81
303.36	581.81
303.59	549.81
303.82	572.81
304.051	564.81
304.281	568.81
304.511	582.81
304.741	579.81
304.971	578.81
305.201	596.81
305.431	624.81
305.661	613.81
305.891	584.81
306.121	602.81
306.352	575.81
306.582	576.81
306.812	554.81
307.042	583.81
307.272	590.81
307.502	590.81
307.731	609.81
307.961	569.81
308.191	578.81
308.421	601.81
308.651	581.81
308.881	604.81
309.111	579.81
309.341	577.81
309.571	568.81
309.8	610.81
310.03	615.81
310.26	649.81
310.49	667.81
310.72	591.81
310.949	602.81
311.179	607.81
311.409	589.81
311.639	601.81
311.868	608.81
312.098	586.81
312.328	597.81
312.557	613.81
312.787	625.81
313.017	634.81
313.246	627.81
313.476	643.81
313.706	650.81
313.935	663.81
314.165	625.81
314.394	630.81
314.624	626.81
314.853	639.81
315.083	620.81
315.312	635.81
315.542	632.81
315.771	616.81
316.001	636.81
316.23	642.81
316.46	635.81
316.689	643.81
316.919	637.81
317.148	649.81
317.377	653.81
317.607	612.81
317.836	647.81
318.065	643.81
318.295	652.81
318.524	653.81
318.753	639.81
318.983	635.81
319.212	649.81
319.441	667.81
319.67	657.81
319.9	665.81
320.129	637.81
320.358	667.81
320.587	671.81
320.816	666.81
321.046	675.81
321.275	687.81
321.504	655.81
321.733	676.81
321.962	672.81
322.191	674.81
322.42	679.81
322.649	689.81
322.878	691.81
323.108	677.81
323.337	676.81
323.566	703.81
323.795	705.81
324.024	688.81
324.253	688.81
324.482	722.81
324.71	701.81
324.939	701.81
325.168	703.81
325.397	703.81
325.626	701.81
325.855	698.81
326.084	700.81
326.313	721.81
326.542	715.81
326.77	747.81
326.999	712.81
327.228	704.81
327.457	711.81
327.686	748.81
327.914	726.81
328.143	741.81
328.372	721.81
328.6	723.81
328.829	726.81
329.058	736.81
329.287	751.81
329.515	748.81
329.744	745.81
329.972	755.81
330.201	767.81
330.43	759.81
330.658	744.81
330.887	754.81
331.115	759.81
331.344	746.81
331.572	769.81
331.801	751.81
332.03	785.81
332.258	778.81
332.486	812.81
332.715	792.81
332.943	817.81
333.172	827.81
333.4	840.81
333.629	846.81
333.857	874.81
334.085	881.81
334.314	874.81
334.542	864.81
334.771	863.81
334.999	849.81
335.227	864.81
335.455	881.81
335.684	853.81
335.912	881.81
336.14	878.81
336.369	866.81
336.597	881.81
336.825	912.81
337.053	880.81
337.281	880.81
337.51	861.81
337.738	863.81
337.966	858.81
338.194	886.81
338.422	849.81
338.65	821.81
338.878	850.81
339.106	812.81
339.334	877.81
339.562	866.81
339.79	831.81
340.018	801.81
340.246	819.81
340.474	782.81
340.702	799.81
340.93	805.81
341.158	826.81
341.386	843.81
341.614	889.81
341.842	872.81
342.07	821.81
342.298	821.81
342.526	839.81
342.754	841.81
342.981	808.81
343.209	823.81
343.437	841.81
343.665	877.81
343.893	884.81
344.12	866.81
344.348	881.81
344.576	907.81
344.804	888.81
345.031	857.81
345.259	836.81
345.487	877.81
345.714	819.81
345.942	854.81
346.17	879.81
346.397	830.81
346.625	817.81
346.853	794.81
347.08	771.81
347.308	770.81
347.535	806.81
347.763	797.81
347.99	772.81
348.218	773.81
348.445	779.81
348.673	783.81
348.9	772.81
349.128	789.81
349.355	835.81
349.583	820.81
349.81	787.81
350.037	761.81
350.265	763.81
350.492	779.81
350.72	796.81
350.947	771.81
351.174	820.81
351.402	853.81
351.629	819.81
351.856	833.81
352.083	792.81
352.311	821.81
352.538	856.81
352.765	852.81
352.992	756.81
353.22	744.81
353.447	743.81
353.674	752.81
353.901	758.81
354.128	727.81
354.355	779.81
354.583	771.81
354.81	765.81
355.037	762.81
355.264	751.81
355.491	735.81
355.718	754.81
355.945	745.81
356.172	771.81
356.399	784.81
356.626	824.81
356.853	804.81
357.08	777.81
357.307	767.81
357.534	771.81
357.761	743.81
357.988	779.81
358.215	763.81
358.441	738.81
358.668	783.81
358.895	761.81
359.122	756.81
359.349	758.81
359.576	752.81
359.802	757.81
360.029	795.81
360.256	746.81
360.483	769.81
360.709	771.81
360.936	791.81
361.163	771.81
361.39	781.81
361.616	805.81
361.843	826.81
362.07	876.81
362.296	824.81
362.523	767.81
362.749	757.81
362.976	785.81
363.203	760.81
363.429	760.81
363.656	776.81
363.882	787.81
364.109	763.81
364.335	779.81
364.562	779.81
364.788	745.81
365.015	767.81
365.241	779.81
365.468	792.81
365.694	781.81
365.92	789.81
366.147	765.81
366.373	747.81
366.599	767.81
366.826	746.81
367.052	761.81
367.278	761.81
367.505	779.81
367.731	796.81
367.957	788.81
368.184	785.81
368.41	780.81
368.636	771.81
368.862	827.81
369.089	808.81
369.315	787.81
369.541	803.81
369.767	791.81
369.993	803.81
370.219	765.81
370.445	801.81
370.672	796.81
370.898	792.81
371.124	829.81
371.35	795.81
371.576	820.81
371.802	858.81
372.028	841.81
372.254	827.81
372.48	813.81
372.706	817.81
372.932	812.81
373.158	820.81
373.384	832.81
373.61	837.81
373.835	833.81
374.061	818.81
374.287	836.81
374.513	838.81
374.739	854.81
374.965	864.81
375.191	848.81
375.416	848.81
375.642	834.81
375.868	849.81
376.094	808.81
376.319	820.81
376.545	810.81
376.771	823.81
376.997	801.81
377.222	809.81
377.448	834.81
377.674	825.81
377.899	800.81
378.125	792.81
378.35	804.81
378.576	803.81
378.802	807.81
379.027	787.81
379.253	810.81
379.478	792.81
379.704	805.81
379.929	793.81
380.155	804.81
380.38	802.81
380.606	804.81
380.831	804.81
381.057	800.81
381.282	807.81
381.507	811.81
381.733	819.81
381.958	819.81
382.184	827.81
382.409	835.81
382.634	832.81
382.86	826.81
383.085	879.81
383.31	875.81
383.535	853.81
383.761	855.81
383.986	856.81
384.211	867.81
384.436	887.81
384.662	863.81
384.887	891.81
385.112	867.81
385.337	882.81
385.562	895.81
385.787	917.81
386.013	920.81
386.238	935.81
386.463	928.81
386.688	947.81
386.913	913.81
387.138	922.81
387.363	927.81
387.588	946.81
387.813	953.81
388.038	924.81
388.263	945.81
388.488	922.81
388.713	937.81
388.938	923.81
389.163	924.81
389.387	927.81
389.612	944.81
389.837	959.81
390.062	936.81
390.287	907.81
390.512	915.81
390.736	935.81
390.961	955.81
391.186	949.81
391.411	977.81
391.636	991.81
391.86	972.81
392.085	979.81
392.31	981.81
392.534	984.81
392.759	981.81
392.984	980.81
393.208	963.81
393.433	999.81
393.658	1007.81
393.882	971.81
394.107	951.81
394.331	990.81
394.556	984.81
394.78	977.81
395.005	970.81
395.229	991.81
395.454	1027.81
395.678	1029.81
395.903	995.81
396.127	1012.81
396.352	1009.81
396.576	1004.81
396.801	1025.81
397.025	1036.81
397.249	1009.81
397.474	1031.81
397.698	1028.81
397.922	1056.81
398.147	1079.81
398.371	1075.81
398.595	1113.81
398.82	1126.81
399.044	1176.81
399.268	1189.81
399.492	1235.81
399.717	1295.81
399.941	1301.81
400.165	1265.81
400.389	1240.81
400.613	1205.81
400.837	1166.81
401.062	1143.81
401.286	1143.81
401.51	1107.81
401.734	1109.81
401.958	1108.81
402.182	1098.81
402.406	1097.81
402.63	1114.81
402.854	1123.81
403.078	1110.81
403.302	1128.81
403.526	1124.81
403.75	1142.81
403.974	1149.81
404.198	1106.81
404.422	1151.81
404.645	1145.81
404.869	1158.81
405.093	1170.81
405.317	1137.81
405.541	1133.81
405.765	1167.81
405.988	1143.81
406.212	1186.81
406.436	1181.81
406.66	1204.81
406.883	1193.81
407.107	1260.81
407.331	1260.81
407.555	1288.81
407.778	1281.81
408.002	1263.81
408.226	1261.81
408.449	1261.81
408.673	1239.81
408.896	1229.81
409.12	1204.81
409.344	1208.81
409.567	1186.81
409.791	1181.81
410.014	1197.81
410.238	1183.81
410.461	1169.81
410.685	1164.81
410.908	1159.81
411.132	1169.81
411.355	1153.81
411.578	1171.81
411.802	1137.81
412.025	1139.81
412.249	1176.81
412.472	1143.81
412.695	1145.81
412.919	1125.81
413.142	1109.81
413.365	1101.81
413.589	1114.81
413.812	1086.81
414.035	1108.81
414.258	1124.81
414.482	1084.81
414.705	1128.81
414.928	1116.81
415.151	1093.81
415.374	1105.81
415.597	1107.81
415.821	1079.81
416.044	1095.81
416.267	1090.81
416.49	1086.81
416.713	1094.81
416.936	1071.81
417.159	1060.81
417.382	1055.81
417.605	1053.81
417.828	1077.81
418.051	1071.81
418.274	1109.81
418.497	1076.81
418.72	1077.81
418.943	1081.81
419.166	1101.81
419.389	1180.81
419.611	1147.81
419.834	1152.81
420.057	1121.81
420.28	1079.81
420.503	1069.81
420.726	1069.81
420.948	1050.81
421.171	1087.81
421.394	1078.81
421.617	1028.81
421.839	1044.81
422.062	1075.81
422.285	1038.81
422.507	1058.81
422.73	1085.81
422.953	1073.81
423.175	1080.81
423.398	1085.81
423.621	1042.81
423.843	1048.81
424.066	1075.81
424.288	1062.81
424.511	1093.81
424.733	1085.81
424.956	1083.81
425.178	1048.81
425.401	1086.81
425.623	1071.81
425.846	1056.81
426.068	1062.81
426.291	1035.81
426.513	1038.81
426.735	1067.81
426.958	1068.81
427.18	1016.81
427.402	1043.81
427.625	1060.81
427.847	1010.81
428.069	1034.81
428.292	1007.81
428.514	1037.81
428.736	1025.81
428.958	1052.81
429.181	1031.81
429.403	1012.81
429.625	1044.81
429.847	1004.81
430.069	1023.81
430.292	1043.81
430.514	1014.81
430.736	1051.81
430.958	1058.81
431.18	1021.81
431.402	1034.81
431.624	1018.81
431.846	1019.81
432.068	1004.81
432.29	1029.81
432.512	1043.81
432.734	1033.81
432.956	1044.81
433.178	1075.81
433.4	1081.81
433.622	1052.81
433.844	1055.81
434.066	1073.81
434.287	1111.81
434.509	1065.81
434.731	1055.81
434.953	1090.81
435.175	1106.81
435.397	1097.81
435.618	1084.81
435.84	1048.81
436.062	1032.81
436.284	1008.81
436.505	993.81
436.727	1038.81
436.949	1023.81
437.17	1043.81
437.392	1023.81
437.614	1007.81
437.835	984.81
438.057	984.81
438.278	972.81
438.5	1010.81
438.721	1020.81
438.943	986.81
439.165	990.81
439.386	1013.81
439.608	1020.81
439.829	1011.81
440.05	1023.81
440.272	1052.81
440.493	1044.81
440.715	1063.81
440.936	1041.81
441.158	1056.81
441.379	1072.81
441.6	1082.81
441.822	1089.81
442.043	1087.81
442.264	1079.81
442.486	1081.81
442.707	1069.81
442.928	1059.81
443.149	1078.81
443.371	1094.81
443.592	1181.81
443.813	1112.81
444.034	1121.81
444.255	1119.81
444.476	1150.81
444.698	1158.81
444.919	1174.81
445.14	1223.81
445.361	1196.81
445.582	1153.81
445.803	1121.81
446.024	1073.81
446.245	1050.81
446.466	1060.81
446.687	1055.81
446.908	1042.81
447.129	1003.81
447.35	995.81
447.571	1008.81
447.792	965.81
448.013	971.81
448.234	965.81
448.455	957.81
448.675	999.81
448.896	955.81
449.117	959.81
449.338	953.81
449.559	925.81
449.779	954.81
450	919.81
450.221	945.81
450.442	947.81
450.662	936.81
450.883	962.81
451.104	978.81
451.324	936.81
451.545	962.81
451.766	946.81
451.986	916.81
452.207	888.81
452.428	926.81
452.648	925.81
452.869	899.81
453.089	937.81
453.31	941.81
453.53	909.81
453.751	910.81
453.971	921.81
454.192	947.81
454.412	922.81
454.633	942.81
454.853	931.81
455.073	929.81
455.294	927.81
455.514	898.81
455.734	915.81
455.955	949.81
456.175	955.81
456.395	901.81
456.616	912.81
456.836	921.81
457.056	917.81
457.276	913.81
457.497	933.81
457.717	924.81
457.937	964.81
458.157	915.81
458.377	924.81
458.598	938.81
458.818	956.81
459.038	957.81
459.258	981.81
459.478	1066.81
459.698	1109.81
459.918	1131.81
460.138	1138.81
460.358	1129.81
460.578	1132.81
460.798	1163.81
461.018	1167.81
461.238	1136.81
461.458	1170.81
461.678	1128.81
461.898	1153.81
462.118	1167.81
462.338	1164.81
462.558	1203.81
462.777	1257.81
462.997	1292.81
463.217	1288.81
463.437	1337.81
463.657	1255.81
463.876	1216.81
464.096	1237.81
464.316	1216.81
464.536	1212.81
464.755	1217.81
464.975	1144.81
465.195	1140.81
465.414	1112.81
465.634	1083.81
465.854	1059.81
466.073	1042.81
466.293	1021.81
466.512	1024.81
466.732	1014.81
466.951	1041.81
467.171	1030.81
467.391	1034.81
467.61	979.81
467.829	993.81
468.049	975.81
468.268	994.81
468.488	971.81
468.707	986.81
468.927	970.81
469.146	972.81
469.365	1001.81
469.585	983.81
469.804	984.81
470.023	982.81
470.243	965.81
470.462	991.81
470.681	992.81
470.901	995.81
471.12	999.81
471.339	985.81
471.558	1004.81
471.777	994.81
471.997	963.81
472.216	965.81
472.435	979.81
472.654	960.81
472.873	931.81
473.092	982.81
473.311	967.81
473.53	988.81
473.749	977.81
473.968	981.81
474.187	986.81
474.406	965.81
474.625	979.81
474.844	997.81
475.063	978.81
475.282	995.81
475.501	1010.81
475.72	1033.81
475.939	998.81
476.158	1031.81
476.377	1036.81
476.596	986.81
476.814	1027.81
477.033	1037.81
477.252	1027.81
477.471	1055.81
477.69	1072.81
477.908	1089.81
478.127	1110.81
478.346	1086.81
478.564	1134.81
478.783	1163.81
479.002	1195.81
479.22	1179.81
479.439	1151.81
479.658	1171.81
479.876	1153.81
480.095	1141.81
480.313	1151.81
480.532	1189.81
480.751	1177.81
480.969	1125.81
481.188	1137.81
481.406	1157.81
481.624	1140.81
481.843	1132.81
482.061	1155.81
482.28	1148.81
482.498	1119.81
482.717	1107.81
482.935	1140.81
483.153	1158.81
483.372	1197.81
483.59	1197.81
483.808	1167.81
484.027	1157.81
484.245	1133.81
484.463	1138.81
484.681	1147.81
484.9	1146.81
485.118	1151.81
485.336	1148.81
485.554	1151.81
485.772	1157.81
485.99	1163.81
486.209	1153.81
486.427	1157.81
486.645	1164.81
486.863	1144.81
487.081	1169.81
487.299	1165.81
487.517	1144.81
487.735	1192.81
487.953	1243.81
488.171	1199.81
488.389	1192.81
488.607	1167.81
488.825	1165.81
489.043	1151.81
489.261	1177.81
489.479	1171.81
489.696	1169.81
489.914	1176.81
490.132	1196.81
490.35	1165.81
490.568	1167.81
490.786	1187.81
491.003	1203.81
491.221	1239.81
491.439	1220.81
491.657	1231.81
491.874	1245.81
492.092	1227.81
492.31	1239.81
492.527	1217.81
492.745	1236.81
492.963	1237.81
493.18	1225.81
493.398	1220.81
493.615	1233.81
493.833	1265.81
494.05	1224.81
494.268	1218.81
494.485	1239.81
494.703	1300.81
494.92	1258.81
495.138	1265.81
495.355	1269.81
495.573	1288.81
495.79	1275.81
496.008	1311.81
496.225	1300.81
496.442	1301.81
496.66	1334.81
