Data from Ni(NO3)2@0.0625M.TitratingCurve.Agarose3%dH2O.NegLispCup.LampEnergy10.LIBS07252019_HRD10591_18-13-29-569.txt Node
Date: Thu Jul 25 18:13:29 EDT 2019
User: cochatt
Spectrometer: HR+D1059
Trigger mode: 1
Integration Time (sec): 1.000000E-1
Scans to average: 1
Electric dark correction enabled: true
Nonlinearity correction enabled: false
Boxcar width: 0
XAxis mode: Wavelengths
Number of Pixels in Spectrum: 2048
>>>>>Begin Spectral Data<<<<<
223.165	-17.06
223.4	-17.06
223.635	-17.06
223.869	-11.06
224.104	-16.06
224.338	-21.06
224.573	-16.06
224.808	-5.06
225.042	2.94
225.277	-5.06
225.511	-4.06
225.746	4.94
225.98	19.94
226.215	5.94
226.449	15.94
226.683	11.94
226.918	8.94
227.152	24.94
227.387	49.94
227.621	46.94
227.856	46.94
228.09	41.94
228.324	46.94
228.559	64.94
228.793	68.94
229.027	80.94
229.262	89.94
229.496	88.94
229.73	86.94
229.964	104.94
230.199	106.94
230.433	115.94
230.667	108.94
230.901	130.94
231.136	118.94
231.37	118.94
231.604	115.94
231.838	121.94
232.072	130.94
232.306	124.94
232.541	133.94
232.775	117.94
233.009	126.94
233.243	131.94
233.477	120.94
233.711	118.94
233.945	124.94
234.179	126.94
234.413	125.94
234.647	127.94
234.881	125.94
235.115	121.94
235.349	118.94
235.583	111.94
235.817	118.94
236.051	122.94
236.285	136.94
236.519	128.94
236.753	111.94
236.987	109.94
237.221	100.94
237.455	124.94
237.689	137.94
237.922	133.94
238.156	135.94
238.39	132.94
238.624	144.94
238.858	120.94
239.091	132.94
239.325	147.94
239.559	148.94
239.793	139.94
240.027	137.94
240.26	143.94
240.494	132.94
240.728	143.94
240.961	162.94
241.195	143.94
241.429	152.94
241.662	143.94
241.896	152.94
242.13	145.94
242.363	134.94
242.597	138.94
242.83	153.94
243.064	149.94
243.298	147.94
243.531	139.94
243.765	156.94
243.998	153.94
244.232	169.94
244.465	158.94
244.699	152.94
244.932	164.94
245.166	153.94
245.399	155.94
245.633	162.94
245.866	148.94
246.099	166.94
246.333	163.94
246.566	166.94
246.8	151.94
247.033	176.94
247.266	162.94
247.5	178.94
247.733	158.94
247.966	180.94
248.2	176.94
248.433	161.94
248.666	177.94
248.899	185.94
249.133	184.94
249.366	182.94
249.599	179.94
249.832	198.94
250.066	186.94
250.299	179.94
250.532	183.94
250.765	192.94
250.998	187.94
251.231	188.94
251.465	193.94
251.698	185.94
251.931	176.94
252.164	192.94
252.397	202.94
252.63	191.94
252.863	195.94
253.096	207.94
253.329	186.94
253.562	204.94
253.795	209.94
254.028	217.94
254.261	202.94
254.494	205.94
254.727	199.94
254.96	192.94
255.193	202.94
255.426	208.94
255.659	200.94
255.892	212.94
256.124	224.94
256.357	195.94
256.59	216.94
256.823	202.94
257.056	192.94
257.289	215.94
257.521	219.94
257.754	213.94
257.987	214.94
258.22	230.94
258.452	228.94
258.685	243.94
258.918	219.94
259.151	208.94
259.383	226.94
259.616	207.94
259.849	225.94
260.081	225.94
260.314	228.94
260.547	226.94
260.779	214.94
261.012	234.94
261.244	226.94
261.477	237.94
261.71	246.94
261.942	214.94
262.175	240.94
262.407	239.94
262.64	243.94
262.872	230.94
263.105	248.94
263.337	237.94
263.57	242.94
263.802	263.94
264.035	233.94
264.267	243.94
264.499	254.94
264.732	249.94
264.964	255.94
265.197	250.94
265.429	244.94
265.661	257.94
265.894	237.94
266.126	249.94
266.358	241.94
266.591	275.94
266.823	254.94
267.055	250.94
267.287	242.94
267.52	248.94
267.752	264.94
267.984	260.94
268.216	258.94
268.448	262.94
268.681	267.94
268.913	281.94
269.145	259.94
269.377	258.94
269.609	276.94
269.841	267.94
270.073	252.94
270.306	275.94
270.538	258.94
270.77	283.94
271.002	243.94
271.234	266.94
271.466	267.94
271.698	263.94
271.93	264.94
272.162	265.94
272.394	271.94
272.626	276.94
272.858	283.94
273.09	284.94
273.322	306.94
273.553	287.94
273.785	282.94
274.017	281.94
274.249	290.94
274.481	292.94
274.713	299.94
274.945	287.94
275.176	296.94
275.408	299.94
275.64	294.94
275.872	278.94
276.104	276.94
276.335	289.94
276.567	313.94
276.799	291.94
277.031	306.94
277.262	308.94
277.494	299.94
277.726	295.94
277.957	309.94
278.189	322.94
278.421	306.94
278.652	297.94
278.884	302.94
279.115	313.94
279.347	304.94
279.579	307.94
279.81	318.94
280.042	311.94
280.273	314.94
280.505	318.94
280.736	310.94
280.968	312.94
281.199	313.94
281.431	306.94
281.662	318.94
281.894	311.94
282.125	307.94
282.356	329.94
282.588	322.94
282.819	334.94
283.051	328.94
283.282	320.94
283.513	313.94
283.745	329.94
283.976	329.94
284.207	341.94
284.439	355.94
284.67	342.94
284.901	344.94
285.132	336.94
285.364	327.94
285.595	332.94
285.826	347.94
286.057	341.94
286.288	341.94
286.52	332.94
286.751	340.94
286.982	334.94
287.213	352.94
287.444	360.94
287.675	351.94
287.906	364.94
288.138	364.94
288.369	350.94
288.6	366.94
288.831	359.94
289.062	341.94
289.293	359.94
289.524	370.94
289.755	347.94
289.986	363.94
290.217	370.94
290.448	366.94
290.679	362.94
290.91	365.94
291.141	349.94
291.371	370.94
291.602	369.94
291.833	366.94
292.064	374.94
292.295	381.94
292.526	386.94
292.757	375.94
292.987	366.94
293.218	378.94
293.449	368.94
293.68	348.94
293.91	373.94
294.141	359.94
294.372	355.94
294.603	380.94
294.833	374.94
295.064	391.94
295.295	376.94
295.525	386.94
295.756	382.94
295.987	360.94
296.217	376.94
296.448	403.94
296.679	397.94
296.909	384.94
297.14	379.94
297.37	396.94
297.601	375.94
297.831	397.94
298.062	401.94
298.292	406.94
298.523	414.94
298.753	415.94
298.984	394.94
299.214	395.94
299.445	382.94
299.675	407.94
299.905	414.94
300.136	416.94
300.366	396.94
300.597	404.94
300.827	414.94
301.057	439.94
301.288	417.94
301.518	443.94
301.748	421.94
301.979	412.94
302.209	443.94
302.439	406.94
302.669	426.94
302.9	397.94
303.13	419.94
303.36	402.94
303.59	380.94
303.82	392.94
304.051	398.94
304.281	406.94
304.511	407.94
304.741	424.94
304.971	407.94
305.201	404.94
305.431	404.94
305.661	411.94
305.891	398.94
306.121	399.94
306.352	404.94
306.582	420.94
306.812	377.94
307.042	394.94
307.272	420.94
307.502	399.94
307.731	392.94
307.961	397.94
308.191	383.94
308.421	413.94
308.651	415.94
308.881	394.94
309.111	390.94
309.341	400.94
309.571	418.94
309.8	406.94
310.03	376.94
310.26	398.94
310.49	392.94
310.72	403.94
310.949	395.94
311.179	386.94
311.409	410.94
311.639	402.94
311.868	399.94
312.098	419.94
312.328	418.94
312.557	404.94
312.787	416.94
313.017	415.94
313.246	443.94
313.476	415.94
313.706	415.94
313.935	430.94
314.165	425.94
314.394	438.94
314.624	423.94
314.853	408.94
315.083	423.94
315.312	441.94
315.542	431.94
315.771	422.94
316.001	418.94
316.23	413.94
316.46	430.94
316.689	421.94
316.919	410.94
317.148	415.94
317.377	421.94
317.607	409.94
317.836	427.94
318.065	425.94
318.295	414.94
318.524	398.94
318.753	415.94
318.983	414.94
319.212	416.94
319.441	411.94
319.67	423.94
319.9	415.94
320.129	411.94
320.358	415.94
320.587	430.94
320.816	446.94
321.046	415.94
321.275	427.94
321.504	438.94
321.733	434.94
321.962	404.94
322.191	415.94
322.42	408.94
322.649	430.94
322.878	422.94
323.108	416.94
323.337	427.94
323.566	433.94
323.795	433.94
324.024	431.94
324.253	426.94
324.482	423.94
324.71	443.94
324.939	441.94
325.168	425.94
325.397	432.94
325.626	428.94
325.855	440.94
326.084	452.94
326.313	471.94
326.542	476.94
326.77	473.94
326.999	472.94
327.228	468.94
327.457	479.94
327.686	440.94
327.914	449.94
328.143	475.94
328.372	438.94
328.6	446.94
328.829	458.94
329.058	459.94
329.287	455.94
329.515	467.94
329.744	491.94
329.972	460.94
330.201	464.94
330.43	469.94
330.658	475.94
330.887	483.94
331.115	478.94
331.344	485.94
331.572	484.94
331.801	500.94
332.03	484.94
332.258	522.94
332.486	519.94
332.715	557.94
332.943	586.94
333.172	597.94
333.4	616.94
333.629	616.94
333.857	611.94
334.085	625.94
334.314	607.94
334.542	570.94
334.771	591.94
334.999	571.94
335.227	569.94
335.455	554.94
335.684	579.94
335.912	578.94
336.14	563.94
336.369	571.94
336.597	571.94
336.825	563.94
337.053	559.94
337.281	558.94
337.51	529.94
337.738	524.94
337.966	536.94
338.194	514.94
338.422	495.94
338.65	498.94
338.878	514.94
339.106	495.94
339.334	524.94
339.562	504.94
339.79	489.94
340.018	494.94
340.246	479.94
340.474	490.94
340.702	457.94
340.93	491.94
341.158	500.94
341.386	493.94
341.614	507.94
341.842	472.94
342.07	457.94
342.298	480.94
342.526	482.94
342.754	463.94
342.981	483.94
343.209	490.94
343.437	529.94
343.665	538.94
343.893	588.94
344.12	614.94
344.348	588.94
344.576	528.94
344.804	510.94
345.031	498.94
345.259	500.94
345.487	474.94
345.714	511.94
345.942	503.94
346.17	475.94
346.397	475.94
346.625	470.94
346.853	454.94
347.08	466.94
347.308	474.94
347.535	496.94
347.763	489.94
347.99	471.94
348.218	481.94
348.445	472.94
348.673	484.94
348.9	474.94
349.128	496.94
349.355	466.94
349.583	450.94
349.81	447.94
350.037	445.94
350.265	457.94
350.492	451.94
350.72	455.94
350.947	444.94
351.174	448.94
351.402	454.94
351.629	477.94
351.856	479.94
352.083	455.94
352.311	458.94
352.538	443.94
352.765	453.94
352.992	459.94
353.22	463.94
353.447	442.94
353.674	456.94
353.901	448.94
354.128	449.94
354.355	451.94
354.583	454.94
354.81	459.94
355.037	473.94
355.264	447.94
355.491	450.94
355.718	448.94
355.945	467.94
356.172	448.94
356.399	478.94
356.626	458.94
356.853	476.94
357.08	468.94
357.307	467.94
357.534	467.94
357.761	466.94
357.988	471.94
358.215	453.94
358.441	446.94
358.668	472.94
358.895	446.94
359.122	465.94
359.349	442.94
359.576	456.94
359.802	463.94
360.029	452.94
360.256	475.94
360.483	470.94
360.709	454.94
360.936	471.94
361.163	470.94
361.39	436.94
361.616	447.94
361.843	455.94
362.07	460.94
362.296	469.94
362.523	453.94
362.749	457.94
362.976	461.94
363.203	443.94
363.429	440.94
363.656	448.94
363.882	442.94
364.109	444.94
364.335	460.94
364.562	442.94
364.788	472.94
365.015	453.94
365.241	469.94
365.468	468.94
365.694	445.94
365.92	447.94
366.147	446.94
366.373	454.94
366.599	439.94
366.826	458.94
367.052	450.94
367.278	470.94
367.505	482.94
367.731	472.94
367.957	454.94
368.184	445.94
368.41	479.94
368.636	469.94
368.862	454.94
369.089	449.94
369.315	483.94
369.541	464.94
369.767	467.94
369.993	480.94
370.219	479.94
370.445	492.94
370.672	466.94
370.898	483.94
371.124	488.94
371.35	509.94
371.576	504.94
371.802	505.94
372.028	480.94
372.254	503.94
372.48	484.94
372.706	516.94
372.932	512.94
373.158	536.94
373.384	517.94
373.61	510.94
373.835	498.94
374.061	500.94
374.287	517.94
374.513	507.94
374.739	510.94
374.965	534.94
375.191	553.94
375.416	565.94
375.642	539.94
375.868	533.94
376.094	531.94
376.319	494.94
376.545	482.94
376.771	506.94
376.997	502.94
377.222	519.94
377.448	505.94
377.674	510.94
377.899	503.94
378.125	489.94
378.35	492.94
378.576	489.94
378.802	494.94
379.027	496.94
379.253	494.94
379.478	497.94
379.704	481.94
379.929	490.94
380.155	467.94
380.38	485.94
380.606	466.94
380.831	483.94
381.057	486.94
381.282	476.94
381.507	503.94
381.733	492.94
381.958	507.94
382.184	488.94
382.409	520.94
382.634	491.94
382.86	496.94
383.085	539.94
383.31	542.94
383.535	542.94
383.761	553.94
383.986	553.94
384.211	564.94
384.436	584.94
384.662	593.94
384.887	580.94
385.112	578.94
385.337	586.94
385.562	582.94
385.787	606.94
386.013	603.94
386.238	587.94
386.463	602.94
386.688	593.94
386.913	578.94
387.138	577.94
387.363	577.94
387.588	578.94
387.813	572.94
388.038	575.94
388.263	577.94
388.488	597.94
388.713	588.94
388.938	568.94
389.163	546.94
389.387	562.94
389.612	554.94
389.837	576.94
390.062	550.94
390.287	574.94
390.512	594.94
390.736	561.94
390.961	593.94
391.186	603.94
391.411	613.94
391.636	636.94
391.86	668.94
392.085	663.94
392.31	644.94
392.534	638.94
392.759	625.94
392.984	623.94
393.208	607.94
393.433	606.94
393.658	647.94
393.882	599.94
394.107	608.94
394.331	641.94
394.556	643.94
394.78	616.94
395.005	642.94
395.229	651.94
395.454	646.94
395.678	670.94
395.903	653.94
396.127	648.94
396.352	607.94
396.576	605.94
396.801	627.94
397.025	611.94
397.249	624.94
397.474	646.94
397.698	659.94
397.922	666.94
398.147	651.94
398.371	658.94
398.595	662.94
398.82	719.94
399.044	768.94
399.268	856.94
399.492	973.94
399.717	1106.94
399.941	1111.94
400.165	955.94
400.389	855.94
400.613	790.94
400.837	732.94
401.062	715.94
401.286	740.94
401.51	703.94
401.734	713.94
401.958	719.94
402.182	734.94
402.406	719.94
402.63	766.94
402.854	791.94
403.078	807.94
403.302	770.94
403.526	834.94
403.75	844.94
403.974	876.94
404.198	856.94
404.422	861.94
404.645	854.94
404.869	829.94
405.093	847.94
405.317	839.94
405.541	837.94
405.765	778.94
405.988	798.94
406.212	798.94
406.436	795.94
406.66	823.94
406.883	834.94
407.107	874.94
407.331	942.94
407.555	970.94
407.778	925.94
408.002	932.94
408.226	896.94
408.449	855.94
408.673	850.94
408.896	832.94
409.12	816.94
409.344	853.94
409.567	860.94
409.791	852.94
410.014	868.94
410.238	858.94
410.461	840.94
410.685	822.94
410.908	818.94
411.132	780.94
411.355	776.94
411.578	746.94
411.802	770.94
412.025	758.94
412.249	775.94
412.472	780.94
412.695	728.94
412.919	710.94
413.142	717.94
413.365	724.94
413.589	742.94
413.812	728.94
414.035	699.94
414.258	743.94
414.482	742.94
414.705	753.94
414.928	751.94
415.151	711.94
415.374	700.94
415.597	724.94
415.821	722.94
416.044	710.94
416.267	720.94
416.49	726.94
416.713	702.94
416.936	716.94
417.159	722.94
417.382	711.94
417.605	716.94
417.828	733.94
418.051	732.94
418.274	742.94
418.497	741.94
418.72	762.94
418.943	743.94
419.166	781.94
419.389	822.94
419.611	836.94
419.834	784.94
420.057	753.94
420.28	746.94
420.503	740.94
420.726	722.94
420.948	711.94
421.171	723.94
421.394	720.94
421.617	731.94
421.839	738.94
422.062	748.94
422.285	724.94
422.507	742.94
422.73	766.94
422.953	741.94
423.175	773.94
423.398	795.94
423.621	771.94
423.843	783.94
424.066	775.94
424.288	784.94
424.511	801.94
424.733	760.94
424.956	750.94
425.178	740.94
425.401	727.94
425.623	727.94
425.846	717.94
426.068	695.94
426.291	712.94
426.513	643.94
426.735	687.94
426.958	679.94
427.18	674.94
427.402	678.94
427.625	694.94
427.847	656.94
428.069	653.94
428.292	670.94
428.514	653.94
428.736	632.94
428.958	678.94
429.181	642.94
429.403	652.94
429.625	622.94
429.847	638.94
430.069	618.94
430.292	615.94
430.514	622.94
430.736	648.94
430.958	647.94
431.18	623.94
431.402	633.94
431.624	633.94
431.846	639.94
432.068	654.94
432.29	694.94
432.512	661.94
432.734	652.94
432.956	638.94
433.178	675.94
433.4	687.94
433.622	647.94
433.844	682.94
434.066	662.94
434.287	661.94
434.509	701.94
434.731	719.94
434.953	736.94
435.175	773.94
435.397	731.94
435.618	706.94
435.84	668.94
436.062	662.94
436.284	667.94
436.505	682.94
436.727	661.94
436.949	659.94
437.17	670.94
437.392	658.94
437.614	639.94
437.835	621.94
438.057	622.94
438.278	635.94
438.5	632.94
438.721	637.94
438.943	633.94
439.165	628.94
439.386	664.94
439.608	671.94
439.829	657.94
440.05	660.94
440.272	647.94
440.493	657.94
440.715	673.94
440.936	688.94
441.158	700.94
441.379	719.94
441.6	747.94
441.822	742.94
442.043	747.94
442.264	725.94
442.486	734.94
442.707	742.94
442.928	722.94
443.149	745.94
443.371	728.94
443.592	760.94
443.813	726.94
444.034	766.94
444.255	794.94
444.476	809.94
444.698	855.94
444.919	890.94
445.14	976.94
445.361	863.94
445.582	755.94
445.803	730.94
446.024	690.94
446.245	689.94
446.466	700.94
446.687	682.94
446.908	670.94
447.129	651.94
447.35	620.94
447.571	652.94
447.792	656.94
448.013	619.94
448.234	610.94
448.455	634.94
448.675	622.94
448.896	614.94
449.117	647.94
449.338	622.94
449.559	599.94
449.779	614.94
450	624.94
450.221	611.94
450.442	626.94
450.662	638.94
450.883	652.94
451.104	640.94
451.324	651.94
451.545	648.94
451.766	637.94
451.986	635.94
452.207	632.94
452.428	635.94
452.648	628.94
452.869	602.94
453.089	601.94
453.31	617.94
453.53	597.94
453.751	588.94
453.971	604.94
454.192	606.94
454.412	586.94
454.633	580.94
454.853	580.94
455.073	592.94
455.294	578.94
455.514	580.94
455.734	581.94
455.955	581.94
456.175	564.94
456.395	589.94
456.616	556.94
456.836	580.94
457.056	567.94
457.276	551.94
457.497	553.94
457.717	562.94
457.937	598.94
458.157	583.94
458.377	592.94
458.598	616.94
458.818	612.94
459.038	603.94
459.258	647.94
459.478	657.94
459.698	690.94
459.918	730.94
460.138	741.94
460.358	772.94
460.578	774.94
460.798	796.94
461.018	810.94
461.238	766.94
461.458	801.94
461.678	792.94
461.898	764.94
462.118	807.94
462.338	824.94
462.558	858.94
462.777	868.94
462.997	986.94
463.217	1050.94
463.437	1079.94
463.657	988.94
463.876	943.94
464.096	930.94
464.316	938.94
464.536	949.94
464.755	899.94
464.975	879.94
465.195	828.94
465.414	777.94
465.634	723.94
465.854	686.94
466.073	690.94
466.293	674.94
466.512	675.94
466.732	633.94
466.951	644.94
467.171	642.94
467.391	655.94
467.61	648.94
467.829	658.94
468.049	632.94
468.268	615.94
468.488	587.94
468.707	630.94
468.927	609.94
469.146	624.94
469.365	630.94
469.585	630.94
469.804	640.94
470.023	670.94
470.243	661.94
470.462	677.94
470.681	667.94
470.901	663.94
471.12	637.94
471.339	641.94
471.558	646.94
471.777	615.94
471.997	605.94
472.216	612.94
472.435	627.94
472.654	601.94
472.873	602.94
473.092	591.94
473.311	602.94
473.53	589.94
473.749	580.94
473.968	612.94
474.187	590.94
474.406	596.94
474.625	594.94
474.844	598.94
475.063	612.94
475.282	606.94
475.501	616.94
475.72	600.94
475.939	600.94
476.158	603.94
476.377	629.94
476.596	605.94
476.814	639.94
477.033	643.94
477.252	648.94
477.471	646.94
477.69	671.94
477.908	680.94
478.127	703.94
478.346	697.94
478.564	725.94
478.783	726.94
479.002	750.94
479.22	758.94
479.439	725.94
479.658	711.94
479.876	733.94
480.095	750.94
480.313	764.94
480.532	823.94
480.751	816.94
480.969	758.94
481.188	722.94
481.406	707.94
481.624	688.94
481.843	683.94
482.061	679.94
482.28	680.94
482.498	664.94
482.717	679.94
482.935	688.94
483.153	681.94
483.372	660.94
483.59	697.94
483.808	693.94
484.027	682.94
484.245	692.94
484.463	669.94
484.681	709.94
484.9	710.94
485.118	695.94
485.336	722.94
485.554	727.94
485.772	745.94
485.99	723.94
486.209	768.94
486.427	723.94
486.645	731.94
486.863	735.94
487.081	730.94
487.299	727.94
487.517	727.94
487.735	711.94
487.953	730.94
488.171	720.94
488.389	712.94
488.607	705.94
488.825	687.94
489.043	705.94
489.261	683.94
489.479	710.94
489.696	706.94
489.914	713.94
490.132	708.94
490.35	719.94
490.568	713.94
490.786	718.94
491.003	723.94
491.221	755.94
491.439	743.94
491.657	736.94
491.874	719.94
492.092	731.94
492.31	747.94
492.527	713.94
492.745	724.94
492.963	726.94
493.18	723.94
493.398	723.94
493.615	752.94
493.833	739.94
494.05	735.94
494.268	755.94
494.485	737.94
494.703	740.94
494.92	761.94
495.138	764.94
495.355	729.94
495.573	743.94
495.79	780.94
496.008	786.94
496.225	768.94
496.442	779.94
496.66	784.94
496.877	778.94
497.094	789.94
497.312	802.94
497.529	793.94
497.746	839.94
497.963	871.94
498.181	872.94
498.398	895.94
498.615	955.94
498.832	1031.94
499.049	1153.94
499.267	1248.94
499.484	1351.94
499.701	1463.94
499.918	1640.94
500.135	1904.94
500.352	2218.94
500.569	2391.94
500.786	2380.94
501.003	2128.94
501.22	1874.94
501.437	1640.94
