Data from Ni(NO3)2@0.125M.TitratingCurve.Agarose3%dH2O.NegLispCup.LampEnergy10.LIBS07252019_HRD10591_18-09-43-568.txt Node
Date: Thu Jul 25 18:09:43 EDT 2019
User: cochatt
Spectrometer: HR+D1059
Trigger mode: 1
Integration Time (sec): 1.000000E-1
Scans to average: 1
Electric dark correction enabled: true
Nonlinearity correction enabled: false
Boxcar width: 0
XAxis mode: Wavelengths
Number of Pixels in Spectrum: 2048
>>>>>Begin Spectral Data<<<<<
223.165	-8
223.4	-8
223.635	-8
223.869	-9
224.104	-17
224.338	-11
224.573	-14
224.808	-16
225.042	-15
225.277	6
225.511	-12
225.746	-1
225.98	7
226.215	25
226.449	17
226.683	16
226.918	18
227.152	14
227.387	42
227.621	27
227.856	39
228.09	51
228.324	54
228.559	58
228.793	65
229.027	115
229.262	126
229.496	130
229.73	141
229.964	149
230.199	145
230.433	128
230.667	154
230.901	172
231.136	129
231.37	149
231.604	154
231.838	169
232.072	180
232.306	175
232.541	167
232.775	157
233.009	178
233.243	168
233.477	176
233.711	169
233.945	182
234.179	189
234.413	169
234.647	185
234.881	172
235.115	162
235.349	180
235.583	193
235.817	189
236.051	194
236.285	176
236.519	191
236.753	175
236.987	187
237.221	197
237.455	199
237.689	203
237.922	198
238.156	189
238.39	191
238.624	200
238.858	215
239.091	212
239.325	208
239.559	209
239.793	202
240.027	213
240.26	223
240.494	224
240.728	229
240.961	235
241.195	231
241.429	247
241.662	228
241.896	252
242.13	234
242.363	232
242.597	266
242.83	230
243.064	223
243.298	238
243.531	236
243.765	261
243.998	254
244.232	264
244.465	268
244.699	255
244.932	290
245.166	263
245.399	281
245.633	271
245.866	268
246.099	269
246.333	265
246.566	274
246.8	278
247.033	267
247.266	292
247.5	290
247.733	300
247.966	297
248.2	315
248.433	295
248.666	296
248.899	298
249.133	300
249.366	310
249.599	323
249.832	316
250.066	323
250.299	307
250.532	329
250.765	340
250.998	317
251.231	322
251.465	323
251.698	343
251.931	346
252.164	343
252.397	350
252.63	354
252.863	351
253.096	349
253.329	345
253.562	353
253.795	355
254.028	367
254.261	370
254.494	359
254.727	378
254.96	360
255.193	386
255.426	374
255.659	363
255.892	373
256.124	374
256.357	376
256.59	383
256.823	388
257.056	378
257.289	389
257.521	388
257.754	401
257.987	391
258.22	397
258.452	407
258.685	402
258.918	402
259.151	408
259.383	401
259.616	395
259.849	424
260.081	420
260.314	421
260.547	407
260.779	416
261.012	420
261.244	426
261.477	419
261.71	442
261.942	427
262.175	426
262.407	440
262.64	452
262.872	459
263.105	462
263.337	444
263.57	452
263.802	450
264.035	447
264.267	464
264.499	462
264.732	455
264.964	461
265.197	457
265.429	454
265.661	472
265.894	506
266.126	476
266.358	481
266.591	457
266.823	478
267.055	476
267.287	498
267.52	489
267.752	483
267.984	467
268.216	491
268.448	494
268.681	491
268.913	490
269.145	501
269.377	488
269.609	494
269.841	508
270.073	507
270.306	489
270.538	502
270.77	494
271.002	511
271.234	523
271.466	540
271.698	522
271.93	528
272.162	517
272.394	525
272.626	538
272.858	520
273.09	561
273.322	547
273.553	533
273.785	513
274.017	551
274.249	561
274.481	535
274.713	547
274.945	551
275.176	559
275.408	567
275.64	573
275.872	569
276.104	574
276.335	537
276.567	577
276.799	558
277.031	575
277.262	566
277.494	571
277.726	578
277.957	593
278.189	572
278.421	578
278.652	593
278.884	585
279.115	580
279.347	603
279.579	591
279.81	604
280.042	603
280.273	597
280.505	620
280.736	600
280.968	606
281.199	608
281.431	623
281.662	610
281.894	624
282.125	638
282.356	642
282.588	643
282.819	641
283.051	648
283.282	618
283.513	628
283.745	658
283.976	649
284.207	636
284.439	651
284.67	673
284.901	646
285.132	646
285.364	652
285.595	662
285.826	666
286.057	656
286.288	649
286.52	664
286.751	677
286.982	679
287.213	672
287.444	677
287.675	686
287.906	692
288.138	686
288.369	713
288.6	697
288.831	706
289.062	703
289.293	678
289.524	705
289.755	720
289.986	704
290.217	714
290.448	718
290.679	700
290.91	695
291.141	721
291.371	703
291.602	712
291.833	700
292.064	731
292.295	720
292.526	705
292.757	708
292.987	730
293.218	710
293.449	716
293.68	696
293.91	711
294.141	707
294.372	704
294.603	716
294.833	746
295.064	744
295.295	732
295.525	737
295.756	750
295.987	706
296.217	729
296.448	715
296.679	735
296.909	742
297.14	767
297.37	774
297.601	790
297.831	764
298.062	759
298.292	779
298.523	796
298.753	780
298.984	768
299.214	748
299.445	779
299.675	770
299.905	789
300.136	805
300.366	794
300.597	792
300.827	809
301.057	848
301.288	836
301.518	805
301.748	822
301.979	821
302.209	828
302.439	825
302.669	798
302.9	794
303.13	775
303.36	816
303.59	784
303.82	817
304.051	810
304.281	814
304.511	803
304.741	805
304.971	834
305.201	809
305.431	821
305.661	815
305.891	800
306.121	822
306.352	811
306.582	805
306.812	791
307.042	774
307.272	784
307.502	800
307.731	799
307.961	795
308.191	818
308.421	796
308.651	803
308.881	780
309.111	780
309.341	785
309.571	786
309.8	792
310.03	777
310.26	776
310.49	777
310.72	802
310.949	796
311.179	808
311.409	819
311.639	804
311.868	793
312.098	815
312.328	828
312.557	828
312.787	836
313.017	868
313.246	828
313.476	858
313.706	879
313.935	862
314.165	873
314.394	894
314.624	871
314.853	854
315.083	832
315.312	857
315.542	867
315.771	843
316.001	849
316.23	831
316.46	840
316.689	844
316.919	866
317.148	824
317.377	836
317.607	845
317.836	850
318.065	807
318.295	858
318.524	831
318.753	821
318.983	839
319.212	850
319.441	837
319.67	850
319.9	811
320.129	844
320.358	855
320.587	851
320.816	850
321.046	862
321.275	858
321.504	853
321.733	880
321.962	865
322.191	838
322.42	848
322.649	855
322.878	864
323.108	855
323.337	848
323.566	877
323.795	890
324.024	867
324.253	895
324.482	889
324.71	898
324.939	884
325.168	895
325.397	931
325.626	927
325.855	928
326.084	926
326.313	940
326.542	942
326.77	919
326.999	958
327.228	930
327.457	940
327.686	945
327.914	944
328.143	946
328.372	952
328.6	914
328.829	916
329.058	950
329.287	963
329.515	940
329.744	978
329.972	962
330.201	974
330.43	976
330.658	951
330.887	975
331.115	990
331.344	1033
331.572	988
331.801	1028
332.03	1074
332.258	1074
332.486	1104
332.715	1152
332.943	1184
333.172	1238
333.4	1288
333.629	1354
333.857	1332
334.085	1314
334.314	1263
334.542	1226
334.771	1231
334.999	1172
335.227	1220
335.455	1199
335.684	1210
335.912	1145
336.14	1146
336.369	1144
336.597	1146
336.825	1143
337.053	1152
337.281	1104
337.51	1121
337.738	1086
337.966	1059
338.194	1039
338.422	1047
338.65	1008
338.878	1045
339.106	1055
339.334	1052
339.562	1020
339.79	987
340.018	1020
340.246	989
340.474	994
340.702	990
340.93	987
341.158	1022
341.386	978
341.614	991
341.842	998
342.07	985
342.298	972
342.526	997
342.754	993
342.981	994
343.209	1013
343.437	1052
343.665	1135
343.893	1206
344.12	1269
344.348	1163
344.576	1098
344.804	1086
345.031	1021
345.259	1024
345.487	1020
345.714	977
345.942	967
346.17	969
346.397	979
346.625	946
346.853	939
347.08	956
347.308	960
347.535	982
347.763	973
347.99	997
348.218	1029
348.445	972
348.673	957
348.9	989
349.128	942
349.355	928
349.583	959
349.81	960
350.037	909
350.265	918
350.492	923
350.72	936
350.947	924
351.174	931
351.402	943
351.629	938
351.856	921
352.083	921
352.311	896
352.538	930
352.765	914
352.992	923
353.22	906
353.447	900
353.674	899
353.901	906
354.128	899
354.355	911
354.583	938
354.81	918
355.037	916
355.264	917
355.491	939
355.718	937
355.945	916
356.172	912
356.399	920
356.626	927
356.853	919
357.08	942
357.307	933
357.534	910
357.761	916
357.988	925
358.215	944
358.441	924
358.668	903
358.895	916
359.122	936
359.349	951
359.576	913
359.802	916
360.029	950
360.256	945
360.483	923
360.709	929
360.936	932
361.163	933
361.39	920
361.616	932
361.843	935
362.07	904
362.296	925
362.523	906
362.749	941
362.976	910
363.203	908
363.429	916
363.656	909
363.882	891
364.109	921
364.335	902
364.562	931
364.788	884
365.015	914
365.241	896
365.468	930
365.694	927
365.92	908
366.147	918
366.373	902
366.599	921
366.826	898
367.052	910
367.278	906
367.505	920
367.731	909
367.957	946
368.184	915
368.41	928
368.636	921
368.862	949
369.089	944
369.315	943
369.541	922
369.767	942
369.993	951
370.219	955
370.445	975
370.672	984
370.898	992
371.124	969
371.35	996
371.576	1008
371.802	980
372.028	982
372.254	984
372.48	1001
372.706	1032
372.932	1072
373.158	1029
373.384	1009
373.61	974
373.835	1002
374.061	1011
374.287	1000
374.513	1040
374.739	1081
374.965	1109
375.191	1096
375.416	1121
375.642	1111
375.868	1048
376.094	1061
376.319	1033
376.545	1026
376.771	1011
376.997	1015
377.222	974
377.448	990
377.674	1014
377.899	981
378.125	1018
378.35	974
378.576	985
378.802	978
379.027	1003
379.253	976
379.478	999
379.704	986
379.929	967
380.155	986
380.38	986
380.606	987
380.831	1004
381.057	995
381.282	965
381.507	994
381.733	1010
381.958	1028
382.184	999
382.409	1034
382.634	1054
382.86	1046
383.085	1066
383.31	1080
383.535	1103
383.761	1127
383.986	1109
384.211	1145
384.436	1193
384.662	1165
384.887	1243
385.112	1236
385.337	1244
385.562	1199
385.787	1237
386.013	1242
386.238	1264
386.463	1241
386.688	1248
386.913	1196
387.138	1191
387.363	1192
387.588	1177
387.813	1172
388.038	1183
388.263	1203
388.488	1207
388.713	1192
388.938	1170
389.163	1170
389.387	1192
389.612	1156
389.837	1190
390.062	1220
390.287	1194
390.512	1189
390.736	1209
390.961	1238
391.186	1225
391.411	1265
391.636	1360
391.86	1379
392.085	1375
392.31	1385
392.534	1314
392.759	1298
392.984	1273
393.208	1232
393.433	1285
393.658	1267
393.882	1281
394.107	1278
394.331	1298
394.556	1300
394.78	1308
395.005	1327
395.229	1300
395.454	1330
395.678	1392
395.903	1383
396.127	1334
396.352	1304
396.576	1271
396.801	1269
397.025	1266
397.249	1305
397.474	1316
397.698	1370
397.922	1385
398.147	1328
398.371	1372
398.595	1406
398.82	1475
399.044	1622
399.268	1787
399.492	2112
399.717	2426
399.941	2387
400.165	2104
400.389	1831
400.613	1725
400.837	1639
401.062	1545
401.286	1517
401.51	1497
401.734	1512
401.958	1521
402.182	1558
402.406	1564
402.63	1629
402.854	1672
403.078	1670
403.302	1719
403.526	1780
403.75	1786
403.974	1847
404.198	1828
404.422	1828
404.645	1797
404.869	1745
405.093	1734
405.317	1681
405.541	1708
405.765	1666
405.988	1634
406.212	1674
406.436	1680
406.66	1720
406.883	1755
407.107	1840
407.331	1941
407.555	2014
407.778	1983
408.002	1943
408.226	1898
408.449	1844
408.673	1767
408.896	1754
409.12	1702
409.344	1705
409.567	1717
409.791	1760
410.014	1751
410.238	1723
410.461	1728
410.685	1693
410.908	1643
411.132	1630
411.355	1582
411.578	1564
411.802	1540
412.025	1616
412.249	1612
412.472	1606
412.695	1569
412.919	1552
413.142	1519
413.365	1525
413.589	1530
413.812	1495
414.035	1499
414.258	1525
414.482	1549
414.705	1554
414.928	1582
415.151	1548
415.374	1546
415.597	1512
415.821	1467
416.044	1477
416.267	1474
416.49	1459
416.713	1491
416.936	1513
417.159	1502
417.382	1472
417.605	1454
417.828	1475
418.051	1522
418.274	1492
418.497	1523
418.72	1525
418.943	1559
419.166	1655
419.389	1754
419.611	1708
419.834	1649
420.057	1606
420.28	1528
420.503	1524
420.726	1500
420.948	1524
421.171	1496
421.394	1488
421.617	1509
421.839	1523
422.062	1537
422.285	1509
422.507	1554
422.73	1588
422.953	1544
423.175	1577
423.398	1644
423.621	1604
423.843	1623
424.066	1619
424.288	1652
424.511	1610
424.733	1596
424.956	1521
425.178	1590
425.401	1523
425.623	1538
425.846	1506
426.068	1488
426.291	1422
426.513	1420
426.735	1443
426.958	1390
427.18	1370
427.402	1366
427.625	1353
427.847	1330
428.069	1341
428.292	1348
428.514	1343
428.736	1310
428.958	1312
429.181	1295
429.403	1283
429.625	1300
429.847	1295
430.069	1275
430.292	1294
430.514	1286
430.736	1303
430.958	1297
431.18	1315
431.402	1334
431.624	1302
431.846	1334
432.068	1351
432.29	1369
432.512	1328
432.734	1349
432.956	1363
433.178	1360
433.4	1327
433.622	1304
433.844	1357
434.066	1360
434.287	1367
434.509	1441
434.731	1499
434.953	1539
435.175	1524
435.397	1479
435.618	1442
435.84	1393
436.062	1376
436.284	1332
436.505	1316
436.727	1333
436.949	1374
437.17	1368
437.392	1291
437.614	1323
437.835	1280
438.057	1284
438.278	1271
438.5	1236
438.721	1267
438.943	1319
439.165	1277
439.386	1270
439.608	1333
439.829	1329
440.05	1338
440.272	1364
440.493	1350
440.715	1352
440.936	1396
441.158	1413
441.379	1449
441.6	1512
441.822	1560
442.043	1557
442.264	1500
442.486	1454
442.707	1511
442.928	1498
443.149	1489
443.371	1479
443.592	1513
443.813	1525
444.034	1555
444.255	1588
444.476	1662
444.698	1744
444.919	1851
445.14	1880
445.361	1723
445.582	1566
445.803	1488
446.024	1463
446.245	1385
446.466	1365
446.687	1350
446.908	1374
447.129	1318
447.35	1291
447.571	1269
447.792	1276
448.013	1256
448.234	1258
448.455	1273
448.675	1231
448.896	1210
449.117	1196
449.338	1224
449.559	1183
449.779	1202
450	1200
450.221	1226
450.442	1254
450.662	1243
450.883	1242
451.104	1262
451.324	1240
451.545	1216
451.766	1249
451.986	1203
452.207	1259
452.428	1235
452.648	1195
452.869	1196
453.089	1211
453.31	1196
453.53	1171
453.751	1182
453.971	1189
454.192	1154
454.412	1146
454.633	1142
454.853	1129
455.073	1132
455.294	1153
455.514	1154
455.734	1126
455.955	1119
456.175	1126
456.395	1119
456.616	1137
456.836	1134
457.056	1146
457.276	1080
457.497	1148
457.717	1126
457.937	1104
458.157	1163
458.377	1156
458.598	1221
458.818	1223
459.038	1261
459.258	1330
459.478	1364
459.698	1330
459.918	1402
460.138	1502
460.358	1577
460.578	1595
460.798	1616
461.018	1628
461.238	1582
461.458	1590
461.678	1576
461.898	1596
462.118	1586
462.338	1742
462.558	1748
462.777	1823
462.997	1999
463.217	2209
463.437	2248
463.657	2000
463.876	1869
464.096	1871
464.316	1832
464.536	1860
464.755	1774
464.975	1724
465.195	1656
465.414	1544
465.634	1451
465.854	1404
466.073	1374
466.293	1351
466.512	1310
466.732	1258
466.951	1305
467.171	1302
467.391	1329
467.61	1320
467.829	1250
468.049	1241
468.268	1232
468.488	1216
468.707	1207
468.927	1227
469.146	1232
469.365	1224
469.585	1242
469.804	1295
470.023	1295
470.243	1302
470.462	1306
470.681	1315
470.901	1315
471.12	1270
471.339	1288
471.558	1266
471.777	1262
471.997	1228
472.216	1204
472.435	1231
472.654	1194
472.873	1207
473.092	1174
473.311	1179
473.53	1164
473.749	1165
473.968	1168
474.187	1174
474.406	1172
474.625	1169
474.844	1170
475.063	1218
475.282	1192
475.501	1205
475.72	1212
475.939	1214
476.158	1245
476.377	1233
476.596	1207
476.814	1224
477.033	1287
477.252	1292
477.471	1298
477.69	1319
477.908	1349
478.127	1405
478.346	1470
478.564	1418
478.783	1459
479.002	1483
479.22	1514
479.439	1530
479.658	1480
479.876	1487
480.095	1528
480.313	1588
480.532	1659
480.751	1666
480.969	1572
481.188	1499
481.406	1455
481.624	1379
481.843	1375
482.061	1360
482.28	1347
482.498	1313
482.717	1337
482.935	1350
483.153	1331
483.372	1366
483.59	1370
483.808	1328
484.027	1347
484.245	1341
484.463	1388
484.681	1395
484.9	1376
485.118	1380
485.336	1405
485.554	1424
485.772	1472
485.99	1444
486.209	1452
486.427	1419
486.645	1435
486.863	1439
487.081	1447
487.299	1431
487.517	1446
487.735	1411
487.953	1416
488.171	1418
488.389	1403
488.607	1404
488.825	1400
489.043	1399
489.261	1403
489.479	1403
489.696	1441
489.914	1409
490.132	1417
490.35	1452
490.568	1444
490.786	1438
491.003	1431
491.221	1439
491.439	1434
491.657	1456
491.874	1432
492.092	1436
492.31	1437
492.527	1475
492.745	1446
492.963	1451
493.18	1466
493.398	1477
493.615	1490
493.833	1514
494.05	1531
494.268	1526
494.485	1498
494.703	1510
494.92	1525
495.138	1440
495.355	1500
495.573	1482
495.79	1493
496.008	1544
496.225	1507
496.442	1554
496.66	1614
496.877	1599
497.094	1633
497.312	1619
497.529	1701
497.746	1745
497.963	1774
498.181	1862
498.398	1914
498.615	2011
498.832	2194
499.049	2350
499.267	2571
499.484	2827
499.701	3170
499.918	3506
500.135	4011
500.352	4687
500.569	4990
500.786	4875
501.003	4567
501.22	4043
501.437	3477
501.654	3051
501.871	2784
502.088	2462
502.305	2361
502.522	2224
502.739	2130
502.956	2051
503.172	1868
503.389	1829
503.606	1779
503.823	1795
504.04	1750
504.256	1753
504.473	1818
504.69	1899
504.907	1878
505.123	1701
505.34	1596
505.557	1514
505.773	1452
505.99	1434
506.207	1430
506.423	1424
506.64	1360
506.856	1377
507.073	1353
507.289	1331
507.506	1354
507.722	1349
507.939	1343
508.155	1290
508.372	1279
508.588	1266
508.805	1296
509.021	1244
509.238	1237
509.454	1226
509.67	1250
509.887	1215
510.103	1232
510.319	1228
510.536	1253
510.752	1232
510.968	1210
511.184	1220
511.401	1226
511.617	1230
511.833	1210
512.049	1216
512.265	1198
512.481	1200
512.698	1202
512.914	1235
513.13	1176
513.346	1238
513.562	1241
513.778	1226
513.994	1218
514.21	1215
514.426	1234
514.642	1251
514.858	1226
515.074	1230
515.29	1256
515.506	1246
515.721	1301
515.937	1320
516.153	1321
516.369	1350
516.585	1388
516.801	1431
517.016	1539
517.232	1639
517.448	1682
517.664	1778
517.879	1777
518.095	1758
518.311	1731
518.527	1659
518.742	1570
518.958	1518
519.173	1446
519.389	1374
519.605	1354
519.82	1307
520.036	1289
520.251	1222
520.467	1226
520.682	1246
520.898	1198
521.113	1183
521.329	1200
521.544	1213
521.76	1189
521.975	1159
522.19	1184
522.406	1178
522.621	1145
522.836	1146
523.052	1183
523.267	1122
523.482	1142
523.698	1126
523.913	1110
524.128	1118
524.343	1116
524.559	1095
524.774	1100
524.989	1106
525.204	1099
525.419	1082
525.634	1091
525.849	1114
526.064	1106
526.28	1101
526.495	1085
526.71	1098
526.925	1127
527.14	1091
527.355	1092
527.57	1101
527.785	1084
527.999	1076
528.214	1084
528.429	1091
528.644	1116
528.859	1082
529.074	1102
529.289	1100
529.503	1098
529.718	1136
529.933	1088
530.148	1097
530.363	1098
530.577	1053
530.792	1103
531.007	1093
531.221	1144
531.436	1130
531.651	1094
531.865	1088
532.08	1137
532.295	1088
532.509	1084
532.724	1100
532.938	1100
533.153	1096
533.367	1106
533.582	1095
533.796	1072
534.011	1074
534.225	1094
534.44	1046
534.654	1072
534.868	1063
535.083	1078
535.297	1064
535.511	1058
535.726	1051
535.94	1043
536.154	1024
536.369	1012
536.583	1029
536.797	1045
537.011	1019
537.225	1023
537.44	1009
537.654	995
537.868	1006
538.082	969
538.296	987
538.51	977
538.724	998
538.938	976
539.153	949
539.367	968
539.581	973
539.795	986
540.009	963
540.222	998
540.436	980
540.65	975
540.864	958
541.078	967
541.292	989
541.506	968
541.72	986
541.934	992
542.147	976
542.361	959
542.575	951
542.789	960
543.002	939
543.216	948
543.43	956
543.644	940
543.857	939
544.071	957
544.285	979
544.498	979
544.712	950
544.925	952
545.139	1001
545.352	974
545.566	999
545.779	985
545.993	1010
546.206	996
546.42	998
546.633	986
546.847	1000
547.06	998
547.274	968
547.487	1006
547.7	966
547.914	1010
548.127	1019
548.34	1038
548.554	999
548.767	1010
548.98	1030
549.193	1010
549.407	1017
549.62	1028
549.833	1058
550.046	1015
