Data from Ni(NO3)2@0.125M.TitratingCurve.Agarose3%dH2O.NegLispCup.LampEnergy10.LIBS07252019_HRD10591_18-09-03-568.txt Node
Date: Thu Jul 25 18:09:03 EDT 2019
User: cochatt
Spectrometer: HR+D1059
Trigger mode: 1
Integration Time (sec): 1.000000E-1
Scans to average: 1
Electric dark correction enabled: true
Nonlinearity correction enabled: false
Boxcar width: 0
XAxis mode: Wavelengths
Number of Pixels in Spectrum: 2048
>>>>>Begin Spectral Data<<<<<
223.165	-24.69
223.4	-24.69
223.635	-24.69
223.869	-4.69
224.104	-9.69
224.338	-13.69
224.573	-22.69
224.808	-18.69
225.042	4.31
225.277	-1.69
225.511	-10.69
225.746	1.31
225.98	5.31
226.215	14.31
226.449	21.31
226.683	26.31
226.918	15.31
227.152	18.31
227.387	20.31
227.621	34.31
227.856	46.31
228.09	62.31
228.324	55.31
228.559	58.31
228.793	79.31
229.027	91.31
229.262	101.31
229.496	99.31
229.73	122.31
229.964	111.31
230.199	112.31
230.433	125.31
230.667	134.31
230.901	122.31
231.136	124.31
231.37	116.31
231.604	119.31
231.838	136.31
232.072	138.31
232.306	145.31
232.541	150.31
232.775	134.31
233.009	128.31
233.243	119.31
233.477	134.31
233.711	137.31
233.945	144.31
234.179	135.31
234.413	139.31
234.647	132.31
234.881	120.31
235.115	137.31
235.349	148.31
235.583	135.31
235.817	127.31
236.051	133.31
236.285	126.31
236.519	131.31
236.753	137.31
236.987	139.31
237.221	147.31
237.455	141.31
237.689	140.31
237.922	148.31
238.156	145.31
238.39	158.31
238.624	155.31
238.858	134.31
239.091	154.31
239.325	156.31
239.559	154.31
239.793	163.31
240.027	163.31
240.26	154.31
240.494	150.31
240.728	145.31
240.961	163.31
241.195	169.31
241.429	169.31
241.662	180.31
241.896	162.31
242.13	169.31
242.363	169.31
242.597	155.31
242.83	174.31
243.064	173.31
243.298	173.31
243.531	176.31
243.765	193.31
243.998	206.31
244.232	179.31
244.465	187.31
244.699	183.31
244.932	206.31
245.166	201.31
245.399	193.31
245.633	197.31
245.866	182.31
246.099	204.31
246.333	196.31
246.566	203.31
246.8	190.31
247.033	195.31
247.266	216.31
247.5	182.31
247.733	184.31
247.966	209.31
248.2	185.31
248.433	204.31
248.666	215.31
248.899	204.31
249.133	221.31
249.366	218.31
249.599	228.31
249.832	229.31
250.066	230.31
250.299	235.31
250.532	222.31
250.765	218.31
250.998	228.31
251.231	219.31
251.465	238.31
251.698	235.31
251.931	236.31
252.164	238.31
252.397	232.31
252.63	238.31
252.863	258.31
253.096	247.31
253.329	256.31
253.562	252.31
253.795	224.31
254.028	239.31
254.261	234.31
254.494	253.31
254.727	242.31
254.96	250.31
255.193	258.31
255.426	244.31
255.659	266.31
255.892	257.31
256.124	263.31
256.357	256.31
256.59	260.31
256.823	263.31
257.056	264.31
257.289	245.31
257.521	248.31
257.754	259.31
257.987	270.31
258.22	263.31
258.452	281.31
258.685	271.31
258.918	277.31
259.151	293.31
259.383	270.31
259.616	276.31
259.849	266.31
260.081	286.31
260.314	284.31
260.547	284.31
260.779	275.31
261.012	311.31
261.244	298.31
261.477	294.31
261.71	288.31
261.942	278.31
262.175	290.31
262.407	301.31
262.64	283.31
262.872	284.31
263.105	283.31
263.337	292.31
263.57	296.31
263.802	306.31
264.035	301.31
264.267	304.31
264.499	309.31
264.732	304.31
264.964	294.31
265.197	319.31
265.429	311.31
265.661	318.31
265.894	308.31
266.126	307.31
266.358	328.31
266.591	301.31
266.823	310.31
267.055	326.31
267.287	310.31
267.52	324.31
267.752	336.31
267.984	324.31
268.216	314.31
268.448	324.31
268.681	322.31
268.913	333.31
269.145	325.31
269.377	315.31
269.609	320.31
269.841	337.31
270.073	338.31
270.306	340.31
270.538	326.31
270.77	319.31
271.002	335.31
271.234	331.31
271.466	327.31
271.698	343.31
271.93	343.31
272.162	328.31
272.394	345.31
272.626	342.31
272.858	339.31
273.09	340.31
273.322	347.31
273.553	344.31
273.785	331.31
274.017	340.31
274.249	334.31
274.481	366.31
274.713	382.31
274.945	379.31
275.176	377.31
275.408	344.31
275.64	370.31
275.872	377.31
276.104	362.31
276.335	356.31
276.567	381.31
276.799	341.31
277.031	381.31
277.262	378.31
277.494	365.31
277.726	402.31
277.957	394.31
278.189	383.31
278.421	380.31
278.652	387.31
278.884	378.31
279.115	387.31
279.347	379.31
279.579	378.31
279.81	403.31
280.042	388.31
280.273	402.31
280.505	394.31
280.736	406.31
280.968	412.31
281.199	399.31
281.431	394.31
281.662	399.31
281.894	389.31
282.125	399.31
282.356	406.31
282.588	430.31
282.819	418.31
283.051	392.31
283.282	422.31
283.513	409.31
283.745	428.31
283.976	420.31
284.207	408.31
284.439	420.31
284.67	395.31
284.901	412.31
285.132	407.31
285.364	423.31
285.595	412.31
285.826	419.31
286.057	431.31
286.288	434.31
286.52	423.31
286.751	424.31
286.982	416.31
287.213	420.31
287.444	421.31
287.675	460.31
287.906	434.31
288.138	432.31
288.369	431.31
288.6	428.31
288.831	445.31
289.062	429.31
289.293	430.31
289.524	446.31
289.755	454.31
289.986	447.31
290.217	441.31
290.448	440.31
290.679	454.31
290.91	457.31
291.141	447.31
291.371	460.31
291.602	450.31
291.833	464.31
292.064	453.31
292.295	454.31
292.526	471.31
292.757	446.31
292.987	446.31
293.218	451.31
293.449	448.31
293.68	447.31
293.91	453.31
294.141	460.31
294.372	444.31
294.603	451.31
294.833	471.31
295.064	475.31
295.295	469.31
295.525	472.31
295.756	486.31
295.987	474.31
296.217	466.31
296.448	465.31
296.679	471.31
296.909	456.31
297.14	455.31
297.37	475.31
297.601	510.31
297.831	498.31
298.062	476.31
298.292	489.31
298.523	490.31
298.753	516.31
298.984	502.31
299.214	492.31
299.445	485.31
299.675	515.31
299.905	488.31
300.136	512.31
300.366	512.31
300.597	511.31
300.827	516.31
301.057	495.31
301.288	501.31
301.518	503.31
301.748	507.31
301.979	532.31
302.209	516.31
302.439	521.31
302.669	518.31
302.9	506.31
303.13	522.31
303.36	509.31
303.59	486.31
303.82	507.31
304.051	518.31
304.281	494.31
304.511	490.31
304.741	515.31
304.971	518.31
305.201	488.31
305.431	489.31
305.661	507.31
305.891	491.31
306.121	501.31
306.352	490.31
306.582	498.31
306.812	489.31
307.042	504.31
307.272	491.31
307.502	494.31
307.731	521.31
307.961	498.31
308.191	494.31
308.421	502.31
308.651	493.31
308.881	490.31
309.111	482.31
309.341	486.31
309.571	479.31
309.8	490.31
310.03	489.31
310.26	504.31
310.49	501.31
310.72	495.31
310.949	492.31
311.179	487.31
311.409	512.31
311.639	484.31
311.868	514.31
312.098	520.31
312.328	511.31
312.557	511.31
312.787	517.31
313.017	537.31
313.246	520.31
313.476	538.31
313.706	539.31
313.935	531.31
314.165	526.31
314.394	542.31
314.624	559.31
314.853	534.31
315.083	546.31
315.312	538.31
315.542	545.31
315.771	526.31
316.001	517.31
316.23	531.31
316.46	515.31
316.689	526.31
316.919	525.31
317.148	526.31
317.377	509.31
317.607	532.31
317.836	510.31
318.065	505.31
318.295	523.31
318.524	529.31
318.753	525.31
318.983	531.31
319.212	521.31
319.441	498.31
319.67	535.31
319.9	501.31
320.129	519.31
320.358	527.31
320.587	551.31
320.816	540.31
321.046	518.31
321.275	510.31
321.504	505.31
321.733	527.31
321.962	510.31
322.191	532.31
322.42	532.31
322.649	559.31
322.878	534.31
323.108	552.31
323.337	541.31
323.566	509.31
323.795	549.31
324.024	554.31
324.253	562.31
324.482	560.31
324.71	572.31
324.939	571.31
325.168	547.31
325.397	540.31
325.626	575.31
325.855	583.31
326.084	601.31
326.313	613.31
326.542	605.31
326.77	623.31
326.999	595.31
327.228	602.31
327.457	583.31
327.686	584.31
327.914	606.31
328.143	600.31
328.372	601.31
328.6	596.31
328.829	605.31
329.058	583.31
329.287	613.31
329.515	593.31
329.744	587.31
329.972	598.31
330.201	591.31
330.43	592.31
330.658	615.31
330.887	608.31
331.115	598.31
331.344	621.31
331.572	622.31
331.801	637.31
332.03	646.31
332.258	676.31
332.486	676.31
332.715	719.31
332.943	750.31
333.172	768.31
333.4	813.31
333.629	825.31
333.857	828.31
334.085	798.31
334.314	793.31
334.542	778.31
334.771	764.31
334.999	765.31
335.227	747.31
335.455	741.31
335.684	732.31
335.912	729.31
336.14	719.31
336.369	716.31
336.597	711.31
336.825	720.31
337.053	712.31
337.281	687.31
337.51	693.31
337.738	683.31
337.966	687.31
338.194	671.31
338.422	640.31
338.65	626.31
338.878	655.31
339.106	662.31
339.334	665.31
339.562	663.31
339.79	633.31
340.018	602.31
340.246	600.31
340.474	620.31
340.702	607.31
340.93	635.31
341.158	630.31
341.386	652.31
341.614	631.31
341.842	617.31
342.07	630.31
342.298	586.31
342.526	623.31
342.754	614.31
342.981	627.31
343.209	636.31
343.437	652.31
343.665	693.31
343.893	762.31
344.12	793.31
344.348	772.31
344.576	714.31
344.804	649.31
345.031	648.31
345.259	661.31
345.487	627.31
345.714	621.31
345.942	609.31
346.17	623.31
346.397	620.31
346.625	634.31
346.853	604.31
347.08	606.31
347.308	615.31
347.535	626.31
347.763	639.31
347.99	630.31
348.218	615.31
348.445	634.31
348.673	634.31
348.9	644.31
349.128	626.31
349.355	631.31
349.583	603.31
349.81	566.31
350.037	583.31
350.265	594.31
350.492	604.31
350.72	590.31
350.947	582.31
351.174	591.31
351.402	585.31
351.629	586.31
351.856	589.31
352.083	588.31
352.311	589.31
352.538	594.31
352.765	577.31
352.992	576.31
353.22	588.31
353.447	574.31
353.674	582.31
353.901	595.31
354.128	575.31
354.355	568.31
354.583	579.31
354.81	593.31
355.037	588.31
355.264	601.31
355.491	605.31
355.718	606.31
355.945	599.31
356.172	603.31
356.399	602.31
356.626	590.31
356.853	610.31
357.08	578.31
357.307	590.31
357.534	578.31
357.761	598.31
357.988	593.31
358.215	583.31
358.441	576.31
358.668	578.31
358.895	579.31
359.122	588.31
359.349	588.31
359.576	578.31
359.802	586.31
360.029	576.31
360.256	604.31
360.483	566.31
360.709	603.31
360.936	586.31
361.163	559.31
361.39	585.31
361.616	589.31
361.843	592.31
362.07	590.31
362.296	591.31
362.523	583.31
362.749	593.31
362.976	568.31
363.203	582.31
363.429	567.31
363.656	588.31
363.882	599.31
364.109	577.31
364.335	566.31
364.562	564.31
364.788	560.31
365.015	615.31
365.241	582.31
365.468	570.31
365.694	589.31
365.92	589.31
366.147	566.31
366.373	580.31
366.599	582.31
366.826	549.31
367.052	564.31
367.278	586.31
367.505	592.31
367.731	587.31
367.957	594.31
368.184	591.31
368.41	598.31
368.636	593.31
368.862	614.31
369.089	577.31
369.315	608.31
369.541	609.31
369.767	620.31
369.993	595.31
370.219	625.31
370.445	610.31
370.672	595.31
370.898	600.31
371.124	621.31
371.35	619.31
371.576	659.31
371.802	617.31
372.028	637.31
372.254	639.31
372.48	619.31
372.706	633.31
372.932	667.31
373.158	667.31
373.384	656.31
373.61	624.31
373.835	636.31
374.061	639.31
374.287	640.31
374.513	657.31
374.739	649.31
374.965	693.31
375.191	719.31
375.416	699.31
375.642	697.31
375.868	690.31
376.094	673.31
376.319	657.31
376.545	639.31
376.771	654.31
376.997	637.31
377.222	638.31
377.448	638.31
377.674	618.31
377.899	604.31
378.125	628.31
378.35	598.31
378.576	653.31
378.802	631.31
379.027	617.31
379.253	624.31
379.478	624.31
379.704	606.31
379.929	626.31
380.155	612.31
380.38	607.31
380.606	630.31
380.831	618.31
381.057	627.31
381.282	626.31
381.507	632.31
381.733	630.31
381.958	639.31
382.184	663.31
382.409	656.31
382.634	644.31
382.86	654.31
383.085	669.31
383.31	694.31
383.535	690.31
383.761	684.31
383.986	690.31
384.211	732.31
384.436	747.31
384.662	720.31
384.887	740.31
385.112	741.31
385.337	749.31
385.562	769.31
385.787	747.31
386.013	763.31
386.238	766.31
386.463	765.31
386.688	760.31
386.913	744.31
387.138	730.31
387.363	730.31
387.588	728.31
387.813	734.31
388.038	730.31
388.263	743.31
388.488	751.31
388.713	734.31
388.938	750.31
389.163	722.31
389.387	730.31
389.612	712.31
389.837	716.31
390.062	716.31
390.287	721.31
390.512	706.31
390.736	722.31
390.961	738.31
391.186	774.31
391.411	775.31
391.636	824.31
391.86	832.31
392.085	852.31
392.31	850.31
392.534	846.31
392.759	812.31
392.984	800.31
393.208	792.31
393.433	759.31
393.658	814.31
393.882	811.31
394.107	812.31
394.331	808.31
394.556	800.31
394.78	797.31
395.005	802.31
395.229	790.31
395.454	821.31
395.678	853.31
395.903	847.31
396.127	843.31
396.352	795.31
396.576	779.31
396.801	778.31
397.025	771.31
397.249	814.31
397.474	841.31
397.698	820.31
397.922	815.31
398.147	794.31
398.371	829.31
398.595	870.31
398.82	895.31
399.044	975.31
399.268	1058.31
399.492	1241.31
399.717	1450.31
399.941	1450.31
400.165	1239.31
400.389	1083.31
400.613	1016.31
400.837	962.31
401.062	930.31
401.286	939.31
401.51	909.31
401.734	936.31
401.958	942.31
402.182	950.31
402.406	971.31
402.63	962.31
402.854	1016.31
403.078	1020.31
403.302	1068.31
403.526	1068.31
403.75	1109.31
403.974	1126.31
404.198	1112.31
404.422	1137.31
404.645	1107.31
404.869	1087.31
405.093	1089.31
405.317	1049.31
405.541	1051.31
405.765	1034.31
405.988	1037.31
406.212	1059.31
406.436	1030.31
406.66	1044.31
406.883	1067.31
407.107	1142.31
407.331	1194.31
407.555	1266.31
407.778	1224.31
408.002	1181.31
408.226	1167.31
408.449	1096.31
408.673	1094.31
408.896	1084.31
409.12	1065.31
409.344	1088.31
409.567	1084.31
409.791	1126.31
410.014	1113.31
410.238	1057.31
410.461	1063.31
410.685	1058.31
410.908	1046.31
411.132	997.31
411.355	988.31
411.578	996.31
411.802	959.31
412.025	976.31
412.249	957.31
412.472	984.31
412.695	975.31
412.919	934.31
413.142	933.31
413.365	943.31
413.589	924.31
413.812	967.31
414.035	951.31
414.258	928.31
414.482	952.31
414.705	968.31
414.928	955.31
415.151	964.31
415.374	948.31
415.597	962.31
415.821	935.31
416.044	913.31
416.267	937.31
416.49	942.31
416.713	943.31
416.936	942.31
417.159	949.31
417.382	950.31
417.605	931.31
417.828	954.31
418.051	943.31
418.274	929.31
418.497	954.31
418.72	978.31
418.943	974.31
419.166	1022.31
419.389	1084.31
419.611	1060.31
419.834	1004.31
420.057	994.31
420.28	952.31
420.503	928.31
420.726	953.31
420.948	946.31
421.171	963.31
421.394	942.31
421.617	936.31
421.839	981.31
422.062	975.31
422.285	955.31
422.507	979.31
422.73	940.31
422.953	997.31
423.175	1004.31
423.398	997.31
423.621	1014.31
423.843	1042.31
424.066	1020.31
424.288	1049.31
424.511	1006.31
424.733	989.31
424.956	984.31
425.178	973.31
425.401	961.31
425.623	971.31
425.846	896.31
426.068	910.31
426.291	924.31
426.513	902.31
426.735	874.31
426.958	896.31
427.18	853.31
427.402	867.31
427.625	875.31
427.847	856.31
428.069	876.31
428.292	856.31
428.514	870.31
428.736	856.31
428.958	863.31
429.181	830.31
429.403	822.31
429.625	832.31
429.847	812.31
430.069	782.31
430.292	835.31
430.514	812.31
430.736	840.31
430.958	832.31
431.18	818.31
431.402	826.31
431.624	852.31
431.846	830.31
432.068	900.31
432.29	874.31
432.512	839.31
432.734	850.31
432.956	866.31
433.178	877.31
433.4	880.31
433.622	865.31
433.844	850.31
434.066	893.31
434.287	882.31
434.509	912.31
434.731	942.31
434.953	974.31
435.175	1023.31
435.397	979.31
435.618	932.31
435.84	876.31
436.062	859.31
436.284	874.31
436.505	867.31
436.727	878.31
436.949	868.31
437.17	870.31
437.392	820.31
437.614	835.31
437.835	840.31
438.057	799.31
438.278	830.31
438.5	832.31
438.721	851.31
438.943	846.31
439.165	847.31
439.386	849.31
439.608	868.31
439.829	877.31
440.05	888.31
440.272	864.31
440.493	873.31
440.715	891.31
440.936	900.31
441.158	911.31
441.379	926.31
441.6	1007.31
441.822	996.31
442.043	975.31
442.264	985.31
442.486	958.31
442.707	980.31
442.928	980.31
443.149	975.31
443.371	977.31
443.592	975.31
443.813	979.31
444.034	1012.31
444.255	1033.31
444.476	1065.31
444.698	1147.31
444.919	1248.31
445.14	1298.31
445.361	1153.31
445.582	1033.31
445.803	980.31
446.024	917.31
446.245	912.31
446.466	884.31
446.687	892.31
446.908	885.31
447.129	869.31
447.35	862.31
447.571	844.31
447.792	835.31
448.013	834.31
448.234	807.31
448.455	820.31
448.675	796.31
448.896	796.31
449.117	799.31
449.338	787.31
449.559	805.31
449.779	805.31
450	772.31
450.221	814.31
450.442	822.31
450.662	842.31
450.883	836.31
451.104	844.31
451.324	832.31
451.545	835.31
451.766	814.31
451.986	822.31
452.207	818.31
452.428	815.31
452.648	784.31
452.869	796.31
453.089	782.31
453.31	794.31
453.53	784.31
453.751	788.31
453.971	762.31
454.192	792.31
454.412	770.31
454.633	764.31
454.853	790.31
455.073	770.31
455.294	743.31
455.514	772.31
455.734	778.31
455.955	725.31
456.175	772.31
456.395	742.31
456.616	722.31
456.836	750.31
457.056	730.31
457.276	733.31
457.497	760.31
457.717	731.31
457.937	748.31
458.157	763.31
458.377	770.31
458.598	783.31
458.818	791.31
459.038	799.31
459.258	830.31
459.478	898.31
459.698	909.31
459.918	937.31
460.138	959.31
460.358	1019.31
460.578	1076.31
460.798	1078.31
461.018	1029.31
461.238	1027.31
461.458	1027.31
461.678	1016.31
461.898	1031.31
462.118	1045.31
462.338	1132.31
462.558	1147.31
462.777	1188.31
462.997	1325.31
463.217	1433.31
463.437	1440.31
463.657	1292.31
463.876	1226.31
464.096	1239.31
464.316	1204.31
464.536	1247.31
464.755	1192.31
464.975	1130.31
465.195	1078.31
465.414	1039.31
465.634	961.31
465.854	909.31
466.073	908.31
466.293	890.31
466.512	879.31
466.732	858.31
466.951	860.31
467.171	834.31
467.391	875.31
467.61	852.31
467.829	852.31
468.049	846.31
468.268	777.31
468.488	783.31
468.707	786.31
468.927	819.31
469.146	802.31
469.365	825.31
469.585	814.31
469.804	839.31
470.023	861.31
470.243	855.31
470.462	882.31
470.681	894.31
470.901	887.31
471.12	893.31
471.339	855.31
471.558	818.31
471.777	813.31
471.997	815.31
472.216	829.31
472.435	778.31
472.654	782.31
472.873	754.31
473.092	774.31
473.311	786.31
473.53	769.31
473.749	783.31
473.968	786.31
474.187	776.31
474.406	799.31
474.625	770.31
474.844	780.31
475.063	768.31
475.282	784.31
475.501	796.31
475.72	798.31
475.939	784.31
476.158	804.31
476.377	830.31
476.596	847.31
476.814	828.31
477.033	822.31
477.252	832.31
477.471	883.31
477.69	862.31
477.908	888.31
478.127	955.31
478.346	961.31
478.564	977.31
478.783	974.31
479.002	988.31
479.22	999.31
479.439	1003.31
479.658	991.31
479.876	1006.31
480.095	986.31
480.313	1076.31
480.532	1067.31
480.751	1082.31
480.969	1006.31
481.188	960.31
481.406	964.31
481.624	935.31
481.843	904.31
482.061	896.31
482.28	899.31
482.498	893.31
482.717	895.31
482.935	889.31
483.153	897.31
483.372	916.31
483.59	906.31
483.808	896.31
484.027	900.31
484.245	881.31
484.463	908.31
484.681	922.31
484.9	931.31
485.118	930.31
485.336	931.31
485.554	940.31
485.772	964.31
485.99	975.31
486.209	979.31
486.427	948.31
486.645	982.31
486.863	962.31
487.081	932.31
487.299	931.31
487.517	976.31
487.735	960.31
487.953	946.31
488.171	946.31
488.389	952.31
488.607	921.31
488.825	909.31
489.043	926.31
489.261	947.31
489.479	929.31
489.696	936.31
489.914	950.31
490.132	947.31
490.35	967.31
490.568	953.31
490.786	967.31
491.003	932.31
491.221	987.31
491.439	968.31
491.657	989.31
491.874	980.31
492.092	977.31
492.31	982.31
492.527	991.31
492.745	980.31
492.963	990.31
493.18	991.31
493.398	1006.31
493.615	1002.31
493.833	1018.31
494.05	1031.31
494.268	1004.31
494.485	1005.31
494.703	1015.31
494.92	992.31
495.138	1020.31
495.355	1024.31
495.573	1012.31
495.79	1000.31
496.008	1030.31
496.225	1014.31
496.442	1053.31
496.66	1047.31
496.877	1061.31
497.094	1053.31
497.312	1059.31
497.529	1096.31
497.746	1128.31
497.963	1159.31
498.181	1168.31
498.398	1235.31
498.615	1288.31
498.832	1384.31
499.049	1512.31
499.267	1639.31
499.484	1799.31
499.701	2006.31
499.918	2215.31
