Data from Ni(NO3)2@0.0625M.TitratingCurve.Agarose3%dH2O.NegLispCup.LampEnergy10.LIBS07252019_HRD10591_18-15-17-569.txt Node
Date: Thu Jul 25 18:15:17 EDT 2019
User: cochatt
Spectrometer: HR+D1059
Trigger mode: 1
Integration Time (sec): 1.000000E-1
Scans to average: 1
Electric dark correction enabled: true
Nonlinearity correction enabled: false
Boxcar width: 0
XAxis mode: Wavelengths
Number of Pixels in Spectrum: 2048
>>>>>Begin Spectral Data<<<<<
223.165	-18.88
223.4	-18.88
223.635	-18.88
223.869	-24.88
224.104	-4.88
224.338	-12.88
224.573	-7.88
224.808	-6.88
225.042	-12.88
225.277	7.12
225.511	4.12
225.746	-10.88
225.98	6.12
226.215	8.12
226.449	15.12
226.683	19.12
226.918	16.12
227.152	24.12
227.387	46.12
227.621	46.12
227.856	43.12
228.09	45.12
228.324	55.12
228.559	64.12
228.793	59.12
229.027	89.12
229.262	101.12
229.496	103.12
229.73	101.12
229.964	119.12
230.199	129.12
230.433	108.12
230.667	126.12
230.901	120.12
231.136	117.12
231.37	131.12
231.604	131.12
231.838	139.12
232.072	130.12
232.306	122.12
232.541	134.12
232.775	123.12
233.009	126.12
233.243	127.12
233.477	130.12
233.711	124.12
233.945	137.12
234.179	121.12
234.413	137.12
234.647	130.12
234.881	129.12
235.115	131.12
235.349	123.12
235.583	122.12
235.817	130.12
236.051	132.12
236.285	143.12
236.519	134.12
236.753	134.12
236.987	134.12
237.221	150.12
237.455	137.12
237.689	143.12
237.922	155.12
238.156	143.12
238.39	130.12
238.624	137.12
238.858	132.12
239.091	161.12
239.325	132.12
239.559	145.12
239.793	162.12
240.027	168.12
240.26	148.12
240.494	159.12
240.728	157.12
240.961	155.12
241.195	163.12
241.429	149.12
241.662	160.12
241.896	156.12
242.13	168.12
242.363	150.12
242.597	149.12
242.83	156.12
243.064	156.12
243.298	164.12
243.531	181.12
243.765	187.12
243.998	190.12
244.232	178.12
244.465	178.12
244.699	177.12
244.932	174.12
245.166	183.12
245.399	183.12
245.633	188.12
245.866	195.12
246.099	190.12
246.333	178.12
246.566	187.12
246.8	175.12
247.033	182.12
247.266	183.12
247.5	189.12
247.733	182.12
247.966	187.12
248.2	180.12
248.433	203.12
248.666	196.12
248.899	201.12
249.133	191.12
249.366	199.12
249.599	202.12
249.832	210.12
250.066	199.12
250.299	204.12
250.532	197.12
250.765	204.12
250.998	202.12
251.231	205.12
251.465	205.12
251.698	196.12
251.931	206.12
252.164	207.12
252.397	204.12
252.63	217.12
252.863	212.12
253.096	205.12
253.329	212.12
253.562	221.12
253.795	200.12
254.028	228.12
254.261	237.12
254.494	224.12
254.727	231.12
254.96	220.12
255.193	216.12
255.426	222.12
255.659	223.12
255.892	245.12
256.124	218.12
256.357	240.12
256.59	231.12
256.823	242.12
257.056	218.12
257.289	244.12
257.521	246.12
257.754	228.12
257.987	237.12
258.22	242.12
258.452	235.12
258.685	238.12
258.918	237.12
259.151	268.12
259.383	249.12
259.616	242.12
259.849	244.12
260.081	253.12
260.314	234.12
260.547	249.12
260.779	261.12
261.012	260.12
261.244	240.12
261.477	248.12
261.71	242.12
261.942	254.12
262.175	254.12
262.407	245.12
262.64	253.12
262.872	261.12
263.105	271.12
263.337	261.12
263.57	269.12
263.802	250.12
264.035	276.12
264.267	271.12
264.499	259.12
264.732	251.12
264.964	275.12
265.197	285.12
265.429	285.12
265.661	282.12
265.894	272.12
266.126	282.12
266.358	285.12
266.591	255.12
266.823	295.12
267.055	249.12
267.287	286.12
267.52	272.12
267.752	294.12
267.984	287.12
268.216	275.12
268.448	280.12
268.681	292.12
268.913	299.12
269.145	294.12
269.377	286.12
269.609	290.12
269.841	285.12
270.073	303.12
270.306	285.12
270.538	282.12
270.77	284.12
271.002	303.12
271.234	309.12
271.466	288.12
271.698	287.12
271.93	290.12
272.162	294.12
272.394	289.12
272.626	309.12
272.858	303.12
273.09	278.12
273.322	286.12
273.553	303.12
273.785	315.12
274.017	313.12
274.249	329.12
274.481	315.12
274.713	296.12
274.945	310.12
275.176	306.12
275.408	315.12
275.64	341.12
275.872	324.12
276.104	340.12
276.335	337.12
276.567	340.12
276.799	316.12
277.031	329.12
277.262	334.12
277.494	334.12
277.726	343.12
277.957	343.12
278.189	335.12
278.421	329.12
278.652	331.12
278.884	329.12
279.115	343.12
279.347	347.12
279.579	332.12
279.81	348.12
280.042	334.12
280.273	366.12
280.505	362.12
280.736	340.12
280.968	349.12
281.199	343.12
281.431	360.12
281.662	358.12
281.894	364.12
282.125	358.12
282.356	359.12
282.588	363.12
282.819	343.12
283.051	386.12
283.282	354.12
283.513	376.12
283.745	365.12
283.976	352.12
284.207	364.12
284.439	364.12
284.67	376.12
284.901	397.12
285.132	364.12
285.364	354.12
285.595	374.12
285.826	394.12
286.057	390.12
286.288	392.12
286.52	404.12
286.751	379.12
286.982	403.12
287.213	386.12
287.444	379.12
287.675	373.12
287.906	384.12
288.138	404.12
288.369	369.12
288.6	380.12
288.831	384.12
289.062	418.12
289.293	399.12
289.524	393.12
289.755	376.12
289.986	404.12
290.217	409.12
290.448	420.12
290.679	413.12
290.91	406.12
291.141	398.12
291.371	418.12
291.602	406.12
291.833	403.12
292.064	418.12
292.295	400.12
292.526	423.12
292.757	406.12
292.987	409.12
293.218	410.12
293.449	416.12
293.68	403.12
293.91	418.12
294.141	409.12
294.372	403.12
294.603	423.12
294.833	414.12
295.064	431.12
295.295	401.12
295.525	406.12
295.756	409.12
295.987	427.12
296.217	428.12
296.448	421.12
296.679	412.12
296.909	422.12
297.14	444.12
297.37	437.12
297.601	437.12
297.831	461.12
298.062	434.12
298.292	463.12
298.523	464.12
298.753	469.12
298.984	460.12
299.214	423.12
299.445	447.12
299.675	445.12
299.905	468.12
300.136	460.12
300.366	459.12
300.597	475.12
300.827	489.12
301.057	492.12
301.288	471.12
301.518	479.12
301.748	501.12
301.979	483.12
302.209	459.12
302.439	461.12
302.669	471.12
302.9	458.12
303.13	458.12
303.36	461.12
303.59	455.12
303.82	456.12
304.051	463.12
304.281	456.12
304.511	440.12
304.741	460.12
304.971	469.12
305.201	455.12
305.431	457.12
305.661	473.12
305.891	472.12
306.121	465.12
306.352	456.12
306.582	427.12
306.812	454.12
307.042	445.12
307.272	449.12
307.502	462.12
307.731	454.12
307.961	444.12
308.191	450.12
308.421	449.12
308.651	421.12
308.881	437.12
309.111	435.12
309.341	430.12
309.571	448.12
309.8	448.12
310.03	456.12
310.26	468.12
310.49	462.12
310.72	447.12
310.949	441.12
311.179	455.12
311.409	465.12
311.639	450.12
311.868	458.12
312.098	471.12
312.328	464.12
312.557	455.12
312.787	476.12
313.017	477.12
313.246	470.12
313.476	478.12
313.706	501.12
313.935	495.12
314.165	484.12
314.394	479.12
314.624	503.12
314.853	472.12
315.083	498.12
315.312	478.12
315.542	487.12
315.771	480.12
316.001	462.12
316.23	471.12
316.46	467.12
316.689	464.12
316.919	482.12
317.148	463.12
317.377	468.12
317.607	468.12
317.836	473.12
318.065	459.12
318.295	483.12
318.524	461.12
318.753	474.12
318.983	467.12
319.212	473.12
319.441	483.12
319.67	469.12
319.9	478.12
320.129	493.12
320.358	481.12
320.587	459.12
320.816	486.12
321.046	471.12
321.275	479.12
321.504	463.12
321.733	477.12
321.962	475.12
322.191	480.12
322.42	485.12
322.649	475.12
322.878	475.12
323.108	473.12
323.337	479.12
323.566	482.12
323.795	485.12
324.024	493.12
324.253	489.12
324.482	511.12
324.71	508.12
324.939	502.12
325.168	500.12
325.397	495.12
325.626	522.12
325.855	500.12
326.084	518.12
326.313	538.12
326.542	519.12
326.77	546.12
326.999	521.12
327.228	524.12
327.457	497.12
327.686	518.12
327.914	523.12
328.143	518.12
328.372	515.12
328.6	525.12
328.829	525.12
329.058	541.12
329.287	529.12
329.515	518.12
329.744	532.12
329.972	532.12
330.201	537.12
330.43	511.12
330.658	542.12
330.887	556.12
331.115	527.12
331.344	532.12
331.572	577.12
331.801	560.12
332.03	584.12
332.258	598.12
332.486	604.12
332.715	637.12
332.943	660.12
333.172	686.12
333.4	706.12
333.629	720.12
333.857	716.12
334.085	714.12
334.314	691.12
334.542	665.12
334.771	647.12
334.999	665.12
335.227	659.12
335.455	648.12
335.684	652.12
335.912	634.12
336.14	632.12
336.369	630.12
336.597	634.12
336.825	628.12
337.053	627.12
337.281	626.12
337.51	601.12
337.738	623.12
337.966	578.12
338.194	566.12
338.422	570.12
338.65	554.12
338.878	571.12
339.106	571.12
339.334	598.12
339.562	574.12
339.79	543.12
340.018	566.12
340.246	531.12
340.474	539.12
340.702	568.12
340.93	572.12
341.158	551.12
341.386	571.12
341.614	581.12
341.842	544.12
342.07	539.12
342.298	546.12
342.526	547.12
342.754	569.12
342.981	547.12
343.209	585.12
343.437	592.12
343.665	627.12
343.893	682.12
344.12	690.12
344.348	654.12
344.576	614.12
344.804	589.12
345.031	592.12
345.259	563.12
345.487	547.12
345.714	536.12
345.942	548.12
346.17	563.12
346.397	550.12
346.625	541.12
346.853	530.12
347.08	531.12
347.308	549.12
347.535	544.12
347.763	541.12
347.99	535.12
348.218	557.12
348.445	551.12
348.673	534.12
348.9	543.12
349.128	541.12
349.355	531.12
349.583	549.12
349.81	549.12
350.037	525.12
350.265	527.12
350.492	525.12
350.72	525.12
350.947	539.12
351.174	520.12
351.402	517.12
351.629	539.12
351.856	536.12
352.083	537.12
352.311	520.12
352.538	532.12
352.765	526.12
352.992	500.12
353.22	512.12
353.447	492.12
353.674	516.12
353.901	501.12
354.128	506.12
354.355	511.12
354.583	508.12
354.81	519.12
355.037	527.12
355.264	513.12
355.491	536.12
355.718	544.12
355.945	523.12
356.172	511.12
356.399	531.12
356.626	531.12
356.853	528.12
357.08	532.12
357.307	520.12
357.534	512.12
357.761	494.12
357.988	520.12
358.215	517.12
358.441	496.12
358.668	528.12
358.895	537.12
359.122	527.12
359.349	537.12
359.576	519.12
359.802	514.12
360.029	525.12
360.256	525.12
360.483	537.12
360.709	529.12
360.936	514.12
361.163	534.12
361.39	540.12
361.616	524.12
361.843	523.12
362.07	536.12
362.296	518.12
362.523	507.12
362.749	503.12
362.976	516.12
363.203	505.12
363.429	526.12
363.656	510.12
363.882	508.12
364.109	509.12
364.335	511.12
364.562	526.12
364.788	520.12
365.015	525.12
365.241	518.12
365.468	497.12
365.694	518.12
365.92	524.12
366.147	504.12
366.373	514.12
366.599	534.12
366.826	519.12
367.052	536.12
367.278	525.12
367.505	542.12
367.731	502.12
367.957	524.12
368.184	528.12
368.41	532.12
368.636	546.12
368.862	542.12
369.089	548.12
369.315	527.12
369.541	558.12
369.767	528.12
369.993	521.12
370.219	539.12
370.445	556.12
370.672	554.12
370.898	542.12
371.124	546.12
371.35	569.12
371.576	562.12
371.802	580.12
372.028	559.12
372.254	566.12
372.48	571.12
372.706	582.12
372.932	604.12
373.158	585.12
373.384	582.12
373.61	577.12
373.835	552.12
374.061	568.12
374.287	569.12
374.513	587.12
374.739	586.12
374.965	605.12
375.191	621.12
375.416	639.12
375.642	576.12
375.868	593.12
376.094	592.12
376.319	584.12
376.545	576.12
376.771	555.12
376.997	573.12
377.222	579.12
377.448	567.12
377.674	557.12
377.899	566.12
378.125	568.12
378.35	572.12
378.576	576.12
378.802	565.12
379.027	564.12
379.253	557.12
379.478	530.12
379.704	567.12
379.929	554.12
380.155	544.12
380.38	549.12
380.606	540.12
380.831	567.12
381.057	565.12
381.282	573.12
381.507	557.12
381.733	569.12
381.958	589.12
382.184	587.12
382.409	596.12
382.634	580.12
382.86	587.12
383.085	618.12
383.31	626.12
383.535	632.12
383.761	624.12
383.986	686.12
384.211	635.12
384.436	667.12
384.662	669.12
384.887	675.12
385.112	676.12
385.337	686.12
385.562	717.12
385.787	677.12
386.013	678.12
386.238	693.12
386.463	686.12
386.688	676.12
386.913	687.12
387.138	660.12
387.363	646.12
387.588	659.12
387.813	682.12
388.038	668.12
388.263	656.12
388.488	661.12
388.713	674.12
388.938	654.12
389.163	656.12
389.387	656.12
389.612	658.12
389.837	650.12
390.062	638.12
390.287	647.12
390.512	643.12
390.736	652.12
390.961	666.12
391.186	692.12
391.411	677.12
391.636	746.12
391.86	745.12
392.085	772.12
392.31	751.12
392.534	718.12
392.759	716.12
392.984	726.12
393.208	687.12
393.433	692.12
393.658	698.12
393.882	721.12
394.107	718.12
394.331	729.12
394.556	723.12
394.78	710.12
395.005	745.12
395.229	725.12
395.454	736.12
395.678	753.12
395.903	749.12
396.127	747.12
396.352	694.12
396.576	694.12
396.801	711.12
397.025	706.12
397.249	738.12
397.474	759.12
397.698	726.12
397.922	727.12
398.147	742.12
398.371	749.12
398.595	766.12
398.82	800.12
399.044	874.12
399.268	972.12
399.492	1130.12
399.717	1318.12
399.941	1284.12
400.165	1136.12
400.389	1026.12
400.613	904.12
400.837	842.12
401.062	826.12
401.286	843.12
401.51	836.12
401.734	805.12
401.958	875.12
402.182	855.12
402.406	893.12
402.63	920.12
402.854	904.12
403.078	920.12
403.302	939.12
403.526	946.12
403.75	972.12
403.974	997.12
404.198	988.12
404.422	997.12
404.645	976.12
404.869	957.12
405.093	944.12
405.317	957.12
405.541	932.12
405.765	900.12
405.988	919.12
406.212	922.12
406.436	925.12
406.66	947.12
406.883	956.12
407.107	1010.12
407.331	1073.12
407.555	1085.12
407.778	1071.12
408.002	1081.12
408.226	1037.12
408.449	1001.12
408.673	964.12
408.896	962.12
409.12	935.12
409.344	941.12
409.567	976.12
409.791	961.12
410.014	976.12
410.238	958.12
410.461	946.12
410.685	934.12
410.908	920.12
411.132	900.12
411.355	867.12
411.578	877.12
411.802	874.12
412.025	864.12
412.249	895.12
412.472	897.12
412.695	874.12
412.919	843.12
413.142	860.12
413.365	839.12
413.589	850.12
413.812	836.12
414.035	817.12
414.258	819.12
414.482	858.12
414.705	886.12
414.928	868.12
415.151	857.12
415.374	831.12
415.597	833.12
415.821	834.12
416.044	799.12
416.267	823.12
416.49	792.12
416.713	811.12
416.936	837.12
417.159	835.12
417.382	803.12
417.605	818.12
417.828	849.12
418.051	835.12
418.274	845.12
418.497	825.12
418.72	847.12
418.943	835.12
419.166	882.12
419.389	964.12
419.611	969.12
419.834	908.12
420.057	868.12
420.28	853.12
420.503	848.12
420.726	816.12
420.948	834.12
421.171	839.12
421.394	836.12
421.617	835.12
421.839	834.12
422.062	810.12
422.285	838.12
422.507	844.12
422.73	863.12
422.953	878.12
423.175	885.12
423.398	893.12
423.621	896.12
423.843	879.12
424.066	896.12
424.288	885.12
424.511	890.12
424.733	880.12
424.956	871.12
425.178	851.12
425.401	837.12
425.623	824.12
425.846	830.12
426.068	793.12
426.291	810.12
426.513	810.12
426.735	788.12
426.958	795.12
427.18	772.12
427.402	778.12
427.625	765.12
427.847	749.12
428.069	728.12
428.292	758.12
428.514	724.12
428.736	720.12
428.958	739.12
429.181	716.12
429.403	723.12
429.625	736.12
429.847	727.12
430.069	717.12
430.292	741.12
430.514	727.12
430.736	739.12
430.958	737.12
431.18	726.12
431.402	741.12
431.624	758.12
431.846	744.12
432.068	763.12
432.29	775.12
432.512	735.12
432.734	748.12
432.956	776.12
433.178	756.12
433.4	737.12
433.622	758.12
433.844	759.12
434.066	754.12
434.287	782.12
434.509	813.12
434.731	833.12
434.953	874.12
435.175	859.12
435.397	864.12
435.618	778.12
435.84	800.12
436.062	748.12
436.284	758.12
436.505	750.12
436.727	780.12
436.949	776.12
437.17	770.12
437.392	739.12
437.614	742.12
437.835	724.12
438.057	752.12
438.278	734.12
438.5	705.12
438.721	732.12
438.943	737.12
439.165	712.12
439.386	713.12
439.608	735.12
439.829	749.12
440.05	747.12
440.272	765.12
440.493	735.12
440.715	768.12
440.936	754.12
441.158	785.12
441.379	825.12
441.6	891.12
441.822	848.12
442.043	864.12
442.264	842.12
442.486	828.12
442.707	814.12
442.928	828.12
443.149	847.12
443.371	840.12
443.592	835.12
443.813	845.12
444.034	837.12
444.255	886.12
444.476	920.12
444.698	984.12
444.919	1039.12
445.14	1075.12
445.361	958.12
445.582	860.12
445.803	860.12
446.024	818.12
446.245	807.12
446.466	790.12
446.687	748.12
446.908	784.12
447.129	747.12
447.35	739.12
447.571	709.12
447.792	700.12
448.013	700.12
448.234	699.12
448.455	709.12
448.675	704.12
448.896	718.12
449.117	689.12
449.338	703.12
449.559	690.12
449.779	706.12
450	694.12
450.221	663.12
450.442	692.12
450.662	711.12
450.883	718.12
451.104	745.12
451.324	752.12
451.545	724.12
451.766	724.12
451.986	696.12
452.207	710.12
452.428	720.12
452.648	700.12
452.869	703.12
453.089	690.12
453.31	699.12
453.53	705.12
453.751	679.12
453.971	670.12
454.192	690.12
454.412	674.12
454.633	676.12
454.853	680.12
455.073	648.12
455.294	664.12
455.514	659.12
455.734	654.12
455.955	655.12
456.175	668.12
456.395	647.12
456.616	650.12
456.836	656.12
457.056	643.12
457.276	647.12
457.497	655.12
457.717	649.12
457.937	662.12
458.157	663.12
458.377	654.12
458.598	675.12
458.818	687.12
459.038	739.12
459.258	759.12
459.478	774.12
459.698	802.12
459.918	828.12
460.138	824.12
460.358	885.12
460.578	927.12
460.798	925.12
461.018	952.12
461.238	879.12
461.458	898.12
461.678	873.12
461.898	910.12
462.118	896.12
462.338	970.12
462.558	927.12
462.777	1005.12
462.997	1128.12
463.217	1245.12
463.437	1240.12
463.657	1127.12
463.876	1060.12
464.096	1079.12
464.316	1062.12
464.536	1085.12
464.755	1031.12
464.975	965.12
465.195	933.12
465.414	892.12
465.634	850.12
465.854	804.12
466.073	790.12
466.293	737.12
466.512	732.12
466.732	719.12
466.951	708.12
467.171	731.12
467.391	747.12
467.61	721.12
467.829	696.12
468.049	716.12
468.268	705.12
468.488	673.12
468.707	704.12
468.927	726.12
469.146	720.12
469.365	702.12
469.585	706.12
469.804	720.12
470.023	739.12
470.243	764.12
470.462	744.12
470.681	748.12
470.901	750.12
471.12	736.12
471.339	720.12
471.558	727.12
471.777	733.12
471.997	700.12
472.216	692.12
472.435	724.12
472.654	664.12
472.873	673.12
473.092	695.12
473.311	681.12
473.53	676.12
473.749	691.12
473.968	693.12
474.187	700.12
474.406	675.12
474.625	685.12
474.844	676.12
475.063	682.12
475.282	694.12
475.501	688.12
475.72	713.12
475.939	681.12
476.158	729.12
476.377	702.12
476.596	695.12
476.814	725.12
477.033	733.12
477.252	722.12
477.471	762.12
477.69	771.12
477.908	797.12
478.127	827.12
478.346	842.12
478.564	830.12
478.783	825.12
479.002	869.12
479.22	891.12
479.439	852.12
479.658	868.12
479.876	859.12
480.095	855.12
480.313	912.12
480.532	917.12
480.751	928.12
480.969	889.12
481.188	813.12
481.406	820.12
481.624	819.12
481.843	818.12
482.061	793.12
482.28	785.12
482.498	815.12
482.717	803.12
482.935	796.12
483.153	774.12
483.372	798.12
483.59	816.12
483.808	779.12
484.027	791.12
484.245	796.12
484.463	798.12
484.681	829.12
484.9	828.12
485.118	819.12
485.336	846.12
485.554	842.12
485.772	881.12
485.99	874.12
486.209	899.12
486.427	878.12
486.645	857.12
486.863	878.12
487.081	844.12
487.299	860.12
487.517	847.12
487.735	868.12
487.953	848.12
488.171	837.12
488.389	842.12
488.607	844.12
488.825	826.12
489.043	818.12
489.261	847.12
489.479	820.12
489.696	784.12
489.914	837.12
490.132	854.12
490.35	836.12
490.568	820.12
490.786	812.12
491.003	828.12
491.221	836.12
491.439	835.12
491.657	813.12
491.874	804.12
492.092	842.12
492.31	827.12
492.527	867.12
492.745	846.12
492.963	865.12
493.18	856.12
493.398	840.12
493.615	853.12
493.833	855.12
494.05	858.12
494.268	861.12
494.485	877.12
494.703	868.12
494.92	886.12
495.138	861.12
495.355	885.12
495.573	873.12
495.79	887.12
496.008	862.12
496.225	921.12
496.442	904.12
496.66	914.12
496.877	900.12
497.094	898.12
497.312	927.12
497.529	965.12
497.746	963.12
497.963	993.12
498.181	1007.12
498.398	1071.12
498.615	1129.12
498.832	1217.12
499.049	1338.12
499.267	1387.12
499.484	1595.12
499.701	1740.12
499.918	1882.12
500.135	2212.12
500.352	2530.12
500.569	2703.12
500.786	2658.12
501.003	2462.12
