Data from Ni(NO3)2@0.25M.TitratingCurve.Agarose3%dH2O.NegLispCup.LampEnergy10.LIBS07252019_HRD10591_18-02-55-566.txt Node
Date: Thu Jul 25 18:02:55 EDT 2019
User: cochatt
Spectrometer: HR+D1059
Trigger mode: 1
Integration Time (sec): 1.000000E-1
Scans to average: 1
Electric dark correction enabled: true
Nonlinearity correction enabled: false
Boxcar width: 0
XAxis mode: Wavelengths
Number of Pixels in Spectrum: 2048
>>>>>Begin Spectral Data<<<<<
223.165	-6.69
223.4	-6.69
223.635	-6.69
223.869	-9.69
224.104	-27.69
224.338	-11.69
224.573	-33.69
224.808	-14.69
225.042	-8.69
225.277	-9.69
225.511	-4.69
225.746	4.31
225.98	6.31
226.215	16.31
226.449	20.31
226.683	26.31
226.918	25.31
227.152	28.31
227.387	34.31
227.621	53.31
227.856	46.31
228.09	49.31
228.324	47.31
228.559	69.31
228.793	73.31
229.027	132.31
229.262	113.31
229.496	121.31
229.73	113.31
229.964	134.31
230.199	130.31
230.433	137.31
230.667	153.31
230.901	146.31
231.136	114.31
231.37	147.31
231.604	142.31
231.838	144.31
232.072	158.31
232.306	156.31
232.541	138.31
232.775	134.31
233.009	142.31
233.243	146.31
233.477	155.31
233.711	140.31
233.945	152.31
234.179	142.31
234.413	163.31
234.647	155.31
234.881	139.31
235.115	131.31
235.349	173.31
235.583	139.31
235.817	160.31
236.051	160.31
236.285	146.31
236.519	173.31
236.753	173.31
236.987	160.31
237.221	152.31
237.455	156.31
237.689	169.31
237.922	156.31
238.156	159.31
238.39	172.31
238.624	172.31
238.858	172.31
239.091	173.31
239.325	178.31
239.559	188.31
239.793	186.31
240.027	171.31
240.26	196.31
240.494	174.31
240.728	183.31
240.961	160.31
241.195	198.31
241.429	175.31
241.662	180.31
241.896	189.31
242.13	201.31
242.363	206.31
242.597	196.31
242.83	200.31
243.064	201.31
243.298	193.31
243.531	191.31
243.765	223.31
243.998	212.31
244.232	206.31
244.465	209.31
244.699	217.31
244.932	214.31
245.166	221.31
245.399	229.31
245.633	221.31
245.866	226.31
246.099	228.31
246.333	225.31
246.566	222.31
246.8	227.31
247.033	212.31
247.266	241.31
247.5	223.31
247.733	233.31
247.966	251.31
248.2	268.31
248.433	244.31
248.666	256.31
248.899	266.31
249.133	272.31
249.366	278.31
249.599	238.31
249.832	250.31
250.066	280.31
250.299	273.31
250.532	276.31
250.765	289.31
250.998	299.31
251.231	314.31
251.465	308.31
251.698	304.31
251.931	312.31
252.164	311.31
252.397	314.31
252.63	312.31
252.863	323.31
253.096	321.31
253.329	306.31
253.562	326.31
253.795	314.31
254.028	350.31
254.261	330.31
254.494	350.31
254.727	329.31
254.96	320.31
255.193	359.31
255.426	364.31
255.659	372.31
255.892	356.31
256.124	369.31
256.357	360.31
256.59	377.31
256.823	390.31
257.056	394.31
257.289	381.31
257.521	414.31
257.754	392.31
257.987	386.31
258.22	418.31
258.452	406.31
258.685	398.31
258.918	406.31
259.151	416.31
259.383	394.31
259.616	407.31
259.849	420.31
260.081	414.31
260.314	418.31
260.547	420.31
260.779	417.31
261.012	414.31
261.244	433.31
261.477	431.31
261.71	434.31
261.942	437.31
262.175	420.31
262.407	438.31
262.64	438.31
262.872	447.31
263.105	457.31
263.337	446.31
263.57	444.31
263.802	453.31
264.035	463.31
264.267	461.31
264.499	461.31
264.732	485.31
264.964	440.31
265.197	481.31
265.429	482.31
265.661	474.31
265.894	482.31
266.126	480.31
266.358	466.31
266.591	481.31
266.823	481.31
267.055	477.31
267.287	501.31
267.52	496.31
267.752	516.31
267.984	474.31
268.216	484.31
268.448	505.31
268.681	504.31
268.913	500.31
269.145	518.31
269.377	514.31
269.609	512.31
269.841	497.31
270.073	479.31
270.306	502.31
270.538	500.31
270.77	497.31
271.002	515.31
271.234	503.31
271.466	526.31
271.698	523.31
271.93	521.31
272.162	520.31
272.394	560.31
272.626	518.31
272.858	518.31
273.09	536.31
273.322	542.31
273.553	557.31
273.785	538.31
274.017	544.31
274.249	540.31
274.481	545.31
274.713	526.31
274.945	542.31
275.176	536.31
275.408	551.31
275.64	564.31
275.872	548.31
276.104	550.31
276.335	546.31
276.567	557.31
276.799	561.31
277.031	555.31
277.262	572.31
277.494	570.31
277.726	552.31
277.957	574.31
278.189	589.31
278.421	565.31
278.652	577.31
278.884	578.31
279.115	548.31
279.347	556.31
279.579	567.31
279.81	581.31
280.042	600.31
280.273	585.31
280.505	598.31
280.736	569.31
280.968	568.31
281.199	570.31
281.431	579.31
281.662	588.31
281.894	584.31
282.125	593.31
282.356	603.31
282.588	596.31
282.819	586.31
283.051	590.31
283.282	577.31
283.513	605.31
283.745	618.31
283.976	602.31
284.207	599.31
284.439	613.31
284.67	604.31
284.901	631.31
285.132	604.31
285.364	584.31
285.595	602.31
285.826	589.31
286.057	616.31
286.288	626.31
286.52	626.31
286.751	617.31
286.982	612.31
287.213	619.31
287.444	607.31
287.675	622.31
287.906	607.31
288.138	607.31
288.369	633.31
288.6	625.31
288.831	623.31
289.062	612.31
289.293	639.31
289.524	639.31
289.755	631.31
289.986	647.31
290.217	612.31
290.448	619.31
290.679	644.31
290.91	610.31
291.141	617.31
291.371	619.31
291.602	634.31
291.833	634.31
292.064	647.31
292.295	625.31
292.526	644.31
292.757	630.31
292.987	601.31
293.218	618.31
293.449	639.31
293.68	630.31
293.91	645.31
294.141	639.31
294.372	640.31
294.603	645.31
294.833	635.31
295.064	634.31
295.295	628.31
295.525	633.31
295.756	632.31
295.987	636.31
296.217	644.31
296.448	644.31
296.679	666.31
296.909	647.31
297.14	656.31
297.37	698.31
297.601	663.31
297.831	659.31
298.062	663.31
298.292	675.31
298.523	666.31
298.753	715.31
298.984	674.31
299.214	674.31
299.445	685.31
299.675	669.31
299.905	696.31
300.136	664.31
300.366	693.31
300.597	708.31
300.827	706.31
301.057	692.31
301.288	680.31
301.518	701.31
301.748	690.31
301.979	688.31
302.209	720.31
302.439	704.31
302.669	725.31
302.9	704.31
303.13	691.31
303.36	719.31
303.59	734.31
303.82	714.31
304.051	724.31
304.281	733.31
304.511	728.31
304.741	742.31
304.971	745.31
305.201	741.31
305.431	730.31
305.661	746.31
305.891	721.31
306.121	726.31
306.352	733.31
306.582	726.31
306.812	710.31
307.042	713.31
307.272	750.31
307.502	732.31
307.731	712.31
307.961	752.31
308.191	725.31
308.421	696.31
308.651	707.31
308.881	744.31
309.111	744.31
309.341	740.31
309.571	750.31
309.8	719.31
310.03	780.31
310.26	770.31
310.49	791.31
310.72	773.31
310.949	771.31
311.179	772.31
311.409	770.31
311.639	772.31
311.868	783.31
312.098	790.31
312.328	788.31
312.557	801.31
312.787	804.31
313.017	815.31
313.246	813.31
313.476	811.31
313.706	815.31
313.935	827.31
314.165	828.31
314.394	848.31
314.624	848.31
314.853	837.31
315.083	838.31
315.312	848.31
315.542	866.31
315.771	853.31
316.001	845.31
316.23	868.31
316.46	876.31
316.689	855.31
316.919	856.31
317.148	917.31
317.377	874.31
317.607	881.31
317.836	861.31
318.065	902.31
318.295	900.31
318.524	908.31
318.753	868.31
318.983	902.31
319.212	869.31
319.441	922.31
319.67	906.31
319.9	881.31
320.129	934.31
320.358	950.31
320.587	911.31
320.816	947.31
321.046	971.31
321.275	931.31
321.504	949.31
321.733	952.31
321.962	964.31
322.191	962.31
322.42	1013.31
322.649	961.31
322.878	1002.31
323.108	984.31
323.337	1016.31
323.566	989.31
323.795	1035.31
324.024	1012.31
324.253	997.31
324.482	1032.31
324.71	1019.31
324.939	1042.31
325.168	1050.31
325.397	1044.31
325.626	1062.31
325.855	1033.31
326.084	1097.31
326.313	1093.31
326.542	1098.31
326.77	1084.31
326.999	1106.31
327.228	1085.31
327.457	1116.31
327.686	1109.31
327.914	1109.31
328.143	1101.31
328.372	1134.31
328.6	1136.31
328.829	1141.31
329.058	1137.31
329.287	1121.31
329.515	1156.31
329.744	1150.31
329.972	1163.31
330.201	1166.31
330.43	1158.31
330.658	1184.31
330.887	1158.31
331.115	1181.31
331.344	1213.31
331.572	1200.31
331.801	1192.31
332.03	1221.31
332.258	1238.31
332.486	1235.31
332.715	1286.31
332.943	1272.31
333.172	1288.31
333.4	1320.31
333.629	1327.31
333.857	1358.31
334.085	1353.31
334.314	1372.31
334.542	1397.31
334.771	1390.31
334.999	1340.31
335.227	1400.31
335.455	1393.31
335.684	1382.31
335.912	1385.31
336.14	1352.31
336.369	1407.31
336.597	1403.31
336.825	1361.31
337.053	1383.31
337.281	1378.31
337.51	1355.31
337.738	1349.31
337.966	1351.31
338.194	1352.31
338.422	1342.31
338.65	1325.31
338.878	1323.31
339.106	1320.31
339.334	1316.31
339.562	1320.31
339.79	1271.31
340.018	1280.31
340.246	1286.31
340.474	1284.31
340.702	1320.31
340.93	1248.31
341.158	1276.31
341.386	1298.31
341.614	1315.31
341.842	1284.31
342.07	1271.31
342.298	1288.31
342.526	1320.31
342.754	1290.31
342.981	1304.31
343.209	1314.31
343.437	1337.31
343.665	1352.31
343.893	1370.31
344.12	1365.31
344.348	1398.31
344.576	1387.31
344.804	1366.31
345.031	1345.31
345.259	1334.31
345.487	1288.31
345.714	1308.31
345.942	1303.31
346.17	1304.31
346.397	1260.31
346.625	1261.31
346.853	1238.31
347.08	1242.31
347.308	1250.31
347.535	1227.31
347.763	1257.31
347.99	1252.31
348.218	1255.31
348.445	1223.31
348.673	1249.31
348.9	1226.31
349.128	1253.31
349.355	1250.31
349.583	1272.31
349.81	1216.31
350.037	1225.31
350.265	1218.31
350.492	1206.31
350.72	1225.31
350.947	1211.31
351.174	1209.31
351.402	1245.31
351.629	1229.31
351.856	1214.31
352.083	1205.31
352.311	1199.31
352.538	1246.31
352.765	1248.31
352.992	1199.31
353.22	1176.31
353.447	1178.31
353.674	1172.31
353.901	1212.31
354.128	1205.31
354.355	1183.31
354.583	1212.31
354.81	1193.31
355.037	1211.31
355.264	1224.31
355.491	1201.31
355.718	1224.31
355.945	1211.31
356.172	1207.31
356.399	1205.31
356.626	1185.31
356.853	1233.31
357.08	1212.31
357.307	1220.31
357.534	1222.31
357.761	1204.31
357.988	1205.31
358.215	1182.31
358.441	1222.31
358.668	1189.31
358.895	1201.31
359.122	1220.31
359.349	1188.31
359.576	1210.31
359.802	1167.31
360.029	1171.31
360.256	1187.31
360.483	1224.31
360.709	1178.31
360.936	1181.31
361.163	1189.31
361.39	1198.31
361.616	1225.31
361.843	1228.31
362.07	1251.31
362.296	1221.31
362.523	1187.31
362.749	1211.31
362.976	1209.31
363.203	1196.31
363.429	1176.31
363.656	1205.31
363.882	1181.31
364.109	1191.31
364.335	1222.31
364.562	1191.31
364.788	1162.31
365.015	1184.31
365.241	1201.31
365.468	1178.31
365.694	1211.31
365.92	1172.31
366.147	1174.31
366.373	1163.31
366.599	1194.31
366.826	1150.31
367.052	1166.31
367.278	1204.31
367.505	1148.31
367.731	1195.31
367.957	1162.31
368.184	1188.31
368.41	1180.31
368.636	1194.31
368.862	1191.31
369.089	1218.31
369.315	1186.31
369.541	1201.31
369.767	1193.31
369.993	1174.31
370.219	1195.31
370.445	1219.31
370.672	1231.31
370.898	1249.31
371.124	1201.31
371.35	1246.31
371.576	1197.31
371.802	1216.31
372.028	1233.31
372.254	1233.31
372.48	1208.31
372.706	1233.31
372.932	1220.31
373.158	1237.31
373.384	1259.31
373.61	1230.31
373.835	1226.31
374.061	1239.31
374.287	1260.31
374.513	1277.31
374.739	1264.31
374.965	1278.31
375.191	1268.31
375.416	1266.31
375.642	1274.31
375.868	1240.31
376.094	1240.31
376.319	1226.31
376.545	1196.31
376.771	1214.31
376.997	1168.31
377.222	1220.31
377.448	1221.31
377.674	1197.31
377.899	1177.31
378.125	1186.31
378.35	1195.31
378.576	1141.31
378.802	1140.31
379.027	1180.31
379.253	1172.31
379.478	1152.31
379.704	1180.31
379.929	1140.31
380.155	1158.31
380.38	1170.31
380.606	1159.31
380.831	1160.31
381.057	1156.31
381.282	1194.31
381.507	1180.31
381.733	1162.31
381.958	1196.31
382.184	1188.31
382.409	1185.31
382.634	1180.31
382.86	1196.31
383.085	1215.31
383.31	1221.31
383.535	1237.31
383.761	1218.31
383.986	1242.31
384.211	1221.31
384.436	1261.31
384.662	1277.31
384.887	1296.31
385.112	1248.31
385.337	1289.31
385.562	1298.31
385.787	1289.31
386.013	1303.31
386.238	1289.31
386.463	1304.31
386.688	1326.31
386.913	1292.31
387.138	1331.31
387.363	1313.31
387.588	1318.31
387.813	1322.31
388.038	1321.31
388.263	1321.31
388.488	1355.31
388.713	1325.31
388.938	1334.31
389.163	1312.31
389.387	1332.31
389.612	1306.31
389.837	1317.31
390.062	1297.31
390.287	1299.31
390.512	1340.31
390.736	1351.31
390.961	1357.31
391.186	1369.31
391.411	1384.31
391.636	1359.31
391.86	1378.31
392.085	1412.31
392.31	1381.31
392.534	1408.31
392.759	1422.31
392.984	1354.31
393.208	1360.31
393.433	1384.31
393.658	1366.31
393.882	1388.31
394.107	1383.31
394.331	1383.31
394.556	1369.31
394.78	1409.31
395.005	1399.31
395.229	1350.31
395.454	1392.31
395.678	1420.31
395.903	1440.31
396.127	1448.31
396.352	1424.31
396.576	1420.31
396.801	1405.31
397.025	1452.31
397.249	1443.31
397.474	1499.31
397.698	1442.31
397.922	1508.31
398.147	1535.31
398.371	1492.31
398.595	1536.31
398.82	1589.31
399.044	1658.31
399.268	1704.31
399.492	1746.31
399.717	1809.31
399.941	1849.31
400.165	1825.31
400.389	1788.31
400.613	1707.31
400.837	1674.31
401.062	1640.31
401.286	1580.31
401.51	1599.31
401.734	1562.31
401.958	1629.31
402.182	1630.31
402.406	1566.31
402.63	1608.31
402.854	1645.31
403.078	1614.31
403.302	1587.31
403.526	1632.31
403.75	1605.31
403.974	1664.31
404.198	1611.31
404.422	1606.31
404.645	1625.31
404.869	1606.31
405.093	1690.31
405.317	1645.31
405.541	1639.31
405.765	1693.31
405.988	1671.31
406.212	1687.31
406.436	1689.31
406.66	1723.31
406.883	1724.31
407.107	1771.31
407.331	1782.31
407.555	1843.31
407.778	1813.31
408.002	1805.31
408.226	1825.31
408.449	1851.31
408.673	1716.31
408.896	1757.31
409.12	1759.31
409.344	1730.31
409.567	1711.31
409.791	1698.31
410.014	1729.31
410.238	1718.31
410.461	1699.31
410.685	1682.31
410.908	1686.31
411.132	1709.31
411.355	1646.31
411.578	1691.31
411.802	1615.31
412.025	1707.31
412.249	1684.31
412.472	1692.31
412.695	1632.31
412.919	1644.31
413.142	1646.31
413.365	1618.31
413.589	1647.31
413.812	1660.31
414.035	1628.31
414.258	1633.31
414.482	1609.31
414.705	1681.31
414.928	1618.31
415.151	1661.31
415.374	1641.31
415.597	1636.31
415.821	1579.31
416.044	1580.31
416.267	1619.31
416.49	1625.31
416.713	1574.31
416.936	1607.31
417.159	1588.31
417.382	1568.31
417.605	1536.31
417.828	1594.31
418.051	1621.31
418.274	1588.31
418.497	1622.31
418.72	1646.31
418.943	1600.31
419.166	1697.31
419.389	1798.31
419.611	1746.31
419.834	1711.31
420.057	1658.31
420.28	1635.31
420.503	1579.31
420.726	1572.31
420.948	1583.31
421.171	1589.31
421.394	1625.31
421.617	1606.31
421.839	1634.31
422.062	1625.31
422.285	1603.31
422.507	1640.31
422.73	1609.31
422.953	1592.31
423.175	1618.31
423.398	1626.31
423.621	1622.31
423.843	1626.31
424.066	1657.31
424.288	1596.31
424.511	1595.31
424.733	1621.31
424.956	1609.31
425.178	1607.31
425.401	1616.31
425.623	1652.31
425.846	1601.31
426.068	1622.31
426.291	1601.31
426.513	1610.31
426.735	1610.31
426.958	1611.31
427.18	1589.31
427.402	1594.31
427.625	1577.31
427.847	1551.31
428.069	1553.31
428.292	1593.31
428.514	1563.31
428.736	1516.31
428.958	1559.31
429.181	1572.31
429.403	1557.31
429.625	1505.31
429.847	1564.31
430.069	1555.31
430.292	1548.31
430.514	1543.31
430.736	1549.31
430.958	1542.31
431.18	1579.31
431.402	1590.31
431.624	1528.31
431.846	1561.31
432.068	1553.31
432.29	1580.31
432.512	1546.31
432.734	1599.31
432.956	1580.31
433.178	1594.31
433.4	1573.31
433.622	1630.31
433.844	1614.31
434.066	1598.31
434.287	1593.31
434.509	1596.31
434.731	1645.31
434.953	1642.31
435.175	1645.31
435.397	1682.31
435.618	1609.31
435.84	1595.31
436.062	1589.31
436.284	1614.31
436.505	1590.31
436.727	1591.31
436.949	1590.31
437.17	1562.31
437.392	1568.31
437.614	1570.31
437.835	1520.31
438.057	1521.31
438.278	1502.31
438.5	1566.31
438.721	1543.31
438.943	1554.31
439.165	1548.31
439.386	1538.31
439.608	1601.31
439.829	1570.31
440.05	1578.31
440.272	1610.31
440.493	1606.31
440.715	1610.31
440.936	1642.31
441.158	1628.31
441.379	1594.31
441.6	1690.31
441.822	1658.31
442.043	1687.31
442.264	1649.31
442.486	1629.31
442.707	1622.31
442.928	1602.31
443.149	1664.31
443.371	1647.31
443.592	1699.31
443.813	1654.31
444.034	1691.31
444.255	1687.31
444.476	1710.31
444.698	1770.31
444.919	1754.31
445.14	1853.31
445.361	1784.31
445.582	1750.31
445.803	1688.31
446.024	1664.31
446.245	1650.31
446.466	1602.31
446.687	1595.31
446.908	1570.31
447.129	1570.31
447.35	1506.31
447.571	1540.31
447.792	1526.31
448.013	1505.31
448.234	1512.31
448.455	1488.31
448.675	1470.31
448.896	1450.31
449.117	1488.31
449.338	1458.31
449.559	1493.31
449.779	1445.31
450	1411.31
450.221	1458.31
450.442	1469.31
450.662	1471.31
450.883	1472.31
451.104	1460.31
451.324	1461.31
451.545	1485.31
451.766	1428.31
451.986	1441.31
452.207	1438.31
452.428	1432.31
452.648	1449.31
452.869	1441.31
453.089	1389.31
453.31	1405.31
453.53	1416.31
453.751	1415.31
453.971	1387.31
454.192	1394.31
454.412	1398.31
454.633	1402.31
454.853	1406.31
455.073	1368.31
455.294	1392.31
455.514	1378.31
455.734	1375.31
455.955	1369.31
456.175	1398.31
456.395	1364.31
456.616	1381.31
456.836	1413.31
457.056	1390.31
457.276	1392.31
457.497	1387.31
457.717	1387.31
457.937	1383.31
458.157	1397.31
458.377	1404.31
458.598	1477.31
458.818	1467.31
459.038	1458.31
459.258	1476.31
459.478	1530.31
459.698	1566.31
459.918	1602.31
460.138	1657.31
460.358	1664.31
460.578	1663.31
460.798	1692.31
461.018	1722.31
461.238	1702.31
461.458	1710.31
461.678	1696.31
461.898	1754.31
462.118	1703.31
462.338	1798.31
462.558	1791.31
462.777	1836.31
462.997	1890.31
463.217	1905.31
463.437	1969.31
463.657	1852.31
463.876	1863.31
464.096	1855.31
464.316	1839.31
464.536	1835.31
464.755	1781.31
464.975	1743.31
465.195	1744.31
465.414	1664.31
465.634	1630.31
465.854	1595.31
466.073	1584.31
466.293	1565.31
466.512	1526.31
466.732	1509.31
466.951	1536.31
467.171	1545.31
467.391	1544.31
467.61	1490.31
467.829	1473.31
468.049	1499.31
468.268	1514.31
468.488	1487.31
468.707	1486.31
468.927	1474.31
469.146	1465.31
469.365	1517.31
469.585	1476.31
469.804	1556.31
470.023	1567.31
470.243	1526.31
470.462	1526.31
470.681	1533.31
470.901	1555.31
471.12	1558.31
471.339	1534.31
471.558	1505.31
471.777	1542.31
471.997	1531.31
472.216	1516.31
472.435	1497.31
472.654	1464.31
472.873	1475.31
473.092	1497.31
473.311	1468.31
473.53	1503.31
473.749	1518.31
473.968	1548.31
474.187	1519.31
474.406	1480.31
474.625	1532.31
474.844	1530.31
475.063	1520.31
475.282	1548.31
475.501	1543.31
475.72	1548.31
475.939	1544.31
476.158	1574.31
476.377	1622.31
476.596	1579.31
476.814	1652.31
477.033	1575.31
477.252	1606.31
477.471	1702.31
477.69	1665.31
477.908	1698.31
478.127	1720.31
478.346	1743.31
478.564	1763.31
478.783	1780.31
479.002	1798.31
479.22	1804.31
479.439	1759.31
479.658	1800.31
479.876	1794.31
480.095	1824.31
480.313	1846.31
480.532	1821.31
480.751	1854.31
480.969	1869.31
481.188	1817.31
481.406	1791.31
481.624	1816.31
481.843	1747.31
482.061	1772.31
482.28	1737.31
482.498	1742.31
482.717	1728.31
482.935	1753.31
483.153	1752.31
483.372	1756.31
483.59	1783.31
483.808	1805.31
484.027	1801.31
484.245	1806.31
484.463	1783.31
484.681	1792.31
484.9	1797.31
485.118	1811.31
485.336	1816.31
485.554	1822.31
485.772	1784.31
485.99	1820.31
486.209	1818.31
486.427	1822.31
486.645	1806.31
486.863	1830.31
487.081	1829.31
487.299	1822.31
487.517	1817.31
487.735	1861.31
487.953	1903.31
488.171	1902.31
488.389	1846.31
488.607	1848.31
488.825	1885.31
489.043	1848.31
489.261	1839.31
489.479	1875.31
489.696	1839.31
489.914	1856.31
490.132	1859.31
490.35	1884.31
490.568	1848.31
490.786	1881.31
491.003	1921.31
491.221	1897.31
