Data from Ni(NO3)2@0.25M.TitratingCurve.Agarose3%dH2O.NegLispCup.LampEnergy10.LIBS07252019_HRD10591_18-05-03-566.txt Node
Date: Thu Jul 25 18:05:03 EDT 2019
User: cochatt
Spectrometer: HR+D1059
Trigger mode: 1
Integration Time (sec): 1.000000E-1
Scans to average: 1
Electric dark correction enabled: true
Nonlinearity correction enabled: false
Boxcar width: 0
XAxis mode: Wavelengths
Number of Pixels in Spectrum: 2048
>>>>>Begin Spectral Data<<<<<
223.165	-18.75
223.4	-18.75
223.635	-18.75
223.869	-18.75
224.104	-25.75
224.338	-15.75
224.573	-17.75
224.808	-12.75
225.042	4.25
225.277	0.25
225.511	-22.75
225.746	2.25
225.98	6.25
226.215	29.25
226.449	25.25
226.683	23.25
226.918	17.25
227.152	24.25
227.387	36.25
227.621	37.25
227.856	44.25
228.09	34.25
228.324	42.25
228.559	50.25
228.793	71.25
229.027	110.25
229.262	104.25
229.496	116.25
229.73	111.25
229.964	117.25
230.199	128.25
230.433	127.25
230.667	139.25
230.901	128.25
231.136	140.25
231.37	136.25
231.604	143.25
231.838	140.25
232.072	127.25
232.306	134.25
232.541	142.25
232.775	142.25
233.009	147.25
233.243	138.25
233.477	141.25
233.711	145.25
233.945	138.25
234.179	134.25
234.413	164.25
234.647	145.25
234.881	135.25
235.115	155.25
235.349	152.25
235.583	156.25
235.817	151.25
236.051	149.25
236.285	149.25
236.519	143.25
236.753	147.25
236.987	147.25
237.221	151.25
237.455	156.25
237.689	154.25
237.922	144.25
238.156	157.25
238.39	162.25
238.624	170.25
238.858	172.25
239.091	164.25
239.325	178.25
239.559	153.25
239.793	182.25
240.027	164.25
240.26	163.25
240.494	175.25
240.728	174.25
240.961	178.25
241.195	186.25
241.429	175.25
241.662	187.25
241.896	174.25
242.13	171.25
242.363	176.25
242.597	175.25
242.83	199.25
243.064	207.25
243.298	197.25
243.531	204.25
243.765	195.25
243.998	210.25
244.232	190.25
244.465	185.25
244.699	186.25
244.932	191.25
245.166	210.25
245.399	232.25
245.633	215.25
245.866	210.25
246.099	218.25
246.333	228.25
246.566	221.25
246.8	190.25
247.033	198.25
247.266	214.25
247.5	213.25
247.733	217.25
247.966	224.25
248.2	226.25
248.433	232.25
248.666	231.25
248.899	245.25
249.133	232.25
249.366	235.25
249.599	246.25
249.832	250.25
250.066	252.25
250.299	275.25
250.532	256.25
250.765	250.25
250.998	260.25
251.231	273.25
251.465	270.25
251.698	247.25
251.931	283.25
252.164	275.25
252.397	267.25
252.63	273.25
252.863	278.25
253.096	273.25
253.329	285.25
253.562	289.25
253.795	278.25
254.028	302.25
254.261	301.25
254.494	294.25
254.727	318.25
254.96	290.25
255.193	294.25
255.426	306.25
255.659	326.25
255.892	306.25
256.124	296.25
256.357	323.25
256.59	328.25
256.823	295.25
257.056	318.25
257.289	319.25
257.521	335.25
257.754	327.25
257.987	320.25
258.22	341.25
258.452	333.25
258.685	335.25
258.918	349.25
259.151	326.25
259.383	323.25
259.616	331.25
259.849	343.25
260.081	364.25
260.314	357.25
260.547	373.25
260.779	340.25
261.012	349.25
261.244	365.25
261.477	369.25
261.71	370.25
261.942	373.25
262.175	357.25
262.407	367.25
262.64	371.25
262.872	364.25
263.105	392.25
263.337	361.25
263.57	364.25
263.802	378.25
264.035	394.25
264.267	376.25
264.499	387.25
264.732	383.25
264.964	371.25
265.197	388.25
265.429	374.25
265.661	373.25
265.894	387.25
266.126	383.25
266.358	391.25
266.591	391.25
266.823	398.25
267.055	406.25
267.287	405.25
267.52	383.25
267.752	422.25
267.984	394.25
268.216	403.25
268.448	413.25
268.681	397.25
268.913	397.25
269.145	406.25
269.377	401.25
269.609	427.25
269.841	417.25
270.073	418.25
270.306	412.25
270.538	422.25
270.77	432.25
271.002	442.25
271.234	418.25
271.466	418.25
271.698	429.25
271.93	430.25
272.162	436.25
272.394	431.25
272.626	446.25
272.858	434.25
273.09	431.25
273.322	426.25
273.553	414.25
273.785	462.25
274.017	456.25
274.249	439.25
274.481	435.25
274.713	461.25
274.945	455.25
275.176	458.25
275.408	458.25
275.64	464.25
275.872	464.25
276.104	474.25
276.335	463.25
276.567	450.25
276.799	464.25
277.031	471.25
277.262	477.25
277.494	450.25
277.726	467.25
277.957	479.25
278.189	463.25
278.421	467.25
278.652	468.25
278.884	485.25
279.115	472.25
279.347	471.25
279.579	455.25
279.81	503.25
280.042	481.25
280.273	489.25
280.505	501.25
280.736	484.25
280.968	492.25
281.199	481.25
281.431	491.25
281.662	497.25
281.894	469.25
282.125	493.25
282.356	525.25
282.588	535.25
282.819	491.25
283.051	482.25
283.282	509.25
283.513	507.25
283.745	518.25
283.976	527.25
284.207	540.25
284.439	532.25
284.67	523.25
284.901	520.25
285.132	499.25
285.364	539.25
285.595	514.25
285.826	516.25
286.057	530.25
286.288	523.25
286.52	535.25
286.751	521.25
286.982	512.25
287.213	527.25
287.444	519.25
287.675	549.25
287.906	518.25
288.138	542.25
288.369	540.25
288.6	538.25
288.831	550.25
289.062	560.25
289.293	547.25
289.524	536.25
289.755	533.25
289.986	551.25
290.217	542.25
290.448	543.25
290.679	553.25
290.91	559.25
291.141	556.25
291.371	544.25
291.602	539.25
291.833	528.25
292.064	530.25
292.295	546.25
292.526	551.25
292.757	550.25
292.987	552.25
293.218	548.25
293.449	535.25
293.68	553.25
293.91	536.25
294.141	519.25
294.372	565.25
294.603	580.25
294.833	552.25
295.064	552.25
295.295	544.25
295.525	539.25
295.756	552.25
295.987	557.25
296.217	552.25
296.448	568.25
296.679	568.25
296.909	583.25
297.14	573.25
297.37	572.25
297.601	578.25
297.831	596.25
298.062	584.25
298.292	590.25
298.523	595.25
298.753	590.25
298.984	600.25
299.214	594.25
299.445	590.25
299.675	591.25
299.905	575.25
300.136	590.25
300.366	607.25
300.597	601.25
300.827	606.25
301.057	616.25
301.288	619.25
301.518	640.25
301.748	619.25
301.979	626.25
302.209	621.25
302.439	610.25
302.669	614.25
302.9	600.25
303.13	620.25
303.36	630.25
303.59	624.25
303.82	631.25
304.051	639.25
304.281	637.25
304.511	624.25
304.741	629.25
304.971	637.25
305.201	624.25
305.431	645.25
305.661	635.25
305.891	609.25
306.121	596.25
306.352	618.25
306.582	624.25
306.812	604.25
307.042	618.25
307.272	617.25
307.502	610.25
307.731	631.25
307.961	600.25
308.191	631.25
308.421	621.25
308.651	616.25
308.881	635.25
309.111	617.25
309.341	631.25
309.571	620.25
309.8	626.25
310.03	654.25
310.26	644.25
310.49	645.25
310.72	646.25
310.949	644.25
311.179	639.25
311.409	666.25
311.639	656.25
311.868	660.25
312.098	642.25
312.328	677.25
312.557	676.25
312.787	666.25
313.017	670.25
313.246	656.25
313.476	655.25
313.706	681.25
313.935	678.25
314.165	690.25
314.394	682.25
314.624	679.25
314.853	703.25
315.083	678.25
315.312	698.25
315.542	704.25
315.771	704.25
316.001	712.25
316.23	670.25
316.46	683.25
316.689	710.25
316.919	706.25
317.148	699.25
317.377	700.25
317.607	673.25
317.836	690.25
318.065	713.25
318.295	714.25
318.524	704.25
318.753	709.25
318.983	704.25
319.212	711.25
319.441	719.25
319.67	717.25
319.9	732.25
320.129	707.25
320.358	724.25
320.587	712.25
320.816	728.25
321.046	735.25
321.275	743.25
321.504	733.25
321.733	726.25
321.962	724.25
322.191	742.25
322.42	742.25
322.649	759.25
322.878	761.25
323.108	741.25
323.337	744.25
323.566	739.25
323.795	796.25
324.024	787.25
324.253	778.25
324.482	795.25
324.71	750.25
324.939	794.25
325.168	773.25
325.397	786.25
325.626	785.25
325.855	796.25
326.084	798.25
326.313	824.25
326.542	844.25
326.77	830.25
326.999	814.25
327.228	783.25
327.457	805.25
327.686	836.25
327.914	818.25
328.143	872.25
328.372	829.25
328.6	845.25
328.829	854.25
329.058	839.25
329.287	841.25
329.515	836.25
329.744	860.25
329.972	884.25
330.201	890.25
330.43	853.25
330.658	890.25
330.887	906.25
331.115	911.25
331.344	906.25
331.572	903.25
331.801	937.25
332.03	940.25
332.258	961.25
332.486	968.25
332.715	1008.25
332.943	1013.25
333.172	1028.25
333.4	1088.25
333.629	1069.25
333.857	1138.25
334.085	1120.25
334.314	1115.25
334.542	1119.25
334.771	1114.25
334.999	1116.25
335.227	1099.25
335.455	1161.25
335.684	1140.25
335.912	1112.25
336.14	1086.25
336.369	1102.25
336.597	1081.25
336.825	1089.25
337.053	1085.25
337.281	1069.25
337.51	1027.25
337.738	1003.25
337.966	1028.25
338.194	1001.25
338.422	1020.25
338.65	950.25
338.878	977.25
339.106	988.25
339.334	1010.25
339.562	977.25
339.79	930.25
340.018	942.25
340.246	941.25
340.474	931.25
340.702	910.25
340.93	928.25
341.158	931.25
341.386	950.25
341.614	1004.25
341.842	951.25
342.07	935.25
342.298	926.25
342.526	903.25
342.754	932.25
342.981	949.25
343.209	974.25
343.437	1015.25
343.665	1048.25
343.893	1052.25
344.12	1094.25
344.348	1117.25
344.576	1060.25
344.804	1038.25
345.031	1005.25
345.259	945.25
345.487	961.25
345.714	991.25
345.942	948.25
346.17	970.25
346.397	947.25
346.625	923.25
346.853	916.25
347.08	905.25
347.308	907.25
347.535	908.25
347.763	898.25
347.99	912.25
348.218	911.25
348.445	901.25
348.673	883.25
348.9	910.25
349.128	897.25
349.355	915.25
349.583	931.25
349.81	910.25
350.037	870.25
350.265	877.25
350.492	881.25
350.72	865.25
350.947	859.25
351.174	900.25
351.402	899.25
351.629	930.25
351.856	904.25
352.083	902.25
352.311	918.25
352.538	924.25
352.765	928.25
352.992	863.25
353.22	848.25
353.447	873.25
353.674	868.25
353.901	856.25
354.128	861.25
354.355	854.25
354.583	860.25
354.81	859.25
355.037	856.25
355.264	890.25
355.491	866.25
355.718	872.25
355.945	852.25
356.172	871.25
356.399	860.25
356.626	909.25
356.853	904.25
357.08	867.25
357.307	895.25
357.534	857.25
357.761	884.25
357.988	859.25
358.215	872.25
358.441	862.25
358.668	848.25
358.895	864.25
359.122	844.25
359.349	889.25
359.576	866.25
359.802	856.25
360.029	862.25
360.256	864.25
360.483	879.25
360.709	863.25
360.936	856.25
361.163	871.25
361.39	887.25
361.616	862.25
361.843	868.25
362.07	916.25
362.296	866.25
362.523	870.25
362.749	867.25
362.976	855.25
363.203	869.25
363.429	844.25
363.656	855.25
363.882	871.25
364.109	861.25
364.335	878.25
364.562	837.25
364.788	873.25
365.015	866.25
365.241	875.25
365.468	854.25
365.694	854.25
365.92	864.25
366.147	834.25
366.373	860.25
366.599	831.25
366.826	840.25
367.052	831.25
367.278	834.25
367.505	848.25
367.731	855.25
367.957	854.25
368.184	866.25
368.41	852.25
368.636	884.25
368.862	864.25
369.089	874.25
369.315	878.25
369.541	884.25
369.767	877.25
369.993	888.25
370.219	871.25
370.445	890.25
370.672	904.25
370.898	911.25
371.124	922.25
371.35	922.25
371.576	919.25
371.802	901.25
372.028	876.25
372.254	902.25
372.48	903.25
372.706	930.25
372.932	920.25
373.158	929.25
373.384	911.25
373.61	893.25
373.835	908.25
374.061	904.25
374.287	942.25
374.513	926.25
374.739	919.25
374.965	986.25
375.191	1007.25
375.416	998.25
375.642	956.25
375.868	973.25
376.094	922.25
376.319	918.25
376.545	911.25
376.771	903.25
376.997	895.25
377.222	924.25
377.448	879.25
377.674	906.25
377.899	904.25
378.125	900.25
378.35	898.25
378.576	865.25
378.802	902.25
379.027	870.25
379.253	914.25
379.478	886.25
379.704	906.25
379.929	874.25
380.155	894.25
380.38	867.25
380.606	901.25
380.831	863.25
381.057	895.25
381.282	883.25
381.507	863.25
381.733	891.25
381.958	916.25
382.184	888.25
382.409	924.25
382.634	921.25
382.86	925.25
383.085	932.25
383.31	934.25
383.535	953.25
383.761	934.25
383.986	965.25
384.211	967.25
384.436	985.25
384.662	1013.25
384.887	1022.25
385.112	1010.25
385.337	1045.25
385.562	1036.25
385.787	1052.25
386.013	1053.25
386.238	1066.25
386.463	1080.25
386.688	1066.25
386.913	1060.25
387.138	1046.25
387.363	1028.25
387.588	1040.25
387.813	1057.25
388.038	1047.25
388.263	1067.25
388.488	1042.25
388.713	1078.25
388.938	1039.25
389.163	1030.25
389.387	1050.25
389.612	1039.25
389.837	1032.25
390.062	1052.25
390.287	1075.25
390.512	1048.25
390.736	1052.25
390.961	1066.25
391.186	1056.25
391.411	1108.25
391.636	1151.25
391.86	1152.25
392.085	1162.25
392.31	1182.25
392.534	1184.25
392.759	1172.25
392.984	1105.25
393.208	1115.25
393.433	1117.25
393.658	1127.25
393.882	1130.25
394.107	1118.25
394.331	1128.25
394.556	1124.25
394.78	1116.25
395.005	1163.25
395.229	1144.25
395.454	1160.25
395.678	1196.25
395.903	1173.25
396.127	1196.25
396.352	1174.25
396.576	1167.25
396.801	1176.25
397.025	1153.25
397.249	1164.25
397.474	1202.25
397.698	1174.25
397.922	1226.25
398.147	1226.25
398.371	1262.25
398.595	1314.25
398.82	1369.25
399.044	1434.25
399.268	1526.25
399.492	1670.25
399.717	1787.25
399.941	1788.25
400.165	1695.25
400.389	1619.25
400.613	1530.25
400.837	1481.25
401.062	1445.25
401.286	1389.25
401.51	1382.25
401.734	1368.25
401.958	1369.25
402.182	1343.25
402.406	1366.25
402.63	1377.25
402.854	1398.25
403.078	1400.25
403.302	1403.25
403.526	1436.25
403.75	1442.25
403.974	1459.25
404.198	1446.25
404.422	1454.25
404.645	1451.25
404.869	1437.25
405.093	1445.25
405.317	1463.25
405.541	1465.25
405.765	1441.25
405.988	1456.25
406.212	1470.25
406.436	1479.25
406.66	1546.25
406.883	1534.25
407.107	1591.25
407.331	1659.25
407.555	1690.25
407.778	1689.25
408.002	1631.25
408.226	1599.25
408.449	1598.25
408.673	1579.25
408.896	1564.25
409.12	1530.25
409.344	1533.25
409.567	1526.25
409.791	1526.25
410.014	1506.25
410.238	1478.25
410.461	1486.25
410.685	1459.25
410.908	1454.25
411.132	1438.25
411.355	1421.25
411.578	1410.25
411.802	1425.25
412.025	1424.25
412.249	1440.25
412.472	1435.25
412.695	1398.25
412.919	1384.25
413.142	1358.25
413.365	1373.25
413.589	1390.25
413.812	1343.25
414.035	1343.25
414.258	1367.25
414.482	1392.25
414.705	1367.25
414.928	1394.25
415.151	1399.25
415.374	1366.25
415.597	1374.25
415.821	1362.25
416.044	1349.25
416.267	1348.25
416.49	1374.25
416.713	1326.25
416.936	1337.25
417.159	1325.25
417.382	1323.25
417.605	1350.25
417.828	1350.25
418.051	1369.25
418.274	1360.25
418.497	1357.25
418.72	1355.25
418.943	1362.25
419.166	1484.25
419.389	1576.25
419.611	1550.25
419.834	1470.25
420.057	1456.25
420.28	1394.25
420.503	1332.25
420.726	1346.25
420.948	1343.25
421.171	1355.25
421.394	1397.25
421.617	1370.25
421.839	1360.25
422.062	1352.25
422.285	1330.25
422.507	1379.25
422.73	1366.25
422.953	1399.25
423.175	1373.25
423.398	1404.25
423.621	1381.25
423.843	1376.25
424.066	1416.25
424.288	1391.25
424.511	1363.25
424.733	1372.25
424.956	1351.25
425.178	1354.25
425.401	1355.25
425.623	1385.25
425.846	1354.25
426.068	1342.25
426.291	1354.25
426.513	1268.25
426.735	1304.25
426.958	1319.25
427.18	1291.25
427.402	1299.25
427.625	1302.25
427.847	1266.25
428.069	1270.25
428.292	1278.25
428.514	1241.25
428.736	1250.25
428.958	1281.25
429.181	1250.25
429.403	1240.25
429.625	1267.25
429.847	1242.25
430.069	1255.25
430.292	1218.25
430.514	1218.25
430.736	1228.25
430.958	1231.25
431.18	1237.25
431.402	1223.25
431.624	1237.25
431.846	1252.25
432.068	1257.25
432.29	1263.25
432.512	1282.25
432.734	1280.25
432.956	1269.25
433.178	1293.25
433.4	1256.25
433.622	1292.25
433.844	1295.25
434.066	1277.25
434.287	1298.25
434.509	1308.25
434.731	1382.25
434.953	1357.25
435.175	1376.25
435.397	1394.25
435.618	1336.25
435.84	1307.25
436.062	1291.25
436.284	1298.25
436.505	1270.25
436.727	1254.25
436.949	1263.25
437.17	1220.25
437.392	1242.25
437.614	1241.25
437.835	1206.25
438.057	1224.25
438.278	1222.25
438.5	1195.25
438.721	1215.25
438.943	1212.25
439.165	1237.25
439.386	1242.25
439.608	1272.25
439.829	1271.25
440.05	1261.25
440.272	1282.25
440.493	1262.25
440.715	1300.25
440.936	1304.25
441.158	1315.25
441.379	1371.25
441.6	1399.25
441.822	1410.25
442.043	1404.25
442.264	1377.25
442.486	1332.25
442.707	1356.25
442.928	1396.25
443.149	1406.25
443.371	1364.25
443.592	1415.25
443.813	1406.25
444.034	1433.25
444.255	1450.25
444.476	1493.25
444.698	1540.25
444.919	1576.25
445.14	1672.25
445.361	1566.25
445.582	1456.25
445.803	1382.25
446.024	1376.25
446.245	1368.25
446.466	1335.25
446.687	1305.25
446.908	1306.25
447.129	1270.25
447.35	1263.25
447.571	1251.25
447.792	1222.25
448.013	1220.25
448.234	1179.25
448.455	1178.25
448.675	1177.25
448.896	1165.25
449.117	1181.25
449.338	1211.25
449.559	1177.25
449.779	1148.25
450	1155.25
450.221	1150.25
450.442	1172.25
450.662	1146.25
450.883	1146.25
451.104	1182.25
451.324	1142.25
451.545	1178.25
451.766	1190.25
451.986	1157.25
452.207	1159.25
452.428	1170.25
452.648	1134.25
452.869	1135.25
453.089	1100.25
453.31	1165.25
453.53	1114.25
453.751	1100.25
453.971	1119.25
454.192	1086.25
454.412	1088.25
454.633	1128.25
454.853	1118.25
455.073	1096.25
455.294	1108.25
455.514	1072.25
455.734	1082.25
455.955	1050.25
456.175	1076.25
456.395	1070.25
456.616	1088.25
456.836	1074.25
457.056	1088.25
457.276	1072.25
457.497	1120.25
457.717	1093.25
457.937	1088.25
458.157	1102.25
458.377	1129.25
458.598	1160.25
458.818	1186.25
459.038	1232.25
459.258	1238.25
459.478	1262.25
459.698	1334.25
459.918	1308.25
460.138	1379.25
460.358	1387.25
460.578	1445.25
460.798	1476.25
461.018	1498.25
461.238	1462.25
461.458	1489.25
461.678	1461.25
461.898	1519.25
462.118	1493.25
462.338	1549.25
462.558	1619.25
462.777	1653.25
462.997	1739.25
463.217	1812.25
463.437	1823.25
463.657	1728.25
463.876	1752.25
464.096	1704.25
464.316	1708.25
464.536	1678.25
464.755	1653.25
464.975	1600.25
465.195	1536.25
465.414	1467.25
465.634	1373.25
465.854	1331.25
466.073	1300.25
466.293	1256.25
466.512	1247.25
466.732	1196.25
466.951	1255.25
467.171	1259.25
467.391	1246.25
467.61	1201.25
467.829	1206.25
468.049	1187.25
468.268	1158.25
468.488	1196.25
468.707	1169.25
468.927	1174.25
469.146	1177.25
469.365	1223.25
469.585	1203.25
469.804	1197.25
470.023	1211.25
470.243	1230.25
470.462	1259.25
470.681	1245.25
470.901	1254.25
471.12	1276.25
471.339	1211.25
471.558	1236.25
471.777	1208.25
471.997	1199.25
472.216	1173.25
472.435	1198.25
472.654	1152.25
472.873	1141.25
473.092	1142.25
473.311	1148.25
473.53	1114.25
473.749	1150.25
473.968	1155.25
474.187	1141.25
474.406	1140.25
474.625	1154.25
474.844	1163.25
475.063	1154.25
475.282	1139.25
475.501	1159.25
475.72	1210.25
475.939	1204.25
476.158	1187.25
476.377	1188.25
476.596	1202.25
476.814	1272.25
477.033	1237.25
477.252	1230.25
477.471	1247.25
477.69	1268.25
477.908	1314.25
478.127	1359.25
478.346	1346.25
478.564	1376.25
478.783	1386.25
479.002	1391.25
479.22	1407.25
479.439	1448.25
479.658	1424.25
479.876	1431.25
480.095	1436.25
480.313	1465.25
480.532	1474.25
480.751	1485.25
480.969	1417.25
481.188	1402.25
481.406	1385.25
481.624	1338.25
481.843	1327.25
482.061	1334.25
482.28	1333.25
482.498	1326.25
482.717	1299.25
482.935	1307.25
483.153	1332.25
483.372	1333.25
483.59	1315.25
483.808	1319.25
484.027	1336.25
484.245	1333.25
484.463	1363.25
484.681	1379.25
484.9	1367.25
485.118	1379.25
485.336	1325.25
485.554	1354.25
485.772	1375.25
485.99	1344.25
486.209	1362.25
486.427	1367.25
486.645	1369.25
486.863	1370.25
487.081	1401.25
487.299	1381.25
487.517	1405.25
487.735	1403.25
487.953	1389.25
488.171	1406.25
488.389	1359.25
488.607	1357.25
488.825	1396.25
489.043	1351.25
489.261	1364.25
489.479	1361.25
489.696	1343.25
489.914	1358.25
490.132	1404.25
490.35	1403.25
490.568	1420.25
490.786	1382.25
491.003	1408.25
491.221	1431.25
491.439	1419.25
491.657	1416.25
491.874	1427.25
492.092	1446.25
492.31	1480.25
492.527	1451.25
492.745	1451.25
492.963	1438.25
493.18	1465.25
493.398	1454.25
493.615	1439.25
493.833	1451.25
494.05	1474.25
494.268	1498.25
