Data from Ni(NO3)2@0.5M.TitratingCurve.Agarose3%dH2O.NegLispCup.LampEnergy10.LIBS07252019_HRD10591_17-58-55-564.txt Node
Date: Thu Jul 25 17:58:55 EDT 2019
User: cochatt
Spectrometer: HR+D1059
Trigger mode: 1
Integration Time (sec): 1.000000E-1
Scans to average: 1
Electric dark correction enabled: true
Nonlinearity correction enabled: false
Boxcar width: 0
XAxis mode: Wavelengths
Number of Pixels in Spectrum: 2048
>>>>>Begin Spectral Data<<<<<
223.165	-23.81
223.4	-23.81
223.635	-23.81
223.869	-25.81
224.104	-3.81
224.338	-2.81
224.573	-20.81
224.808	-26.81
225.042	1.19
225.277	-6.81
225.511	-11.81
225.746	4.19
225.98	13.19
226.215	18.19
226.449	0.19
226.683	33.19
226.918	36.19
227.152	16.19
227.387	43.19
227.621	30.19
227.856	45.19
228.09	57.19
228.324	52.19
228.559	60.19
228.793	84.19
229.027	143.19
229.262	139.19
229.496	142.19
229.73	155.19
229.964	172.19
230.199	219.19
230.433	195.19
230.667	188.19
230.901	186.19
231.136	157.19
231.37	167.19
231.604	201.19
231.838	206.19
232.072	216.19
232.306	202.19
232.541	201.19
232.775	191.19
233.009	176.19
233.243	170.19
233.477	185.19
233.711	164.19
233.945	182.19
234.179	187.19
234.413	179.19
234.647	173.19
234.881	184.19
235.115	177.19
235.349	181.19
235.583	171.19
235.817	186.19
236.051	182.19
236.285	181.19
236.519	167.19
236.753	174.19
236.987	173.19
237.221	191.19
237.455	183.19
237.689	182.19
237.922	192.19
238.156	191.19
238.39	197.19
238.624	192.19
238.858	197.19
239.091	188.19
239.325	208.19
239.559	207.19
239.793	238.19
240.027	229.19
240.26	232.19
240.494	209.19
240.728	204.19
240.961	211.19
241.195	215.19
241.429	224.19
241.662	223.19
241.896	246.19
242.13	262.19
242.363	227.19
242.597	226.19
242.83	231.19
243.064	227.19
243.298	244.19
243.531	229.19
243.765	233.19
243.998	248.19
244.232	251.19
244.465	239.19
244.699	225.19
244.932	249.19
245.166	243.19
245.399	257.19
245.633	250.19
245.866	240.19
246.099	246.19
246.333	240.19
246.566	250.19
246.8	264.19
247.033	244.19
247.266	247.19
247.5	270.19
247.733	271.19
247.966	267.19
248.2	274.19
248.433	265.19
248.666	279.19
248.899	267.19
249.133	299.19
249.366	285.19
249.599	286.19
249.832	288.19
250.066	269.19
250.299	283.19
250.532	282.19
250.765	298.19
250.998	304.19
251.231	309.19
251.465	336.19
251.698	332.19
251.931	321.19
252.164	327.19
252.397	319.19
252.63	318.19
252.863	298.19
253.096	295.19
253.329	310.19
253.562	318.19
253.795	320.19
254.028	324.19
254.261	333.19
254.494	324.19
254.727	316.19
254.96	336.19
255.193	329.19
255.426	323.19
255.659	338.19
255.892	349.19
256.124	354.19
256.357	347.19
256.59	357.19
256.823	357.19
257.056	360.19
257.289	344.19
257.521	339.19
257.754	358.19
257.987	343.19
258.22	359.19
258.452	382.19
258.685	365.19
258.918	377.19
259.151	364.19
259.383	362.19
259.616	371.19
259.849	370.19
260.081	390.19
260.314	371.19
260.547	383.19
260.779	404.19
261.012	399.19
261.244	376.19
261.477	398.19
261.71	388.19
261.942	390.19
262.175	388.19
262.407	400.19
262.64	394.19
262.872	389.19
263.105	398.19
263.337	405.19
263.57	401.19
263.802	412.19
264.035	407.19
264.267	410.19
264.499	414.19
264.732	432.19
264.964	436.19
265.197	426.19
265.429	412.19
265.661	431.19
265.894	420.19
266.126	432.19
266.358	431.19
266.591	430.19
266.823	443.19
267.055	409.19
267.287	430.19
267.52	422.19
267.752	438.19
267.984	452.19
268.216	441.19
268.448	438.19
268.681	459.19
268.913	439.19
269.145	442.19
269.377	457.19
269.609	451.19
269.841	462.19
270.073	459.19
270.306	450.19
270.538	455.19
270.77	482.19
271.002	452.19
271.234	454.19
271.466	471.19
271.698	464.19
271.93	465.19
272.162	461.19
272.394	473.19
272.626	470.19
272.858	495.19
273.09	470.19
273.322	475.19
273.553	497.19
273.785	498.19
274.017	477.19
274.249	493.19
274.481	479.19
274.713	497.19
274.945	467.19
275.176	491.19
275.408	474.19
275.64	489.19
275.872	507.19
276.104	511.19
276.335	520.19
276.567	499.19
276.799	508.19
277.031	545.19
277.262	535.19
277.494	518.19
277.726	534.19
277.957	524.19
278.189	499.19
278.421	513.19
278.652	535.19
278.884	529.19
279.115	537.19
279.347	540.19
279.579	532.19
279.81	539.19
280.042	553.19
280.273	537.19
280.505	554.19
280.736	523.19
280.968	547.19
281.199	520.19
281.431	547.19
281.662	557.19
281.894	559.19
282.125	553.19
282.356	543.19
282.588	571.19
282.819	549.19
283.051	558.19
283.282	553.19
283.513	589.19
283.745	573.19
283.976	559.19
284.207	583.19
284.439	573.19
284.67	582.19
284.901	595.19
285.132	571.19
285.364	567.19
285.595	577.19
285.826	577.19
286.057	591.19
286.288	587.19
286.52	588.19
286.751	615.19
286.982	581.19
287.213	591.19
287.444	613.19
287.675	569.19
287.906	605.19
288.138	607.19
288.369	619.19
288.6	600.19
288.831	623.19
289.062	597.19
289.293	606.19
289.524	615.19
289.755	574.19
289.986	609.19
290.217	619.19
290.448	605.19
290.679	613.19
290.91	616.19
291.141	636.19
291.371	611.19
291.602	603.19
291.833	615.19
292.064	613.19
292.295	622.19
292.526	627.19
292.757	617.19
292.987	601.19
293.218	606.19
293.449	605.19
293.68	598.19
293.91	611.19
294.141	630.19
294.372	615.19
294.603	635.19
294.833	639.19
295.064	651.19
295.295	609.19
295.525	621.19
295.756	639.19
295.987	635.19
296.217	649.19
296.448	686.19
296.679	619.19
296.909	653.19
297.14	647.19
297.37	632.19
297.601	651.19
297.831	653.19
298.062	656.19
298.292	684.19
298.523	679.19
298.753	682.19
298.984	663.19
299.214	642.19
299.445	660.19
299.675	673.19
299.905	688.19
300.136	701.19
300.366	723.19
300.597	721.19
300.827	702.19
301.057	701.19
301.288	701.19
301.518	697.19
301.748	683.19
301.979	697.19
302.209	701.19
302.439	704.19
302.669	694.19
302.9	720.19
303.13	705.19
303.36	703.19
303.59	721.19
303.82	720.19
304.051	725.19
304.281	712.19
304.511	685.19
304.741	714.19
304.971	739.19
305.201	739.19
305.431	711.19
305.661	728.19
305.891	711.19
306.121	731.19
306.352	711.19
306.582	724.19
306.812	709.19
307.042	748.19
307.272	695.19
307.502	716.19
307.731	719.19
307.961	730.19
308.191	759.19
308.421	713.19
308.651	712.19
308.881	730.19
309.111	725.19
309.341	709.19
309.571	751.19
309.8	755.19
310.03	721.19
310.26	791.19
310.49	793.19
310.72	748.19
310.949	733.19
311.179	735.19
311.409	737.19
311.639	745.19
311.868	712.19
312.098	732.19
312.328	739.19
312.557	748.19
312.787	769.19
313.017	771.19
313.246	755.19
313.476	795.19
313.706	797.19
313.935	807.19
314.165	784.19
314.394	771.19
314.624	740.19
314.853	757.19
315.083	759.19
315.312	781.19
315.542	781.19
315.771	785.19
316.001	777.19
316.23	796.19
316.46	785.19
316.689	780.19
316.919	802.19
317.148	829.19
317.377	816.19
317.607	809.19
317.836	784.19
318.065	785.19
318.295	800.19
318.524	812.19
318.753	795.19
318.983	804.19
319.212	817.19
319.441	790.19
319.67	851.19
319.9	825.19
320.129	816.19
320.358	806.19
320.587	811.19
320.816	841.19
321.046	813.19
321.275	823.19
321.504	809.19
321.733	833.19
321.962	802.19
322.191	842.19
322.42	833.19
322.649	848.19
322.878	846.19
323.108	832.19
323.337	835.19
323.566	877.19
323.795	892.19
324.024	861.19
324.253	838.19
324.482	871.19
324.71	859.19
324.939	872.19
325.168	886.19
325.397	861.19
325.626	877.19
325.855	864.19
326.084	896.19
326.313	903.19
326.542	860.19
326.77	892.19
326.999	889.19
327.228	881.19
327.457	901.19
327.686	895.19
327.914	897.19
328.143	900.19
328.372	903.19
328.6	905.19
328.829	889.19
329.058	935.19
329.287	903.19
329.515	908.19
329.744	931.19
329.972	911.19
330.201	918.19
330.43	899.19
330.658	928.19
330.887	899.19
331.115	951.19
331.344	934.19
331.572	937.19
331.801	943.19
332.03	944.19
332.258	959.19
332.486	957.19
332.715	954.19
332.943	968.19
333.172	953.19
333.4	971.19
333.629	985.19
333.857	1001.19
334.085	1041.19
334.314	1043.19
334.542	1048.19
334.771	1059.19
334.999	1031.19
335.227	1079.19
335.455	1051.19
335.684	1075.19
335.912	1073.19
336.14	1059.19
336.369	1055.19
336.597	1072.19
336.825	1045.19
337.053	1085.19
337.281	1051.19
337.51	1060.19
337.738	1042.19
337.966	1016.19
338.194	1057.19
338.422	1038.19
338.65	1031.19
338.878	1033.19
339.106	1013.19
339.334	1061.19
339.562	1009.19
339.79	1013.19
340.018	988.19
340.246	955.19
340.474	936.19
340.702	951.19
340.93	977.19
341.158	1007.19
341.386	1029.19
341.614	1059.19
341.842	1045.19
342.07	995.19
342.298	1010.19
342.526	984.19
342.754	1002.19
342.981	946.19
343.209	998.19
343.437	1007.19
343.665	996.19
343.893	1063.19
344.12	1066.19
344.348	1049.19
344.576	1046.19
344.804	1047.19
345.031	1015.19
345.259	1006.19
345.487	1014.19
345.714	1031.19
345.942	1038.19
346.17	1036.19
346.397	1016.19
346.625	959.19
346.853	975.19
347.08	956.19
347.308	947.19
347.535	972.19
347.763	928.19
347.99	927.19
348.218	930.19
348.445	941.19
348.673	941.19
348.9	951.19
349.128	953.19
349.355	980.19
349.583	997.19
349.81	950.19
350.037	938.19
350.265	917.19
350.492	917.19
350.72	950.19
350.947	941.19
351.174	947.19
351.402	949.19
351.629	1000.19
351.856	985.19
352.083	969.19
352.311	947.19
352.538	971.19
352.765	1004.19
352.992	932.19
353.22	888.19
353.447	879.19
353.674	898.19
353.901	902.19
354.128	936.19
354.355	899.19
354.583	919.19
354.81	919.19
355.037	923.19
355.264	925.19
355.491	887.19
355.718	894.19
355.945	890.19
356.172	927.19
356.399	925.19
356.626	956.19
356.853	973.19
357.08	932.19
357.307	939.19
357.534	919.19
357.761	929.19
357.988	921.19
358.215	884.19
358.441	919.19
358.668	911.19
358.895	931.19
359.122	931.19
359.349	927.19
359.576	917.19
359.802	924.19
360.029	949.19
360.256	921.19
360.483	962.19
360.709	937.19
360.936	919.19
361.163	939.19
361.39	947.19
361.616	939.19
361.843	969.19
362.07	1009.19
362.296	988.19
362.523	923.19
362.749	948.19
362.976	926.19
363.203	913.19
363.429	930.19
363.656	919.19
363.882	947.19
364.109	903.19
364.335	900.19
364.562	941.19
364.788	935.19
365.015	936.19
365.241	934.19
365.468	942.19
365.694	941.19
365.92	921.19
366.147	938.19
366.373	937.19
366.599	953.19
366.826	897.19
367.052	919.19
367.278	914.19
367.505	965.19
367.731	931.19
367.957	931.19
368.184	961.19
368.41	941.19
368.636	951.19
368.862	974.19
369.089	962.19
369.315	956.19
369.541	982.19
369.767	980.19
369.993	964.19
370.219	938.19
370.445	940.19
370.672	957.19
370.898	981.19
371.124	972.19
371.35	971.19
371.576	975.19
371.802	1000.19
372.028	973.19
372.254	977.19
372.48	987.19
372.706	998.19
372.932	998.19
373.158	1007.19
373.384	1003.19
373.61	1013.19
373.835	984.19
374.061	1038.19
374.287	980.19
374.513	1027.19
374.739	999.19
374.965	1021.19
375.191	1025.19
375.416	1012.19
375.642	998.19
375.868	1023.19
376.094	995.19
376.319	981.19
376.545	1021.19
376.771	980.19
376.997	978.19
377.222	987.19
377.448	966.19
377.674	994.19
377.899	976.19
378.125	974.19
378.35	947.19
378.576	987.19
378.802	971.19
379.027	945.19
379.253	961.19
379.478	974.19
379.704	961.19
379.929	965.19
380.155	990.19
380.38	958.19
380.606	988.19
380.831	984.19
381.057	982.19
381.282	982.19
381.507	965.19
381.733	1023.19
381.958	972.19
382.184	999.19
382.409	973.19
382.634	1000.19
382.86	985.19
383.085	1030.19
383.31	1015.19
383.535	1044.19
383.761	1054.19
383.986	1022.19
384.211	1031.19
384.436	1035.19
384.662	1056.19
384.887	1061.19
385.112	1070.19
385.337	1054.19
385.562	1095.19
385.787	1067.19
386.013	1089.19
386.238	1119.19
386.463	1089.19
386.688	1090.19
386.913	1075.19
387.138	1086.19
387.363	1105.19
387.588	1074.19
387.813	1088.19
388.038	1106.19
388.263	1116.19
388.488	1092.19
388.713	1095.19
388.938	1076.19
389.163	1101.19
389.387	1092.19
389.612	1095.19
389.837	1088.19
390.062	1109.19
390.287	1099.19
390.512	1112.19
390.736	1109.19
390.961	1147.19
391.186	1127.19
391.411	1121.19
391.636	1158.19
391.86	1167.19
392.085	1203.19
392.31	1184.19
392.534	1166.19
392.759	1159.19
392.984	1141.19
393.208	1144.19
393.433	1168.19
393.658	1161.19
393.882	1118.19
394.107	1141.19
394.331	1121.19
394.556	1118.19
394.78	1149.19
395.005	1125.19
395.229	1146.19
395.454	1199.19
395.678	1167.19
395.903	1188.19
396.127	1194.19
396.352	1205.19
396.576	1181.19
396.801	1175.19
397.025	1207.19
397.249	1205.19
397.474	1233.19
397.698	1235.19
397.922	1254.19
398.147	1239.19
398.371	1245.19
398.595	1268.19
398.82	1295.19
399.044	1333.19
399.268	1352.19
399.492	1436.19
399.717	1473.19
399.941	1528.19
400.165	1479.19
400.389	1449.19
400.613	1390.19
400.837	1381.19
401.062	1356.19
401.286	1328.19
401.51	1338.19
401.734	1311.19
401.958	1369.19
402.182	1296.19
402.406	1275.19
402.63	1303.19
402.854	1339.19
403.078	1299.19
403.302	1314.19
403.526	1313.19
403.75	1293.19
403.974	1298.19
404.198	1344.19
404.422	1331.19
404.645	1303.19
404.869	1317.19
405.093	1339.19
405.317	1311.19
405.541	1378.19
405.765	1371.19
405.988	1392.19
406.212	1382.19
406.436	1389.19
406.66	1398.19
406.883	1392.19
407.107	1469.19
407.331	1451.19
407.555	1500.19
407.778	1491.19
408.002	1494.19
408.226	1489.19
408.449	1481.19
408.673	1429.19
408.896	1436.19
409.12	1434.19
409.344	1428.19
409.567	1388.19
409.791	1420.19
410.014	1373.19
410.238	1375.19
410.461	1354.19
410.685	1387.19
410.908	1392.19
411.132	1362.19
411.355	1390.19
411.578	1383.19
411.802	1373.19
412.025	1357.19
412.249	1361.19
412.472	1351.19
412.695	1324.19
412.919	1302.19
413.142	1327.19
413.365	1327.19
413.589	1364.19
413.812	1322.19
414.035	1302.19
414.258	1323.19
414.482	1296.19
414.705	1311.19
414.928	1327.19
415.151	1308.19
415.374	1308.19
415.597	1293.19
415.821	1267.19
416.044	1278.19
416.267	1247.19
416.49	1257.19
416.713	1275.19
416.936	1305.19
417.159	1263.19
417.382	1297.19
417.605	1248.19
417.828	1246.19
418.051	1288.19
418.274	1250.19
418.497	1244.19
418.72	1248.19
418.943	1244.19
419.166	1316.19
419.389	1421.19
419.611	1345.19
419.834	1339.19
420.057	1299.19
420.28	1260.19
420.503	1237.19
420.726	1213.19
420.948	1255.19
421.171	1268.19
421.394	1275.19
421.617	1224.19
421.839	1268.19
422.062	1248.19
422.285	1241.19
422.507	1277.19
422.73	1252.19
422.953	1243.19
423.175	1216.19
423.398	1283.19
423.621	1227.19
423.843	1222.19
424.066	1244.19
424.288	1237.19
424.511	1246.19
424.733	1241.19
424.956	1228.19
425.178	1238.19
425.401	1233.19
425.623	1263.19
425.846	1259.19
426.068	1251.19
426.291	1233.19
426.513	1223.19
426.735	1235.19
426.958	1203.19
427.18	1232.19
427.402	1233.19
427.625	1203.19
427.847	1184.19
428.069	1203.19
428.292	1221.19
428.514	1189.19
428.736	1210.19
428.958	1204.19
429.181	1194.19
429.403	1206.19
429.625	1187.19
429.847	1217.19
430.069	1178.19
430.292	1177.19
430.514	1197.19
430.736	1181.19
430.958	1203.19
431.18	1204.19
431.402	1173.19
431.624	1163.19
431.846	1207.19
432.068	1201.19
432.29	1221.19
432.512	1205.19
432.734	1216.19
432.956	1198.19
433.178	1257.19
433.4	1256.19
433.622	1245.19
433.844	1262.19
434.066	1269.19
434.287	1272.19
434.509	1263.19
434.731	1273.19
434.953	1287.19
435.175	1291.19
435.397	1310.19
435.618	1237.19
435.84	1271.19
436.062	1225.19
436.284	1248.19
436.505	1227.19
436.727	1243.19
436.949	1184.19
437.17	1212.19
437.392	1216.19
437.614	1229.19
437.835	1176.19
438.057	1168.19
438.278	1146.19
438.5	1163.19
438.721	1181.19
438.943	1179.19
439.165	1140.19
439.386	1178.19
439.608	1205.19
439.829	1179.19
440.05	1184.19
440.272	1227.19
440.493	1184.19
440.715	1213.19
440.936	1210.19
441.158	1245.19
441.379	1261.19
441.6	1284.19
441.822	1251.19
442.043	1246.19
442.264	1236.19
442.486	1237.19
442.707	1260.19
442.928	1230.19
443.149	1293.19
443.371	1269.19
443.592	1340.19
443.813	1334.19
444.034	1272.19
444.255	1292.19
444.476	1303.19
444.698	1319.19
444.919	1356.19
445.14	1470.19
445.361	1395.19
445.582	1344.19
445.803	1241.19
446.024	1251.19
446.245	1239.19
446.466	1236.19
446.687	1187.19
446.908	1192.19
447.129	1181.19
447.35	1182.19
447.571	1167.19
447.792	1136.19
448.013	1149.19
448.234	1134.19
448.455	1134.19
448.675	1142.19
448.896	1137.19
449.117	1085.19
449.338	1105.19
449.559	1123.19
449.779	1081.19
450	1093.19
450.221	1084.19
450.442	1131.19
450.662	1111.19
450.883	1147.19
451.104	1139.19
451.324	1117.19
451.545	1100.19
451.766	1113.19
451.986	1103.19
452.207	1105.19
452.428	1081.19
452.648	1112.19
452.869	1094.19
453.089	1119.19
453.31	1136.19
453.53	1072.19
453.751	1048.19
453.971	1076.19
454.192	1095.19
454.412	1116.19
454.633	1093.19
454.853	1052.19
455.073	1082.19
455.294	1077.19
455.514	1080.19
455.734	1110.19
455.955	1126.19
456.175	1118.19
456.395	1078.19
456.616	1076.19
456.836	1083.19
457.056	1092.19
457.276	1070.19
457.497	1120.19
457.717	1099.19
457.937	1089.19
458.157	1078.19
458.377	1111.19
458.598	1123.19
458.818	1148.19
459.038	1203.19
459.258	1190.19
459.478	1273.19
459.698	1337.19
459.918	1339.19
460.138	1294.19
460.358	1320.19
460.578	1298.19
460.798	1338.19
461.018	1355.19
461.238	1303.19
461.458	1287.19
461.678	1289.19
461.898	1299.19
462.118	1316.19
462.338	1385.19
462.558	1384.19
462.777	1410.19
462.997	1481.19
463.217	1512.19
463.437	1539.19
463.657	1513.19
463.876	1420.19
464.096	1460.19
464.316	1420.19
464.536	1413.19
464.755	1392.19
464.975	1353.19
465.195	1343.19
465.414	1295.19
465.634	1268.19
465.854	1258.19
466.073	1236.19
466.293	1203.19
466.512	1182.19
466.732	1215.19
466.951	1200.19
467.171	1200.19
467.391	1230.19
467.61	1161.19
467.829	1161.19
468.049	1164.19
468.268	1152.19
468.488	1160.19
468.707	1160.19
468.927	1174.19
469.146	1190.19
469.365	1161.19
469.585	1144.19
469.804	1177.19
470.023	1181.19
470.243	1146.19
470.462	1179.19
470.681	1142.19
470.901	1172.19
471.12	1178.19
471.339	1174.19
471.558	1184.19
471.777	1178.19
471.997	1173.19
472.216	1149.19
472.435	1144.19
472.654	1137.19
472.873	1141.19
473.092	1125.19
473.311	1131.19
473.53	1131.19
473.749	1109.19
473.968	1177.19
474.187	1167.19
474.406	1151.19
474.625	1165.19
474.844	1167.19
475.063	1151.19
475.282	1158.19
475.501	1182.19
475.72	1185.19
475.939	1187.19
476.158	1221.19
476.377	1219.19
476.596	1211.19
476.814	1251.19
477.033	1236.19
477.252	1232.19
477.471	1275.19
477.69	1275.19
477.908	1284.19
478.127	1291.19
478.346	1309.19
478.564	1328.19
478.783	1322.19
479.002	1360.19
479.22	1409.19
479.439	1391.19
479.658	1347.19
479.876	1372.19
480.095	1379.19
480.313	1388.19
480.532	1392.19
480.751	1384.19
480.969	1325.19
481.188	1373.19
481.406	1367.19
481.624	1347.19
481.843	1378.19
482.061	1349.19
482.28	1296.19
482.498	1310.19
482.717	1334.19
482.935	1343.19
483.153	1364.19
483.372	1360.19
483.59	1425.19
483.808	1369.19
484.027	1365.19
484.245	1360.19
484.463	1358.19
484.681	1374.19
484.9	1368.19
485.118	1377.19
485.336	1359.19
485.554	1370.19
485.772	1356.19
485.99	1381.19
486.209	1342.19
486.427	1409.19
486.645	1380.19
486.863	1417.19
487.081	1411.19
487.299	1380.19
487.517	1433.19
487.735	1435.19
487.953	1446.19
488.171	1409.19
488.389	1412.19
488.607	1381.19
488.825	1355.19
489.043	1373.19
489.261	1378.19
489.479	1351.19
489.696	1375.19
489.914	1382.19
490.132	1356.19
490.35	1415.19
490.568	1419.19
490.786	1397.19
491.003	1429.19
491.221	1426.19
491.439	1412.19
491.657	1399.19
491.874	1390.19
492.092	1459.19
492.31	1453.19
492.527	1421.19
492.745	1408.19
492.963	1422.19
493.18	1442.19
493.398	1441.19
493.615	1419.19
493.833	1448.19
