Data from Ni(NO3)2Standard.Agarose3%.GreenCap.LampEnergy5.5.E.O_HRD10591_14-41-50-188.txt Node
Date: Mon Jul 22 14:41:50 EDT 2019
User: cochatt
Spectrometer: HR+D1059
Trigger mode: 1
Integration Time (sec): 1.000000E-1
Scans to average: 1
Electric dark correction enabled: true
Nonlinearity correction enabled: false
Boxcar width: 0
XAxis mode: Wavelengths
Number of Pixels in Spectrum: 2048
>>>>>Begin Spectral Data<<<<<
223.165	-3.38
223.4	-3.38
223.635	-3.38
223.869	-15.38
224.104	-18.38
224.338	-11.38
224.573	-17.38
224.808	-4.38
225.042	-8.38
225.277	-15.38
225.511	-4.38
225.746	11.62
225.98	-8.38
226.215	10.62
226.449	2.62
226.683	20.62
226.918	33.62
227.152	27.62
227.387	26.62
227.621	30.62
227.856	38.62
228.09	36.62
228.324	45.62
228.559	52.62
228.793	57.62
229.027	52.62
229.262	60.62
229.496	67.62
229.73	65.62
229.964	77.62
230.199	78.62
230.433	68.62
230.667	74.62
230.901	87.62
231.136	78.62
231.37	74.62
231.604	76.62
231.838	85.62
232.072	67.62
232.306	80.62
232.541	74.62
232.775	71.62
233.009	84.62
233.243	75.62
233.477	78.62
233.711	74.62
233.945	95.62
234.179	79.62
234.413	82.62
234.647	87.62
234.881	73.62
235.115	79.62
235.349	88.62
235.583	69.62
235.817	77.62
236.051	66.62
236.285	77.62
236.519	69.62
236.753	93.62
236.987	62.62
237.221	80.62
237.455	67.62
237.689	63.62
237.922	76.62
238.156	68.62
238.39	68.62
238.624	66.62
238.858	86.62
239.091	68.62
239.325	85.62
239.559	68.62
239.793	64.62
240.027	69.62
240.26	71.62
240.494	70.62
240.728	76.62
240.961	77.62
241.195	79.62
241.429	75.62
241.662	55.62
241.896	71.62
242.13	65.62
242.363	80.62
242.597	73.62
242.83	68.62
243.064	86.62
243.298	68.62
243.531	69.62
243.765	80.62
243.998	79.62
244.232	62.62
244.465	82.62
244.699	77.62
244.932	72.62
245.166	78.62
245.399	68.62
245.633	75.62
245.866	81.62
246.099	68.62
246.333	74.62
246.566	70.62
246.8	76.62
247.033	74.62
247.266	80.62
247.5	73.62
247.733	75.62
247.966	63.62
248.2	74.62
248.433	71.62
248.666	65.62
248.899	62.62
249.133	55.62
249.366	75.62
249.599	78.62
249.832	75.62
250.066	72.62
250.299	72.62
250.532	78.62
250.765	70.62
250.998	67.62
251.231	68.62
251.465	74.62
251.698	62.62
251.931	82.62
252.164	76.62
252.397	64.62
252.63	72.62
252.863	73.62
253.096	83.62
253.329	73.62
253.562	86.62
253.795	59.62
254.028	71.62
254.261	82.62
254.494	83.62
254.727	76.62
254.96	90.62
255.193	91.62
255.426	70.62
255.659	89.62
255.892	80.62
256.124	79.62
256.357	81.62
256.59	95.62
256.823	82.62
257.056	87.62
257.289	80.62
257.521	74.62
257.754	76.62
257.987	85.62
258.22	80.62
258.452	79.62
258.685	96.62
258.918	65.62
259.151	81.62
259.383	80.62
259.616	82.62
259.849	82.62
260.081	83.62
260.314	90.62
260.547	86.62
260.779	76.62
261.012	76.62
261.244	89.62
261.477	91.62
261.71	80.62
261.942	86.62
262.175	70.62
262.407	69.62
262.64	87.62
262.872	74.62
263.105	78.62
263.337	73.62
263.57	78.62
263.802	78.62
264.035	80.62
264.267	81.62
264.499	74.62
264.732	70.62
264.964	96.62
265.197	80.62
265.429	80.62
265.661	85.62
265.894	89.62
266.126	93.62
266.358	89.62
266.591	72.62
266.823	81.62
267.055	87.62
267.287	77.62
267.52	81.62
267.752	73.62
267.984	78.62
268.216	75.62
268.448	80.62
268.681	99.62
268.913	83.62
269.145	66.62
269.377	78.62
269.609	87.62
269.841	79.62
270.073	76.62
270.306	91.62
270.538	87.62
270.77	61.62
271.002	76.62
271.234	85.62
271.466	80.62
271.698	74.62
271.93	84.62
272.162	79.62
272.394	74.62
272.626	83.62
272.858	84.62
273.09	80.62
273.322	88.62
273.553	87.62
273.785	82.62
274.017	84.62
274.249	74.62
274.481	67.62
274.713	89.62
274.945	79.62
275.176	77.62
275.408	68.62
275.64	82.62
275.872	74.62
276.104	66.62
276.335	78.62
276.567	89.62
276.799	78.62
277.031	79.62
277.262	82.62
277.494	76.62
277.726	77.62
277.957	80.62
278.189	80.62
278.421	84.62
278.652	65.62
278.884	77.62
279.115	92.62
279.347	65.62
279.579	89.62
279.81	71.62
280.042	91.62
280.273	84.62
280.505	72.62
280.736	82.62
280.968	73.62
281.199	78.62
281.431	71.62
281.662	79.62
281.894	82.62
282.125	82.62
282.356	87.62
282.588	86.62
282.819	82.62
283.051	88.62
283.282	86.62
283.513	84.62
283.745	76.62
283.976	85.62
284.207	73.62
284.439	75.62
284.67	71.62
284.901	83.62
285.132	79.62
285.364	86.62
285.595	93.62
285.826	78.62
286.057	80.62
286.288	87.62
286.52	94.62
286.751	75.62
286.982	74.62
287.213	79.62
287.444	72.62
287.675	80.62
287.906	88.62
288.138	80.62
288.369	75.62
288.6	83.62
288.831	83.62
289.062	73.62
289.293	93.62
289.524	84.62
289.755	82.62
289.986	80.62
290.217	84.62
290.448	86.62
290.679	76.62
290.91	86.62
291.141	98.62
291.371	97.62
291.602	77.62
291.833	75.62
292.064	68.62
292.295	72.62
292.526	69.62
292.757	68.62
292.987	74.62
293.218	95.62
293.449	74.62
293.68	71.62
293.91	89.62
294.141	89.62
294.372	89.62
294.603	94.62
294.833	88.62
295.064	74.62
295.295	82.62
295.525	88.62
295.756	83.62
295.987	73.62
296.217	80.62
296.448	82.62
296.679	80.62
296.909	87.62
297.14	87.62
297.37	92.62
297.601	83.62
297.831	87.62
298.062	90.62
298.292	91.62
298.523	92.62
298.753	93.62
298.984	81.62
299.214	78.62
299.445	89.62
299.675	88.62
299.905	79.62
300.136	83.62
300.366	81.62
300.597	91.62
300.827	96.62
301.057	82.62
301.288	88.62
301.518	91.62
301.748	83.62
301.979	92.62
302.209	80.62
302.439	85.62
302.669	78.62
302.9	83.62
303.13	76.62
303.36	80.62
303.59	87.62
303.82	84.62
304.051	71.62
304.281	93.62
304.511	105.62
304.741	83.62
304.971	84.62
305.201	85.62
305.431	88.62
305.661	77.62
305.891	95.62
306.121	87.62
306.352	96.62
306.582	82.62
306.812	87.62
307.042	83.62
307.272	76.62
307.502	103.62
307.731	73.62
307.961	76.62
308.191	104.62
308.421	76.62
308.651	73.62
308.881	92.62
309.111	79.62
309.341	83.62
309.571	89.62
309.8	81.62
310.03	75.62
310.26	89.62
310.49	78.62
310.72	74.62
310.949	78.62
311.179	73.62
311.409	88.62
311.639	86.62
311.868	77.62
312.098	80.62
312.328	94.62
312.557	89.62
312.787	91.62
313.017	85.62
313.246	79.62
313.476	78.62
313.706	80.62
313.935	81.62
314.165	74.62
314.394	68.62
314.624	84.62
314.853	94.62
315.083	97.62
315.312	83.62
315.542	95.62
315.771	61.62
316.001	84.62
316.23	83.62
316.46	72.62
316.689	98.62
316.919	88.62
317.148	82.62
317.377	83.62
317.607	101.62
317.836	81.62
318.065	70.62
318.295	83.62
318.524	76.62
318.753	100.62
318.983	88.62
319.212	91.62
319.441	89.62
319.67	76.62
319.9	88.62
320.129	79.62
320.358	93.62
320.587	79.62
320.816	77.62
321.046	97.62
321.275	86.62
321.504	87.62
321.733	96.62
321.962	95.62
322.191	91.62
322.42	71.62
322.649	84.62
322.878	76.62
323.108	82.62
323.337	82.62
323.566	91.62
323.795	100.62
324.024	79.62
324.253	73.62
324.482	85.62
324.71	75.62
324.939	84.62
325.168	88.62
325.397	91.62
325.626	86.62
325.855	68.62
326.084	84.62
326.313	96.62
326.542	80.62
326.77	91.62
326.999	82.62
327.228	73.62
327.457	82.62
327.686	96.62
327.914	89.62
328.143	80.62
328.372	86.62
328.6	92.62
328.829	68.62
329.058	95.62
329.287	74.62
329.515	83.62
329.744	94.62
329.972	70.62
330.201	83.62
330.43	84.62
330.658	72.62
330.887	83.62
331.115	97.62
331.344	81.62
331.572	84.62
331.801	94.62
332.03	93.62
332.258	87.62
332.486	74.62
332.715	96.62
332.943	69.62
333.172	83.62
333.4	76.62
333.629	98.62
333.857	80.62
334.085	75.62
334.314	87.62
334.542	83.62
334.771	79.62
334.999	82.62
335.227	99.62
335.455	89.62
335.684	95.62
335.912	92.62
336.14	63.62
336.369	82.62
336.597	86.62
336.825	87.62
337.053	87.62
337.281	77.62
337.51	90.62
337.738	75.62
337.966	93.62
338.194	77.62
338.422	87.62
338.65	87.62
338.878	87.62
339.106	93.62
339.334	81.62
339.562	82.62
339.79	83.62
340.018	79.62
340.246	77.62
340.474	76.62
340.702	80.62
340.93	82.62
341.158	89.62
341.386	90.62
341.614	89.62
341.842	92.62
342.07	80.62
342.298	87.62
342.526	83.62
342.754	70.62
342.981	80.62
343.209	91.62
343.437	97.62
343.665	71.62
343.893	85.62
344.12	79.62
344.348	89.62
344.576	82.62
344.804	83.62
345.031	87.62
345.259	83.62
345.487	80.62
345.714	86.62
345.942	80.62
346.17	87.62
346.397	73.62
346.625	95.62
346.853	80.62
347.08	84.62
347.308	84.62
347.535	84.62
347.763	85.62
347.99	88.62
348.218	82.62
348.445	78.62
348.673	79.62
348.9	93.62
349.128	81.62
349.355	84.62
349.583	86.62
349.81	76.62
350.037	83.62
350.265	79.62
350.492	74.62
350.72	78.62
350.947	80.62
351.174	83.62
351.402	74.62
351.629	90.62
351.856	81.62
352.083	75.62
352.311	89.62
352.538	76.62
352.765	83.62
352.992	94.62
353.22	83.62
353.447	69.62
353.674	92.62
353.901	79.62
354.128	76.62
354.355	84.62
354.583	77.62
354.81	86.62
355.037	89.62
355.264	88.62
355.491	76.62
355.718	76.62
355.945	90.62
356.172	79.62
356.399	78.62
356.626	83.62
356.853	92.62
357.08	84.62
357.307	91.62
357.534	75.62
357.761	90.62
357.988	80.62
358.215	80.62
358.441	82.62
358.668	65.62
358.895	95.62
359.122	75.62
359.349	77.62
359.576	86.62
359.802	79.62
360.029	89.62
360.256	83.62
360.483	82.62
360.709	86.62
360.936	91.62
361.163	83.62
361.39	99.62
361.616	91.62
361.843	90.62
362.07	89.62
362.296	67.62
362.523	69.62
362.749	75.62
362.976	85.62
363.203	78.62
363.429	77.62
363.656	99.62
363.882	86.62
364.109	84.62
364.335	77.62
364.562	90.62
364.788	94.62
365.015	80.62
365.241	97.62
365.468	87.62
365.694	92.62
365.92	92.62
366.147	75.62
366.373	79.62
366.599	81.62
366.826	66.62
367.052	88.62
367.278	85.62
367.505	71.62
367.731	75.62
367.957	77.62
368.184	75.62
368.41	72.62
368.636	95.62
368.862	86.62
369.089	95.62
369.315	73.62
369.541	92.62
369.767	85.62
369.993	87.62
370.219	89.62
370.445	79.62
370.672	79.62
370.898	92.62
371.124	82.62
371.35	75.62
371.576	85.62
371.802	76.62
372.028	78.62
372.254	80.62
372.48	81.62
372.706	81.62
372.932	80.62
373.158	82.62
373.384	91.62
373.61	93.62
373.835	77.62
374.061	84.62
374.287	79.62
374.513	56.62
374.739	90.62
374.965	77.62
375.191	90.62
375.416	90.62
375.642	86.62
375.868	81.62
376.094	92.62
376.319	86.62
376.545	80.62
376.771	85.62
376.997	94.62
377.222	84.62
377.448	90.62
377.674	91.62
377.899	88.62
378.125	79.62
378.35	82.62
378.576	67.62
378.802	79.62
379.027	84.62
379.253	84.62
379.478	75.62
379.704	80.62
379.929	90.62
380.155	84.62
380.38	64.62
380.606	79.62
380.831	91.62
381.057	82.62
381.282	73.62
381.507	83.62
381.733	88.62
381.958	88.62
382.184	83.62
382.409	88.62
382.634	87.62
382.86	80.62
383.085	89.62
383.31	82.62
383.535	95.62
383.761	102.62
383.986	74.62
384.211	83.62
384.436	89.62
384.662	85.62
384.887	79.62
385.112	85.62
385.337	71.62
385.562	86.62
385.787	75.62
386.013	80.62
386.238	89.62
386.463	91.62
386.688	80.62
386.913	83.62
387.138	76.62
387.363	72.62
387.588	84.62
387.813	108.62
388.038	75.62
388.263	96.62
388.488	87.62
388.713	67.62
388.938	81.62
389.163	85.62
389.387	86.62
389.612	86.62
389.837	87.62
390.062	83.62
390.287	71.62
390.512	104.62
390.736	76.62
390.961	94.62
391.186	75.62
391.411	89.62
391.636	81.62
391.86	91.62
392.085	90.62
392.31	76.62
392.534	80.62
392.759	73.62
392.984	77.62
393.208	76.62
393.433	88.62
393.658	81.62
393.882	75.62
394.107	94.62
394.331	79.62
394.556	92.62
394.78	72.62
395.005	80.62
395.229	71.62
395.454	87.62
395.678	83.62
395.903	82.62
396.127	80.62
396.352	74.62
396.576	89.62
396.801	79.62
397.025	72.62
397.249	83.62
397.474	91.62
397.698	81.62
397.922	94.62
398.147	79.62
398.371	81.62
398.595	99.62
398.82	86.62
399.044	94.62
399.268	76.62
399.492	83.62
399.717	82.62
399.941	86.62
400.165	82.62
400.389	89.62
400.613	91.62
400.837	87.62
401.062	78.62
401.286	73.62
401.51	84.62
401.734	89.62
401.958	87.62
402.182	88.62
402.406	86.62
402.63	65.62
402.854	91.62
403.078	75.62
403.302	80.62
403.526	82.62
403.75	91.62
403.974	100.62
404.198	91.62
404.422	77.62
404.645	86.62
404.869	79.62
405.093	89.62
405.317	97.62
405.541	84.62
405.765	80.62
405.988	91.62
406.212	92.62
406.436	86.62
406.66	81.62
406.883	73.62
407.107	80.62
407.331	94.62
407.555	82.62
407.778	81.62
408.002	79.62
408.226	82.62
408.449	75.62
408.673	74.62
408.896	86.62
409.12	81.62
409.344	81.62
409.567	92.62
409.791	77.62
410.014	86.62
410.238	84.62
410.461	87.62
410.685	73.62
410.908	74.62
411.132	90.62
411.355	87.62
411.578	75.62
411.802	76.62
412.025	89.62
412.249	88.62
412.472	71.62
412.695	89.62
412.919	90.62
413.142	75.62
413.365	77.62
413.589	82.62
413.812	78.62
414.035	84.62
414.258	79.62
414.482	76.62
414.705	83.62
414.928	90.62
415.151	79.62
415.374	82.62
415.597	80.62
415.821	81.62
416.044	82.62
416.267	86.62
416.49	71.62
416.713	85.62
416.936	83.62
417.159	84.62
417.382	81.62
417.605	91.62
417.828	69.62
418.051	77.62
418.274	82.62
418.497	83.62
418.72	77.62
418.943	96.62
419.166	66.62
419.389	71.62
419.611	79.62
419.834	86.62
420.057	94.62
420.28	81.62
420.503	75.62
420.726	92.62
420.948	79.62
421.171	79.62
421.394	83.62
421.617	76.62
421.839	86.62
422.062	76.62
422.285	81.62
422.507	82.62
422.73	73.62
422.953	84.62
423.175	94.62
423.398	73.62
423.621	92.62
423.843	80.62
424.066	83.62
424.288	87.62
424.511	79.62
424.733	80.62
424.956	84.62
425.178	97.62
425.401	89.62
425.623	72.62
425.846	76.62
426.068	82.62
426.291	80.62
426.513	78.62
426.735	86.62
426.958	79.62
427.18	87.62
427.402	78.62
427.625	77.62
427.847	95.62
428.069	75.62
428.292	81.62
428.514	83.62
428.736	87.62
428.958	83.62
429.181	83.62
429.403	93.62
429.625	92.62
429.847	103.62
430.069	94.62
430.292	95.62
430.514	85.62
430.736	86.62
430.958	80.62
431.18	83.62
431.402	81.62
431.624	93.62
431.846	80.62
432.068	82.62
432.29	91.62
432.512	95.62
432.734	71.62
432.956	76.62
433.178	85.62
433.4	91.62
433.622	84.62
433.844	84.62
434.066	74.62
434.287	80.62
434.509	91.62
434.731	79.62
434.953	73.62
435.175	65.62
435.397	86.62
435.618	79.62
435.84	79.62
436.062	87.62
436.284	80.62
436.505	94.62
436.727	93.62
436.949	94.62
437.17	91.62
437.392	85.62
437.614	87.62
437.835	83.62
438.057	76.62
438.278	92.62
438.5	83.62
438.721	101.62
438.943	87.62
439.165	82.62
439.386	88.62
439.608	100.62
439.829	83.62
440.05	76.62
440.272	84.62
440.493	84.62
440.715	91.62
440.936	78.62
441.158	85.62
441.379	88.62
441.6	96.62
441.822	87.62
442.043	78.62
442.264	78.62
442.486	77.62
442.707	88.62
442.928	76.62
443.149	98.62
443.371	76.62
443.592	87.62
443.813	84.62
444.034	75.62
444.255	78.62
444.476	84.62
444.698	83.62
444.919	75.62
445.14	195.62
445.361	129.62
445.582	74.62
445.803	80.62
446.024	75.62
446.245	93.62
446.466	85.62
446.687	79.62
446.908	80.62
447.129	91.62
447.35	92.62
447.571	88.62
447.792	85.62
448.013	71.62
448.234	87.62
448.455	82.62
448.675	97.62
448.896	78.62
449.117	76.62
449.338	87.62
449.559	75.62
449.779	77.62
450	76.62
450.221	87.62
450.442	88.62
450.662	99.62
450.883	95.62
451.104	86.62
451.324	81.62
451.545	94.62
451.766	81.62
451.986	60.62
452.207	73.62
452.428	80.62
452.648	103.62
452.869	96.62
453.089	84.62
453.31	85.62
453.53	81.62
453.751	81.62
453.971	98.62
454.192	100.62
454.412	71.62
454.633	95.62
454.853	80.62
455.073	86.62
455.294	85.62
455.514	73.62
455.734	68.62
455.955	80.62
456.175	72.62
456.395	71.62
456.616	81.62
456.836	79.62
457.056	85.62
457.276	79.62
457.497	84.62
457.717	77.62
457.937	86.62
458.157	75.62
458.377	84.62
458.598	86.62
458.818	99.62
459.038	74.62
459.258	90.62
459.478	88.62
459.698	79.62
459.918	83.62
460.138	86.62
460.358	87.62
460.578	84.62
460.798	82.62
461.018	86.62
461.238	88.62
461.458	89.62
461.678	83.62
461.898	77.62
462.118	90.62
462.338	89.62
462.558	84.62
462.777	80.62
462.997	77.62
463.217	77.62
463.437	85.62
463.657	86.62
463.876	80.62
464.096	85.62
464.316	78.62
464.536	82.62
464.755	75.62
464.975	82.62
465.195	89.62
465.414	85.62
465.634	71.62
465.854	75.62
466.073	71.62
466.293	87.62
466.512	83.62
466.732	83.62
466.951	88.62
467.171	71.62
467.391	74.62
467.61	89.62
467.829	87.62
468.049	79.62
468.268	89.62
468.488	88.62
468.707	91.62
468.927	76.62
469.146	85.62
469.365	80.62
469.585	92.62
469.804	91.62
470.023	74.62
470.243	95.62
470.462	94.62
470.681	94.62
470.901	75.62
471.12	74.62
471.339	75.62
471.558	84.62
471.777	91.62
471.997	82.62
472.216	76.62
472.435	99.62
472.654	94.62
472.873	89.62
473.092	81.62
473.311	82.62
473.53	98.62
473.749	94.62
473.968	96.62
474.187	91.62
474.406	93.62
474.625	83.62
474.844	83.62
475.063	67.62
475.282	78.62
475.501	94.62
475.72	94.62
475.939	83.62
476.158	82.62
476.377	85.62
476.596	86.62
476.814	67.62
477.033	87.62
477.252	74.62
477.471	78.62
477.69	75.62
477.908	86.62
478.127	76.62
478.346	78.62
478.564	76.62
478.783	90.62
479.002	94.62
479.22	62.62
479.439	87.62
479.658	91.62
479.876	88.62
480.095	92.62
480.313	68.62
480.532	90.62
480.751	95.62
480.969	86.62
481.188	65.62
481.406	75.62
481.624	75.62
481.843	83.62
482.061	83.62
482.28	71.62
482.498	84.62
482.717	80.62
482.935	86.62
483.153	87.62
483.372	95.62
483.59	86.62
483.808	82.62
484.027	94.62
484.245	86.62
484.463	94.62
484.681	106.62
484.9	92.62
485.118	96.62
485.336	76.62
485.554	80.62
485.772	78.62
485.99	86.62
486.209	94.62
486.427	86.62
486.645	80.62
486.863	90.62
487.081	85.62
487.299	82.62
487.517	89.62
487.735	100.62
487.953	84.62
488.171	90.62
488.389	101.62
488.607	87.62
488.825	91.62
489.043	81.62
489.261	90.62
489.479	86.62
489.696	92.62
489.914	92.62
490.132	101.62
490.35	107.62
490.568	88.62
490.786	87.62
491.003	88.62
491.221	97.62
491.439	73.62
491.657	89.62
491.874	94.62
492.092	101.62
492.31	105.62
492.527	91.62
492.745	82.62
492.963	96.62
493.18	93.62
493.398	87.62
493.615	95.62
493.833	90.62
494.05	89.62
494.268	84.62
494.485	72.62
494.703	97.62
494.92	98.62
495.138	91.62
495.355	89.62
495.573	91.62
495.79	88.62
496.008	99.62
496.225	111.62
496.442	79.62
496.66	103.62
496.877	103.62
497.094	104.62
497.312	92.62
497.529	104.62
497.746	91.62
497.963	89.62
498.181	96.62
498.398	83.62
498.615	102.62
498.832	103.62
499.049	102.62
499.267	97.62
499.484	75.62
499.701	100.62
499.918	109.62
500.135	102.62
500.352	82.62
500.569	105.62
500.786	112.62
501.003	112.62
501.22	100.62
501.437	108.62
501.654	96.62
501.871	77.62
502.088	103.62
502.305	87.62
502.522	82.62
502.739	91.62
502.956	84.62
503.172	99.62
503.389	87.62
503.606	93.62
503.823	90.62
504.04	95.62
504.256	83.62
504.473	89.62
504.69	97.62
504.907	104.62
505.123	92.62
505.34	97.62
505.557	89.62
505.773	113.62
505.99	82.62
506.207	90.62
506.423	91.62
506.64	92.62
506.856	86.62
507.073	83.62
507.289	101.62
507.506	89.62
507.722	84.62
507.939	74.62
508.155	83.62
508.372	75.62
508.588	91.62
508.805	98.62
509.021	97.62
509.238	85.62
509.454	97.62
509.67	71.62
509.887	85.62
510.103	85.62
510.319	98.62
510.536	70.62
510.752	79.62
510.968	94.62
511.184	95.62
511.401	77.62
511.617	89.62
511.833	91.62
512.049	84.62
512.265	89.62
512.481	93.62
512.698	83.62
512.914	79.62
513.13	89.62
513.346	89.62
513.562	83.62
513.778	83.62
513.994	90.62
514.21	97.62
514.426	95.62
514.642	96.62
514.858	92.62
515.074	91.62
515.29	95.62
515.506	101.62
515.721	99.62
515.937	87.62
516.153	84.62
516.369	87.62
516.585	90.62
516.801	86.62
517.016	90.62
517.232	90.62
517.448	83.62
517.664	90.62
517.879	98.62
518.095	88.62
518.311	89.62
518.527	80.62
518.742	89.62
518.958	84.62
