Data from Ni(NO3)2@0.0625M.TitratingCurve.Agarose3%dH2O.NegLispCup.LampEnergy10.LIBS07252019_HRD10591_18-14-22-569.txt Node
Date: Thu Jul 25 18:14:22 EDT 2019
User: cochatt
Spectrometer: HR+D1059
Trigger mode: 1
Integration Time (sec): 1.000000E-1
Scans to average: 1
Electric dark correction enabled: true
Nonlinearity correction enabled: false
Boxcar width: 0
XAxis mode: Wavelengths
Number of Pixels in Spectrum: 2048
>>>>>Begin Spectral Data<<<<<
223.165	-4.25
223.4	-4.25
223.635	-4.25
223.869	-21.25
224.104	-2.25
224.338	-14.25
224.573	-26.25
224.808	-20.25
225.042	-17.25
225.277	1.75
225.511	1.75
225.746	3.75
225.98	2.75
226.215	5.75
226.449	11.75
226.683	23.75
226.918	26.75
227.152	27.75
227.387	38.75
227.621	35.75
227.856	49.75
228.09	39.75
228.324	57.75
228.559	51.75
228.793	60.75
229.027	90.75
229.262	99.75
229.496	93.75
229.73	103.75
229.964	122.75
230.199	123.75
230.433	97.75
230.667	110.75
230.901	112.75
231.136	135.75
231.37	133.75
231.604	124.75
231.838	119.75
232.072	126.75
232.306	117.75
232.541	117.75
232.775	123.75
233.009	140.75
233.243	133.75
233.477	131.75
233.711	111.75
233.945	136.75
234.179	127.75
234.413	134.75
234.647	128.75
234.881	132.75
235.115	119.75
235.349	148.75
235.583	134.75
235.817	126.75
236.051	127.75
236.285	143.75
236.519	128.75
236.753	131.75
236.987	133.75
237.221	132.75
237.455	131.75
237.689	131.75
237.922	154.75
238.156	143.75
238.39	139.75
238.624	140.75
238.858	131.75
239.091	145.75
239.325	153.75
239.559	140.75
239.793	154.75
240.027	143.75
240.26	154.75
240.494	141.75
240.728	143.75
240.961	148.75
241.195	151.75
241.429	159.75
241.662	162.75
241.896	164.75
242.13	167.75
242.363	158.75
242.597	162.75
242.83	166.75
243.064	164.75
243.298	174.75
243.531	170.75
243.765	169.75
243.998	169.75
244.232	188.75
244.465	175.75
244.699	153.75
244.932	159.75
245.166	168.75
245.399	192.75
245.633	184.75
245.866	182.75
246.099	183.75
246.333	201.75
246.566	174.75
246.8	174.75
247.033	192.75
247.266	190.75
247.5	184.75
247.733	183.75
247.966	179.75
248.2	193.75
248.433	198.75
248.666	195.75
248.899	189.75
249.133	198.75
249.366	197.75
249.599	206.75
249.832	187.75
250.066	214.75
250.299	206.75
250.532	193.75
250.765	209.75
250.998	198.75
251.231	217.75
251.465	198.75
251.698	214.75
251.931	216.75
252.164	215.75
252.397	210.75
252.63	201.75
252.863	181.75
253.096	217.75
253.329	202.75
253.562	205.75
253.795	211.75
254.028	223.75
254.261	227.75
254.494	220.75
254.727	205.75
254.96	200.75
255.193	207.75
255.426	217.75
255.659	227.75
255.892	211.75
256.124	214.75
256.357	217.75
256.59	232.75
256.823	229.75
257.056	231.75
257.289	225.75
257.521	244.75
257.754	233.75
257.987	261.75
258.22	242.75
258.452	241.75
258.685	241.75
258.918	229.75
259.151	258.75
259.383	246.75
259.616	244.75
259.849	242.75
260.081	247.75
260.314	231.75
260.547	241.75
260.779	228.75
261.012	234.75
261.244	241.75
261.477	257.75
261.71	244.75
261.942	261.75
262.175	267.75
262.407	266.75
262.64	253.75
262.872	247.75
263.105	257.75
263.337	257.75
263.57	250.75
263.802	266.75
264.035	272.75
264.267	265.75
264.499	275.75
264.732	277.75
264.964	274.75
265.197	275.75
265.429	282.75
265.661	274.75
265.894	284.75
266.126	260.75
266.358	255.75
266.591	265.75
266.823	260.75
267.055	265.75
267.287	277.75
267.52	272.75
267.752	266.75
267.984	283.75
268.216	284.75
268.448	275.75
268.681	279.75
268.913	265.75
269.145	291.75
269.377	286.75
269.609	290.75
269.841	290.75
270.073	286.75
270.306	281.75
270.538	284.75
270.77	285.75
271.002	303.75
271.234	269.75
271.466	285.75
271.698	282.75
271.93	287.75
272.162	297.75
272.394	296.75
272.626	305.75
272.858	293.75
273.09	292.75
273.322	310.75
273.553	303.75
273.785	312.75
274.017	282.75
274.249	313.75
274.481	310.75
274.713	311.75
274.945	333.75
275.176	324.75
275.408	313.75
275.64	318.75
275.872	310.75
276.104	331.75
276.335	314.75
276.567	343.75
276.799	307.75
277.031	333.75
277.262	324.75
277.494	339.75
277.726	330.75
277.957	337.75
278.189	322.75
278.421	340.75
278.652	333.75
278.884	324.75
279.115	353.75
279.347	331.75
279.579	318.75
279.81	342.75
280.042	341.75
280.273	344.75
280.505	337.75
280.736	350.75
280.968	346.75
281.199	341.75
281.431	374.75
281.662	342.75
281.894	351.75
282.125	364.75
282.356	350.75
282.588	366.75
282.819	357.75
283.051	363.75
283.282	359.75
283.513	354.75
283.745	349.75
283.976	336.75
284.207	362.75
284.439	369.75
284.67	364.75
284.901	362.75
285.132	374.75
285.364	369.75
285.595	350.75
285.826	373.75
286.057	374.75
286.288	369.75
286.52	387.75
286.751	390.75
286.982	395.75
287.213	390.75
287.444	372.75
287.675	372.75
287.906	392.75
288.138	376.75
288.369	392.75
288.6	400.75
288.831	395.75
289.062	393.75
289.293	393.75
289.524	413.75
289.755	385.75
289.986	369.75
290.217	393.75
290.448	396.75
290.679	403.75
290.91	393.75
291.141	393.75
291.371	393.75
291.602	398.75
291.833	395.75
292.064	372.75
292.295	397.75
292.526	407.75
292.757	403.75
292.987	417.75
293.218	402.75
293.449	409.75
293.68	398.75
293.91	391.75
294.141	383.75
294.372	391.75
294.603	419.75
294.833	437.75
295.064	427.75
295.295	413.75
295.525	419.75
295.756	428.75
295.987	411.75
296.217	432.75
296.448	405.75
296.679	419.75
296.909	427.75
297.14	423.75
297.37	430.75
297.601	425.75
297.831	406.75
298.062	431.75
298.292	447.75
298.523	452.75
298.753	453.75
298.984	439.75
299.214	422.75
299.445	423.75
299.675	435.75
299.905	431.75
300.136	433.75
300.366	437.75
300.597	457.75
300.827	437.75
301.057	464.75
301.288	458.75
301.518	450.75
301.748	450.75
301.979	479.75
302.209	452.75
302.439	441.75
302.669	447.75
302.9	441.75
303.13	437.75
303.36	426.75
303.59	458.75
303.82	428.75
304.051	457.75
304.281	451.75
304.511	442.75
304.741	450.75
304.971	442.75
305.201	461.75
305.431	447.75
305.661	440.75
305.891	438.75
306.121	422.75
306.352	443.75
306.582	427.75
306.812	437.75
307.042	424.75
307.272	435.75
307.502	441.75
307.731	436.75
307.961	437.75
308.191	436.75
308.421	445.75
308.651	432.75
308.881	427.75
309.111	412.75
309.341	434.75
309.571	430.75
309.8	451.75
310.03	445.75
310.26	411.75
310.49	433.75
310.72	414.75
310.949	428.75
311.179	443.75
311.409	455.75
311.639	443.75
311.868	438.75
312.098	440.75
312.328	448.75
312.557	460.75
312.787	454.75
313.017	442.75
313.246	468.75
313.476	463.75
313.706	489.75
313.935	482.75
314.165	461.75
314.394	454.75
314.624	473.75
314.853	454.75
315.083	457.75
315.312	452.75
315.542	484.75
315.771	439.75
316.001	472.75
316.23	453.75
316.46	462.75
316.689	457.75
316.919	453.75
317.148	458.75
317.377	461.75
317.607	475.75
317.836	463.75
318.065	464.75
318.295	452.75
318.524	441.75
318.753	471.75
318.983	471.75
319.212	468.75
319.441	444.75
319.67	465.75
319.9	456.75
320.129	454.75
320.358	456.75
320.587	473.75
320.816	478.75
321.046	475.75
321.275	457.75
321.504	468.75
321.733	457.75
321.962	450.75
322.191	484.75
322.42	464.75
322.649	450.75
322.878	451.75
323.108	463.75
323.337	474.75
323.566	470.75
323.795	454.75
324.024	473.75
324.253	504.75
324.482	467.75
324.71	476.75
324.939	490.75
325.168	471.75
325.397	480.75
325.626	490.75
325.855	502.75
326.084	521.75
326.313	507.75
326.542	520.75
326.77	505.75
326.999	499.75
327.228	490.75
327.457	482.75
327.686	498.75
327.914	494.75
328.143	519.75
328.372	507.75
328.6	495.75
328.829	504.75
329.058	494.75
329.287	526.75
329.515	533.75
329.744	509.75
329.972	526.75
330.201	511.75
330.43	514.75
330.658	517.75
330.887	532.75
331.115	535.75
331.344	529.75
331.572	529.75
331.801	543.75
332.03	550.75
332.258	569.75
332.486	583.75
332.715	607.75
332.943	611.75
333.172	644.75
333.4	689.75
333.629	703.75
333.857	660.75
334.085	678.75
334.314	680.75
334.542	654.75
334.771	637.75
334.999	625.75
335.227	630.75
335.455	655.75
335.684	642.75
335.912	637.75
336.14	620.75
336.369	617.75
336.597	611.75
336.825	604.75
337.053	607.75
337.281	612.75
337.51	588.75
337.738	589.75
337.966	581.75
338.194	583.75
338.422	566.75
338.65	561.75
338.878	562.75
339.106	557.75
339.334	545.75
339.562	571.75
339.79	546.75
340.018	545.75
340.246	524.75
340.474	539.75
340.702	539.75
340.93	532.75
341.158	549.75
341.386	520.75
341.614	513.75
341.842	546.75
342.07	519.75
342.298	527.75
342.526	527.75
342.754	536.75
342.981	553.75
343.209	531.75
343.437	583.75
343.665	607.75
343.893	651.75
344.12	685.75
344.348	627.75
344.576	604.75
344.804	589.75
345.031	583.75
345.259	565.75
345.487	562.75
345.714	533.75
345.942	543.75
346.17	534.75
346.397	535.75
346.625	540.75
346.853	505.75
347.08	523.75
347.308	526.75
347.535	550.75
347.763	545.75
347.99	509.75
348.218	540.75
348.445	534.75
348.673	526.75
348.9	514.75
349.128	538.75
349.355	515.75
349.583	513.75
349.81	508.75
350.037	523.75
350.265	517.75
350.492	486.75
350.72	497.75
350.947	489.75
351.174	527.75
351.402	506.75
351.629	510.75
351.856	512.75
352.083	539.75
352.311	514.75
352.538	504.75
352.765	523.75
352.992	491.75
353.22	515.75
353.447	502.75
353.674	493.75
353.901	507.75
354.128	506.75
354.355	484.75
354.583	501.75
354.81	497.75
355.037	498.75
355.264	524.75
355.491	503.75
355.718	502.75
355.945	497.75
356.172	512.75
356.399	503.75
356.626	479.75
356.853	493.75
357.08	502.75
357.307	509.75
357.534	497.75
357.761	514.75
357.988	510.75
358.215	513.75
358.441	494.75
358.668	521.75
358.895	502.75
359.122	512.75
359.349	494.75
359.576	498.75
359.802	483.75
360.029	511.75
360.256	517.75
360.483	493.75
360.709	517.75
360.936	515.75
361.163	502.75
361.39	500.75
361.616	501.75
361.843	502.75
362.07	493.75
362.296	507.75
362.523	504.75
362.749	511.75
362.976	506.75
363.203	524.75
363.429	488.75
363.656	493.75
363.882	504.75
364.109	487.75
364.335	497.75
364.562	500.75
364.788	484.75
365.015	491.75
365.241	494.75
365.468	490.75
365.694	493.75
365.92	499.75
366.147	475.75
366.373	499.75
366.599	500.75
366.826	483.75
367.052	515.75
367.278	500.75
367.505	486.75
367.731	497.75
367.957	495.75
368.184	494.75
368.41	513.75
368.636	510.75
368.862	521.75
369.089	514.75
369.315	511.75
369.541	510.75
369.767	538.75
369.993	514.75
370.219	525.75
370.445	514.75
370.672	537.75
370.898	515.75
371.124	535.75
371.35	535.75
371.576	546.75
371.802	542.75
372.028	552.75
372.254	556.75
372.48	556.75
372.706	577.75
372.932	589.75
373.158	557.75
373.384	550.75
373.61	543.75
373.835	561.75
374.061	549.75
374.287	581.75
374.513	576.75
374.739	604.75
374.965	588.75
375.191	612.75
375.416	611.75
375.642	595.75
375.868	577.75
376.094	571.75
376.319	557.75
376.545	547.75
376.771	552.75
376.997	542.75
377.222	548.75
377.448	530.75
377.674	556.75
377.899	545.75
378.125	547.75
378.35	526.75
378.576	539.75
378.802	551.75
379.027	543.75
379.253	547.75
379.478	535.75
379.704	550.75
379.929	536.75
380.155	539.75
380.38	540.75
380.606	563.75
380.831	546.75
381.057	565.75
381.282	543.75
381.507	553.75
381.733	555.75
381.958	541.75
382.184	553.75
382.409	552.75
382.634	591.75
382.86	552.75
383.085	566.75
383.31	608.75
383.535	593.75
383.761	605.75
383.986	626.75
384.211	641.75
384.436	646.75
384.662	664.75
384.887	655.75
385.112	674.75
385.337	666.75
385.562	660.75
385.787	634.75
386.013	680.75
386.238	687.75
386.463	672.75
386.688	675.75
386.913	662.75
387.138	625.75
387.363	651.75
387.588	663.75
387.813	675.75
388.038	632.75
388.263	645.75
388.488	667.75
388.713	675.75
388.938	631.75
389.163	630.75
389.387	628.75
389.612	640.75
389.837	646.75
390.062	633.75
390.287	637.75
390.512	614.75
390.736	652.75
390.961	657.75
391.186	661.75
391.411	703.75
391.636	714.75
391.86	730.75
392.085	764.75
392.31	738.75
392.534	715.75
392.759	714.75
392.984	709.75
393.208	683.75
393.433	692.75
393.658	685.75
393.882	708.75
394.107	679.75
394.331	721.75
394.556	697.75
394.78	712.75
395.005	733.75
395.229	690.75
395.454	690.75
395.678	732.75
395.903	739.75
396.127	720.75
396.352	682.75
396.576	694.75
396.801	698.75
397.025	651.75
397.249	717.75
397.474	745.75
397.698	713.75
397.922	709.75
398.147	727.75
398.371	739.75
398.595	760.75
398.82	776.75
399.044	854.75
399.268	956.75
399.492	1125.75
399.717	1272.75
399.941	1275.75
400.165	1130.75
400.389	977.75
400.613	879.75
400.837	833.75
401.062	817.75
401.286	815.75
401.51	804.75
401.734	830.75
401.958	814.75
402.182	842.75
402.406	844.75
402.63	845.75
402.854	882.75
403.078	889.75
403.302	892.75
403.526	931.75
403.75	951.75
403.974	978.75
404.198	971.75
404.422	968.75
404.645	946.75
404.869	939.75
405.093	953.75
405.317	929.75
405.541	917.75
405.765	905.75
405.988	904.75
406.212	908.75
406.436	918.75
406.66	932.75
406.883	931.75
407.107	1010.75
407.331	1047.75
407.555	1089.75
407.778	1058.75
408.002	1057.75
408.226	973.75
408.449	958.75
408.673	941.75
408.896	926.75
409.12	915.75
409.344	949.75
409.567	920.75
409.791	953.75
410.014	970.75
410.238	910.75
410.461	922.75
410.685	918.75
410.908	894.75
411.132	904.75
411.355	882.75
411.578	844.75
411.802	835.75
412.025	864.75
412.249	864.75
412.472	845.75
412.695	825.75
412.919	795.75
413.142	815.75
413.365	803.75
413.589	805.75
413.812	822.75
414.035	775.75
414.258	793.75
414.482	822.75
414.705	847.75
414.928	845.75
415.151	838.75
415.374	820.75
415.597	823.75
415.821	802.75
416.044	806.75
416.267	809.75
416.49	806.75
416.713	802.75
416.936	805.75
417.159	788.75
417.382	795.75
417.605	811.75
417.828	832.75
418.051	820.75
418.274	813.75
418.497	824.75
418.72	844.75
418.943	834.75
419.166	879.75
419.389	946.75
419.611	923.75
419.834	913.75
420.057	854.75
420.28	826.75
420.503	829.75
420.726	808.75
420.948	802.75
421.171	814.75
421.394	815.75
421.617	826.75
421.839	821.75
422.062	830.75
422.285	797.75
422.507	830.75
422.73	835.75
422.953	855.75
423.175	876.75
423.398	867.75
423.621	853.75
423.843	886.75
424.066	894.75
424.288	861.75
424.511	875.75
424.733	871.75
424.956	846.75
425.178	852.75
425.401	807.75
425.623	827.75
425.846	780.75
426.068	788.75
426.291	794.75
426.513	782.75
426.735	750.75
426.958	764.75
427.18	765.75
427.402	745.75
427.625	757.75
427.847	713.75
428.069	716.75
428.292	722.75
428.514	729.75
428.736	724.75
428.958	731.75
429.181	715.75
429.403	708.75
429.625	708.75
429.847	715.75
430.069	722.75
430.292	711.75
430.514	714.75
430.736	717.75
430.958	722.75
431.18	698.75
431.402	715.75
431.624	724.75
431.846	737.75
432.068	739.75
432.29	744.75
432.512	747.75
432.734	735.75
432.956	714.75
433.178	732.75
433.4	727.75
433.622	729.75
433.844	760.75
434.066	722.75
434.287	755.75
434.509	772.75
434.731	815.75
434.953	811.75
435.175	866.75
435.397	806.75
435.618	783.75
435.84	763.75
436.062	731.75
436.284	768.75
436.505	723.75
436.727	730.75
436.949	764.75
437.17	739.75
437.392	724.75
437.614	720.75
437.835	695.75
438.057	719.75
438.278	672.75
438.5	699.75
438.721	711.75
438.943	705.75
439.165	716.75
439.386	719.75
439.608	713.75
439.829	725.75
440.05	723.75
440.272	731.75
440.493	754.75
440.715	753.75
440.936	761.75
441.158	779.75
441.379	814.75
441.6	833.75
441.822	861.75
442.043	826.75
442.264	837.75
442.486	800.75
442.707	854.75
442.928	822.75
443.149	813.75
443.371	819.75
443.592	825.75
443.813	807.75
444.034	868.75
444.255	885.75
444.476	886.75
444.698	981.75
444.919	997.75
445.14	1046.75
445.361	953.75
445.582	861.75
445.803	808.75
446.024	779.75
446.245	750.75
446.466	762.75
446.687	753.75
446.908	726.75
447.129	716.75
447.35	717.75
447.571	719.75
447.792	690.75
448.013	696.75
448.234	705.75
448.455	689.75
448.675	691.75
448.896	683.75
449.117	655.75
449.338	665.75
449.559	662.75
449.779	649.75
450	677.75
450.221	681.75
450.442	695.75
450.662	677.75
450.883	712.75
451.104	704.75
451.324	717.75
451.545	703.75
451.766	687.75
451.986	686.75
452.207	704.75
452.428	684.75
452.648	693.75
452.869	675.75
453.089	659.75
453.31	696.75
453.53	671.75
453.751	657.75
453.971	665.75
454.192	666.75
454.412	635.75
454.633	633.75
454.853	636.75
455.073	632.75
455.294	633.75
455.514	632.75
455.734	633.75
455.955	628.75
456.175	645.75
456.395	654.75
456.616	639.75
456.836	660.75
457.056	637.75
457.276	634.75
457.497	645.75
457.717	638.75
457.937	609.75
458.157	661.75
458.377	654.75
458.598	675.75
458.818	683.75
459.038	706.75
459.258	743.75
459.478	747.75
459.698	769.75
459.918	758.75
460.138	769.75
460.358	858.75
460.578	878.75
460.798	908.75
461.018	898.75
461.238	871.75
461.458	874.75
461.678	862.75
461.898	888.75
462.118	879.75
462.338	942.75
462.558	969.75
462.777	985.75
462.997	1076.75
463.217	1199.75
463.437	1234.75
463.657	1104.75
463.876	1031.75
464.096	1036.75
464.316	1022.75
464.536	1073.75
464.755	1002.75
464.975	970.75
465.195	902.75
465.414	869.75
465.634	804.75
465.854	778.75
466.073	776.75
466.293	743.75
466.512	736.75
466.732	724.75
466.951	678.75
467.171	662.75
467.391	717.75
467.61	733.75
467.829	713.75
468.049	703.75
468.268	659.75
468.488	662.75
468.707	669.75
468.927	653.75
469.146	694.75
469.365	678.75
469.585	690.75
469.804	713.75
470.023	739.75
470.243	736.75
470.462	742.75
470.681	776.75
470.901	728.75
471.12	697.75
471.339	718.75
471.558	706.75
471.777	667.75
471.997	657.75
472.216	687.75
472.435	668.75
472.654	670.75
472.873	650.75
473.092	667.75
473.311	659.75
473.53	662.75
473.749	663.75
473.968	658.75
474.187	655.75
474.406	646.75
474.625	679.75
474.844	676.75
475.063	683.75
475.282	663.75
475.501	655.75
475.72	671.75
475.939	668.75
476.158	667.75
476.377	699.75
476.596	682.75
476.814	688.75
477.033	705.75
477.252	690.75
477.471	725.75
477.69	750.75
477.908	758.75
478.127	785.75
478.346	812.75
478.564	815.75
478.783	829.75
479.002	823.75
479.22	851.75
479.439	828.75
479.658	824.75
479.876	840.75
480.095	846.75
480.313	882.75
480.532	895.75
480.751	910.75
480.969	850.75
481.188	825.75
481.406	781.75
481.624	778.75
481.843	788.75
482.061	745.75
482.28	754.75
482.498	755.75
482.717	735.75
482.935	755.75
483.153	753.75
483.372	765.75
483.59	735.75
483.808	727.75
484.027	759.75
484.245	774.75
484.463	763.75
484.681	789.75
484.9	771.75
485.118	803.75
485.336	772.75
485.554	773.75
485.772	819.75
485.99	850.75
486.209	829.75
486.427	836.75
486.645	824.75
486.863	822.75
487.081	805.75
487.299	801.75
487.517	811.75
487.735	814.75
487.953	783.75
488.171	825.75
488.389	776.75
488.607	787.75
488.825	778.75
489.043	774.75
489.261	785.75
489.479	793.75
489.696	799.75
489.914	806.75
490.132	799.75
490.35	802.75
490.568	795.75
490.786	807.75
491.003	787.75
491.221	798.75
491.439	778.75
491.657	775.75
491.874	821.75
492.092	807.75
492.31	810.75
492.527	822.75
492.745	827.75
492.963	806.75
493.18	812.75
493.398	845.75
493.615	828.75
493.833	847.75
494.05	833.75
494.268	837.75
494.485	839.75
494.703	860.75
494.92	855.75
495.138	849.75
495.355	822.75
495.573	844.75
495.79	849.75
496.008	843.75
496.225	854.75
496.442	863.75
496.66	866.75
496.877	860.75
497.094	883.75
497.312	920.75
497.529	913.75
497.746	915.75
497.963	958.75
498.181	984.75
498.398	1030.75
498.615	1111.75
498.832	1171.75
499.049	1289.75
499.267	1373.75
499.484	1529.75
499.701	1692.75
499.918	1871.75
500.135	2162.75
500.352	2547.75
500.569	2710.75
500.786	2679.75
501.003	2434.75
501.22	2113.75
