Data from Ni(NO3)2@0.125M.TitratingCurve.Agarose3%dH2O.NegLispCup.LampEnergy10.LIBS07252019_HRD10591_18-08-21-568.txt Node
Date: Thu Jul 25 18:08:21 EDT 2019
User: cochatt
Spectrometer: HR+D1059
Trigger mode: 1
Integration Time (sec): 1.000000E-1
Scans to average: 1
Electric dark correction enabled: true
Nonlinearity correction enabled: false
Boxcar width: 0
XAxis mode: Wavelengths
Number of Pixels in Spectrum: 2048
>>>>>Begin Spectral Data<<<<<
223.165	-10.94
223.4	-10.94
223.635	-10.94
223.869	-7.94
224.104	-9.94
224.338	-18.94
224.573	-29.94
224.808	-16.94
225.042	-3.94
225.277	3.06
225.511	-1.94
225.746	-7.94
225.98	9.06
226.215	4.06
226.449	26.06
226.683	14.06
226.918	16.06
227.152	36.06
227.387	22.06
227.621	38.06
227.856	40.06
228.09	59.06
228.324	60.06
228.559	46.06
228.793	62.06
229.027	112.06
229.262	138.06
229.496	128.06
229.73	130.06
229.964	138.06
230.199	154.06
230.433	166.06
230.667	149.06
230.901	137.06
231.136	138.06
231.37	142.06
231.604	155.06
231.838	161.06
232.072	186.06
232.306	168.06
232.541	166.06
232.775	153.06
233.009	145.06
233.243	158.06
233.477	156.06
233.711	150.06
233.945	148.06
234.179	146.06
234.413	159.06
234.647	168.06
234.881	154.06
235.115	156.06
235.349	159.06
235.583	149.06
235.817	163.06
236.051	157.06
236.285	164.06
236.519	154.06
236.753	151.06
236.987	158.06
237.221	167.06
237.455	154.06
237.689	162.06
237.922	160.06
238.156	186.06
238.39	168.06
238.624	168.06
238.858	158.06
239.091	167.06
239.325	166.06
239.559	181.06
239.793	189.06
240.027	199.06
240.26	176.06
240.494	186.06
240.728	165.06
240.961	183.06
241.195	166.06
241.429	180.06
241.662	184.06
241.896	202.06
242.13	212.06
242.363	190.06
242.597	192.06
242.83	187.06
243.064	188.06
243.298	207.06
243.531	201.06
243.765	207.06
243.998	219.06
244.232	205.06
244.465	218.06
244.699	203.06
244.932	212.06
245.166	222.06
245.399	214.06
245.633	205.06
245.866	208.06
246.099	220.06
246.333	222.06
246.566	213.06
246.8	219.06
247.033	218.06
247.266	203.06
247.5	221.06
247.733	230.06
247.966	233.06
248.2	234.06
248.433	218.06
248.666	224.06
248.899	235.06
249.133	243.06
249.366	228.06
249.599	236.06
249.832	273.06
250.066	247.06
250.299	236.06
250.532	278.06
250.765	244.06
250.998	268.06
251.231	276.06
251.465	266.06
251.698	286.06
251.931	268.06
252.164	278.06
252.397	279.06
252.63	280.06
252.863	256.06
253.096	287.06
253.329	270.06
253.562	289.06
253.795	271.06
254.028	283.06
254.261	305.06
254.494	287.06
254.727	297.06
254.96	288.06
255.193	285.06
255.426	287.06
255.659	286.06
255.892	304.06
256.124	303.06
256.357	307.06
256.59	294.06
256.823	300.06
257.056	314.06
257.289	318.06
257.521	295.06
257.754	330.06
257.987	300.06
258.22	315.06
258.452	344.06
258.685	326.06
258.918	310.06
259.151	343.06
259.383	331.06
259.616	319.06
259.849	333.06
260.081	333.06
260.314	332.06
260.547	347.06
260.779	331.06
261.012	344.06
261.244	320.06
261.477	337.06
261.71	343.06
261.942	339.06
262.175	354.06
262.407	348.06
262.64	340.06
262.872	334.06
263.105	343.06
263.337	359.06
263.57	356.06
263.802	347.06
264.035	350.06
264.267	353.06
264.499	348.06
264.732	343.06
264.964	359.06
265.197	392.06
265.429	373.06
265.661	357.06
265.894	362.06
266.126	375.06
266.358	368.06
266.591	357.06
266.823	379.06
267.055	382.06
267.287	377.06
267.52	365.06
267.752	388.06
267.984	382.06
268.216	379.06
268.448	372.06
268.681	403.06
268.913	406.06
269.145	404.06
269.377	410.06
269.609	379.06
269.841	391.06
270.073	379.06
270.306	375.06
270.538	386.06
270.77	396.06
271.002	389.06
271.234	403.06
271.466	407.06
271.698	393.06
271.93	400.06
272.162	407.06
272.394	428.06
272.626	390.06
272.858	410.06
273.09	424.06
273.322	419.06
273.553	423.06
273.785	425.06
274.017	428.06
274.249	417.06
274.481	414.06
274.713	419.06
274.945	394.06
275.176	419.06
275.408	421.06
275.64	426.06
275.872	431.06
276.104	439.06
276.335	444.06
276.567	438.06
276.799	435.06
277.031	442.06
277.262	443.06
277.494	454.06
277.726	429.06
277.957	442.06
278.189	434.06
278.421	450.06
278.652	432.06
278.884	456.06
279.115	458.06
279.347	472.06
279.579	468.06
279.81	444.06
280.042	459.06
280.273	464.06
280.505	466.06
280.736	486.06
280.968	470.06
281.199	460.06
281.431	463.06
281.662	477.06
281.894	457.06
282.125	472.06
282.356	469.06
282.588	482.06
282.819	485.06
283.051	478.06
283.282	476.06
283.513	509.06
283.745	503.06
283.976	507.06
284.207	498.06
284.439	475.06
284.67	502.06
284.901	508.06
285.132	498.06
285.364	499.06
285.595	503.06
285.826	476.06
286.057	504.06
286.288	490.06
286.52	510.06
286.751	511.06
286.982	503.06
287.213	508.06
287.444	528.06
287.675	506.06
287.906	517.06
288.138	519.06
288.369	526.06
288.6	525.06
288.831	538.06
289.062	545.06
289.293	540.06
289.524	536.06
289.755	536.06
289.986	530.06
290.217	527.06
290.448	524.06
290.679	525.06
290.91	531.06
291.141	532.06
291.371	527.06
291.602	543.06
291.833	534.06
292.064	546.06
292.295	526.06
292.526	523.06
292.757	543.06
292.987	523.06
293.218	535.06
293.449	552.06
293.68	525.06
293.91	535.06
294.141	559.06
294.372	534.06
294.603	538.06
294.833	554.06
295.064	536.06
295.295	554.06
295.525	529.06
295.756	548.06
295.987	552.06
296.217	564.06
296.448	558.06
296.679	562.06
296.909	532.06
297.14	560.06
297.37	566.06
297.601	589.06
297.831	575.06
298.062	598.06
298.292	593.06
298.523	603.06
298.753	602.06
298.984	580.06
299.214	576.06
299.445	601.06
299.675	582.06
299.905	567.06
300.136	573.06
300.366	589.06
300.597	616.06
300.827	623.06
301.057	615.06
301.288	617.06
301.518	614.06
301.748	636.06
301.979	628.06
302.209	633.06
302.439	619.06
302.669	604.06
302.9	606.06
303.13	607.06
303.36	621.06
303.59	619.06
303.82	596.06
304.051	591.06
304.281	606.06
304.511	611.06
304.741	628.06
304.971	638.06
305.201	619.06
305.431	641.06
305.661	610.06
305.891	634.06
306.121	607.06
306.352	594.06
306.582	609.06
306.812	602.06
307.042	609.06
307.272	618.06
307.502	617.06
307.731	600.06
307.961	593.06
308.191	606.06
308.421	624.06
308.651	624.06
308.881	597.06
309.111	612.06
309.341	607.06
309.571	603.06
309.8	621.06
310.03	630.06
310.26	601.06
310.49	637.06
310.72	632.06
310.949	598.06
311.179	580.06
311.409	608.06
311.639	639.06
311.868	622.06
312.098	626.06
312.328	630.06
312.557	630.06
312.787	603.06
313.017	662.06
313.246	636.06
313.476	664.06
313.706	639.06
313.935	653.06
314.165	653.06
314.394	654.06
314.624	666.06
314.853	660.06
315.083	643.06
315.312	677.06
315.542	672.06
315.771	646.06
316.001	642.06
316.23	642.06
316.46	653.06
316.689	648.06
316.919	649.06
317.148	642.06
317.377	657.06
317.607	657.06
317.836	657.06
318.065	647.06
318.295	659.06
318.524	670.06
318.753	654.06
318.983	654.06
319.212	633.06
319.441	648.06
319.67	646.06
319.9	654.06
320.129	639.06
320.358	654.06
320.587	658.06
320.816	654.06
321.046	650.06
321.275	655.06
321.504	674.06
321.733	670.06
321.962	671.06
322.191	688.06
322.42	668.06
322.649	669.06
322.878	646.06
323.108	675.06
323.337	663.06
323.566	688.06
323.795	700.06
324.024	666.06
324.253	703.06
324.482	693.06
324.71	707.06
324.939	698.06
325.168	711.06
325.397	703.06
325.626	704.06
325.855	712.06
326.084	762.06
326.313	740.06
326.542	743.06
326.77	742.06
326.999	695.06
327.228	713.06
327.457	720.06
327.686	734.06
327.914	715.06
328.143	734.06
328.372	742.06
328.6	744.06
328.829	742.06
329.058	748.06
329.287	756.06
329.515	756.06
329.744	727.06
329.972	764.06
330.201	786.06
330.43	757.06
330.658	757.06
330.887	782.06
331.115	768.06
331.344	778.06
331.572	796.06
331.801	822.06
332.03	830.06
332.258	876.06
332.486	885.06
332.715	933.06
332.943	919.06
333.172	964.06
333.4	1016.06
333.629	1012.06
333.857	1017.06
334.085	1016.06
334.314	1011.06
334.542	986.06
334.771	968.06
334.999	922.06
335.227	927.06
335.455	948.06
335.684	930.06
335.912	894.06
336.14	927.06
336.369	902.06
336.597	915.06
336.825	893.06
337.053	888.06
337.281	911.06
337.51	877.06
337.738	884.06
337.966	888.06
338.194	868.06
338.422	868.06
338.65	808.06
338.878	836.06
339.106	811.06
339.334	860.06
339.562	840.06
339.79	822.06
340.018	776.06
340.246	804.06
340.474	817.06
340.702	786.06
340.93	821.06
341.158	816.06
341.386	827.06
341.614	820.06
341.842	813.06
342.07	806.06
342.298	779.06
342.526	804.06
342.754	806.06
342.981	792.06
343.209	815.06
343.437	864.06
343.665	916.06
343.893	1028.06
344.12	1004.06
344.348	960.06
344.576	909.06
344.804	875.06
345.031	855.06
345.259	811.06
345.487	810.06
345.714	817.06
345.942	814.06
346.17	826.06
346.397	826.06
346.625	785.06
346.853	761.06
347.08	798.06
347.308	773.06
347.535	790.06
347.763	783.06
347.99	793.06
348.218	789.06
348.445	772.06
348.673	785.06
348.9	767.06
349.128	749.06
349.355	799.06
349.583	763.06
349.81	781.06
350.037	776.06
350.265	757.06
350.492	735.06
350.72	717.06
350.947	728.06
351.174	749.06
351.402	746.06
351.629	804.06
351.856	757.06
352.083	746.06
352.311	738.06
352.538	774.06
352.765	778.06
352.992	738.06
353.22	740.06
353.447	717.06
353.674	735.06
353.901	733.06
354.128	736.06
354.355	698.06
354.583	729.06
354.81	741.06
355.037	770.06
355.264	749.06
355.491	734.06
355.718	755.06
355.945	750.06
356.172	735.06
356.399	751.06
356.626	765.06
356.853	754.06
357.08	758.06
357.307	736.06
357.534	747.06
357.761	744.06
357.988	758.06
358.215	726.06
358.441	732.06
358.668	739.06
358.895	739.06
359.122	744.06
359.349	724.06
359.576	730.06
359.802	748.06
360.029	739.06
360.256	749.06
360.483	741.06
360.709	740.06
360.936	746.06
361.163	746.06
361.39	744.06
361.616	723.06
361.843	735.06
362.07	749.06
362.296	765.06
362.523	720.06
362.749	728.06
362.976	717.06
363.203	738.06
363.429	741.06
363.656	729.06
363.882	730.06
364.109	729.06
364.335	715.06
364.562	721.06
364.788	743.06
365.015	746.06
365.241	718.06
365.468	731.06
365.694	757.06
365.92	722.06
366.147	718.06
366.373	730.06
366.599	734.06
366.826	699.06
367.052	731.06
367.278	718.06
367.505	718.06
367.731	725.06
367.957	754.06
368.184	752.06
368.41	764.06
368.636	745.06
368.862	763.06
369.089	741.06
369.315	771.06
369.541	756.06
369.767	758.06
369.993	762.06
370.219	750.06
370.445	784.06
370.672	770.06
370.898	769.06
371.124	793.06
371.35	809.06
371.576	796.06
371.802	780.06
372.028	796.06
372.254	784.06
372.48	802.06
372.706	800.06
372.932	831.06
373.158	808.06
373.384	792.06
373.61	791.06
373.835	835.06
374.061	790.06
374.287	814.06
374.513	819.06
374.739	815.06
374.965	884.06
375.191	885.06
375.416	829.06
375.642	864.06
375.868	840.06
376.094	822.06
376.319	812.06
376.545	812.06
376.771	799.06
376.997	787.06
377.222	779.06
377.448	765.06
377.674	812.06
377.899	806.06
378.125	778.06
378.35	777.06
378.576	792.06
378.802	777.06
379.027	792.06
379.253	786.06
379.478	755.06
379.704	796.06
379.929	783.06
380.155	774.06
380.38	799.06
380.606	772.06
380.831	758.06
381.057	797.06
381.282	783.06
381.507	779.06
381.733	799.06
381.958	810.06
382.184	838.06
382.409	812.06
382.634	814.06
382.86	839.06
383.085	851.06
383.31	855.06
383.535	867.06
383.761	850.06
383.986	902.06
384.211	920.06
384.436	929.06
384.662	932.06
384.887	941.06
385.112	921.06
385.337	940.06
385.562	967.06
385.787	939.06
386.013	938.06
386.238	941.06
386.463	932.06
386.688	941.06
386.913	925.06
387.138	940.06
387.363	924.06
387.588	913.06
387.813	936.06
388.038	946.06
388.263	919.06
388.488	923.06
388.713	932.06
388.938	922.06
389.163	904.06
389.387	889.06
389.612	890.06
389.837	915.06
390.062	895.06
390.287	912.06
390.512	927.06
390.736	938.06
390.961	941.06
391.186	994.06
391.411	982.06
391.636	1019.06
391.86	1053.06
392.085	1066.06
392.31	1062.06
392.534	1022.06
392.759	1012.06
392.984	1006.06
393.208	1020.06
393.433	995.06
393.658	986.06
393.882	1013.06
394.107	990.06
394.331	1008.06
394.556	1016.06
394.78	1034.06
395.005	1008.06
395.229	1015.06
395.454	1042.06
395.678	1067.06
395.903	1074.06
396.127	1040.06
396.352	997.06
396.576	973.06
396.801	954.06
397.025	967.06
397.249	996.06
397.474	1044.06
397.698	1062.06
397.922	1086.06
398.147	1046.06
398.371	1085.06
398.595	1086.06
398.82	1138.06
399.044	1235.06
399.268	1380.06
399.492	1586.06
399.717	1801.06
399.941	1769.06
400.165	1556.06
400.389	1415.06
400.613	1294.06
400.837	1233.06
401.062	1204.06
401.286	1170.06
401.51	1198.06
401.734	1188.06
401.958	1223.06
402.182	1215.06
402.406	1226.06
402.63	1245.06
402.854	1263.06
403.078	1258.06
403.302	1313.06
403.526	1331.06
403.75	1307.06
403.974	1366.06
404.198	1406.06
404.422	1384.06
404.645	1372.06
404.869	1376.06
405.093	1360.06
405.317	1312.06
405.541	1311.06
405.765	1296.06
405.988	1276.06
406.212	1279.06
406.436	1291.06
406.66	1360.06
406.883	1331.06
407.107	1445.06
407.331	1486.06
407.555	1509.06
407.778	1537.06
408.002	1497.06
408.226	1463.06
408.449	1411.06
408.673	1362.06
408.896	1338.06
409.12	1325.06
409.344	1328.06
409.567	1339.06
409.791	1329.06
410.014	1332.06
410.238	1328.06
410.461	1315.06
410.685	1267.06
410.908	1293.06
411.132	1244.06
411.355	1202.06
411.578	1195.06
411.802	1210.06
412.025	1247.06
412.249	1263.06
412.472	1225.06
412.695	1210.06
412.919	1196.06
413.142	1224.06
413.365	1176.06
413.589	1182.06
413.812	1160.06
414.035	1197.06
414.258	1150.06
414.482	1164.06
414.705	1204.06
414.928	1216.06
415.151	1208.06
415.374	1189.06
415.597	1183.06
415.821	1163.06
416.044	1180.06
416.267	1167.06
416.49	1159.06
416.713	1178.06
416.936	1147.06
417.159	1167.06
417.382	1168.06
417.605	1146.06
417.828	1172.06
418.051	1193.06
418.274	1166.06
418.497	1186.06
418.72	1225.06
418.943	1210.06
419.166	1280.06
419.389	1365.06
419.611	1330.06
419.834	1291.06
420.057	1232.06
420.28	1196.06
420.503	1144.06
420.726	1145.06
420.948	1162.06
421.171	1180.06
421.394	1152.06
421.617	1203.06
421.839	1165.06
422.062	1178.06
422.285	1167.06
422.507	1216.06
422.73	1179.06
422.953	1243.06
423.175	1236.06
423.398	1271.06
423.621	1248.06
423.843	1285.06
424.066	1300.06
424.288	1234.06
424.511	1244.06
424.733	1223.06
424.956	1198.06
425.178	1197.06
425.401	1187.06
425.623	1191.06
425.846	1183.06
426.068	1163.06
426.291	1115.06
426.513	1126.06
426.735	1095.06
426.958	1120.06
427.18	1100.06
427.402	1072.06
427.625	1116.06
427.847	1086.06
428.069	1080.06
428.292	1076.06
428.514	1029.06
428.736	1038.06
428.958	1080.06
429.181	1033.06
429.403	999.06
429.625	1024.06
429.847	1052.06
430.069	1015.06
430.292	1043.06
430.514	1022.06
430.736	997.06
430.958	1058.06
431.18	1031.06
431.402	1045.06
431.624	1040.06
431.846	1073.06
432.068	1062.06
432.29	1085.06
432.512	1034.06
432.734	1091.06
432.956	1035.06
433.178	1078.06
433.4	1086.06
433.622	1109.06
433.844	1081.06
434.066	1087.06
434.287	1114.06
434.509	1130.06
434.731	1153.06
434.953	1220.06
435.175	1240.06
435.397	1210.06
435.618	1122.06
435.84	1106.06
436.062	1083.06
436.284	1067.06
436.505	1086.06
436.727	1076.06
436.949	1094.06
437.17	1084.06
437.392	1043.06
437.614	1059.06
437.835	1026.06
438.057	1026.06
438.278	1035.06
438.5	1009.06
438.721	1033.06
438.943	1042.06
439.165	1022.06
439.386	1037.06
439.608	1070.06
439.829	1078.06
440.05	1041.06
440.272	1048.06
440.493	1076.06
440.715	1109.06
440.936	1111.06
441.158	1139.06
441.379	1152.06
441.6	1235.06
441.822	1234.06
442.043	1204.06
442.264	1202.06
442.486	1187.06
442.707	1190.06
442.928	1184.06
443.149	1199.06
443.371	1172.06
443.592	1236.06
443.813	1203.06
444.034	1203.06
444.255	1266.06
444.476	1355.06
444.698	1438.06
444.919	1476.06
445.14	1538.06
445.361	1378.06
445.582	1252.06
445.803	1171.06
446.024	1137.06
446.245	1109.06
446.466	1091.06
446.687	1074.06
446.908	1086.06
447.129	1036.06
447.35	1038.06
447.571	1014.06
447.792	1009.06
448.013	1038.06
448.234	1004.06
448.455	993.06
448.675	996.06
448.896	1010.06
449.117	959.06
449.338	976.06
449.559	939.06
449.779	958.06
450	972.06
450.221	948.06
450.442	977.06
450.662	982.06
450.883	1033.06
451.104	1028.06
451.324	1020.06
451.545	1003.06
451.766	976.06
451.986	999.06
452.207	996.06
452.428	978.06
452.648	975.06
452.869	945.06
453.089	966.06
453.31	974.06
453.53	940.06
453.751	939.06
453.971	939.06
454.192	955.06
454.412	937.06
454.633	931.06
454.853	934.06
455.073	918.06
455.294	903.06
455.514	907.06
455.734	927.06
455.955	933.06
456.175	922.06
456.395	912.06
456.616	910.06
456.836	912.06
457.056	894.06
457.276	913.06
457.497	902.06
457.717	934.06
457.937	911.06
458.157	899.06
458.377	922.06
458.598	957.06
458.818	946.06
459.038	1015.06
459.258	1049.06
459.478	1087.06
459.698	1138.06
459.918	1179.06
460.138	1227.06
460.358	1272.06
460.578	1260.06
460.798	1322.06
461.018	1307.06
461.238	1224.06
461.458	1239.06
461.678	1251.06
461.898	1237.06
462.118	1249.06
462.338	1334.06
462.558	1406.06
462.777	1454.06
462.997	1562.06
463.217	1726.06
463.437	1733.06
463.657	1600.06
463.876	1478.06
464.096	1443.06
464.316	1469.06
464.536	1475.06
464.755	1398.06
464.975	1370.06
465.195	1316.06
465.414	1232.06
465.634	1154.06
465.854	1114.06
466.073	1090.06
466.293	1110.06
466.512	1079.06
466.732	1020.06
466.951	1040.06
467.171	1022.06
467.391	1012.06
467.61	1001.06
467.829	1039.06
468.049	1035.06
468.268	962.06
468.488	1010.06
468.707	975.06
468.927	982.06
469.146	1024.06
469.365	1010.06
469.585	1040.06
469.804	1036.06
470.023	1067.06
470.243	1035.06
470.462	1086.06
470.681	1078.06
470.901	1072.06
471.12	1057.06
471.339	1031.06
471.558	988.06
471.777	1009.06
471.997	1009.06
472.216	1013.06
472.435	982.06
472.654	1024.06
472.873	958.06
473.092	974.06
473.311	947.06
473.53	941.06
473.749	983.06
473.968	935.06
474.187	973.06
474.406	942.06
474.625	950.06
474.844	946.06
475.063	970.06
475.282	973.06
475.501	994.06
475.72	971.06
475.939	1000.06
476.158	967.06
476.377	1014.06
476.596	1008.06
476.814	1023.06
477.033	1040.06
477.252	1032.06
477.471	1051.06
477.69	1104.06
477.908	1129.06
478.127	1133.06
478.346	1169.06
478.564	1160.06
478.783	1203.06
479.002	1233.06
479.22	1262.06
479.439	1196.06
479.658	1199.06
479.876	1198.06
480.095	1215.06
480.313	1277.06
480.532	1281.06
480.751	1280.06
480.969	1238.06
481.188	1181.06
481.406	1172.06
481.624	1124.06
481.843	1126.06
482.061	1124.06
482.28	1092.06
482.498	1072.06
482.717	1095.06
482.935	1090.06
483.153	1123.06
483.372	1111.06
483.59	1125.06
483.808	1125.06
484.027	1131.06
484.245	1104.06
484.463	1124.06
484.681	1171.06
484.9	1140.06
485.118	1120.06
485.336	1142.06
485.554	1128.06
485.772	1148.06
485.99	1160.06
486.209	1189.06
486.427	1161.06
486.645	1184.06
486.863	1142.06
487.081	1175.06
487.299	1160.06
487.517	1170.06
487.735	1145.06
487.953	1176.06
488.171	1159.06
488.389	1143.06
488.607	1128.06
488.825	1132.06
489.043	1118.06
489.261	1129.06
489.479	1131.06
489.696	1148.06
489.914	1162.06
490.132	1180.06
490.35	1152.06
490.568	1163.06
490.786	1183.06
491.003	1180.06
491.221	1161.06
491.439	1193.06
491.657	1143.06
491.874	1158.06
492.092	1172.06
492.31	1207.06
492.527	1204.06
492.745	1208.06
492.963	1224.06
493.18	1205.06
493.398	1210.06
493.615	1200.06
493.833	1213.06
494.05	1238.06
494.268	1215.06
494.485	1194.06
494.703	1206.06
494.92	1267.06
495.138	1241.06
495.355	1254.06
495.573	1261.06
495.79	1248.06
496.008	1215.06
