Data from Ni(NO3)2@0.25M.TitratingCurve.Agarose3%dH2O.NegLispCup.LampEnergy10.LIBS07252019_HRD10591_18-03-33-565.txt Node
Date: Thu Jul 25 18:03:33 EDT 2019
User: cochatt
Spectrometer: HR+D1059
Trigger mode: 1
Integration Time (sec): 1.000000E-1
Scans to average: 1
Electric dark correction enabled: true
Nonlinearity correction enabled: false
Boxcar width: 0
XAxis mode: Wavelengths
Number of Pixels in Spectrum: 2048
>>>>>Begin Spectral Data<<<<<
223.165	-26.56
223.4	-26.56
223.635	-26.56
223.869	-13.56
224.104	-20.56
224.338	-24.56
224.573	-10.56
224.808	-7.56
225.042	3.44
225.277	4.44
225.511	-3.56
225.746	-1.56
225.98	10.44
226.215	1.44
226.449	6.44
226.683	26.44
226.918	22.44
227.152	33.44
227.387	28.44
227.621	41.44
227.856	44.44
228.09	44.44
228.324	35.44
228.559	56.44
228.793	68.44
229.027	77.44
229.262	88.44
229.496	87.44
229.73	93.44
229.964	84.44
230.199	105.44
230.433	100.44
230.667	112.44
230.901	114.44
231.136	108.44
231.37	114.44
231.604	101.44
231.838	109.44
232.072	119.44
232.306	115.44
232.541	126.44
232.775	115.44
233.009	114.44
233.243	104.44
233.477	120.44
233.711	105.44
233.945	126.44
234.179	126.44
234.413	112.44
234.647	100.44
234.881	128.44
235.115	133.44
235.349	115.44
235.583	108.44
235.817	126.44
236.051	113.44
236.285	106.44
236.519	114.44
236.753	91.44
236.987	104.44
237.221	114.44
237.455	110.44
237.689	111.44
237.922	128.44
238.156	115.44
238.39	111.44
238.624	122.44
238.858	121.44
239.091	121.44
239.325	109.44
239.559	119.44
239.793	128.44
240.027	131.44
240.26	123.44
240.494	117.44
240.728	125.44
240.961	132.44
241.195	114.44
241.429	111.44
241.662	116.44
241.896	123.44
242.13	132.44
242.363	133.44
242.597	118.44
242.83	133.44
243.064	122.44
243.298	130.44
243.531	131.44
243.765	138.44
243.998	133.44
244.232	137.44
244.465	147.44
244.699	130.44
244.932	134.44
245.166	136.44
245.399	136.44
245.633	142.44
245.866	156.44
246.099	131.44
246.333	137.44
246.566	135.44
246.8	137.44
247.033	146.44
247.266	152.44
247.5	142.44
247.733	144.44
247.966	155.44
248.2	148.44
248.433	162.44
248.666	143.44
248.899	164.44
249.133	169.44
249.366	174.44
249.599	162.44
249.832	166.44
250.066	147.44
250.299	173.44
250.532	171.44
250.765	181.44
250.998	159.44
251.231	180.44
251.465	191.44
251.698	213.44
251.931	203.44
252.164	192.44
252.397	188.44
252.63	187.44
252.863	221.44
253.096	197.44
253.329	205.44
253.562	209.44
253.795	213.44
254.028	230.44
254.261	201.44
254.494	215.44
254.727	226.44
254.96	231.44
255.193	229.44
255.426	229.44
255.659	214.44
255.892	223.44
256.124	221.44
256.357	227.44
256.59	240.44
256.823	244.44
257.056	222.44
257.289	257.44
257.521	242.44
257.754	247.44
257.987	245.44
258.22	246.44
258.452	240.44
258.685	259.44
258.918	261.44
259.151	249.44
259.383	258.44
259.616	245.44
259.849	273.44
260.081	265.44
260.314	252.44
260.547	272.44
260.779	280.44
261.012	277.44
261.244	288.44
261.477	278.44
261.71	278.44
261.942	283.44
262.175	274.44
262.407	274.44
262.64	274.44
262.872	281.44
263.105	283.44
263.337	281.44
263.57	287.44
263.802	266.44
264.035	292.44
264.267	295.44
264.499	303.44
264.732	302.44
264.964	280.44
265.197	308.44
265.429	288.44
265.661	314.44
265.894	302.44
266.126	273.44
266.358	299.44
266.591	292.44
266.823	299.44
267.055	310.44
267.287	310.44
267.52	296.44
267.752	304.44
267.984	305.44
268.216	303.44
268.448	327.44
268.681	300.44
268.913	325.44
269.145	334.44
269.377	307.44
269.609	308.44
269.841	314.44
270.073	326.44
270.306	304.44
270.538	326.44
270.77	311.44
271.002	322.44
271.234	322.44
271.466	317.44
271.698	339.44
271.93	327.44
272.162	323.44
272.394	326.44
272.626	320.44
272.858	326.44
273.09	317.44
273.322	333.44
273.553	328.44
273.785	329.44
274.017	322.44
274.249	310.44
274.481	353.44
274.713	315.44
274.945	342.44
275.176	324.44
275.408	326.44
275.64	306.44
275.872	325.44
276.104	346.44
276.335	346.44
276.567	313.44
276.799	338.44
277.031	349.44
277.262	335.44
277.494	315.44
277.726	324.44
277.957	345.44
278.189	338.44
278.421	335.44
278.652	331.44
278.884	342.44
279.115	339.44
279.347	339.44
279.579	335.44
279.81	337.44
280.042	327.44
280.273	332.44
280.505	335.44
280.736	336.44
280.968	351.44
281.199	347.44
281.431	351.44
281.662	330.44
281.894	345.44
282.125	343.44
282.356	355.44
282.588	360.44
282.819	355.44
283.051	336.44
283.282	362.44
283.513	354.44
283.745	351.44
283.976	347.44
284.207	350.44
284.439	345.44
284.67	333.44
284.901	367.44
285.132	352.44
285.364	356.44
285.595	349.44
285.826	335.44
286.057	363.44
286.288	348.44
286.52	358.44
286.751	355.44
286.982	342.44
287.213	369.44
287.444	336.44
287.675	350.44
287.906	357.44
288.138	348.44
288.369	367.44
288.6	364.44
288.831	366.44
289.062	368.44
289.293	357.44
289.524	357.44
289.755	338.44
289.986	338.44
290.217	346.44
290.448	356.44
290.679	352.44
290.91	343.44
291.141	366.44
291.371	355.44
291.602	352.44
291.833	370.44
292.064	340.44
292.295	368.44
292.526	348.44
292.757	355.44
292.987	340.44
293.218	351.44
293.449	358.44
293.68	355.44
293.91	363.44
294.141	351.44
294.372	338.44
294.603	376.44
294.833	359.44
295.064	359.44
295.295	360.44
295.525	368.44
295.756	358.44
295.987	348.44
296.217	362.44
296.448	354.44
296.679	373.44
296.909	373.44
297.14	378.44
297.37	379.44
297.601	363.44
297.831	385.44
298.062	373.44
298.292	380.44
298.523	380.44
298.753	400.44
298.984	394.44
299.214	377.44
299.445	375.44
299.675	391.44
299.905	387.44
300.136	391.44
300.366	393.44
300.597	421.44
300.827	388.44
301.057	398.44
301.288	391.44
301.518	403.44
301.748	424.44
301.979	414.44
302.209	406.44
302.439	395.44
302.669	402.44
302.9	378.44
303.13	395.44
303.36	408.44
303.59	410.44
303.82	409.44
304.051	432.44
304.281	396.44
304.511	388.44
304.741	405.44
304.971	400.44
305.201	416.44
305.431	408.44
305.661	404.44
305.891	420.44
306.121	412.44
306.352	396.44
306.582	408.44
306.812	412.44
307.042	403.44
307.272	422.44
307.502	418.44
307.731	431.44
307.961	420.44
308.191	415.44
308.421	416.44
308.651	416.44
308.881	419.44
309.111	416.44
309.341	418.44
309.571	407.44
309.8	427.44
310.03	422.44
310.26	442.44
310.49	455.44
310.72	430.44
310.949	427.44
311.179	433.44
311.409	457.44
311.639	461.44
311.868	444.44
312.098	470.44
312.328	447.44
312.557	442.44
312.787	462.44
313.017	453.44
313.246	471.44
313.476	465.44
313.706	470.44
313.935	478.44
314.165	482.44
314.394	481.44
314.624	486.44
314.853	488.44
315.083	474.44
315.312	481.44
315.542	503.44
315.771	489.44
316.001	501.44
316.23	506.44
316.46	508.44
316.689	491.44
316.919	513.44
317.148	527.44
317.377	523.44
317.607	513.44
317.836	508.44
318.065	511.44
318.295	508.44
318.524	517.44
318.753	517.44
318.983	502.44
319.212	513.44
319.441	524.44
319.67	530.44
319.9	543.44
320.129	524.44
320.358	559.44
320.587	564.44
320.816	579.44
321.046	569.44
321.275	585.44
321.504	566.44
321.733	585.44
321.962	577.44
322.191	578.44
322.42	569.44
322.649	586.44
322.878	582.44
323.108	606.44
323.337	618.44
323.566	614.44
323.795	622.44
324.024	612.44
324.253	650.44
324.482	599.44
324.71	643.44
324.939	615.44
325.168	623.44
325.397	632.44
325.626	668.44
325.855	638.44
326.084	637.44
326.313	655.44
326.542	656.44
326.77	670.44
326.999	664.44
327.228	672.44
327.457	699.44
327.686	663.44
327.914	673.44
328.143	692.44
328.372	701.44
328.6	697.44
328.829	689.44
329.058	672.44
329.287	670.44
329.515	683.44
329.744	714.44
329.972	716.44
330.201	706.44
330.43	725.44
330.658	719.44
330.887	742.44
331.115	731.44
331.344	723.44
331.572	722.44
331.801	733.44
332.03	777.44
332.258	774.44
332.486	805.44
332.715	804.44
332.943	822.44
333.172	807.44
333.4	849.44
333.629	883.44
333.857	894.44
334.085	855.44
334.314	887.44
334.542	861.44
334.771	883.44
334.999	873.44
335.227	862.44
335.455	854.44
335.684	878.44
335.912	870.44
336.14	852.44
336.369	891.44
336.597	873.44
336.825	896.44
337.053	891.44
337.281	855.44
337.51	850.44
337.738	870.44
337.966	840.44
338.194	828.44
338.422	832.44
338.65	831.44
338.878	830.44
339.106	823.44
339.334	838.44
339.562	817.44
339.79	791.44
340.018	809.44
340.246	811.44
340.474	789.44
340.702	822.44
340.93	815.44
341.158	801.44
341.386	818.44
341.614	815.44
341.842	781.44
342.07	791.44
342.298	806.44
342.526	810.44
342.754	826.44
342.981	798.44
343.209	840.44
343.437	827.44
343.665	846.44
343.893	889.44
344.12	898.44
344.348	888.44
344.576	891.44
344.804	857.44
345.031	832.44
345.259	808.44
345.487	846.44
345.714	810.44
345.942	778.44
346.17	815.44
346.397	790.44
346.625	798.44
346.853	789.44
347.08	783.44
347.308	789.44
347.535	807.44
347.763	778.44
347.99	796.44
348.218	791.44
348.445	810.44
348.673	792.44
348.9	806.44
349.128	795.44
349.355	772.44
349.583	805.44
349.81	806.44
350.037	766.44
350.265	796.44
350.492	803.44
350.72	798.44
350.947	760.44
351.174	781.44
351.402	781.44
351.629	796.44
351.856	756.44
352.083	754.44
352.311	774.44
352.538	792.44
352.765	747.44
352.992	758.44
353.22	770.44
353.447	754.44
353.674	772.44
353.901	774.44
354.128	736.44
354.355	764.44
354.583	777.44
354.81	726.44
355.037	779.44
355.264	760.44
355.491	729.44
355.718	764.44
355.945	768.44
356.172	758.44
356.399	730.44
356.626	770.44
356.853	748.44
357.08	762.44
357.307	734.44
357.534	770.44
357.761	751.44
357.988	767.44
358.215	753.44
358.441	761.44
358.668	769.44
358.895	753.44
359.122	745.44
359.349	757.44
359.576	778.44
359.802	784.44
360.029	738.44
360.256	738.44
360.483	758.44
360.709	731.44
360.936	768.44
361.163	766.44
361.39	757.44
361.616	774.44
361.843	753.44
362.07	786.44
362.296	754.44
362.523	747.44
362.749	744.44
362.976	741.44
363.203	760.44
363.429	726.44
363.656	732.44
363.882	780.44
364.109	766.44
364.335	730.44
364.562	744.44
364.788	727.44
365.015	774.44
365.241	753.44
365.468	742.44
365.694	737.44
365.92	709.44
366.147	750.44
366.373	750.44
366.599	734.44
366.826	766.44
367.052	738.44
367.278	761.44
367.505	746.44
367.731	742.44
367.957	715.44
368.184	731.44
368.41	713.44
368.636	746.44
368.862	754.44
369.089	772.44
369.315	747.44
369.541	760.44
369.767	787.44
369.993	776.44
370.219	768.44
370.445	746.44
370.672	754.44
370.898	729.44
371.124	764.44
371.35	770.44
371.576	752.44
371.802	753.44
372.028	764.44
372.254	769.44
372.48	770.44
372.706	784.44
372.932	790.44
373.158	787.44
373.384	778.44
373.61	776.44
373.835	767.44
374.061	753.44
374.287	750.44
374.513	750.44
374.739	758.44
374.965	802.44
375.191	804.44
375.416	796.44
375.642	771.44
375.868	759.44
376.094	759.44
376.319	739.44
376.545	722.44
376.771	749.44
376.997	754.44
377.222	719.44
377.448	742.44
377.674	722.44
377.899	722.44
378.125	734.44
378.35	719.44
378.576	730.44
378.802	721.44
379.027	719.44
379.253	746.44
379.478	714.44
379.704	702.44
379.929	727.44
380.155	705.44
380.38	705.44
380.606	733.44
380.831	727.44
381.057	709.44
381.282	705.44
381.507	721.44
381.733	712.44
381.958	713.44
382.184	718.44
382.409	711.44
382.634	712.44
382.86	721.44
383.085	729.44
383.31	738.44
383.535	752.44
383.761	735.44
383.986	761.44
384.211	748.44
384.436	755.44
384.662	770.44
384.887	780.44
385.112	778.44
385.337	792.44
385.562	790.44
385.787	771.44
386.013	800.44
386.238	807.44
386.463	801.44
386.688	806.44
386.913	800.44
387.138	794.44
387.363	774.44
387.588	785.44
387.813	787.44
388.038	783.44
388.263	807.44
388.488	796.44
388.713	800.44
388.938	806.44
389.163	783.44
389.387	801.44
389.612	757.44
389.837	772.44
390.062	782.44
390.287	790.44
390.512	797.44
390.736	810.44
390.961	812.44
391.186	811.44
391.411	823.44
391.636	855.44
391.86	880.44
392.085	856.44
392.31	858.44
392.534	863.44
392.759	846.44
392.984	858.44
393.208	827.44
393.433	870.44
393.658	848.44
393.882	844.44
394.107	822.44
394.331	818.44
394.556	823.44
394.78	860.44
395.005	878.44
395.229	842.44
395.454	865.44
395.678	881.44
395.903	875.44
396.127	873.44
396.352	886.44
396.576	876.44
396.801	863.44
397.025	856.44
397.249	886.44
397.474	873.44
397.698	906.44
397.922	876.44
398.147	873.44
398.371	888.44
398.595	948.44
398.82	952.44
399.044	1031.44
399.268	1032.44
399.492	1114.44
399.717	1182.44
399.941	1210.44
400.165	1120.44
400.389	1050.44
400.613	1041.44
400.837	1004.44
401.062	981.44
401.286	1000.44
401.51	974.44
401.734	976.44
401.958	969.44
402.182	963.44
402.406	949.44
402.63	978.44
402.854	987.44
403.078	995.44
403.302	979.44
403.526	1020.44
403.75	1023.44
403.974	1034.44
404.198	1000.44
404.422	1067.44
404.645	1009.44
404.869	1016.44
405.093	1032.44
405.317	1041.44
405.541	1043.44
405.765	1059.44
405.988	1062.44
406.212	1044.44
406.436	1064.44
406.66	1085.44
406.883	1078.44
407.107	1124.44
407.331	1160.44
407.555	1149.44
407.778	1171.44
408.002	1146.44
408.226	1118.44
408.449	1105.44
408.673	1124.44
408.896	1094.44
409.12	1095.44
409.344	1123.44
409.567	1055.44
409.791	1080.44
410.014	1064.44
410.238	1068.44
410.461	1116.44
410.685	1065.44
410.908	1044.44
411.132	1060.44
411.355	998.44
411.578	1027.44
411.802	1055.44
412.025	1041.44
412.249	1038.44
412.472	1030.44
412.695	1070.44
412.919	1043.44
413.142	1018.44
413.365	1018.44
413.589	1033.44
413.812	1000.44
414.035	1002.44
414.258	1017.44
414.482	1014.44
414.705	1039.44
414.928	1030.44
415.151	1038.44
415.374	1020.44
415.597	993.44
415.821	1000.44
416.044	1009.44
416.267	1005.44
416.49	1018.44
416.713	1028.44
416.936	1052.44
417.159	1008.44
417.382	990.44
417.605	1010.44
417.828	1032.44
418.051	1022.44
418.274	1042.44
418.497	1021.44
418.72	1028.44
418.943	1030.44
419.166	1119.44
419.389	1168.44
419.611	1134.44
419.834	1124.44
420.057	1081.44
420.28	1066.44
420.503	1023.44
420.726	1009.44
420.948	1039.44
421.171	1050.44
421.394	1055.44
421.617	1027.44
421.839	1046.44
422.062	1046.44
422.285	1027.44
422.507	1059.44
422.73	1036.44
422.953	1028.44
423.175	1063.44
423.398	1074.44
423.621	1085.44
423.843	1061.44
424.066	1066.44
424.288	1045.44
424.511	1059.44
424.733	1059.44
424.956	1052.44
425.178	1088.44
425.401	1084.44
425.623	1063.44
425.846	1054.44
426.068	1076.44
426.291	1049.44
426.513	1035.44
426.735	1074.44
426.958	1043.44
427.18	1014.44
427.402	1011.44
427.625	1026.44
427.847	993.44
428.069	1015.44
428.292	1035.44
428.514	1035.44
428.736	1023.44
428.958	1042.44
429.181	1004.44
429.403	1017.44
429.625	994.44
429.847	1000.44
430.069	987.44
430.292	1020.44
430.514	1014.44
430.736	987.44
430.958	1039.44
431.18	1008.44
431.402	996.44
431.624	1012.44
431.846	1016.44
432.068	1011.44
432.29	1048.44
432.512	1010.44
432.734	1047.44
432.956	1020.44
433.178	1035.44
433.4	1051.44
433.622	1061.44
433.844	1085.44
434.066	1065.44
434.287	1063.44
434.509	1058.44
434.731	1049.44
434.953	1100.44
435.175	1091.44
435.397	1106.44
435.618	1076.44
435.84	1026.44
436.062	1023.44
436.284	1043.44
436.505	1017.44
436.727	1040.44
436.949	1055.44
437.17	1016.44
437.392	1019.44
437.614	1034.44
437.835	1012.44
438.057	988.44
438.278	997.44
438.5	1009.44
438.721	986.44
438.943	1012.44
439.165	998.44
439.386	1024.44
439.608	1066.44
439.829	1011.44
440.05	1037.44
440.272	1036.44
440.493	1043.44
440.715	1081.44
440.936	1064.44
441.158	1077.44
441.379	1097.44
441.6	1108.44
441.822	1118.44
442.043	1109.44
442.264	1134.44
442.486	1090.44
442.707	1091.44
442.928	1117.44
443.149	1083.44
443.371	1077.44
443.592	1098.44
443.813	1156.44
444.034	1118.44
444.255	1136.44
444.476	1166.44
444.698	1189.44
444.919	1189.44
445.14	1260.44
445.361	1195.44
445.582	1139.44
445.803	1113.44
446.024	1096.44
446.245	1087.44
446.466	1066.44
446.687	1070.44
446.908	1080.44
447.129	1039.44
447.35	1025.44
447.571	1033.44
447.792	1009.44
448.013	1002.44
448.234	989.44
448.455	994.44
448.675	978.44
448.896	998.44
449.117	943.44
449.338	970.44
449.559	983.44
449.779	969.44
450	971.44
450.221	979.44
450.442	964.44
450.662	971.44
450.883	960.44
451.104	989.44
451.324	975.44
451.545	971.44
451.766	970.44
451.986	947.44
452.207	947.44
452.428	962.44
452.648	988.44
452.869	955.44
453.089	956.44
453.31	944.44
453.53	931.44
453.751	925.44
453.971	936.44
454.192	921.44
454.412	928.44
454.633	931.44
454.853	934.44
455.073	916.44
455.294	935.44
455.514	923.44
455.734	932.44
455.955	928.44
456.175	904.44
456.395	926.44
456.616	916.44
456.836	898.44
457.056	942.44
457.276	913.44
457.497	929.44
457.717	908.44
457.937	898.44
458.157	959.44
458.377	942.44
458.598	931.44
458.818	973.44
459.038	958.44
459.258	974.44
459.478	1062.44
459.698	1062.44
459.918	1046.44
460.138	1125.44
460.358	1124.44
460.578	1115.44
460.798	1132.44
461.018	1113.44
461.238	1153.44
461.458	1128.44
461.678	1131.44
461.898	1178.44
462.118	1147.44
462.338	1207.44
462.558	1232.44
462.777	1237.44
462.997	1314.44
463.217	1311.44
463.437	1355.44
463.657	1318.44
463.876	1283.44
464.096	1280.44
464.316	1242.44
464.536	1240.44
464.755	1209.44
464.975	1169.44
465.195	1158.44
465.414	1142.44
465.634	1108.44
465.854	1072.44
466.073	1100.44
466.293	1049.44
466.512	1027.44
466.732	1046.44
466.951	1035.44
467.171	1044.44
467.391	1030.44
467.61	1023.44
467.829	1001.44
468.049	1007.44
468.268	1014.44
468.488	1000.44
468.707	987.44
468.927	997.44
469.146	1012.44
469.365	1033.44
469.585	999.44
469.804	1050.44
470.023	1035.44
470.243	1010.44
470.462	1036.44
470.681	1044.44
470.901	1062.44
471.12	1028.44
471.339	1026.44
471.558	1011.44
471.777	1010.44
471.997	1010.44
472.216	1013.44
472.435	999.44
472.654	984.44
472.873	987.44
473.092	993.44
473.311	1001.44
473.53	1006.44
473.749	976.44
473.968	1007.44
474.187	984.44
474.406	1023.44
474.625	1034.44
474.844	1013.44
475.063	1003.44
475.282	1028.44
475.501	1010.44
475.72	1006.44
475.939	1034.44
476.158	1073.44
476.377	1038.44
476.596	1058.44
476.814	1056.44
477.033	1058.44
477.252	1073.44
477.471	1078.44
477.69	1120.44
477.908	1146.44
478.127	1143.44
478.346	1146.44
478.564	1202.44
478.783	1151.44
479.002	1190.44
479.22	1224.44
479.439	1154.44
479.658	1174.44
479.876	1203.44
480.095	1212.44
480.313	1238.44
480.532	1235.44
480.751	1237.44
480.969	1169.44
481.188	1203.44
481.406	1163.44
481.624	1155.44
481.843	1144.44
482.061	1136.44
482.28	1171.44
482.498	1118.44
482.717	1121.44
482.935	1156.44
483.153	1162.44
483.372	1173.44
483.59	1182.44
483.808	1191.44
484.027	1182.44
484.245	1139.44
484.463	1194.44
484.681	1192.44
484.9	1208.44
485.118	1202.44
485.336	1183.44
485.554	1202.44
485.772	1192.44
485.99	1198.44
486.209	1188.44
486.427	1211.44
486.645	1179.44
486.863	1176.44
487.081	1208.44
487.299	1221.44
487.517	1200.44
487.735	1223.44
487.953	1235.44
488.171	1246.44
488.389	1231.44
488.607	1201.44
488.825	1173.44
489.043	1174.44
489.261	1212.44
489.479	1214.44
489.696	1204.44
489.914	1231.44
490.132	1218.44
490.35	1239.44
490.568	1217.44
490.786	1243.44
491.003	1227.44
491.221	1242.44
491.439	1247.44
491.657	1282.44
491.874	1270.44
492.092	1287.44
492.31	1308.44
492.527	1296.44
492.745	1290.44
492.963	1279.44
493.18	1293.44
493.398	1298.44
493.615	1307.44
493.833	1302.44
494.05	1272.44
494.268	1298.44
494.485	1321.44
494.703	1285.44
494.92	1320.44
495.138	1274.44
495.355	1321.44
495.573	1333.44
495.79	1344.44
496.008	1380.44
496.225	1322.44
496.442	1360.44
496.66	1395.44
