Data from Ni(NO3)2@0.5M.TitratingCurve.Agarose3%dH2O.NegLispCup.LampEnergy10.LIBS07252019_HRD10591_18-00-11-564.txt Node
Date: Thu Jul 25 18:00:11 EDT 2019
User: cochatt
Spectrometer: HR+D1059
Trigger mode: 1
Integration Time (sec): 1.000000E-1
Scans to average: 1
Electric dark correction enabled: true
Nonlinearity correction enabled: false
Boxcar width: 0
XAxis mode: Wavelengths
Number of Pixels in Spectrum: 2048
>>>>>Begin Spectral Data<<<<<
223.165	-2.31
223.4	-2.31
223.635	-2.31
223.869	-17.31
224.104	-14.31
224.338	-20.31
224.573	-7.31
224.808	-10.31
225.042	0.69
225.277	-3.31
225.511	-13.31
225.746	-8.31
225.98	18.69
226.215	17.69
226.449	10.69
226.683	17.69
226.918	14.69
227.152	16.69
227.387	30.69
227.621	21.69
227.856	28.69
228.09	45.69
228.324	50.69
228.559	53.69
228.793	86.69
229.027	151.69
229.262	153.69
229.496	156.69
229.73	173.69
229.964	190.69
230.199	219.69
230.433	230.69
230.667	210.69
230.901	193.69
231.136	182.69
231.37	179.69
231.604	198.69
231.838	232.69
232.072	228.69
232.306	219.69
232.541	195.69
232.775	185.69
233.009	190.69
233.243	183.69
233.477	181.69
233.711	205.69
233.945	207.69
234.179	189.69
234.413	208.69
234.647	211.69
234.881	208.69
235.115	227.69
235.349	208.69
235.583	199.69
235.817	205.69
236.051	213.69
236.285	222.69
236.519	200.69
236.753	190.69
236.987	188.69
237.221	216.69
237.455	222.69
237.689	198.69
237.922	221.69
238.156	225.69
238.39	212.69
238.624	219.69
238.858	229.69
239.091	213.69
239.325	239.69
239.559	239.69
239.793	250.69
240.027	268.69
240.26	241.69
240.494	223.69
240.728	231.69
240.961	238.69
241.195	258.69
241.429	259.69
241.662	259.69
241.896	278.69
242.13	287.69
242.363	285.69
242.597	270.69
242.83	266.69
243.064	297.69
243.298	280.69
243.531	274.69
243.765	299.69
243.998	305.69
244.232	295.69
244.465	287.69
244.699	290.69
244.932	287.69
245.166	293.69
245.399	300.69
245.633	291.69
245.866	297.69
246.099	298.69
246.333	265.69
246.566	309.69
246.8	329.69
247.033	300.69
247.266	299.69
247.5	309.69
247.733	301.69
247.966	334.69
248.2	313.69
248.433	339.69
248.666	319.69
248.899	341.69
249.133	321.69
249.366	326.69
249.599	328.69
249.832	328.69
250.066	347.69
250.299	345.69
250.532	361.69
250.765	359.69
250.998	375.69
251.231	383.69
251.465	395.69
251.698	385.69
251.931	375.69
252.164	370.69
252.397	370.69
252.63	365.69
252.863	385.69
253.096	383.69
253.329	382.69
253.562	378.69
253.795	373.69
254.028	384.69
254.261	396.69
254.494	413.69
254.727	385.69
254.96	401.69
255.193	406.69
255.426	399.69
255.659	395.69
255.892	410.69
256.124	407.69
256.357	417.69
256.59	418.69
256.823	418.69
257.056	432.69
257.289	437.69
257.521	448.69
257.754	428.69
257.987	433.69
258.22	441.69
258.452	434.69
258.685	430.69
258.918	434.69
259.151	442.69
259.383	450.69
259.616	436.69
259.849	453.69
260.081	451.69
260.314	458.69
260.547	473.69
260.779	476.69
261.012	475.69
261.244	493.69
261.477	481.69
261.71	473.69
261.942	474.69
262.175	465.69
262.407	490.69
262.64	493.69
262.872	501.69
263.105	481.69
263.337	497.69
263.57	513.69
263.802	515.69
264.035	494.69
264.267	508.69
264.499	502.69
264.732	486.69
264.964	521.69
265.197	544.69
265.429	502.69
265.661	517.69
265.894	529.69
266.126	519.69
266.358	536.69
266.591	531.69
266.823	545.69
267.055	536.69
267.287	534.69
267.52	549.69
267.752	527.69
267.984	526.69
268.216	541.69
268.448	565.69
268.681	522.69
268.913	554.69
269.145	576.69
269.377	557.69
269.609	561.69
269.841	552.69
270.073	562.69
270.306	573.69
270.538	573.69
270.77	561.69
271.002	569.69
271.234	573.69
271.466	574.69
271.698	586.69
271.93	570.69
272.162	586.69
272.394	593.69
272.626	603.69
272.858	585.69
273.09	606.69
273.322	606.69
273.553	612.69
273.785	579.69
274.017	590.69
274.249	630.69
274.481	638.69
274.713	620.69
274.945	636.69
275.176	615.69
275.408	616.69
275.64	629.69
275.872	635.69
276.104	611.69
276.335	633.69
276.567	630.69
276.799	641.69
277.031	634.69
277.262	638.69
277.494	639.69
277.726	653.69
277.957	644.69
278.189	665.69
278.421	650.69
278.652	670.69
278.884	666.69
279.115	673.69
279.347	683.69
279.579	649.69
279.81	675.69
280.042	681.69
280.273	673.69
280.505	700.69
280.736	691.69
280.968	683.69
281.199	710.69
281.431	685.69
281.662	695.69
281.894	689.69
282.125	713.69
282.356	725.69
282.588	722.69
282.819	723.69
283.051	709.69
283.282	706.69
283.513	732.69
283.745	727.69
283.976	718.69
284.207	717.69
284.439	715.69
284.67	719.69
284.901	713.69
285.132	720.69
285.364	721.69
285.595	732.69
285.826	729.69
286.057	749.69
286.288	741.69
286.52	745.69
286.751	743.69
286.982	750.69
287.213	765.69
287.444	734.69
287.675	775.69
287.906	737.69
288.138	753.69
288.369	772.69
288.6	781.69
288.831	734.69
289.062	784.69
289.293	794.69
289.524	786.69
289.755	759.69
289.986	759.69
290.217	750.69
290.448	783.69
290.679	798.69
290.91	780.69
291.141	782.69
291.371	763.69
291.602	748.69
291.833	777.69
292.064	793.69
292.295	783.69
292.526	771.69
292.757	762.69
292.987	776.69
293.218	783.69
293.449	779.69
293.68	792.69
293.91	790.69
294.141	783.69
294.372	799.69
294.603	791.69
294.833	770.69
295.064	803.69
295.295	784.69
295.525	789.69
295.756	789.69
295.987	815.69
296.217	801.69
296.448	807.69
296.679	812.69
296.909	817.69
297.14	797.69
297.37	836.69
297.601	805.69
297.831	840.69
298.062	830.69
298.292	834.69
298.523	870.69
298.753	871.69
298.984	826.69
299.214	867.69
299.445	857.69
299.675	854.69
299.905	897.69
300.136	891.69
300.366	923.69
300.597	889.69
300.827	905.69
301.057	879.69
301.288	891.69
301.518	883.69
301.748	896.69
301.979	895.69
302.209	910.69
302.439	909.69
302.669	894.69
302.9	892.69
303.13	890.69
303.36	875.69
303.59	881.69
303.82	909.69
304.051	932.69
304.281	918.69
304.511	897.69
304.741	915.69
304.971	929.69
305.201	955.69
305.431	945.69
305.661	968.69
305.891	907.69
306.121	908.69
306.352	925.69
306.582	911.69
306.812	874.69
307.042	892.69
307.272	861.69
307.502	878.69
307.731	885.69
307.961	915.69
308.191	916.69
308.421	912.69
308.651	909.69
308.881	893.69
309.111	902.69
309.341	919.69
309.571	918.69
309.8	934.69
310.03	959.69
310.26	964.69
310.49	970.69
310.72	927.69
310.949	954.69
311.179	945.69
311.409	928.69
311.639	932.69
311.868	941.69
312.098	930.69
312.328	951.69
312.557	951.69
312.787	944.69
313.017	954.69
313.246	975.69
313.476	1005.69
313.706	992.69
313.935	979.69
314.165	968.69
314.394	965.69
314.624	963.69
314.853	995.69
315.083	984.69
315.312	993.69
315.542	987.69
315.771	988.69
316.001	966.69
316.23	961.69
316.46	969.69
316.689	1002.69
316.919	980.69
317.148	990.69
317.377	982.69
317.607	1001.69
317.836	996.69
318.065	991.69
318.295	1013.69
318.524	986.69
318.753	1002.69
318.983	997.69
319.212	989.69
319.441	1013.69
319.67	1011.69
319.9	1023.69
320.129	988.69
320.358	1002.69
320.587	1003.69
320.816	1013.69
321.046	1016.69
321.275	1049.69
321.504	1041.69
321.733	1007.69
321.962	1039.69
322.191	1053.69
322.42	1034.69
322.649	1040.69
322.878	1027.69
323.108	1047.69
323.337	1065.69
323.566	1065.69
323.795	1083.69
324.024	1040.69
324.253	1068.69
324.482	1055.69
324.71	1059.69
324.939	1088.69
325.168	1111.69
325.397	1083.69
325.626	1087.69
325.855	1070.69
326.084	1114.69
326.313	1100.69
326.542	1094.69
326.77	1104.69
326.999	1086.69
327.228	1092.69
327.457	1093.69
327.686	1089.69
327.914	1103.69
328.143	1108.69
328.372	1102.69
328.6	1101.69
328.829	1116.69
329.058	1101.69
329.287	1101.69
329.515	1135.69
329.744	1121.69
329.972	1141.69
330.201	1137.69
330.43	1134.69
330.658	1179.69
330.887	1152.69
331.115	1151.69
331.344	1185.69
331.572	1209.69
331.801	1205.69
332.03	1217.69
332.258	1206.69
332.486	1233.69
332.715	1243.69
332.943	1229.69
333.172	1312.69
333.4	1263.69
333.629	1276.69
333.857	1320.69
334.085	1362.69
334.314	1377.69
334.542	1361.69
334.771	1389.69
334.999	1362.69
335.227	1365.69
335.455	1345.69
335.684	1368.69
335.912	1319.69
336.14	1346.69
336.369	1326.69
336.597	1333.69
336.825	1360.69
337.053	1353.69
337.281	1339.69
337.51	1286.69
337.738	1307.69
337.966	1283.69
338.194	1305.69
338.422	1307.69
338.65	1233.69
338.878	1248.69
339.106	1270.69
339.334	1293.69
339.562	1285.69
339.79	1233.69
340.018	1246.69
340.246	1196.69
340.474	1224.69
340.702	1193.69
340.93	1213.69
341.158	1199.69
341.386	1265.69
341.614	1319.69
341.842	1287.69
342.07	1219.69
342.298	1202.69
342.526	1231.69
342.754	1198.69
342.981	1234.69
343.209	1237.69
343.437	1249.69
343.665	1326.69
343.893	1341.69
344.12	1361.69
344.348	1324.69
344.576	1350.69
344.804	1337.69
345.031	1292.69
345.259	1233.69
345.487	1249.69
345.714	1257.69
345.942	1324.69
346.17	1282.69
346.397	1240.69
346.625	1194.69
346.853	1159.69
347.08	1175.69
347.308	1159.69
347.535	1152.69
347.763	1147.69
347.99	1141.69
348.218	1149.69
348.445	1149.69
348.673	1115.69
348.9	1139.69
349.128	1182.69
349.355	1175.69
349.583	1204.69
349.81	1141.69
350.037	1142.69
350.265	1150.69
350.492	1133.69
350.72	1128.69
350.947	1152.69
351.174	1201.69
351.402	1223.69
351.629	1183.69
351.856	1176.69
352.083	1167.69
352.311	1165.69
352.538	1213.69
352.765	1208.69
352.992	1142.69
353.22	1082.69
353.447	1105.69
353.674	1119.69
353.901	1141.69
354.128	1113.69
354.355	1123.69
354.583	1133.69
354.81	1130.69
355.037	1101.69
355.264	1131.69
355.491	1131.69
355.718	1114.69
355.945	1113.69
356.172	1138.69
356.399	1138.69
356.626	1140.69
356.853	1199.69
357.08	1169.69
357.307	1145.69
357.534	1123.69
357.761	1121.69
357.988	1146.69
358.215	1097.69
358.441	1101.69
358.668	1111.69
358.895	1089.69
359.122	1086.69
359.349	1107.69
359.576	1131.69
359.802	1135.69
360.029	1115.69
360.256	1153.69
360.483	1099.69
360.709	1111.69
360.936	1142.69
361.163	1130.69
361.39	1128.69
361.616	1152.69
361.843	1175.69
362.07	1202.69
362.296	1220.69
362.523	1164.69
362.749	1133.69
362.976	1161.69
363.203	1120.69
363.429	1146.69
363.656	1101.69
363.882	1133.69
364.109	1120.69
364.335	1118.69
364.562	1142.69
364.788	1148.69
365.015	1141.69
365.241	1145.69
365.468	1127.69
365.694	1125.69
365.92	1108.69
366.147	1149.69
366.373	1129.69
366.599	1157.69
366.826	1115.69
367.052	1123.69
367.278	1158.69
367.505	1124.69
367.731	1166.69
367.957	1173.69
368.184	1139.69
368.41	1175.69
368.636	1153.69
368.862	1157.69
369.089	1181.69
369.315	1172.69
369.541	1175.69
369.767	1170.69
369.993	1192.69
370.219	1187.69
370.445	1186.69
370.672	1173.69
370.898	1207.69
371.124	1218.69
371.35	1187.69
371.576	1214.69
371.802	1225.69
372.028	1219.69
372.254	1225.69
372.48	1237.69
372.706	1237.69
372.932	1230.69
373.158	1233.69
373.384	1210.69
373.61	1225.69
373.835	1224.69
374.061	1225.69
374.287	1227.69
374.513	1275.69
374.739	1268.69
374.965	1287.69
375.191	1314.69
375.416	1293.69
375.642	1260.69
375.868	1256.69
376.094	1239.69
376.319	1228.69
376.545	1239.69
376.771	1231.69
376.997	1212.69
377.222	1209.69
377.448	1203.69
377.674	1203.69
377.899	1199.69
378.125	1213.69
378.35	1173.69
378.576	1214.69
378.802	1204.69
379.027	1185.69
379.253	1188.69
379.478	1151.69
379.704	1189.69
379.929	1185.69
380.155	1217.69
380.38	1188.69
380.606	1215.69
380.831	1219.69
381.057	1222.69
381.282	1212.69
381.507	1198.69
381.733	1207.69
381.958	1226.69
382.184	1226.69
382.409	1233.69
382.634	1228.69
382.86	1245.69
383.085	1255.69
383.31	1282.69
383.535	1280.69
383.761	1285.69
383.986	1303.69
384.211	1333.69
384.436	1317.69
384.662	1334.69
384.887	1326.69
385.112	1359.69
385.337	1377.69
385.562	1362.69
385.787	1406.69
386.013	1400.69
386.238	1413.69
386.463	1407.69
386.688	1387.69
386.913	1368.69
387.138	1389.69
387.363	1449.69
387.588	1383.69
387.813	1413.69
388.038	1429.69
388.263	1434.69
388.488	1433.69
388.713	1386.69
388.938	1381.69
389.163	1421.69
389.387	1397.69
389.612	1433.69
389.837	1425.69
390.062	1414.69
390.287	1387.69
390.512	1399.69
390.736	1427.69
390.961	1453.69
391.186	1467.69
391.411	1472.69
391.636	1488.69
391.86	1511.69
392.085	1510.69
392.31	1508.69
392.534	1513.69
392.759	1490.69
392.984	1491.69
393.208	1466.69
393.433	1467.69
393.658	1502.69
393.882	1465.69
394.107	1475.69
394.331	1477.69
394.556	1502.69
394.78	1521.69
395.005	1512.69
395.229	1542.69
395.454	1533.69
395.678	1559.69
395.903	1554.69
396.127	1531.69
396.352	1510.69
396.576	1477.69
396.801	1569.69
397.025	1560.69
397.249	1550.69
397.474	1610.69
397.698	1581.69
397.922	1615.69
398.147	1612.69
398.371	1645.69
398.595	1670.69
398.82	1747.69
399.044	1797.69
399.268	1859.69
399.492	1993.69
399.717	2056.69
399.941	2134.69
400.165	2058.69
400.389	1975.69
400.613	1871.69
400.837	1833.69
401.062	1761.69
401.286	1763.69
401.51	1722.69
401.734	1681.69
401.958	1751.69
402.182	1692.69
402.406	1719.69
402.63	1729.69
402.854	1689.69
403.078	1731.69
403.302	1747.69
403.526	1727.69
403.75	1822.69
403.974	1798.69
404.198	1770.69
404.422	1805.69
404.645	1796.69
404.869	1764.69
405.093	1814.69
405.317	1797.69
405.541	1807.69
405.765	1813.69
405.988	1798.69
406.212	1800.69
406.436	1857.69
406.66	1871.69
406.883	1878.69
407.107	1985.69
407.331	2019.69
407.555	2029.69
407.778	2039.69
408.002	2016.69
408.226	2033.69
408.449	2034.69
408.673	1952.69
408.896	1925.69
409.12	1893.69
409.344	1939.69
409.567	1909.69
409.791	1913.69
410.014	1854.69
410.238	1846.69
410.461	1788.69
410.685	1844.69
410.908	1810.69
411.132	1803.69
411.355	1754.69
411.578	1787.69
411.802	1806.69
412.025	1788.69
412.249	1770.69
412.472	1803.69
412.695	1744.69
412.919	1743.69
413.142	1739.69
413.365	1729.69
413.589	1737.69
413.812	1730.69
414.035	1748.69
414.258	1700.69
414.482	1698.69
414.705	1735.69
414.928	1703.69
415.151	1736.69
415.374	1717.69
415.597	1743.69
415.821	1705.69
416.044	1688.69
416.267	1653.69
416.49	1679.69
416.713	1681.69
416.936	1703.69
417.159	1626.69
417.382	1652.69
417.605	1626.69
417.828	1642.69
418.051	1655.69
418.274	1635.69
418.497	1645.69
418.72	1694.69
418.943	1626.69
419.166	1780.69
419.389	1893.69
419.611	1813.69
419.834	1749.69
420.057	1744.69
420.28	1670.69
420.503	1639.69
420.726	1631.69
420.948	1633.69
421.171	1629.69
421.394	1637.69
421.617	1620.69
421.839	1685.69
422.062	1666.69
422.285	1605.69
422.507	1633.69
422.73	1661.69
422.953	1621.69
423.175	1668.69
423.398	1690.69
423.621	1638.69
423.843	1665.69
424.066	1637.69
424.288	1669.69
424.511	1653.69
424.733	1649.69
424.956	1627.69
425.178	1619.69
425.401	1638.69
425.623	1661.69
425.846	1621.69
426.068	1619.69
426.291	1619.69
426.513	1586.69
426.735	1554.69
426.958	1589.69
427.18	1556.69
427.402	1594.69
427.625	1596.69
427.847	1548.69
428.069	1527.69
428.292	1559.69
428.514	1569.69
428.736	1538.69
428.958	1551.69
429.181	1537.69
429.403	1527.69
429.625	1534.69
429.847	1510.69
430.069	1527.69
430.292	1531.69
430.514	1503.69
430.736	1515.69
430.958	1526.69
431.18	1497.69
431.402	1561.69
431.624	1539.69
431.846	1514.69
432.068	1557.69
432.29	1577.69
432.512	1510.69
432.734	1591.69
432.956	1559.69
433.178	1588.69
433.4	1578.69
433.622	1595.69
433.844	1606.69
434.066	1585.69
434.287	1579.69
434.509	1657.69
434.731	1661.69
434.953	1637.69
435.175	1667.69
435.397	1717.69
435.618	1587.69
435.84	1573.69
436.062	1573.69
436.284	1558.69
436.505	1526.69
436.727	1589.69
436.949	1532.69
437.17	1548.69
437.392	1526.69
437.614	1521.69
437.835	1484.69
438.057	1489.69
438.278	1486.69
438.5	1491.69
438.721	1495.69
438.943	1458.69
439.165	1467.69
439.386	1471.69
439.608	1517.69
439.829	1476.69
440.05	1531.69
440.272	1543.69
440.493	1535.69
440.715	1539.69
440.936	1572.69
441.158	1593.69
441.379	1568.69
441.6	1627.69
441.822	1659.69
442.043	1597.69
442.264	1585.69
442.486	1622.69
442.707	1623.69
442.928	1610.69
443.149	1593.69
443.371	1648.69
443.592	1720.69
443.813	1703.69
444.034	1661.69
444.255	1697.69
444.476	1726.69
444.698	1753.69
444.919	1825.69
445.14	1874.69
445.361	1786.69
445.582	1708.69
445.803	1663.69
446.024	1589.69
446.245	1603.69
446.466	1580.69
446.687	1543.69
446.908	1540.69
447.129	1495.69
447.35	1495.69
447.571	1483.69
447.792	1412.69
448.013	1421.69
448.234	1383.69
448.455	1404.69
448.675	1412.69
448.896	1413.69
449.117	1391.69
449.338	1378.69
449.559	1356.69
449.779	1353.69
450	1411.69
450.221	1365.69
450.442	1395.69
450.662	1406.69
450.883	1381.69
451.104	1407.69
451.324	1389.69
451.545	1391.69
451.766	1377.69
451.986	1372.69
452.207	1383.69
452.428	1335.69
452.648	1320.69
452.869	1299.69
453.089	1349.69
453.31	1361.69
453.53	1365.69
453.751	1324.69
453.971	1291.69
454.192	1340.69
454.412	1339.69
454.633	1329.69
454.853	1308.69
455.073	1326.69
455.294	1334.69
455.514	1355.69
455.734	1341.69
455.955	1393.69
456.175	1368.69
456.395	1302.69
456.616	1314.69
456.836	1335.69
457.056	1323.69
457.276	1298.69
457.497	1314.69
457.717	1388.69
457.937	1365.69
458.157	1369.69
458.377	1384.69
458.598	1420.69
458.818	1450.69
459.038	1466.69
459.258	1432.69
459.478	1581.69
459.698	1649.69
459.918	1653.69
460.138	1646.69
460.358	1715.69
460.578	1717.69
460.798	1753.69
461.018	1707.69
461.238	1676.69
461.458	1673.69
461.678	1702.69
461.898	1749.69
462.118	1707.69
462.338	1811.69
462.558	1852.69
462.777	1879.69
462.997	1949.69
463.217	2019.69
463.437	2077.69
463.657	2005.69
463.876	1934.69
464.096	1897.69
464.316	1847.69
464.536	1900.69
464.755	1841.69
464.975	1796.69
465.195	1740.69
465.414	1683.69
465.634	1606.69
465.854	1599.69
466.073	1512.69
466.293	1523.69
466.512	1476.69
466.732	1457.69
466.951	1494.69
467.171	1477.69
467.391	1473.69
467.61	1470.69
467.829	1440.69
468.049	1435.69
468.268	1405.69
468.488	1403.69
468.707	1446.69
468.927	1437.69
469.146	1411.69
469.365	1482.69
469.585	1417.69
469.804	1443.69
470.023	1445.69
470.243	1453.69
470.462	1486.69
470.681	1461.69
470.901	1473.69
471.12	1436.69
471.339	1490.69
471.558	1459.69
471.777	1458.69
471.997	1428.69
472.216	1458.69
472.435	1415.69
472.654	1417.69
472.873	1404.69
473.092	1417.69
473.311	1433.69
473.53	1427.69
473.749	1459.69
473.968	1409.69
474.187	1410.69
474.406	1460.69
474.625	1407.69
474.844	1464.69
475.063	1437.69
475.282	1429.69
475.501	1491.69
475.72	1459.69
475.939	1467.69
476.158	1481.69
476.377	1476.69
476.596	1476.69
476.814	1488.69
477.033	1505.69
477.252	1555.69
477.471	1580.69
477.69	1606.69
477.908	1633.69
478.127	1626.69
478.346	1622.69
478.564	1673.69
478.783	1711.69
479.002	1735.69
479.22	1817.69
479.439	1733.69
479.658	1729.69
479.876	1730.69
480.095	1735.69
480.313	1803.69
480.532	1787.69
480.751	1781.69
480.969	1737.69
481.188	1744.69
481.406	1715.69
481.624	1738.69
481.843	1675.69
482.061	1687.69
482.28	1718.69
482.498	1692.69
482.717	1669.69
482.935	1697.69
483.153	1705.69
483.372	1741.69
483.59	1769.69
483.808	1712.69
484.027	1681.69
484.245	1709.69
484.463	1679.69
484.681	1749.69
484.9	1731.69
485.118	1748.69
485.336	1703.69
485.554	1771.69
485.772	1738.69
485.99	1800.69
486.209	1757.69
486.427	1710.69
486.645	1752.69
486.863	1762.69
487.081	1747.69
487.299	1740.69
487.517	1742.69
487.735	1752.69
487.953	1758.69
488.171	1746.69
488.389	1729.69
488.607	1742.69
488.825	1747.69
489.043	1780.69
489.261	1750.69
489.479	1711.69
489.696	1716.69
489.914	1761.69
490.132	1744.69
490.35	1737.69
490.568	1747.69
490.786	1731.69
491.003	1761.69
