Data from Ni(NO3)2@0.25M.TitratingCurve.Agarose3%dH2O.NegLispCup.LampEnergy10.LIBS07252019_HRD10591_18-04-18-566.txt Node
Date: Thu Jul 25 18:04:18 EDT 2019
User: cochatt
Spectrometer: HR+D1059
Trigger mode: 1
Integration Time (sec): 1.000000E-1
Scans to average: 1
Electric dark correction enabled: true
Nonlinearity correction enabled: false
Boxcar width: 0
XAxis mode: Wavelengths
Number of Pixels in Spectrum: 2048
>>>>>Begin Spectral Data<<<<<
223.165	-14.5
223.4	-14.5
223.635	-14.5
223.869	-17.5
224.104	-28.5
224.338	-6.5
224.573	-4.5
224.808	-22.5
225.042	-9.5
225.277	1.5
225.511	-7.5
225.746	-3.5
225.98	7.5
226.215	2.5
226.449	11.5
226.683	31.5
226.918	33.5
227.152	26.5
227.387	31.5
227.621	29.5
227.856	46.5
228.09	47.5
228.324	40.5
228.559	54.5
228.793	68.5
229.027	70.5
229.262	75.5
229.496	78.5
229.73	83.5
229.964	109.5
230.199	92.5
230.433	101.5
230.667	100.5
230.901	96.5
231.136	92.5
231.37	101.5
231.604	99.5
231.838	105.5
232.072	113.5
232.306	108.5
232.541	116.5
232.775	96.5
233.009	103.5
233.243	95.5
233.477	110.5
233.711	115.5
233.945	102.5
234.179	94.5
234.413	95.5
234.647	116.5
234.881	108.5
235.115	105.5
235.349	92.5
235.583	94.5
235.817	95.5
236.051	101.5
236.285	93.5
236.519	111.5
236.753	102.5
236.987	103.5
237.221	93.5
237.455	114.5
237.689	101.5
237.922	120.5
238.156	114.5
238.39	110.5
238.624	100.5
238.858	106.5
239.091	109.5
239.325	128.5
239.559	119.5
239.793	110.5
240.027	115.5
240.26	102.5
240.494	103.5
240.728	122.5
240.961	110.5
241.195	117.5
241.429	113.5
241.662	120.5
241.896	114.5
242.13	130.5
242.363	117.5
242.597	101.5
242.83	114.5
243.064	105.5
243.298	118.5
243.531	118.5
243.765	121.5
243.998	123.5
244.232	133.5
244.465	120.5
244.699	127.5
244.932	142.5
245.166	119.5
245.399	143.5
245.633	145.5
245.866	139.5
246.099	144.5
246.333	139.5
246.566	125.5
246.8	143.5
247.033	147.5
247.266	126.5
247.5	130.5
247.733	128.5
247.966	148.5
248.2	144.5
248.433	146.5
248.666	151.5
248.899	142.5
249.133	140.5
249.366	152.5
249.599	135.5
249.832	138.5
250.066	160.5
250.299	152.5
250.532	149.5
250.765	146.5
250.998	144.5
251.231	166.5
251.465	164.5
251.698	149.5
251.931	174.5
252.164	169.5
252.397	170.5
252.63	164.5
252.863	169.5
253.096	180.5
253.329	166.5
253.562	163.5
253.795	165.5
254.028	170.5
254.261	169.5
254.494	185.5
254.727	186.5
254.96	174.5
255.193	173.5
255.426	180.5
255.659	201.5
255.892	180.5
256.124	188.5
256.357	199.5
256.59	202.5
256.823	193.5
257.056	199.5
257.289	202.5
257.521	192.5
257.754	200.5
257.987	172.5
258.22	188.5
258.452	201.5
258.685	189.5
258.918	186.5
259.151	220.5
259.383	191.5
259.616	211.5
259.849	214.5
260.081	226.5
260.314	212.5
260.547	198.5
260.779	217.5
261.012	227.5
261.244	207.5
261.477	200.5
261.71	210.5
261.942	208.5
262.175	207.5
262.407	218.5
262.64	219.5
262.872	223.5
263.105	227.5
263.337	216.5
263.57	205.5
263.802	217.5
264.035	227.5
264.267	214.5
264.499	225.5
264.732	216.5
264.964	233.5
265.197	251.5
265.429	236.5
265.661	222.5
265.894	217.5
266.126	246.5
266.358	245.5
266.591	220.5
266.823	224.5
267.055	235.5
267.287	229.5
267.52	243.5
267.752	248.5
267.984	237.5
268.216	233.5
268.448	230.5
268.681	250.5
268.913	240.5
269.145	256.5
269.377	239.5
269.609	244.5
269.841	225.5
270.073	234.5
270.306	252.5
270.538	228.5
270.77	232.5
271.002	227.5
271.234	246.5
271.466	256.5
271.698	256.5
271.93	243.5
272.162	252.5
272.394	256.5
272.626	261.5
272.858	252.5
273.09	241.5
273.322	272.5
273.553	248.5
273.785	266.5
274.017	266.5
274.249	257.5
274.481	263.5
274.713	270.5
274.945	261.5
275.176	284.5
275.408	248.5
275.64	277.5
275.872	280.5
276.104	286.5
276.335	284.5
276.567	271.5
276.799	264.5
277.031	282.5
277.262	261.5
277.494	270.5
277.726	263.5
277.957	257.5
278.189	269.5
278.421	279.5
278.652	260.5
278.884	286.5
279.115	280.5
279.347	288.5
279.579	277.5
279.81	271.5
280.042	276.5
280.273	277.5
280.505	261.5
280.736	289.5
280.968	274.5
281.199	286.5
281.431	273.5
281.662	274.5
281.894	280.5
282.125	265.5
282.356	291.5
282.588	290.5
282.819	266.5
283.051	293.5
283.282	279.5
283.513	286.5
283.745	291.5
283.976	266.5
284.207	288.5
284.439	286.5
284.67	296.5
284.901	290.5
285.132	326.5
285.364	286.5
285.595	302.5
285.826	282.5
286.057	318.5
286.288	298.5
286.52	304.5
286.751	299.5
286.982	274.5
287.213	289.5
287.444	282.5
287.675	282.5
287.906	286.5
288.138	295.5
288.369	280.5
288.6	302.5
288.831	307.5
289.062	303.5
289.293	294.5
289.524	296.5
289.755	298.5
289.986	314.5
290.217	308.5
290.448	297.5
290.679	311.5
290.91	306.5
291.141	295.5
291.371	300.5
291.602	295.5
291.833	299.5
292.064	315.5
292.295	309.5
292.526	302.5
292.757	289.5
292.987	286.5
293.218	304.5
293.449	316.5
293.68	308.5
293.91	286.5
294.141	289.5
294.372	296.5
294.603	311.5
294.833	303.5
295.064	310.5
295.295	311.5
295.525	299.5
295.756	289.5
295.987	284.5
296.217	297.5
296.448	311.5
296.679	288.5
296.909	297.5
297.14	300.5
297.37	294.5
297.601	328.5
297.831	323.5
298.062	332.5
298.292	326.5
298.523	318.5
298.753	313.5
298.984	321.5
299.214	330.5
299.445	323.5
299.675	313.5
299.905	332.5
300.136	320.5
300.366	331.5
300.597	348.5
300.827	319.5
301.057	341.5
301.288	332.5
301.518	342.5
301.748	353.5
301.979	332.5
302.209	338.5
302.439	334.5
302.669	324.5
302.9	341.5
303.13	350.5
303.36	336.5
303.59	338.5
303.82	348.5
304.051	367.5
304.281	350.5
304.511	332.5
304.741	349.5
304.971	329.5
305.201	350.5
305.431	363.5
305.661	342.5
305.891	338.5
306.121	361.5
306.352	353.5
306.582	352.5
306.812	338.5
307.042	337.5
307.272	323.5
307.502	337.5
307.731	334.5
307.961	329.5
308.191	335.5
308.421	329.5
308.651	339.5
308.881	330.5
309.111	341.5
309.341	338.5
309.571	348.5
309.8	338.5
310.03	363.5
310.26	370.5
310.49	373.5
310.72	359.5
310.949	361.5
311.179	353.5
311.409	360.5
311.639	374.5
311.868	358.5
312.098	364.5
312.328	362.5
312.557	372.5
312.787	357.5
313.017	357.5
313.246	380.5
313.476	375.5
313.706	381.5
313.935	385.5
314.165	359.5
314.394	384.5
314.624	379.5
314.853	388.5
315.083	378.5
315.312	371.5
315.542	377.5
315.771	389.5
316.001	398.5
316.23	390.5
316.46	393.5
316.689	384.5
316.919	393.5
317.148	403.5
317.377	404.5
317.607	387.5
317.836	393.5
318.065	408.5
318.295	400.5
318.524	396.5
318.753	395.5
318.983	378.5
319.212	381.5
319.441	421.5
319.67	416.5
319.9	401.5
320.129	426.5
320.358	392.5
320.587	402.5
320.816	406.5
321.046	413.5
321.275	426.5
321.504	414.5
321.733	417.5
321.962	438.5
322.191	436.5
322.42	424.5
322.649	429.5
322.878	432.5
323.108	435.5
323.337	434.5
323.566	434.5
323.795	457.5
324.024	435.5
324.253	443.5
324.482	450.5
324.71	455.5
324.939	465.5
325.168	451.5
325.397	461.5
325.626	472.5
325.855	470.5
326.084	471.5
326.313	481.5
326.542	493.5
326.77	505.5
326.999	474.5
327.228	474.5
327.457	475.5
327.686	491.5
327.914	499.5
328.143	508.5
328.372	498.5
328.6	473.5
328.829	508.5
329.058	512.5
329.287	481.5
329.515	498.5
329.744	517.5
329.972	533.5
330.201	509.5
330.43	542.5
330.658	515.5
330.887	513.5
331.115	517.5
331.344	512.5
331.572	519.5
331.801	547.5
332.03	542.5
332.258	559.5
332.486	565.5
332.715	552.5
332.943	597.5
333.172	600.5
333.4	583.5
333.629	595.5
333.857	607.5
334.085	604.5
334.314	625.5
334.542	625.5
334.771	626.5
334.999	626.5
335.227	610.5
335.455	636.5
335.684	624.5
335.912	641.5
336.14	620.5
336.369	652.5
336.597	631.5
336.825	640.5
337.053	627.5
337.281	636.5
337.51	637.5
337.738	613.5
337.966	592.5
338.194	617.5
338.422	616.5
338.65	597.5
338.878	599.5
339.106	585.5
339.334	609.5
339.562	598.5
339.79	545.5
340.018	564.5
340.246	545.5
340.474	552.5
340.702	542.5
340.93	576.5
341.158	561.5
341.386	600.5
341.614	621.5
341.842	617.5
342.07	577.5
342.298	582.5
342.526	569.5
342.754	556.5
342.981	568.5
343.209	590.5
343.437	612.5
343.665	603.5
343.893	631.5
344.12	642.5
344.348	635.5
344.576	614.5
344.804	616.5
345.031	600.5
345.259	610.5
345.487	599.5
345.714	623.5
345.942	589.5
346.17	614.5
346.397	604.5
346.625	576.5
346.853	574.5
347.08	543.5
347.308	545.5
347.535	565.5
347.763	556.5
347.99	553.5
348.218	562.5
348.445	568.5
348.673	556.5
348.9	540.5
349.128	538.5
349.355	567.5
349.583	536.5
349.81	548.5
350.037	561.5
350.265	542.5
350.492	519.5
350.72	554.5
350.947	543.5
351.174	559.5
351.402	571.5
351.629	570.5
351.856	553.5
352.083	532.5
352.311	534.5
352.538	581.5
352.765	561.5
352.992	526.5
353.22	528.5
353.447	536.5
353.674	542.5
353.901	557.5
354.128	518.5
354.355	535.5
354.583	549.5
354.81	519.5
355.037	532.5
355.264	566.5
355.491	539.5
355.718	508.5
355.945	525.5
356.172	534.5
356.399	558.5
356.626	551.5
356.853	564.5
357.08	559.5
357.307	530.5
357.534	511.5
357.761	535.5
357.988	530.5
358.215	519.5
358.441	529.5
358.668	540.5
358.895	543.5
359.122	532.5
359.349	524.5
359.576	521.5
359.802	514.5
360.029	536.5
360.256	552.5
360.483	514.5
360.709	515.5
360.936	531.5
361.163	539.5
361.39	519.5
361.616	507.5
361.843	538.5
362.07	568.5
362.296	558.5
362.523	532.5
362.749	506.5
362.976	539.5
363.203	522.5
363.429	528.5
363.656	515.5
363.882	503.5
364.109	516.5
364.335	519.5
364.562	520.5
364.788	530.5
365.015	534.5
365.241	538.5
365.468	525.5
365.694	518.5
365.92	546.5
366.147	522.5
366.373	517.5
366.599	511.5
366.826	517.5
367.052	509.5
367.278	527.5
367.505	514.5
367.731	529.5
367.957	547.5
368.184	541.5
368.41	525.5
368.636	533.5
368.862	519.5
369.089	526.5
369.315	531.5
369.541	528.5
369.767	526.5
369.993	556.5
370.219	530.5
370.445	543.5
370.672	543.5
370.898	542.5
371.124	554.5
371.35	564.5
371.576	526.5
371.802	543.5
372.028	572.5
372.254	541.5
372.48	540.5
372.706	559.5
372.932	565.5
373.158	544.5
373.384	553.5
373.61	576.5
373.835	548.5
374.061	579.5
374.287	543.5
374.513	551.5
374.739	576.5
374.965	562.5
375.191	564.5
375.416	574.5
375.642	564.5
375.868	565.5
376.094	535.5
376.319	540.5
376.545	555.5
376.771	529.5
376.997	531.5
377.222	535.5
377.448	549.5
377.674	521.5
377.899	528.5
378.125	538.5
378.35	521.5
378.576	536.5
378.802	527.5
379.027	530.5
379.253	538.5
379.478	510.5
379.704	536.5
379.929	546.5
380.155	528.5
380.38	528.5
380.606	525.5
380.831	538.5
381.057	565.5
381.282	544.5
381.507	535.5
381.733	536.5
381.958	529.5
382.184	546.5
382.409	562.5
382.634	558.5
382.86	551.5
383.085	529.5
383.31	545.5
383.535	578.5
383.761	585.5
383.986	570.5
384.211	570.5
384.436	562.5
384.662	573.5
384.887	575.5
385.112	586.5
385.337	605.5
385.562	613.5
385.787	599.5
386.013	619.5
386.238	624.5
386.463	613.5
386.688	609.5
386.913	613.5
387.138	626.5
387.363	614.5
387.588	604.5
387.813	606.5
388.038	615.5
388.263	623.5
388.488	605.5
388.713	608.5
388.938	622.5
389.163	595.5
389.387	600.5
389.612	585.5
389.837	628.5
390.062	616.5
390.287	617.5
390.512	611.5
390.736	612.5
390.961	614.5
391.186	645.5
391.411	655.5
391.636	646.5
391.86	625.5
392.085	654.5
392.31	658.5
392.534	642.5
392.759	640.5
392.984	647.5
393.208	660.5
393.433	639.5
393.658	662.5
393.882	648.5
394.107	639.5
394.331	635.5
394.556	637.5
394.78	647.5
395.005	634.5
395.229	654.5
395.454	660.5
395.678	654.5
395.903	672.5
396.127	660.5
396.352	652.5
396.576	642.5
396.801	642.5
397.025	666.5
397.249	674.5
397.474	692.5
397.698	682.5
397.922	684.5
398.147	690.5
398.371	703.5
398.595	736.5
398.82	730.5
399.044	758.5
399.268	844.5
399.492	867.5
399.717	925.5
399.941	904.5
400.165	901.5
400.389	878.5
400.613	838.5
400.837	804.5
401.062	776.5
401.286	774.5
401.51	778.5
401.734	781.5
401.958	784.5
402.182	769.5
402.406	737.5
402.63	745.5
402.854	764.5
403.078	769.5
403.302	781.5
403.526	784.5
403.75	770.5
403.974	805.5
404.198	792.5
404.422	785.5
404.645	794.5
404.869	808.5
405.093	786.5
405.317	802.5
405.541	798.5
405.765	798.5
405.988	808.5
406.212	803.5
406.436	800.5
406.66	826.5
406.883	838.5
407.107	882.5
407.331	890.5
407.555	911.5
407.778	874.5
408.002	914.5
408.226	914.5
408.449	923.5
408.673	877.5
408.896	826.5
409.12	861.5
409.344	854.5
409.567	844.5
409.791	854.5
410.014	836.5
410.238	830.5
410.461	814.5
410.685	817.5
410.908	832.5
411.132	833.5
411.355	799.5
411.578	802.5
411.802	815.5
412.025	769.5
412.249	760.5
412.472	807.5
412.695	795.5
412.919	801.5
413.142	801.5
413.365	792.5
413.589	805.5
413.812	802.5
414.035	774.5
414.258	767.5
414.482	777.5
414.705	803.5
414.928	807.5
415.151	793.5
415.374	747.5
415.597	777.5
415.821	760.5
416.044	764.5
416.267	758.5
416.49	774.5
416.713	748.5
416.936	761.5
417.159	746.5
417.382	764.5
417.605	765.5
417.828	778.5
418.051	795.5
418.274	781.5
418.497	778.5
418.72	769.5
418.943	783.5
419.166	831.5
419.389	866.5
419.611	870.5
419.834	816.5
420.057	818.5
420.28	792.5
420.503	757.5
420.726	768.5
420.948	766.5
421.171	766.5
421.394	768.5
421.617	770.5
421.839	803.5
422.062	770.5
422.285	758.5
422.507	804.5
422.73	785.5
422.953	812.5
423.175	800.5
423.398	812.5
423.621	785.5
423.843	788.5
424.066	816.5
424.288	791.5
424.511	783.5
424.733	806.5
424.956	794.5
425.178	789.5
425.401	799.5
425.623	778.5
425.846	820.5
426.068	786.5
426.291	777.5
426.513	761.5
426.735	790.5
426.958	773.5
427.18	754.5
427.402	753.5
427.625	766.5
427.847	746.5
428.069	737.5
428.292	755.5
428.514	737.5
428.736	736.5
428.958	764.5
429.181	752.5
429.403	744.5
429.625	765.5
429.847	755.5
430.069	759.5
430.292	754.5
430.514	751.5
430.736	769.5
430.958	761.5
431.18	764.5
431.402	772.5
431.624	762.5
431.846	764.5
432.068	749.5
432.29	741.5
432.512	738.5
432.734	759.5
432.956	734.5
433.178	788.5
433.4	750.5
433.622	795.5
433.844	780.5
434.066	769.5
434.287	759.5
434.509	791.5
434.731	815.5
434.953	802.5
435.175	800.5
435.397	838.5
435.618	841.5
435.84	796.5
436.062	774.5
436.284	768.5
436.505	769.5
436.727	777.5
436.949	781.5
437.17	751.5
437.392	721.5
437.614	725.5
437.835	733.5
438.057	750.5
438.278	729.5
438.5	751.5
438.721	736.5
438.943	758.5
439.165	756.5
439.386	764.5
439.608	765.5
439.829	777.5
440.05	773.5
440.272	812.5
440.493	773.5
440.715	792.5
440.936	775.5
441.158	792.5
441.379	816.5
441.6	826.5
441.822	824.5
442.043	813.5
442.264	825.5
442.486	804.5
442.707	831.5
442.928	825.5
443.149	849.5
443.371	809.5
443.592	830.5
443.813	832.5
444.034	827.5
444.255	860.5
444.476	885.5
444.698	888.5
444.919	887.5
445.14	971.5
445.361	880.5
445.582	844.5
445.803	822.5
446.024	817.5
446.245	829.5
446.466	814.5
446.687	806.5
446.908	816.5
447.129	768.5
447.35	757.5
447.571	769.5
447.792	764.5
448.013	761.5
448.234	713.5
448.455	749.5
448.675	720.5
448.896	721.5
449.117	738.5
449.338	713.5
449.559	718.5
449.779	720.5
450	712.5
450.221	724.5
450.442	722.5
450.662	731.5
450.883	710.5
451.104	744.5
451.324	725.5
451.545	724.5
451.766	711.5
451.986	703.5
452.207	679.5
452.428	732.5
452.648	691.5
452.869	658.5
453.089	702.5
453.31	689.5
453.53	673.5
453.751	684.5
453.971	677.5
454.192	708.5
454.412	680.5
454.633	695.5
454.853	677.5
455.073	685.5
455.294	689.5
455.514	672.5
455.734	678.5
455.955	695.5
456.175	694.5
456.395	651.5
456.616	652.5
456.836	662.5
457.056	681.5
457.276	645.5
457.497	656.5
457.717	673.5
457.937	674.5
458.157	722.5
458.377	692.5
458.598	714.5
458.818	726.5
459.038	732.5
459.258	742.5
459.478	794.5
459.698	805.5
459.918	783.5
460.138	794.5
460.358	831.5
460.578	842.5
460.798	870.5
461.018	875.5
461.238	860.5
461.458	854.5
461.678	874.5
461.898	891.5
462.118	882.5
462.338	915.5
462.558	948.5
462.777	938.5
462.997	994.5
463.217	962.5
463.437	1012.5
463.657	1016.5
463.876	982.5
464.096	979.5
464.316	963.5
464.536	950.5
464.755	920.5
464.975	894.5
465.195	876.5
465.414	850.5
465.634	826.5
465.854	822.5
466.073	790.5
466.293	790.5
466.512	769.5
466.732	773.5
466.951	749.5
467.171	772.5
467.391	782.5
467.61	748.5
467.829	765.5
468.049	729.5
468.268	748.5
468.488	741.5
468.707	739.5
468.927	749.5
469.146	738.5
469.365	743.5
469.585	729.5
469.804	757.5
470.023	754.5
470.243	742.5
470.462	786.5
470.681	762.5
470.901	743.5
471.12	768.5
471.339	758.5
471.558	766.5
471.777	761.5
471.997	728.5
472.216	743.5
472.435	717.5
472.654	714.5
472.873	711.5
473.092	710.5
473.311	728.5
473.53	733.5
473.749	710.5
473.968	719.5
474.187	717.5
474.406	721.5
474.625	722.5
474.844	730.5
475.063	740.5
475.282	743.5
475.501	738.5
475.72	745.5
475.939	762.5
476.158	742.5
476.377	766.5
476.596	738.5
476.814	771.5
477.033	768.5
477.252	766.5
477.471	804.5
477.69	821.5
477.908	837.5
478.127	860.5
478.346	811.5
478.564	846.5
478.783	860.5
479.002	869.5
479.22	870.5
479.439	877.5
479.658	854.5
479.876	852.5
480.095	881.5
480.313	882.5
480.532	883.5
480.751	844.5
480.969	878.5
481.188	856.5
481.406	840.5
481.624	849.5
481.843	820.5
482.061	859.5
482.28	873.5
482.498	827.5
482.717	822.5
482.935	825.5
483.153	841.5
483.372	849.5
483.59	862.5
483.808	865.5
484.027	823.5
484.245	826.5
484.463	851.5
484.681	882.5
484.9	858.5
485.118	879.5
485.336	870.5
485.554	840.5
485.772	869.5
485.99	872.5
486.209	884.5
486.427	832.5
486.645	848.5
486.863	875.5
487.081	873.5
487.299	839.5
487.517	854.5
487.735	872.5
487.953	903.5
488.171	906.5
488.389	877.5
488.607	898.5
488.825	841.5
489.043	842.5
489.261	872.5
489.479	881.5
489.696	856.5
489.914	856.5
490.132	864.5
490.35	881.5
490.568	868.5
490.786	916.5
491.003	889.5
491.221	928.5
491.439	932.5
491.657	894.5
491.874	915.5
492.092	918.5
492.31	938.5
492.527	931.5
492.745	925.5
492.963	904.5
493.18	956.5
493.398	934.5
493.615	920.5
493.833	913.5
494.05	942.5
494.268	946.5
494.485	957.5
494.703	954.5
494.92	964.5
495.138	964.5
495.355	969.5
495.573	982.5
495.79	985.5
496.008	976.5
496.225	994.5
496.442	1015.5
496.66	1008.5
496.877	1032.5
497.094	1039.5
497.312	1080.5
497.529	1061.5
497.746	1102.5
497.963	1141.5
498.181	1168.5
498.398	1191.5
498.615	1214.5
498.832	1284.5
499.049	1334.5
499.267	1398.5
499.484	1507.5
499.701	1544.5
499.918	1648.5
500.135	1746.5
500.352	1850.5
500.569	1894.5
500.786	1913.5
501.003	1844.5
501.22	1722.5
501.437	1658.5
501.654	1562.5
501.871	1493.5
502.088	1401.5
502.305	1329.5
502.522	1264.5
502.739	1224.5
502.956	1183.5
503.172	1150.5
503.389	1136.5
503.606	1108.5
503.823	1072.5
504.04	1058.5
504.256	1049.5
504.473	1062.5
504.69	1034.5
504.907	1034.5
505.123	1005.5
505.34	974.5
505.557	928.5
505.773	909.5
505.99	912.5
506.207	899.5
506.423	890.5
506.64	879.5
506.856	876.5
507.073	846.5
507.289	859.5
507.506	835.5
507.722	848.5
507.939	823.5
508.155	816.5
508.372	820.5
508.588	798.5
508.805	798.5
509.021	804.5
509.238	784.5
509.454	794.5
509.67	745.5
509.887	770.5
510.103	774.5
510.319	759.5
510.536	761.5
510.752	774.5
510.968	772.5
511.184	733.5
511.401	735.5
511.617	748.5
511.833	787.5
512.049	762.5
512.265	755.5
512.481	759.5
512.698	771.5
512.914	773.5
513.13	758.5
513.346	757.5
513.562	778.5
513.778	764.5
513.994	753.5
514.21	757.5
514.426	763.5
514.642	772.5
514.858	791.5
515.074	791.5
515.29	775.5
515.506	809.5
515.721	784.5
515.937	802.5
516.153	824.5
516.369	840.5
516.585	819.5
516.801	871.5
517.016	866.5
517.232	890.5
517.448	906.5
517.664	885.5
517.879	945.5
518.095	922.5
518.311	908.5
518.527	883.5
518.742	858.5
518.958	849.5
519.173	840.5
