Data from Ni(NO3)2@0.5M.TitratingCurve.Agarose3%dH2O.NegLispCup.LampEnergy10.LIBS07252019_HRD10591_17-58-25-564.txt Node
Date: Thu Jul 25 17:58:25 EDT 2019
User: cochatt
Spectrometer: HR+D1059
Trigger mode: 1
Integration Time (sec): 1.000000E-1
Scans to average: 1
Electric dark correction enabled: true
Nonlinearity correction enabled: false
Boxcar width: 0
XAxis mode: Wavelengths
Number of Pixels in Spectrum: 2048
>>>>>Begin Spectral Data<<<<<
223.165	-18.81
223.4	-18.81
223.635	-18.81
223.869	-8.81
224.104	-17.81
224.338	-13.81
224.573	-15.81
224.808	-21.81
225.042	-8.81
225.277	-0.81
225.511	-1.81
225.746	9.19
225.98	22.19
226.215	19.19
226.449	6.19
226.683	4.19
226.918	20.19
227.152	27.19
227.387	31.19
227.621	39.19
227.856	40.19
228.09	52.19
228.324	51.19
228.559	63.19
228.793	77.19
229.027	93.19
229.262	120.19
229.496	121.19
229.73	142.19
229.964	152.19
230.199	179.19
230.433	160.19
230.667	163.19
230.901	162.19
231.136	145.19
231.37	157.19
231.604	171.19
231.838	175.19
232.072	171.19
232.306	180.19
232.541	164.19
232.775	147.19
233.009	143.19
233.243	143.19
233.477	157.19
233.711	163.19
233.945	162.19
234.179	154.19
234.413	147.19
234.647	162.19
234.881	158.19
235.115	149.19
235.349	156.19
235.583	147.19
235.817	151.19
236.051	150.19
236.285	142.19
236.519	152.19
236.753	144.19
236.987	136.19
237.221	167.19
237.455	156.19
237.689	159.19
237.922	174.19
238.156	168.19
238.39	165.19
238.624	153.19
238.858	160.19
239.091	170.19
239.325	178.19
239.559	201.19
239.793	201.19
240.027	213.19
240.26	194.19
240.494	164.19
240.728	161.19
240.961	168.19
241.195	174.19
241.429	196.19
241.662	202.19
241.896	194.19
242.13	189.19
242.363	188.19
242.597	192.19
242.83	212.19
243.064	183.19
243.298	183.19
243.531	199.19
243.765	186.19
243.998	193.19
244.232	205.19
244.465	224.19
244.699	179.19
244.932	196.19
245.166	210.19
245.399	214.19
245.633	216.19
245.866	207.19
246.099	197.19
246.333	215.19
246.566	219.19
246.8	211.19
247.033	210.19
247.266	230.19
247.5	207.19
247.733	212.19
247.966	246.19
248.2	226.19
248.433	229.19
248.666	226.19
248.899	234.19
249.133	235.19
249.366	234.19
249.599	223.19
249.832	222.19
250.066	228.19
250.299	233.19
250.532	242.19
250.765	248.19
250.998	278.19
251.231	284.19
251.465	275.19
251.698	275.19
251.931	263.19
252.164	264.19
252.397	265.19
252.63	261.19
252.863	238.19
253.096	265.19
253.329	278.19
253.562	260.19
253.795	274.19
254.028	270.19
254.261	291.19
254.494	289.19
254.727	284.19
254.96	277.19
255.193	279.19
255.426	282.19
255.659	271.19
255.892	300.19
256.124	296.19
256.357	277.19
256.59	289.19
256.823	301.19
257.056	316.19
257.289	283.19
257.521	310.19
257.754	300.19
257.987	294.19
258.22	302.19
258.452	314.19
258.685	295.19
258.918	295.19
259.151	309.19
259.383	316.19
259.616	306.19
259.849	319.19
260.081	332.19
260.314	314.19
260.547	317.19
260.779	319.19
261.012	325.19
261.244	306.19
261.477	307.19
261.71	332.19
261.942	346.19
262.175	338.19
262.407	324.19
262.64	333.19
262.872	328.19
263.105	342.19
263.337	360.19
263.57	330.19
263.802	329.19
264.035	352.19
264.267	347.19
264.499	340.19
264.732	335.19
264.964	371.19
265.197	373.19
265.429	363.19
265.661	347.19
265.894	341.19
266.126	350.19
266.358	352.19
266.591	350.19
266.823	362.19
267.055	359.19
267.287	379.19
267.52	363.19
267.752	353.19
267.984	371.19
268.216	369.19
268.448	378.19
268.681	365.19
268.913	377.19
269.145	407.19
269.377	375.19
269.609	380.19
269.841	385.19
270.073	375.19
270.306	385.19
270.538	386.19
270.77	386.19
271.002	408.19
271.234	380.19
271.466	402.19
271.698	396.19
271.93	397.19
272.162	394.19
272.394	403.19
272.626	405.19
272.858	417.19
273.09	415.19
273.322	391.19
273.553	406.19
273.785	421.19
274.017	409.19
274.249	394.19
274.481	422.19
274.713	408.19
274.945	429.19
275.176	417.19
275.408	429.19
275.64	417.19
275.872	422.19
276.104	415.19
276.335	426.19
276.567	456.19
276.799	427.19
277.031	442.19
277.262	442.19
277.494	407.19
277.726	439.19
277.957	431.19
278.189	429.19
278.421	442.19
278.652	460.19
278.884	452.19
279.115	443.19
279.347	444.19
279.579	457.19
279.81	468.19
280.042	451.19
280.273	441.19
280.505	459.19
280.736	459.19
280.968	456.19
281.199	477.19
281.431	473.19
281.662	473.19
281.894	460.19
282.125	475.19
282.356	470.19
282.588	460.19
282.819	499.19
283.051	473.19
283.282	470.19
283.513	494.19
283.745	468.19
283.976	455.19
284.207	475.19
284.439	483.19
284.67	482.19
284.901	487.19
285.132	489.19
285.364	487.19
285.595	492.19
285.826	484.19
286.057	487.19
286.288	488.19
286.52	513.19
286.751	514.19
286.982	503.19
287.213	507.19
287.444	509.19
287.675	494.19
287.906	499.19
288.138	500.19
288.369	525.19
288.6	523.19
288.831	501.19
289.062	491.19
289.293	502.19
289.524	507.19
289.755	500.19
289.986	515.19
290.217	493.19
290.448	531.19
290.679	508.19
290.91	527.19
291.141	525.19
291.371	512.19
291.602	501.19
291.833	531.19
292.064	524.19
292.295	518.19
292.526	511.19
292.757	515.19
292.987	521.19
293.218	513.19
293.449	518.19
293.68	522.19
293.91	504.19
294.141	522.19
294.372	535.19
294.603	531.19
294.833	541.19
295.064	502.19
295.295	546.19
295.525	540.19
295.756	545.19
295.987	529.19
296.217	515.19
296.448	508.19
296.679	533.19
296.909	553.19
297.14	552.19
297.37	542.19
297.601	547.19
297.831	548.19
298.062	554.19
298.292	568.19
298.523	546.19
298.753	558.19
298.984	564.19
299.214	567.19
299.445	567.19
299.675	547.19
299.905	579.19
300.136	584.19
300.366	619.19
300.597	617.19
300.827	575.19
301.057	571.19
301.288	582.19
301.518	599.19
301.748	596.19
301.979	613.19
302.209	577.19
302.439	594.19
302.669	574.19
302.9	597.19
303.13	610.19
303.36	607.19
303.59	594.19
303.82	613.19
304.051	603.19
304.281	610.19
304.511	610.19
304.741	605.19
304.971	622.19
305.201	634.19
305.431	659.19
305.661	620.19
305.891	617.19
306.121	620.19
306.352	601.19
306.582	592.19
306.812	600.19
307.042	590.19
307.272	597.19
307.502	597.19
307.731	603.19
307.961	609.19
308.191	603.19
308.421	604.19
308.651	597.19
308.881	607.19
309.111	617.19
309.341	597.19
309.571	625.19
309.8	654.19
310.03	650.19
310.26	648.19
310.49	646.19
310.72	625.19
310.949	615.19
311.179	639.19
311.409	625.19
311.639	601.19
311.868	637.19
312.098	638.19
312.328	657.19
312.557	674.19
312.787	648.19
313.017	647.19
313.246	639.19
313.476	660.19
313.706	651.19
313.935	669.19
314.165	655.19
314.394	622.19
314.624	643.19
314.853	670.19
315.083	654.19
315.312	673.19
315.542	677.19
315.771	667.19
316.001	655.19
316.23	675.19
316.46	651.19
316.689	669.19
316.919	681.19
317.148	675.19
317.377	670.19
317.607	711.19
317.836	676.19
318.065	677.19
318.295	658.19
318.524	667.19
318.753	684.19
318.983	687.19
319.212	668.19
319.441	715.19
319.67	685.19
319.9	669.19
320.129	694.19
320.358	701.19
320.587	709.19
320.816	687.19
321.046	680.19
321.275	697.19
321.504	693.19
321.733	699.19
321.962	701.19
322.191	708.19
322.42	711.19
322.649	714.19
322.878	703.19
323.108	724.19
323.337	742.19
323.566	757.19
323.795	737.19
324.024	727.19
324.253	725.19
324.482	714.19
324.71	745.19
324.939	725.19
325.168	758.19
325.397	742.19
325.626	743.19
325.855	734.19
326.084	743.19
326.313	763.19
326.542	753.19
326.77	765.19
326.999	757.19
327.228	733.19
327.457	743.19
327.686	752.19
327.914	777.19
328.143	785.19
328.372	779.19
328.6	770.19
328.829	764.19
329.058	766.19
329.287	760.19
329.515	772.19
329.744	759.19
329.972	754.19
330.201	789.19
330.43	774.19
330.658	785.19
330.887	810.19
331.115	811.19
331.344	824.19
331.572	799.19
331.801	833.19
332.03	815.19
332.258	846.19
332.486	849.19
332.715	846.19
332.943	835.19
333.172	853.19
333.4	865.19
333.629	860.19
333.857	887.19
334.085	898.19
334.314	881.19
334.542	915.19
334.771	904.19
334.999	889.19
335.227	903.19
335.455	922.19
335.684	878.19
335.912	911.19
336.14	905.19
336.369	906.19
336.597	915.19
336.825	922.19
337.053	936.19
337.281	913.19
337.51	889.19
337.738	901.19
337.966	897.19
338.194	898.19
338.422	901.19
338.65	837.19
338.878	863.19
339.106	875.19
339.334	899.19
339.562	874.19
339.79	861.19
340.018	846.19
340.246	843.19
340.474	862.19
340.702	847.19
340.93	838.19
341.158	855.19
341.386	882.19
341.614	919.19
341.842	891.19
342.07	861.19
342.298	874.19
342.526	863.19
342.754	857.19
342.981	849.19
343.209	867.19
343.437	897.19
343.665	904.19
343.893	923.19
344.12	912.19
344.348	895.19
344.576	905.19
344.804	928.19
345.031	872.19
345.259	877.19
345.487	875.19
345.714	907.19
345.942	892.19
346.17	924.19
346.397	910.19
346.625	879.19
346.853	825.19
347.08	811.19
347.308	812.19
347.535	837.19
347.763	828.19
347.99	817.19
348.218	834.19
348.445	834.19
348.673	811.19
348.9	830.19
349.128	796.19
349.355	836.19
349.583	860.19
349.81	829.19
350.037	814.19
350.265	817.19
350.492	821.19
350.72	786.19
350.947	797.19
351.174	824.19
351.402	851.19
351.629	874.19
351.856	840.19
352.083	810.19
352.311	826.19
352.538	876.19
352.765	905.19
352.992	829.19
353.22	787.19
353.447	806.19
353.674	789.19
353.901	789.19
354.128	789.19
354.355	785.19
354.583	777.19
354.81	790.19
355.037	807.19
355.264	787.19
355.491	805.19
355.718	807.19
355.945	790.19
356.172	792.19
356.399	785.19
356.626	823.19
356.853	857.19
357.08	837.19
357.307	806.19
357.534	796.19
357.761	803.19
357.988	811.19
358.215	809.19
358.441	802.19
358.668	794.19
358.895	783.19
359.122	827.19
359.349	774.19
359.576	815.19
359.802	779.19
360.029	811.19
360.256	801.19
360.483	795.19
360.709	804.19
360.936	768.19
361.163	802.19
361.39	805.19
361.616	823.19
361.843	849.19
362.07	865.19
362.296	878.19
362.523	828.19
362.749	824.19
362.976	801.19
363.203	798.19
363.429	775.19
363.656	801.19
363.882	810.19
364.109	790.19
364.335	808.19
364.562	812.19
364.788	806.19
365.015	823.19
365.241	827.19
365.468	817.19
365.694	802.19
365.92	799.19
366.147	789.19
366.373	818.19
366.599	831.19
366.826	812.19
367.052	773.19
367.278	816.19
367.505	807.19
367.731	823.19
367.957	795.19
368.184	841.19
368.41	823.19
368.636	820.19
368.862	834.19
369.089	821.19
369.315	828.19
369.541	809.19
369.767	838.19
369.993	826.19
370.219	819.19
370.445	850.19
370.672	845.19
370.898	839.19
371.124	837.19
371.35	835.19
371.576	842.19
371.802	860.19
372.028	876.19
372.254	853.19
372.48	846.19
372.706	863.19
372.932	867.19
373.158	864.19
373.384	852.19
373.61	858.19
373.835	867.19
374.061	892.19
374.287	851.19
374.513	853.19
374.739	867.19
374.965	863.19
375.191	874.19
375.416	892.19
375.642	855.19
375.868	870.19
376.094	848.19
376.319	847.19
376.545	843.19
376.771	860.19
376.997	855.19
377.222	846.19
377.448	852.19
377.674	860.19
377.899	847.19
378.125	844.19
378.35	866.19
378.576	853.19
378.802	851.19
379.027	848.19
379.253	812.19
379.478	846.19
379.704	808.19
379.929	841.19
380.155	858.19
380.38	842.19
380.606	882.19
380.831	858.19
381.057	876.19
381.282	845.19
381.507	873.19
381.733	840.19
381.958	881.19
382.184	844.19
382.409	853.19
382.634	870.19
382.86	879.19
383.085	877.19
383.31	874.19
383.535	899.19
383.761	897.19
383.986	896.19
384.211	907.19
384.436	901.19
384.662	876.19
384.887	952.19
385.112	920.19
385.337	946.19
385.562	936.19
385.787	960.19
386.013	974.19
386.238	942.19
386.463	952.19
386.688	945.19
386.913	962.19
387.138	918.19
387.363	999.19
387.588	929.19
387.813	954.19
388.038	965.19
388.263	945.19
388.488	960.19
388.713	964.19
388.938	963.19
389.163	950.19
389.387	982.19
389.612	973.19
389.837	1005.19
390.062	961.19
390.287	1000.19
390.512	953.19
390.736	932.19
390.961	981.19
391.186	1006.19
391.411	1005.19
391.636	1012.19
391.86	1030.19
392.085	1038.19
392.31	1009.19
392.534	1032.19
392.759	1007.19
392.984	998.19
393.208	1005.19
393.433	1022.19
393.658	1036.19
393.882	1019.19
394.107	1007.19
394.331	1021.19
394.556	1012.19
394.78	1026.19
395.005	1025.19
395.229	1030.19
395.454	1036.19
395.678	1049.19
395.903	1029.19
396.127	1052.19
396.352	1045.19
396.576	1050.19
396.801	1039.19
397.025	1083.19
397.249	1080.19
397.474	1096.19
397.698	1066.19
397.922	1118.19
398.147	1065.19
398.371	1083.19
398.595	1137.19
398.82	1167.19
399.044	1177.19
399.268	1219.19
399.492	1244.19
399.717	1324.19
399.941	1342.19
400.165	1291.19
400.389	1302.19
400.613	1220.19
400.837	1197.19
401.062	1195.19
401.286	1165.19
401.51	1162.19
401.734	1141.19
401.958	1127.19
402.182	1158.19
402.406	1144.19
402.63	1154.19
402.854	1148.19
403.078	1139.19
403.302	1179.19
403.526	1153.19
403.75	1161.19
403.974	1173.19
404.198	1159.19
404.422	1175.19
404.645	1139.19
404.869	1194.19
405.093	1167.19
405.317	1169.19
405.541	1176.19
405.765	1166.19
405.988	1177.19
406.212	1204.19
406.436	1204.19
406.66	1229.19
406.883	1251.19
407.107	1238.19
407.331	1284.19
407.555	1275.19
407.778	1275.19
408.002	1277.19
408.226	1313.19
408.449	1313.19
408.673	1277.19
408.896	1250.19
409.12	1229.19
409.344	1245.19
409.567	1231.19
409.791	1219.19
410.014	1206.19
410.238	1190.19
410.461	1231.19
410.685	1220.19
410.908	1169.19
411.132	1235.19
411.355	1181.19
411.578	1221.19
411.802	1205.19
412.025	1190.19
412.249	1179.19
412.472	1190.19
412.695	1154.19
412.919	1191.19
413.142	1181.19
413.365	1161.19
413.589	1172.19
413.812	1163.19
414.035	1165.19
414.258	1148.19
414.482	1153.19
414.705	1150.19
414.928	1153.19
415.151	1139.19
415.374	1152.19
415.597	1145.19
415.821	1113.19
416.044	1121.19
416.267	1113.19
416.49	1120.19
416.713	1099.19
416.936	1114.19
417.159	1107.19
417.382	1085.19
417.605	1107.19
417.828	1123.19
418.051	1099.19
418.274	1083.19
418.497	1100.19
418.72	1133.19
418.943	1072.19
419.166	1158.19
419.389	1190.19
419.611	1210.19
419.834	1196.19
420.057	1163.19
420.28	1160.19
420.503	1129.19
420.726	1112.19
420.948	1098.19
421.171	1091.19
421.394	1087.19
421.617	1105.19
421.839	1089.19
422.062	1085.19
422.285	1105.19
422.507	1097.19
422.73	1112.19
422.953	1109.19
423.175	1137.19
423.398	1089.19
423.621	1102.19
423.843	1130.19
424.066	1102.19
424.288	1129.19
424.511	1095.19
424.733	1094.19
424.956	1114.19
425.178	1116.19
425.401	1070.19
425.623	1103.19
425.846	1090.19
426.068	1112.19
426.291	1094.19
426.513	1074.19
426.735	1088.19
426.958	1098.19
427.18	1063.19
427.402	1057.19
427.625	1086.19
427.847	1066.19
428.069	1051.19
428.292	1070.19
428.514	1075.19
428.736	1040.19
428.958	1061.19
429.181	1051.19
429.403	1045.19
429.625	1028.19
429.847	1031.19
430.069	1061.19
430.292	1063.19
430.514	1049.19
430.736	1037.19
430.958	1029.19
431.18	1049.19
431.402	1089.19
431.624	1063.19
431.846	1073.19
432.068	1073.19
432.29	1063.19
432.512	1030.19
432.734	1088.19
432.956	1061.19
433.178	1101.19
433.4	1092.19
433.622	1115.19
433.844	1083.19
434.066	1096.19
434.287	1122.19
434.509	1102.19
434.731	1099.19
434.953	1086.19
435.175	1130.19
435.397	1137.19
435.618	1093.19
435.84	1066.19
436.062	1085.19
436.284	1094.19
436.505	1058.19
436.727	1069.19
436.949	1066.19
437.17	1077.19
437.392	1073.19
437.614	1054.19
437.835	1009.19
438.057	1011.19
438.278	1034.19
438.5	1066.19
438.721	1031.19
438.943	1035.19
439.165	1037.19
439.386	1053.19
439.608	1051.19
439.829	1036.19
440.05	1053.19
440.272	1066.19
440.493	1062.19
440.715	1070.19
440.936	1089.19
441.158	1100.19
441.379	1128.19
441.6	1108.19
441.822	1158.19
442.043	1140.19
442.264	1121.19
442.486	1093.19
442.707	1091.19
442.928	1121.19
443.149	1139.19
443.371	1165.19
443.592	1198.19
443.813	1151.19
444.034	1125.19
444.255	1149.19
444.476	1192.19
444.698	1143.19
444.919	1218.19
445.14	1246.19
445.361	1209.19
445.582	1153.19
445.803	1126.19
446.024	1103.19
446.245	1110.19
446.466	1086.19
446.687	1045.19
446.908	1086.19
447.129	1047.19
447.35	1036.19
447.571	1027.19
447.792	1023.19
448.013	1019.19
448.234	1000.19
448.455	1000.19
448.675	1001.19
448.896	991.19
449.117	1024.19
449.338	994.19
449.559	1002.19
449.779	983.19
450	971.19
450.221	977.19
450.442	970.19
450.662	977.19
450.883	1023.19
451.104	1044.19
451.324	1024.19
451.545	971.19
451.766	955.19
451.986	975.19
452.207	966.19
452.428	971.19
452.648	963.19
452.869	950.19
453.089	979.19
453.31	985.19
453.53	950.19
453.751	963.19
453.971	926.19
454.192	965.19
454.412	961.19
454.633	937.19
454.853	966.19
455.073	952.19
455.294	973.19
455.514	972.19
455.734	978.19
455.955	993.19
456.175	990.19
456.395	936.19
456.616	980.19
456.836	949.19
457.056	949.19
457.276	931.19
457.497	959.19
457.717	966.19
457.937	938.19
458.157	986.19
458.377	973.19
458.598	965.19
458.818	995.19
459.038	1006.19
459.258	1040.19
459.478	1073.19
459.698	1134.19
459.918	1123.19
460.138	1121.19
460.358	1138.19
460.578	1133.19
460.798	1161.19
461.018	1175.19
461.238	1153.19
461.458	1167.19
461.678	1163.19
461.898	1155.19
462.118	1150.19
462.338	1211.19
462.558	1233.19
462.777	1264.19
462.997	1311.19
463.217	1295.19
463.437	1355.19
463.657	1317.19
463.876	1251.19
464.096	1266.19
464.316	1219.19
464.536	1252.19
464.755	1215.19
464.975	1174.19
465.195	1194.19
465.414	1129.19
465.634	1099.19
465.854	1086.19
466.073	1095.19
466.293	1058.19
466.512	1039.19
466.732	1049.19
466.951	1069.19
467.171	1029.19
467.391	1041.19
467.61	1047.19
467.829	1028.19
468.049	1024.19
468.268	1020.19
468.488	1021.19
468.707	1007.19
468.927	1021.19
469.146	988.19
469.365	1049.19
469.585	1029.19
469.804	1033.19
470.023	1053.19
470.243	1055.19
470.462	1014.19
470.681	1036.19
470.901	1043.19
471.12	995.19
471.339	1020.19
471.558	1038.19
471.777	1016.19
471.997	1010.19
472.216	1036.19
472.435	969.19
472.654	973.19
472.873	989.19
473.092	1011.19
473.311	1020.19
473.53	1021.19
473.749	1025.19
473.968	1012.19
474.187	1001.19
474.406	1005.19
474.625	1022.19
474.844	1030.19
475.063	1037.19
475.282	1056.19
475.501	1064.19
475.72	1030.19
475.939	1045.19
476.158	1066.19
476.377	1039.19
476.596	1056.19
476.814	1063.19
477.033	1081.19
477.252	1080.19
477.471	1102.19
477.69	1140.19
477.908	1145.19
478.127	1106.19
478.346	1139.19
478.564	1169.19
478.783	1171.19
479.002	1203.19
479.22	1201.19
479.439	1219.19
479.658	1190.19
479.876	1182.19
480.095	1154.19
480.313	1205.19
480.532	1196.19
480.751	1177.19
480.969	1201.19
481.188	1160.19
481.406	1224.19
481.624	1130.19
481.843	1193.19
482.061	1172.19
482.28	1187.19
482.498	1180.19
482.717	1139.19
482.935	1191.19
483.153	1192.19
483.372	1231.19
483.59	1229.19
483.808	1204.19
484.027	1198.19
484.245	1217.19
484.463	1160.19
484.681	1202.19
484.9	1209.19
485.118	1185.19
485.336	1173.19
485.554	1194.19
485.772	1162.19
485.99	1181.19
486.209	1182.19
486.427	1204.19
486.645	1187.19
486.863	1214.19
487.081	1201.19
487.299	1256.19
487.517	1245.19
487.735	1242.19
487.953	1256.19
488.171	1242.19
488.389	1215.19
488.607	1201.19
488.825	1217.19
489.043	1206.19
489.261	1192.19
489.479	1210.19
489.696	1219.19
489.914	1222.19
490.132	1229.19
490.35	1228.19
490.568	1242.19
490.786	1242.19
491.003	1251.19
491.221	1221.19
491.439	1212.19
491.657	1238.19
491.874	1257.19
492.092	1285.19
492.31	1237.19
492.527	1270.19
492.745	1250.19
492.963	1263.19
493.18	1255.19
493.398	1275.19
493.615	1268.19
493.833	1281.19
494.05	1279.19
494.268	1309.19
494.485	1289.19
494.703	1316.19
494.92	1304.19
495.138	1315.19
495.355	1310.19
495.573	1295.19
495.79	1342.19
