Data from Ni(NO3)2@0.5M.TitratingCurve.Agarose3%dH2O.NegLispCup.LampEnergy10.LIBS07252019_HRD10591_17-58-39-565.txt Node
Date: Thu Jul 25 17:58:39 EDT 2019
User: cochatt
Spectrometer: HR+D1059
Trigger mode: 1
Integration Time (sec): 1.000000E-1
Scans to average: 1
Electric dark correction enabled: true
Nonlinearity correction enabled: false
Boxcar width: 0
XAxis mode: Wavelengths
Number of Pixels in Spectrum: 2048
>>>>>Begin Spectral Data<<<<<
223.165	-15.25
223.4	-15.25
223.635	-15.25
223.869	-11.25
224.104	-21.25
224.338	-10.25
224.573	-14.25
224.808	-15.25
225.042	-22.25
225.277	-9.25
225.511	-2.25
225.746	-6.25
225.98	10.75
226.215	9.75
226.449	20.75
226.683	33.75
226.918	30.75
227.152	21.75
227.387	19.75
227.621	42.75
227.856	37.75
228.09	33.75
228.324	40.75
228.559	52.75
228.793	75.75
229.027	103.75
229.262	114.75
229.496	115.75
229.73	118.75
229.964	138.75
230.199	160.75
230.433	146.75
230.667	152.75
230.901	145.75
231.136	127.75
231.37	143.75
231.604	159.75
231.838	154.75
232.072	176.75
232.306	173.75
232.541	150.75
232.775	147.75
233.009	135.75
233.243	145.75
233.477	139.75
233.711	120.75
233.945	147.75
234.179	145.75
234.413	125.75
234.647	140.75
234.881	133.75
235.115	137.75
235.349	152.75
235.583	134.75
235.817	125.75
236.051	141.75
236.285	132.75
236.519	137.75
236.753	150.75
236.987	157.75
237.221	139.75
237.455	134.75
237.689	149.75
237.922	146.75
238.156	143.75
238.39	138.75
238.624	151.75
238.858	153.75
239.091	163.75
239.325	150.75
239.559	158.75
239.793	176.75
240.027	186.75
240.26	163.75
240.494	165.75
240.728	166.75
240.961	150.75
241.195	158.75
241.429	161.75
241.662	169.75
241.896	183.75
242.13	192.75
242.363	170.75
242.597	159.75
242.83	163.75
243.064	163.75
243.298	165.75
243.531	160.75
243.765	190.75
243.998	185.75
244.232	191.75
244.465	163.75
244.699	163.75
244.932	184.75
245.166	185.75
245.399	177.75
245.633	191.75
245.866	193.75
246.099	186.75
246.333	186.75
246.566	197.75
246.8	192.75
247.033	184.75
247.266	189.75
247.5	200.75
247.733	207.75
247.966	225.75
248.2	196.75
248.433	201.75
248.666	197.75
248.899	197.75
249.133	197.75
249.366	199.75
249.599	202.75
249.832	209.75
250.066	203.75
250.299	230.75
250.532	201.75
250.765	228.75
250.998	229.75
251.231	246.75
251.465	237.75
251.698	219.75
251.931	250.75
252.164	235.75
252.397	239.75
252.63	229.75
252.863	222.75
253.096	221.75
253.329	218.75
253.562	229.75
253.795	254.75
254.028	232.75
254.261	249.75
254.494	244.75
254.727	238.75
254.96	265.75
255.193	238.75
255.426	270.75
255.659	232.75
255.892	255.75
256.124	254.75
256.357	259.75
256.59	254.75
256.823	260.75
257.056	266.75
257.289	256.75
257.521	243.75
257.754	245.75
257.987	250.75
258.22	269.75
258.452	286.75
258.685	269.75
258.918	280.75
259.151	267.75
259.383	263.75
259.616	274.75
259.849	271.75
260.081	288.75
260.314	285.75
260.547	285.75
260.779	271.75
261.012	289.75
261.244	287.75
261.477	282.75
261.71	297.75
261.942	286.75
262.175	294.75
262.407	293.75
262.64	317.75
262.872	301.75
263.105	274.75
263.337	279.75
263.57	295.75
263.802	302.75
264.035	289.75
264.267	297.75
264.499	283.75
264.732	317.75
264.964	317.75
265.197	306.75
265.429	294.75
265.661	324.75
265.894	306.75
266.126	302.75
266.358	325.75
266.591	309.75
266.823	323.75
267.055	305.75
267.287	307.75
267.52	314.75
267.752	322.75
267.984	303.75
268.216	322.75
268.448	327.75
268.681	325.75
268.913	322.75
269.145	317.75
269.377	327.75
269.609	344.75
269.841	332.75
270.073	316.75
270.306	314.75
270.538	327.75
270.77	340.75
271.002	338.75
271.234	347.75
271.466	357.75
271.698	343.75
271.93	342.75
272.162	352.75
272.394	354.75
272.626	338.75
272.858	357.75
273.09	350.75
273.322	360.75
273.553	362.75
273.785	367.75
274.017	361.75
274.249	349.75
274.481	369.75
274.713	365.75
274.945	367.75
275.176	374.75
275.408	363.75
275.64	360.75
275.872	366.75
276.104	372.75
276.335	378.75
276.567	366.75
276.799	356.75
277.031	365.75
277.262	383.75
277.494	371.75
277.726	391.75
277.957	365.75
278.189	389.75
278.421	400.75
278.652	387.75
278.884	372.75
279.115	393.75
279.347	379.75
279.579	400.75
279.81	389.75
280.042	404.75
280.273	399.75
280.505	382.75
280.736	413.75
280.968	391.75
281.199	387.75
281.431	409.75
281.662	385.75
281.894	420.75
282.125	394.75
282.356	394.75
282.588	410.75
282.819	403.75
283.051	395.75
283.282	398.75
283.513	433.75
283.745	407.75
283.976	417.75
284.207	408.75
284.439	414.75
284.67	410.75
284.901	416.75
285.132	432.75
285.364	429.75
285.595	447.75
285.826	411.75
286.057	401.75
286.288	421.75
286.52	425.75
286.751	422.75
286.982	431.75
287.213	421.75
287.444	409.75
287.675	438.75
287.906	440.75
288.138	427.75
288.369	442.75
288.6	437.75
288.831	432.75
289.062	461.75
289.293	447.75
289.524	451.75
289.755	439.75
289.986	446.75
290.217	447.75
290.448	451.75
290.679	455.75
290.91	446.75
291.141	441.75
291.371	449.75
291.602	467.75
291.833	452.75
292.064	423.75
292.295	447.75
292.526	439.75
292.757	442.75
292.987	445.75
293.218	460.75
293.449	451.75
293.68	448.75
293.91	451.75
294.141	455.75
294.372	468.75
294.603	464.75
294.833	461.75
295.064	471.75
295.295	450.75
295.525	473.75
295.756	481.75
295.987	468.75
296.217	456.75
296.448	481.75
296.679	467.75
296.909	469.75
297.14	469.75
297.37	478.75
297.601	477.75
297.831	447.75
298.062	462.75
298.292	464.75
298.523	490.75
298.753	479.75
298.984	471.75
299.214	480.75
299.445	492.75
299.675	478.75
299.905	499.75
300.136	522.75
300.366	536.75
300.597	538.75
300.827	538.75
301.057	526.75
301.288	534.75
301.518	523.75
301.748	531.75
301.979	511.75
302.209	523.75
302.439	481.75
302.669	511.75
302.9	498.75
303.13	513.75
303.36	517.75
303.59	519.75
303.82	511.75
304.051	520.75
304.281	529.75
304.511	528.75
304.741	535.75
304.971	546.75
305.201	544.75
305.431	591.75
305.661	547.75
305.891	542.75
306.121	525.75
306.352	527.75
306.582	534.75
306.812	500.75
307.042	520.75
307.272	530.75
307.502	513.75
307.731	521.75
307.961	525.75
308.191	534.75
308.421	532.75
308.651	538.75
308.881	541.75
309.111	500.75
309.341	497.75
309.571	524.75
309.8	545.75
310.03	557.75
310.26	577.75
310.49	576.75
310.72	553.75
310.949	541.75
311.179	538.75
311.409	530.75
311.639	564.75
311.868	529.75
312.098	556.75
312.328	553.75
312.557	569.75
312.787	539.75
313.017	559.75
313.246	571.75
313.476	565.75
313.706	579.75
313.935	562.75
314.165	567.75
314.394	565.75
314.624	565.75
314.853	526.75
315.083	553.75
315.312	561.75
315.542	568.75
315.771	557.75
316.001	577.75
316.23	577.75
316.46	541.75
316.689	581.75
316.919	585.75
317.148	583.75
317.377	588.75
317.607	600.75
317.836	575.75
318.065	565.75
318.295	577.75
318.524	581.75
318.753	593.75
318.983	576.75
319.212	590.75
319.441	585.75
319.67	582.75
319.9	596.75
320.129	590.75
320.358	614.75
320.587	573.75
320.816	595.75
321.046	608.75
321.275	593.75
321.504	602.75
321.733	609.75
321.962	607.75
322.191	625.75
322.42	604.75
322.649	621.75
322.878	612.75
323.108	599.75
323.337	611.75
323.566	615.75
323.795	609.75
324.024	599.75
324.253	602.75
324.482	637.75
324.71	627.75
324.939	630.75
325.168	628.75
325.397	622.75
325.626	615.75
325.855	634.75
326.084	625.75
326.313	630.75
326.542	645.75
326.77	647.75
326.999	616.75
327.228	634.75
327.457	659.75
327.686	646.75
327.914	647.75
328.143	675.75
328.372	646.75
328.6	641.75
328.829	678.75
329.058	644.75
329.287	653.75
329.515	652.75
329.744	674.75
329.972	657.75
330.201	647.75
330.43	659.75
330.658	676.75
330.887	664.75
331.115	678.75
331.344	686.75
331.572	716.75
331.801	695.75
332.03	716.75
332.258	715.75
332.486	708.75
332.715	719.75
332.943	755.75
333.172	743.75
333.4	750.75
333.629	779.75
333.857	789.75
334.085	773.75
334.314	780.75
334.542	771.75
334.771	775.75
334.999	793.75
335.227	769.75
335.455	797.75
335.684	773.75
335.912	793.75
336.14	777.75
336.369	769.75
336.597	758.75
336.825	806.75
337.053	798.75
337.281	794.75
337.51	761.75
337.738	773.75
337.966	773.75
338.194	798.75
338.422	738.75
338.65	743.75
338.878	753.75
339.106	753.75
339.334	743.75
339.562	767.75
339.79	749.75
340.018	735.75
340.246	737.75
340.474	732.75
340.702	720.75
340.93	711.75
341.158	740.75
341.386	744.75
341.614	795.75
341.842	768.75
342.07	741.75
342.298	706.75
342.526	739.75
342.754	733.75
342.981	709.75
343.209	726.75
343.437	756.75
343.665	761.75
343.893	795.75
344.12	777.75
344.348	766.75
344.576	807.75
344.804	791.75
345.031	745.75
345.259	751.75
345.487	750.75
345.714	770.75
345.942	804.75
346.17	785.75
346.397	775.75
346.625	719.75
346.853	694.75
347.08	693.75
347.308	712.75
347.535	701.75
347.763	706.75
347.99	673.75
348.218	674.75
348.445	706.75
348.673	731.75
348.9	701.75
349.128	727.75
349.355	742.75
349.583	742.75
349.81	678.75
350.037	681.75
350.265	676.75
350.492	687.75
350.72	681.75
350.947	725.75
351.174	736.75
351.402	725.75
351.629	723.75
351.856	726.75
352.083	715.75
352.311	740.75
352.538	746.75
352.765	739.75
352.992	696.75
353.22	661.75
353.447	662.75
353.674	699.75
353.901	660.75
354.128	651.75
354.355	651.75
354.583	665.75
354.81	677.75
355.037	646.75
355.264	661.75
355.491	678.75
355.718	657.75
355.945	687.75
356.172	652.75
356.399	675.75
356.626	693.75
356.853	728.75
357.08	696.75
357.307	671.75
357.534	693.75
357.761	680.75
357.988	675.75
358.215	675.75
358.441	658.75
358.668	657.75
358.895	664.75
359.122	665.75
359.349	683.75
359.576	667.75
359.802	649.75
360.029	656.75
360.256	665.75
360.483	671.75
360.709	698.75
360.936	699.75
361.163	685.75
361.39	686.75
361.616	688.75
361.843	732.75
362.07	763.75
362.296	740.75
362.523	697.75
362.749	692.75
362.976	669.75
363.203	667.75
363.429	680.75
363.656	664.75
363.882	660.75
364.109	688.75
364.335	681.75
364.562	668.75
364.788	695.75
365.015	673.75
365.241	667.75
365.468	705.75
365.694	694.75
365.92	695.75
366.147	660.75
366.373	680.75
366.599	692.75
366.826	707.75
367.052	695.75
367.278	713.75
367.505	660.75
367.731	688.75
367.957	675.75
368.184	674.75
368.41	688.75
368.636	688.75
368.862	707.75
369.089	695.75
369.315	714.75
369.541	693.75
369.767	700.75
369.993	683.75
370.219	708.75
370.445	709.75
370.672	703.75
370.898	717.75
371.124	687.75
371.35	715.75
371.576	689.75
371.802	718.75
372.028	710.75
372.254	733.75
372.48	728.75
372.706	753.75
372.932	734.75
373.158	721.75
373.384	731.75
373.61	755.75
373.835	726.75
374.061	742.75
374.287	715.75
374.513	745.75
374.739	741.75
374.965	737.75
375.191	778.75
375.416	783.75
375.642	738.75
375.868	766.75
376.094	735.75
376.319	720.75
376.545	714.75
376.771	716.75
376.997	736.75
377.222	727.75
377.448	711.75
377.674	746.75
377.899	701.75
378.125	720.75
378.35	749.75
378.576	704.75
378.802	709.75
379.027	711.75
379.253	721.75
379.478	718.75
379.704	710.75
379.929	730.75
380.155	714.75
380.38	736.75
380.606	720.75
380.831	727.75
381.057	723.75
381.282	729.75
381.507	731.75
381.733	733.75
381.958	715.75
382.184	743.75
382.409	761.75
382.634	754.75
382.86	754.75
383.085	722.75
383.31	744.75
383.535	747.75
383.761	757.75
383.986	785.75
384.211	741.75
384.436	762.75
384.662	773.75
384.887	783.75
385.112	806.75
385.337	790.75
385.562	821.75
385.787	833.75
386.013	855.75
386.238	838.75
386.463	807.75
386.688	835.75
386.913	807.75
387.138	825.75
387.363	823.75
387.588	822.75
387.813	848.75
388.038	840.75
388.263	850.75
388.488	842.75
388.713	819.75
388.938	841.75
389.163	848.75
389.387	832.75
389.612	826.75
389.837	831.75
390.062	835.75
390.287	837.75
390.512	858.75
390.736	857.75
390.961	820.75
391.186	840.75
391.411	862.75
391.636	887.75
391.86	871.75
392.085	914.75
392.31	897.75
392.534	873.75
392.759	921.75
392.984	895.75
393.208	895.75
393.433	867.75
393.658	911.75
393.882	874.75
394.107	875.75
394.331	888.75
394.556	870.75
394.78	905.75
395.005	863.75
395.229	881.75
395.454	895.75
395.678	903.75
395.903	914.75
396.127	922.75
396.352	907.75
396.576	917.75
396.801	900.75
397.025	912.75
397.249	906.75
397.474	917.75
397.698	923.75
397.922	934.75
398.147	939.75
398.371	960.75
398.595	997.75
398.82	1010.75
399.044	1049.75
399.268	1085.75
399.492	1152.75
399.717	1209.75
399.941	1193.75
400.165	1135.75
400.389	1167.75
400.613	1122.75
400.837	1095.75
401.062	1049.75
401.286	1055.75
401.51	1006.75
401.734	1000.75
401.958	1031.75
402.182	1037.75
402.406	1006.75
402.63	997.75
402.854	1024.75
403.078	1015.75
403.302	1016.75
403.526	1019.75
403.75	1029.75
403.974	1029.75
404.198	1029.75
404.422	1043.75
404.645	1058.75
404.869	1034.75
405.093	1044.75
405.317	1063.75
405.541	1041.75
405.765	1082.75
405.988	1041.75
406.212	1069.75
406.436	1062.75
406.66	1097.75
406.883	1085.75
407.107	1129.75
407.331	1142.75
407.555	1167.75
407.778	1162.75
408.002	1172.75
408.226	1149.75
408.449	1151.75
408.673	1136.75
408.896	1079.75
409.12	1073.75
409.344	1100.75
409.567	1067.75
409.791	1094.75
410.014	1071.75
410.238	1050.75
410.461	1081.75
410.685	1062.75
410.908	1053.75
411.132	1061.75
411.355	1058.75
411.578	1037.75
411.802	1048.75
412.025	1030.75
412.249	1024.75
412.472	1042.75
412.695	1039.75
412.919	991.75
413.142	1070.75
413.365	990.75
413.589	1017.75
413.812	1000.75
414.035	1017.75
414.258	1013.75
414.482	977.75
414.705	993.75
414.928	1010.75
415.151	1002.75
415.374	979.75
415.597	1007.75
415.821	978.75
416.044	977.75
416.267	974.75
416.49	957.75
416.713	982.75
416.936	986.75
417.159	975.75
417.382	981.75
417.605	975.75
417.828	990.75
418.051	979.75
418.274	966.75
418.497	940.75
418.72	977.75
418.943	981.75
419.166	1021.75
419.389	1094.75
419.611	1054.75
419.834	1028.75
420.057	1013.75
420.28	985.75
420.503	951.75
420.726	959.75
420.948	963.75
421.171	947.75
421.394	994.75
421.617	964.75
421.839	997.75
422.062	967.75
422.285	949.75
422.507	986.75
422.73	949.75
422.953	986.75
423.175	951.75
423.398	983.75
423.621	965.75
423.843	982.75
424.066	962.75
424.288	972.75
424.511	962.75
424.733	952.75
424.956	978.75
425.178	948.75
425.401	969.75
425.623	980.75
425.846	969.75
426.068	961.75
426.291	954.75
426.513	946.75
426.735	942.75
426.958	952.75
427.18	925.75
427.402	965.75
427.625	950.75
427.847	911.75
428.069	897.75
428.292	925.75
428.514	922.75
428.736	912.75
428.958	934.75
429.181	907.75
429.403	883.75
429.625	903.75
429.847	907.75
430.069	934.75
430.292	927.75
430.514	904.75
430.736	919.75
430.958	933.75
431.18	956.75
431.402	945.75
431.624	931.75
431.846	917.75
432.068	921.75
432.29	914.75
432.512	907.75
432.734	928.75
432.956	920.75
433.178	947.75
433.4	962.75
433.622	960.75
433.844	964.75
434.066	951.75
434.287	958.75
434.509	964.75
434.731	966.75
434.953	963.75
435.175	992.75
435.397	1001.75
435.618	985.75
435.84	921.75
436.062	930.75
436.284	925.75
436.505	935.75
436.727	945.75
436.949	926.75
437.17	922.75
437.392	905.75
437.614	890.75
437.835	889.75
438.057	914.75
438.278	904.75
438.5	879.75
438.721	890.75
438.943	916.75
439.165	895.75
439.386	903.75
439.608	898.75
439.829	932.75
440.05	902.75
440.272	920.75
440.493	948.75
440.715	935.75
440.936	938.75
441.158	961.75
441.379	960.75
441.6	984.75
441.822	985.75
442.043	986.75
442.264	968.75
442.486	952.75
442.707	983.75
442.928	981.75
443.149	991.75
443.371	998.75
443.592	1022.75
443.813	1012.75
444.034	979.75
444.255	1021.75
444.476	1034.75
444.698	1080.75
444.919	1098.75
445.14	1139.75
445.361	1052.75
445.582	1048.75
445.803	999.75
446.024	943.75
446.245	953.75
446.466	927.75
446.687	909.75
446.908	938.75
447.129	901.75
447.35	917.75
447.571	904.75
447.792	906.75
448.013	888.75
448.234	881.75
448.455	863.75
448.675	869.75
448.896	853.75
449.117	858.75
449.338	865.75
449.559	858.75
449.779	865.75
450	820.75
450.221	861.75
450.442	859.75
450.662	837.75
450.883	863.75
451.104	898.75
451.324	847.75
451.545	875.75
451.766	869.75
451.986	849.75
452.207	845.75
452.428	851.75
452.648	855.75
452.869	817.75
453.089	843.75
453.31	840.75
453.53	814.75
453.751	810.75
453.971	806.75
454.192	840.75
454.412	850.75
454.633	799.75
454.853	811.75
455.073	821.75
455.294	820.75
455.514	824.75
455.734	811.75
455.955	848.75
456.175	832.75
456.395	812.75
456.616	793.75
456.836	841.75
457.056	814.75
457.276	826.75
457.497	818.75
457.717	846.75
457.937	854.75
458.157	813.75
458.377	841.75
458.598	870.75
458.818	874.75
459.038	862.75
459.258	920.75
459.478	950.75
459.698	986.75
459.918	992.75
460.138	1013.75
460.358	1016.75
460.578	1003.75
460.798	1087.75
461.018	1065.75
461.238	1029.75
461.458	1009.75
461.678	1016.75
461.898	1054.75
462.118	1047.75
462.338	1106.75
462.558	1139.75
462.777	1144.75
462.997	1172.75
463.217	1185.75
463.437	1255.75
463.657	1204.75
463.876	1143.75
464.096	1139.75
464.316	1103.75
464.536	1124.75
464.755	1105.75
464.975	1078.75
465.195	1037.75
465.414	1014.75
465.634	984.75
465.854	973.75
466.073	947.75
466.293	926.75
466.512	923.75
466.732	942.75
466.951	905.75
467.171	895.75
467.391	906.75
467.61	908.75
467.829	869.75
468.049	897.75
468.268	874.75
468.488	872.75
468.707	895.75
468.927	889.75
469.146	883.75
469.365	913.75
469.585	928.75
469.804	943.75
470.023	918.75
470.243	913.75
470.462	899.75
470.681	889.75
470.901	900.75
471.12	907.75
471.339	905.75
471.558	909.75
471.777	917.75
471.997	896.75
472.216	873.75
472.435	856.75
472.654	870.75
472.873	872.75
473.092	862.75
473.311	854.75
473.53	855.75
473.749	881.75
473.968	869.75
474.187	836.75
474.406	891.75
474.625	887.75
474.844	890.75
475.063	864.75
475.282	905.75
475.501	901.75
475.72	896.75
475.939	884.75
476.158	894.75
476.377	910.75
476.596	921.75
476.814	949.75
477.033	932.75
477.252	930.75
477.471	958.75
477.69	937.75
477.908	987.75
478.127	979.75
478.346	980.75
478.564	1025.75
478.783	1045.75
479.002	1059.75
479.22	1069.75
479.439	1061.75
479.658	995.75
479.876	1022.75
480.095	1062.75
480.313	1053.75
480.532	1043.75
480.751	1060.75
480.969	1023.75
481.188	1019.75
481.406	1036.75
481.624	995.75
481.843	997.75
482.061	996.75
482.28	1033.75
482.498	986.75
482.717	1033.75
482.935	996.75
483.153	1043.75
483.372	1049.75
483.59	1074.75
483.808	1009.75
484.027	1047.75
484.245	1024.75
484.463	972.75
484.681	1005.75
484.9	1019.75
485.118	1029.75
485.336	1009.75
485.554	1025.75
485.772	1011.75
485.99	1030.75
486.209	1032.75
486.427	1013.75
486.645	1032.75
486.863	1029.75
487.081	1018.75
487.299	1070.75
487.517	1050.75
487.735	1077.75
487.953	1066.75
488.171	1055.75
488.389	1029.75
488.607	1047.75
488.825	1032.75
489.043	1029.75
489.261	1056.75
489.479	1039.75
489.696	1041.75
489.914	1071.75
490.132	1052.75
490.35	1044.75
490.568	1039.75
490.786	1058.75
491.003	1019.75
491.221	1058.75
491.439	1056.75
491.657	1069.75
491.874	1093.75
492.092	1100.75
492.31	1112.75
492.527	1071.75
492.745	1103.75
492.963	1103.75
493.18	1078.75
493.398	1091.75
493.615	1106.75
493.833	1084.75
494.05	1080.75
494.268	1089.75
494.485	1094.75
494.703	1112.75
494.92	1126.75
495.138	1135.75
495.355	1124.75
495.573	1120.75
495.79	1127.75
496.008	1142.75
496.225	1137.75
496.442	1120.75
496.66	1173.75
496.877	1180.75
497.094	1240.75
497.312	1207.75
497.529	1250.75
497.746	1243.75
497.963	1325.75
498.181	1331.75
498.398	1407.75
498.615	1426.75
498.832	1481.75
