Data from Ni(NO3)2@0.125M.TitratingCurve.Agarose3%dH2O.NegLispCup.LampEnergy10.LIBS07252019_HRD10591_18-11-15-568.txt Node
Date: Thu Jul 25 18:11:15 EDT 2019
User: cochatt
Spectrometer: HR+D1059
Trigger mode: 1
Integration Time (sec): 1.000000E-1
Scans to average: 1
Electric dark correction enabled: true
Nonlinearity correction enabled: false
Boxcar width: 0
XAxis mode: Wavelengths
Number of Pixels in Spectrum: 2048
>>>>>Begin Spectral Data<<<<<
223.165	-9.12
223.4	-9.12
223.635	-9.12
223.869	-23.12
224.104	-17.12
224.338	-19.12
224.573	-15.12
224.808	-21.12
225.042	-11.12
225.277	-5.12
225.511	0.88
225.746	8.88
225.98	-0.12
226.215	6.88
226.449	8.88
226.683	17.88
226.918	33.88
227.152	43.88
227.387	33.88
227.621	56.88
227.856	56.88
228.09	54.88
228.324	42.88
228.559	57.88
228.793	77.88
229.027	108.88
229.262	128.88
229.496	106.88
229.73	102.88
229.964	108.88
230.199	124.88
230.433	120.88
230.667	110.88
230.901	124.88
231.136	130.88
231.37	112.88
231.604	140.88
231.838	132.88
232.072	138.88
232.306	132.88
232.541	145.88
232.775	128.88
233.009	130.88
233.243	139.88
233.477	154.88
233.711	130.88
233.945	137.88
234.179	130.88
234.413	144.88
234.647	150.88
234.881	132.88
235.115	129.88
235.349	128.88
235.583	139.88
235.817	137.88
236.051	138.88
236.285	150.88
236.519	128.88
236.753	150.88
236.987	143.88
237.221	133.88
237.455	149.88
237.689	160.88
237.922	141.88
238.156	144.88
238.39	145.88
238.624	147.88
238.858	162.88
239.091	155.88
239.325	155.88
239.559	155.88
239.793	155.88
240.027	152.88
240.26	161.88
240.494	157.88
240.728	154.88
240.961	158.88
241.195	184.88
241.429	162.88
241.662	166.88
241.896	169.88
242.13	182.88
242.363	173.88
242.597	180.88
242.83	171.88
243.064	172.88
243.298	160.88
243.531	171.88
243.765	177.88
243.998	188.88
244.232	173.88
244.465	177.88
244.699	187.88
244.932	199.88
245.166	180.88
245.399	184.88
245.633	186.88
245.866	188.88
246.099	189.88
246.333	199.88
246.566	209.88
246.8	203.88
247.033	202.88
247.266	191.88
247.5	201.88
247.733	200.88
247.966	194.88
248.2	212.88
248.433	217.88
248.666	230.88
248.899	212.88
249.133	205.88
249.366	208.88
249.599	223.88
249.832	220.88
250.066	221.88
250.299	226.88
250.532	213.88
250.765	228.88
250.998	227.88
251.231	222.88
251.465	217.88
251.698	221.88
251.931	210.88
252.164	219.88
252.397	224.88
252.63	228.88
252.863	236.88
253.096	253.88
253.329	228.88
253.562	212.88
253.795	233.88
254.028	246.88
254.261	229.88
254.494	251.88
254.727	222.88
254.96	229.88
255.193	249.88
255.426	229.88
255.659	245.88
255.892	239.88
256.124	233.88
256.357	241.88
256.59	265.88
256.823	264.88
257.056	246.88
257.289	250.88
257.521	258.88
257.754	249.88
257.987	257.88
258.22	253.88
258.452	256.88
258.685	246.88
258.918	260.88
259.151	254.88
259.383	266.88
259.616	248.88
259.849	265.88
260.081	252.88
260.314	278.88
260.547	274.88
260.779	269.88
261.012	245.88
261.244	271.88
261.477	286.88
261.71	284.88
261.942	285.88
262.175	267.88
262.407	289.88
262.64	278.88
262.872	282.88
263.105	280.88
263.337	296.88
263.57	302.88
263.802	297.88
264.035	297.88
264.267	292.88
264.499	262.88
264.732	294.88
264.964	291.88
265.197	311.88
265.429	316.88
265.661	293.88
265.894	279.88
266.126	298.88
266.358	281.88
266.591	301.88
266.823	317.88
267.055	297.88
267.287	296.88
267.52	311.88
267.752	317.88
267.984	312.88
268.216	324.88
268.448	315.88
268.681	314.88
268.913	314.88
269.145	325.88
269.377	318.88
269.609	319.88
269.841	319.88
270.073	275.88
270.306	311.88
270.538	309.88
270.77	320.88
271.002	323.88
271.234	330.88
271.466	301.88
271.698	328.88
271.93	324.88
272.162	316.88
272.394	310.88
272.626	319.88
272.858	323.88
273.09	332.88
273.322	342.88
273.553	327.88
273.785	327.88
274.017	339.88
274.249	318.88
274.481	347.88
274.713	349.88
274.945	333.88
275.176	341.88
275.408	345.88
275.64	336.88
275.872	336.88
276.104	357.88
276.335	341.88
276.567	338.88
276.799	346.88
277.031	349.88
277.262	338.88
277.494	368.88
277.726	369.88
277.957	367.88
278.189	361.88
278.421	367.88
278.652	351.88
278.884	377.88
279.115	354.88
279.347	351.88
279.579	368.88
279.81	353.88
280.042	361.88
280.273	380.88
280.505	362.88
280.736	372.88
280.968	379.88
281.199	380.88
281.431	397.88
281.662	372.88
281.894	387.88
282.125	374.88
282.356	383.88
282.588	383.88
282.819	379.88
283.051	379.88
283.282	366.88
283.513	382.88
283.745	379.88
283.976	376.88
284.207	380.88
284.439	392.88
284.67	405.88
284.901	415.88
285.132	383.88
285.364	391.88
285.595	402.88
285.826	402.88
286.057	422.88
286.288	388.88
286.52	397.88
286.751	400.88
286.982	406.88
287.213	408.88
287.444	394.88
287.675	405.88
287.906	430.88
288.138	425.88
288.369	418.88
288.6	429.88
288.831	409.88
289.062	416.88
289.293	416.88
289.524	414.88
289.755	431.88
289.986	430.88
290.217	436.88
290.448	422.88
290.679	416.88
290.91	428.88
291.141	426.88
291.371	432.88
291.602	437.88
291.833	415.88
292.064	446.88
292.295	434.88
292.526	436.88
292.757	406.88
292.987	412.88
293.218	413.88
293.449	433.88
293.68	433.88
293.91	438.88
294.141	424.88
294.372	424.88
294.603	442.88
294.833	432.88
295.064	446.88
295.295	433.88
295.525	452.88
295.756	433.88
295.987	454.88
296.217	439.88
296.448	440.88
296.679	443.88
296.909	440.88
297.14	466.88
297.37	445.88
297.601	458.88
297.831	480.88
298.062	484.88
298.292	465.88
298.523	473.88
298.753	474.88
298.984	462.88
299.214	473.88
299.445	475.88
299.675	478.88
299.905	471.88
300.136	465.88
300.366	487.88
300.597	482.88
300.827	494.88
301.057	485.88
301.288	471.88
301.518	509.88
301.748	494.88
301.979	487.88
302.209	505.88
302.439	485.88
302.669	491.88
302.9	483.88
303.13	504.88
303.36	471.88
303.59	488.88
303.82	490.88
304.051	489.88
304.281	496.88
304.511	490.88
304.741	466.88
304.971	476.88
305.201	456.88
305.431	472.88
305.661	478.88
305.891	463.88
306.121	473.88
306.352	488.88
306.582	432.88
306.812	472.88
307.042	479.88
307.272	459.88
307.502	487.88
307.731	492.88
307.961	476.88
308.191	453.88
308.421	479.88
308.651	479.88
308.881	477.88
309.111	465.88
309.341	458.88
309.571	453.88
309.8	473.88
310.03	479.88
310.26	454.88
310.49	474.88
310.72	461.88
310.949	473.88
311.179	489.88
311.409	500.88
311.639	477.88
311.868	461.88
312.098	489.88
312.328	502.88
312.557	480.88
312.787	482.88
313.017	504.88
313.246	481.88
313.476	470.88
313.706	498.88
313.935	527.88
314.165	521.88
314.394	512.88
314.624	490.88
314.853	518.88
315.083	499.88
315.312	484.88
315.542	480.88
315.771	520.88
316.001	514.88
316.23	493.88
316.46	476.88
316.689	500.88
316.919	493.88
317.148	502.88
317.377	522.88
317.607	479.88
317.836	471.88
318.065	506.88
318.295	493.88
318.524	487.88
318.753	499.88
318.983	488.88
319.212	492.88
319.441	483.88
319.67	476.88
319.9	479.88
320.129	485.88
320.358	481.88
320.587	492.88
320.816	488.88
321.046	484.88
321.275	516.88
321.504	504.88
321.733	489.88
321.962	484.88
322.191	506.88
322.42	508.88
322.649	484.88
322.878	505.88
323.108	489.88
323.337	498.88
323.566	496.88
323.795	520.88
324.024	528.88
324.253	518.88
324.482	517.88
324.71	510.88
324.939	522.88
325.168	527.88
325.397	527.88
325.626	533.88
325.855	516.88
326.084	552.88
326.313	554.88
326.542	524.88
326.77	574.88
326.999	546.88
327.228	549.88
327.457	541.88
327.686	562.88
327.914	546.88
328.143	559.88
328.372	535.88
328.6	546.88
328.829	546.88
329.058	529.88
329.287	548.88
329.515	568.88
329.744	541.88
329.972	534.88
330.201	538.88
330.43	554.88
330.658	566.88
330.887	570.88
331.115	556.88
331.344	548.88
331.572	572.88
331.801	577.88
332.03	601.88
332.258	615.88
332.486	612.88
332.715	634.88
332.943	664.88
333.172	701.88
333.4	700.88
333.629	740.88
333.857	736.88
334.085	739.88
334.314	732.88
334.542	708.88
334.771	706.88
334.999	672.88
335.227	666.88
335.455	653.88
335.684	676.88
335.912	652.88
336.14	666.88
336.369	633.88
336.597	668.88
336.825	658.88
337.053	667.88
337.281	654.88
337.51	651.88
337.738	642.88
337.966	621.88
338.194	625.88
338.422	601.88
338.65	598.88
338.878	577.88
339.106	600.88
339.334	608.88
339.562	573.88
339.79	575.88
340.018	549.88
340.246	548.88
340.474	561.88
340.702	578.88
340.93	569.88
341.158	572.88
341.386	564.88
341.614	554.88
341.842	576.88
342.07	564.88
342.298	582.88
342.526	565.88
342.754	568.88
342.981	551.88
343.209	585.88
343.437	590.88
343.665	625.88
343.893	680.88
344.12	715.88
344.348	665.88
344.576	641.88
344.804	596.88
345.031	610.88
345.259	586.88
345.487	581.88
345.714	584.88
345.942	574.88
346.17	575.88
346.397	580.88
346.625	558.88
346.853	547.88
347.08	562.88
347.308	571.88
347.535	574.88
347.763	571.88
347.99	568.88
348.218	558.88
348.445	579.88
348.673	574.88
348.9	569.88
349.128	558.88
349.355	558.88
349.583	543.88
349.81	551.88
350.037	544.88
350.265	528.88
350.492	540.88
350.72	539.88
350.947	564.88
351.174	538.88
351.402	533.88
351.629	537.88
351.856	525.88
352.083	540.88
352.311	551.88
352.538	543.88
352.765	520.88
352.992	530.88
353.22	533.88
353.447	515.88
353.674	535.88
353.901	526.88
354.128	529.88
354.355	535.88
354.583	537.88
354.81	535.88
355.037	548.88
355.264	548.88
355.491	531.88
355.718	542.88
355.945	549.88
356.172	531.88
356.399	550.88
356.626	527.88
356.853	534.88
357.08	541.88
357.307	522.88
357.534	519.88
357.761	542.88
357.988	554.88
358.215	542.88
358.441	531.88
358.668	545.88
358.895	526.88
359.122	544.88
359.349	513.88
359.576	502.88
359.802	521.88
360.029	520.88
360.256	549.88
360.483	535.88
360.709	540.88
360.936	555.88
361.163	530.88
361.39	538.88
361.616	518.88
361.843	519.88
362.07	537.88
362.296	548.88
362.523	534.88
362.749	525.88
362.976	550.88
363.203	506.88
363.429	514.88
363.656	533.88
363.882	526.88
364.109	534.88
364.335	535.88
364.562	523.88
364.788	542.88
365.015	545.88
365.241	538.88
365.468	534.88
365.694	518.88
365.92	525.88
366.147	516.88
366.373	537.88
366.599	530.88
366.826	529.88
367.052	521.88
367.278	539.88
367.505	529.88
367.731	519.88
367.957	545.88
368.184	538.88
368.41	540.88
368.636	545.88
368.862	534.88
369.089	540.88
369.315	569.88
369.541	542.88
369.767	527.88
369.993	559.88
370.219	522.88
370.445	545.88
370.672	566.88
370.898	575.88
371.124	544.88
371.35	582.88
371.576	590.88
371.802	565.88
372.028	592.88
372.254	580.88
372.48	594.88
372.706	605.88
372.932	601.88
373.158	630.88
373.384	569.88
373.61	599.88
373.835	562.88
374.061	585.88
374.287	593.88
374.513	589.88
374.739	605.88
374.965	607.88
375.191	628.88
375.416	639.88
375.642	619.88
375.868	640.88
376.094	611.88
376.319	591.88
376.545	578.88
376.771	577.88
376.997	584.88
377.222	603.88
377.448	589.88
377.674	570.88
377.899	566.88
378.125	551.88
378.35	572.88
378.576	586.88
378.802	597.88
379.027	554.88
379.253	566.88
379.478	574.88
379.704	570.88
379.929	573.88
380.155	571.88
380.38	556.88
380.606	572.88
380.831	599.88
381.057	566.88
381.282	571.88
381.507	581.88
381.733	577.88
381.958	572.88
382.184	606.88
382.409	584.88
382.634	603.88
382.86	596.88
383.085	595.88
383.31	621.88
383.535	619.88
383.761	644.88
383.986	648.88
384.211	654.88
384.436	700.88
384.662	682.88
384.887	689.88
385.112	677.88
385.337	695.88
385.562	700.88
385.787	700.88
386.013	698.88
386.238	708.88
386.463	676.88
386.688	657.88
386.913	652.88
387.138	666.88
387.363	674.88
387.588	681.88
387.813	687.88
388.038	644.88
388.263	672.88
388.488	685.88
388.713	669.88
388.938	668.88
389.163	658.88
389.387	687.88
389.612	662.88
389.837	690.88
390.062	679.88
390.287	673.88
390.512	648.88
390.736	659.88
390.961	700.88
391.186	696.88
391.411	715.88
391.636	707.88
391.86	758.88
392.085	789.88
392.31	781.88
392.534	737.88
392.759	735.88
392.984	697.88
393.208	724.88
393.433	740.88
393.658	751.88
393.882	759.88
394.107	749.88
394.331	729.88
394.556	727.88
394.78	759.88
395.005	753.88
395.229	728.88
395.454	744.88
395.678	772.88
395.903	756.88
396.127	757.88
396.352	738.88
396.576	707.88
396.801	713.88
397.025	741.88
397.249	744.88
397.474	772.88
397.698	738.88
397.922	761.88
398.147	726.88
398.371	782.88
398.595	781.88
398.82	813.88
399.044	900.88
399.268	1010.88
399.492	1115.88
399.717	1298.88
399.941	1320.88
400.165	1117.88
400.389	1015.88
400.613	933.88
400.837	889.88
401.062	855.88
401.286	873.88
401.51	856.88
401.734	859.88
401.958	834.88
402.182	843.88
402.406	864.88
402.63	908.88
402.854	900.88
403.078	938.88
403.302	942.88
403.526	956.88
403.75	945.88
403.974	1020.88
404.198	1015.88
404.422	995.88
404.645	972.88
404.869	986.88
405.093	998.88
405.317	986.88
405.541	924.88
405.765	955.88
405.988	941.88
406.212	939.88
406.436	934.88
406.66	971.88
406.883	957.88
407.107	1052.88
407.331	1089.88
407.555	1135.88
407.778	1115.88
408.002	1079.88
408.226	1051.88
408.449	1039.88
408.673	985.88
408.896	960.88
409.12	981.88
409.344	974.88
409.567	977.88
409.791	984.88
410.014	993.88
410.238	974.88
410.461	999.88
410.685	967.88
410.908	921.88
411.132	914.88
411.355	904.88
411.578	923.88
411.802	902.88
412.025	895.88
412.249	917.88
412.472	920.88
412.695	893.88
412.919	842.88
413.142	875.88
413.365	848.88
413.589	864.88
413.812	842.88
414.035	836.88
414.258	867.88
414.482	885.88
414.705	884.88
414.928	857.88
415.151	866.88
415.374	830.88
415.597	847.88
415.821	841.88
416.044	842.88
416.267	844.88
416.49	847.88
416.713	830.88
416.936	879.88
417.159	830.88
417.382	865.88
417.605	840.88
417.828	840.88
418.051	848.88
418.274	865.88
418.497	861.88
418.72	851.88
418.943	875.88
419.166	936.88
419.389	992.88
419.611	984.88
419.834	932.88
420.057	877.88
420.28	876.88
420.503	838.88
420.726	837.88
420.948	822.88
421.171	834.88
421.394	839.88
421.617	840.88
421.839	871.88
422.062	865.88
422.285	842.88
422.507	888.88
422.73	878.88
422.953	908.88
423.175	924.88
423.398	903.88
423.621	888.88
423.843	917.88
424.066	933.88
424.288	922.88
424.511	897.88
424.733	908.88
424.956	881.88
425.178	844.88
425.401	855.88
425.623	860.88
425.846	834.88
426.068	838.88
426.291	840.88
426.513	837.88
426.735	779.88
426.958	812.88
427.18	800.88
427.402	789.88
427.625	787.88
427.847	760.88
428.069	766.88
428.292	787.88
428.514	760.88
428.736	784.88
428.958	763.88
429.181	736.88
429.403	748.88
429.625	745.88
429.847	738.88
430.069	745.88
430.292	751.88
430.514	754.88
430.736	749.88
430.958	756.88
431.18	758.88
431.402	737.88
431.624	739.88
431.846	744.88
432.068	794.88
432.29	801.88
432.512	739.88
432.734	751.88
432.956	777.88
433.178	757.88
433.4	765.88
433.622	771.88
433.844	803.88
434.066	791.88
434.287	785.88
434.509	813.88
434.731	810.88
434.953	864.88
435.175	878.88
435.397	864.88
435.618	846.88
435.84	793.88
436.062	788.88
436.284	790.88
436.505	769.88
436.727	759.88
436.949	816.88
437.17	786.88
437.392	738.88
437.614	751.88
437.835	737.88
438.057	744.88
438.278	714.88
438.5	741.88
438.721	738.88
438.943	752.88
439.165	742.88
439.386	772.88
439.608	790.88
439.829	764.88
440.05	781.88
440.272	798.88
440.493	796.88
440.715	786.88
440.936	796.88
441.158	806.88
441.379	812.88
441.6	896.88
441.822	900.88
442.043	890.88
442.264	865.88
442.486	850.88
442.707	844.88
442.928	844.88
443.149	867.88
443.371	880.88
443.592	873.88
443.813	865.88
444.034	888.88
444.255	895.88
444.476	962.88
444.698	1006.88
444.919	1052.88
445.14	1119.88
445.361	1005.88
445.582	914.88
445.803	863.88
446.024	820.88
446.245	810.88
446.466	808.88
446.687	801.88
446.908	793.88
447.129	783.88
447.35	780.88
447.571	752.88
447.792	719.88
448.013	737.88
448.234	729.88
448.455	730.88
448.675	711.88
448.896	720.88
449.117	728.88
449.338	721.88
449.559	707.88
449.779	734.88
450	705.88
450.221	717.88
450.442	725.88
450.662	726.88
450.883	736.88
451.104	734.88
451.324	760.88
451.545	744.88
451.766	732.88
451.986	730.88
452.207	710.88
452.428	707.88
452.648	725.88
452.869	720.88
453.089	717.88
453.31	721.88
453.53	699.88
453.751	718.88
453.971	692.88
454.192	706.88
454.412	696.88
454.633	697.88
454.853	688.88
455.073	669.88
455.294	671.88
455.514	657.88
455.734	677.88
455.955	676.88
456.175	620.88
456.395	644.88
456.616	660.88
456.836	677.88
457.056	679.88
457.276	659.88
457.497	686.88
457.717	673.88
457.937	665.88
458.157	685.88
458.377	672.88
458.598	693.88
458.818	702.88
459.038	724.88
459.258	737.88
459.478	762.88
459.698	800.88
459.918	832.88
460.138	856.88
460.358	902.88
460.578	921.88
460.798	940.88
461.018	926.88
461.238	904.88
461.458	879.88
461.678	905.88
461.898	932.88
462.118	901.88
462.338	959.88
462.558	989.88
462.777	1035.88
462.997	1102.88
463.217	1207.88
463.437	1244.88
463.657	1137.88
463.876	1107.88
464.096	1068.88
464.316	1090.88
464.536	1086.88
464.755	1032.88
464.975	998.88
465.195	967.88
465.414	904.88
465.634	839.88
465.854	800.88
466.073	779.88
466.293	764.88
466.512	747.88
466.732	759.88
466.951	742.88
467.171	768.88
467.391	758.88
467.61	767.88
467.829	736.88
468.049	743.88
468.268	729.88
468.488	716.88
468.707	690.88
468.927	732.88
469.146	733.88
469.365	715.88
469.585	687.88
469.804	742.88
470.023	761.88
470.243	784.88
470.462	779.88
470.681	775.88
470.901	799.88
471.12	773.88
471.339	761.88
471.558	740.88
471.777	747.88
471.997	729.88
472.216	729.88
472.435	694.88
472.654	706.88
472.873	671.88
473.092	690.88
473.311	693.88
473.53	690.88
473.749	696.88
473.968	688.88
474.187	666.88
474.406	689.88
474.625	702.88
474.844	716.88
475.063	715.88
475.282	710.88
475.501	712.88
475.72	702.88
475.939	709.88
476.158	718.88
476.377	714.88
476.596	736.88
476.814	724.88
477.033	710.88
477.252	761.88
477.471	758.88
477.69	774.88
477.908	789.88
478.127	800.88
478.346	820.88
478.564	852.88
478.783	858.88
479.002	880.88
479.22	915.88
479.439	850.88
479.658	856.88
479.876	871.88
480.095	864.88
480.313	922.88
480.532	935.88
480.751	948.88
480.969	881.88
481.188	868.88
481.406	816.88
481.624	828.88
481.843	810.88
482.061	812.88
482.28	766.88
482.498	806.88
482.717	780.88
482.935	809.88
483.153	805.88
483.372	778.88
483.59	796.88
483.808	798.88
484.027	767.88
484.245	836.88
484.463	796.88
484.681	827.88
484.9	833.88
485.118	867.88
485.336	837.88
485.554	865.88
485.772	855.88
485.99	870.88
486.209	827.88
486.427	848.88
486.645	881.88
486.863	859.88
487.081	860.88
487.299	842.88
487.517	845.88
487.735	826.88
487.953	844.88
488.171	836.88
488.389	822.88
488.607	832.88
488.825	828.88
489.043	808.88
489.261	826.88
489.479	844.88
489.696	820.88
489.914	850.88
490.132	845.88
490.35	837.88
490.568	834.88
490.786	844.88
491.003	837.88
491.221	873.88
491.439	847.88
491.657	851.88
491.874	854.88
492.092	848.88
492.31	863.88
492.527	856.88
492.745	864.88
492.963	864.88
493.18	863.88
493.398	862.88
493.615	888.88
493.833	863.88
494.05	889.88
494.268	897.88
494.485	898.88
494.703	897.88
494.92	880.88
495.138	882.88
495.355	900.88
495.573	874.88
495.79	856.88
496.008	868.88
496.225	882.88
496.442	911.88
496.66	902.88
496.877	875.88
497.094	925.88
497.312	956.88
497.529	977.88
497.746	989.88
497.963	1006.88
498.181	1068.88
498.398	1073.88
498.615	1159.88
498.832	1204.88
499.049	1306.88
499.267	1408.88
499.484	1600.88
499.701	1728.88
499.918	1933.88
500.135	2237.88
500.352	2597.88
500.569	2814.88
500.786	2770.88
501.003	2510.88
