Data from Ni(NO3)2@0.125M.TitratingCurve.Agarose3%dH2O.NegLispCup.LampEnergy10.LIBS07252019_HRD10591_18-11-24-568.txt Node
Date: Thu Jul 25 18:11:24 EDT 2019
User: cochatt
Spectrometer: HR+D1059
Trigger mode: 1
Integration Time (sec): 1.000000E-1
Scans to average: 1
Electric dark correction enabled: true
Nonlinearity correction enabled: false
Boxcar width: 0
XAxis mode: Wavelengths
Number of Pixels in Spectrum: 2048
>>>>>Begin Spectral Data<<<<<
223.165	-16.38
223.4	-16.38
223.635	-16.38
223.869	-17.38
224.104	-26.38
224.338	-8.38
224.573	-18.38
224.808	0.62
225.042	-10.38
225.277	-14.38
225.511	-21.38
225.746	6.62
225.98	25.62
226.215	11.62
226.449	4.62
226.683	31.62
226.918	20.62
227.152	31.62
227.387	22.62
227.621	45.62
227.856	59.62
228.09	57.62
228.324	54.62
228.559	67.62
228.793	86.62
229.027	116.62
229.262	125.62
229.496	116.62
229.73	133.62
229.964	140.62
230.199	130.62
230.433	149.62
230.667	128.62
230.901	138.62
231.136	145.62
231.37	150.62
231.604	158.62
231.838	153.62
232.072	162.62
232.306	174.62
232.541	156.62
232.775	156.62
233.009	160.62
233.243	168.62
233.477	169.62
233.711	165.62
233.945	143.62
234.179	163.62
234.413	155.62
234.647	171.62
234.881	158.62
235.115	173.62
235.349	171.62
235.583	164.62
235.817	174.62
236.051	173.62
236.285	162.62
236.519	164.62
236.753	175.62
236.987	169.62
237.221	155.62
237.455	180.62
237.689	179.62
237.922	183.62
238.156	162.62
238.39	163.62
238.624	166.62
238.858	194.62
239.091	177.62
239.325	186.62
239.559	184.62
239.793	195.62
240.027	197.62
240.26	204.62
240.494	197.62
240.728	200.62
240.961	198.62
241.195	190.62
241.429	196.62
241.662	205.62
241.896	226.62
242.13	206.62
242.363	205.62
242.597	236.62
242.83	217.62
243.064	238.62
243.298	228.62
243.531	229.62
243.765	225.62
243.998	227.62
244.232	217.62
244.465	227.62
244.699	229.62
244.932	247.62
245.166	239.62
245.399	246.62
245.633	256.62
245.866	247.62
246.099	269.62
246.333	263.62
246.566	251.62
246.8	266.62
247.033	267.62
247.266	255.62
247.5	248.62
247.733	246.62
247.966	269.62
248.2	258.62
248.433	285.62
248.666	270.62
248.899	260.62
249.133	261.62
249.366	267.62
249.599	279.62
249.832	285.62
250.066	288.62
250.299	271.62
250.532	283.62
250.765	288.62
250.998	300.62
251.231	281.62
251.465	297.62
251.698	300.62
251.931	317.62
252.164	298.62
252.397	304.62
252.63	314.62
252.863	294.62
253.096	317.62
253.329	324.62
253.562	312.62
253.795	310.62
254.028	303.62
254.261	335.62
254.494	308.62
254.727	318.62
254.96	323.62
255.193	333.62
255.426	302.62
255.659	335.62
255.892	323.62
256.124	328.62
256.357	316.62
256.59	326.62
256.823	335.62
257.056	344.62
257.289	343.62
257.521	331.62
257.754	356.62
257.987	335.62
258.22	358.62
258.452	345.62
258.685	348.62
258.918	333.62
259.151	349.62
259.383	360.62
259.616	345.62
259.849	335.62
260.081	352.62
260.314	372.62
260.547	350.62
260.779	341.62
261.012	364.62
261.244	374.62
261.477	371.62
261.71	353.62
261.942	380.62
262.175	370.62
262.407	371.62
262.64	386.62
262.872	368.62
263.105	388.62
263.337	406.62
263.57	383.62
263.802	393.62
264.035	387.62
264.267	386.62
264.499	388.62
264.732	386.62
264.964	390.62
265.197	396.62
265.429	381.62
265.661	414.62
265.894	395.62
266.126	398.62
266.358	394.62
266.591	419.62
266.823	418.62
267.055	422.62
267.287	414.62
267.52	401.62
267.752	430.62
267.984	414.62
268.216	420.62
268.448	426.62
268.681	423.62
268.913	433.62
269.145	420.62
269.377	410.62
269.609	416.62
269.841	424.62
270.073	446.62
270.306	439.62
270.538	455.62
270.77	446.62
271.002	439.62
271.234	413.62
271.466	441.62
271.698	448.62
271.93	451.62
272.162	461.62
272.394	459.62
272.626	431.62
272.858	457.62
273.09	458.62
273.322	451.62
273.553	463.62
273.785	447.62
274.017	472.62
274.249	462.62
274.481	462.62
274.713	470.62
274.945	458.62
275.176	471.62
275.408	478.62
275.64	478.62
275.872	480.62
276.104	466.62
276.335	474.62
276.567	475.62
276.799	490.62
277.031	494.62
277.262	462.62
277.494	478.62
277.726	494.62
277.957	487.62
278.189	476.62
278.421	494.62
278.652	521.62
278.884	519.62
279.115	502.62
279.347	525.62
279.579	515.62
279.81	530.62
280.042	521.62
280.273	527.62
280.505	534.62
280.736	527.62
280.968	522.62
281.199	524.62
281.431	567.62
281.662	534.62
281.894	526.62
282.125	552.62
282.356	553.62
282.588	546.62
282.819	516.62
283.051	536.62
283.282	532.62
283.513	552.62
283.745	552.62
283.976	552.62
284.207	554.62
284.439	556.62
284.67	551.62
284.901	579.62
285.132	588.62
285.364	570.62
285.595	571.62
285.826	583.62
286.057	550.62
286.288	580.62
286.52	581.62
286.751	583.62
286.982	596.62
287.213	559.62
287.444	578.62
287.675	602.62
287.906	607.62
288.138	599.62
288.369	583.62
288.6	598.62
288.831	605.62
289.062	594.62
289.293	595.62
289.524	589.62
289.755	598.62
289.986	639.62
290.217	592.62
290.448	588.62
290.679	617.62
290.91	620.62
291.141	610.62
291.371	609.62
291.602	632.62
291.833	611.62
292.064	598.62
292.295	607.62
292.526	593.62
292.757	626.62
292.987	611.62
293.218	589.62
293.449	607.62
293.68	643.62
293.91	614.62
294.141	623.62
294.372	623.62
294.603	604.62
294.833	614.62
295.064	611.62
295.295	638.62
295.525	638.62
295.756	635.62
295.987	631.62
296.217	644.62
296.448	638.62
296.679	638.62
296.909	679.62
297.14	662.62
297.37	637.62
297.601	645.62
297.831	655.62
298.062	645.62
298.292	683.62
298.523	672.62
298.753	682.62
298.984	682.62
299.214	683.62
299.445	678.62
299.675	661.62
299.905	660.62
300.136	697.62
300.366	668.62
300.597	685.62
300.827	706.62
301.057	728.62
301.288	712.62
301.518	729.62
301.748	712.62
301.979	723.62
302.209	703.62
302.439	684.62
302.669	726.62
302.9	704.62
303.13	701.62
303.36	694.62
303.59	703.62
303.82	713.62
304.051	693.62
304.281	685.62
304.511	698.62
304.741	686.62
304.971	717.62
305.201	681.62
305.431	690.62
305.661	710.62
305.891	684.62
306.121	690.62
306.352	699.62
306.582	680.62
306.812	664.62
307.042	678.62
307.272	664.62
307.502	674.62
307.731	694.62
307.961	708.62
308.191	688.62
308.421	666.62
308.651	670.62
308.881	674.62
309.111	685.62
309.341	665.62
309.571	659.62
309.8	675.62
310.03	679.62
310.26	701.62
310.49	668.62
310.72	694.62
310.949	692.62
311.179	707.62
311.409	686.62
311.639	695.62
311.868	662.62
312.098	718.62
312.328	732.62
312.557	736.62
312.787	711.62
313.017	739.62
313.246	720.62
313.476	714.62
313.706	714.62
313.935	749.62
314.165	734.62
314.394	755.62
314.624	757.62
314.853	742.62
315.083	714.62
315.312	746.62
315.542	745.62
315.771	733.62
316.001	731.62
316.23	705.62
316.46	706.62
316.689	723.62
316.919	720.62
317.148	727.62
317.377	705.62
317.607	720.62
317.836	704.62
318.065	724.62
318.295	726.62
318.524	738.62
318.753	708.62
318.983	727.62
319.212	708.62
319.441	716.62
319.67	708.62
319.9	721.62
320.129	698.62
320.358	713.62
320.587	725.62
320.816	735.62
321.046	734.62
321.275	750.62
321.504	720.62
321.733	714.62
321.962	718.62
322.191	745.62
322.42	722.62
322.649	739.62
322.878	720.62
323.108	723.62
323.337	733.62
323.566	750.62
323.795	765.62
324.024	770.62
324.253	767.62
324.482	768.62
324.71	748.62
324.939	739.62
325.168	775.62
325.397	796.62
325.626	773.62
325.855	778.62
326.084	790.62
326.313	795.62
326.542	806.62
326.77	830.62
326.999	834.62
327.228	770.62
327.457	785.62
327.686	789.62
327.914	819.62
328.143	807.62
328.372	808.62
328.6	809.62
328.829	815.62
329.058	797.62
329.287	801.62
329.515	804.62
329.744	829.62
329.972	820.62
330.201	844.62
330.43	824.62
330.658	830.62
330.887	841.62
331.115	862.62
331.344	856.62
331.572	893.62
331.801	882.62
332.03	891.62
332.258	919.62
332.486	929.62
332.715	994.62
332.943	1013.62
333.172	1068.62
333.4	1098.62
333.629	1149.62
333.857	1131.62
334.085	1092.62
334.314	1065.62
334.542	1058.62
334.771	1038.62
334.999	997.62
335.227	1021.62
335.455	1026.62
335.684	994.62
335.912	981.62
336.14	996.62
336.369	988.62
336.597	984.62
336.825	983.62
337.053	970.62
337.281	976.62
337.51	943.62
337.738	919.62
337.966	934.62
338.194	922.62
338.422	853.62
338.65	895.62
338.878	881.62
339.106	876.62
339.334	860.62
339.562	873.62
339.79	875.62
340.018	853.62
340.246	852.62
340.474	846.62
340.702	836.62
340.93	853.62
341.158	868.62
341.386	855.62
341.614	834.62
341.842	842.62
342.07	830.62
342.298	821.62
342.526	832.62
342.754	855.62
342.981	837.62
343.209	861.62
343.437	914.62
343.665	968.62
343.893	1044.62
344.12	1083.62
344.348	1017.62
344.576	955.62
344.804	918.62
345.031	895.62
345.259	875.62
345.487	863.62
345.714	826.62
345.942	843.62
346.17	868.62
346.397	849.62
346.625	824.62
346.853	848.62
347.08	832.62
347.308	807.62
347.535	842.62
347.763	837.62
347.99	843.62
348.218	832.62
348.445	829.62
348.673	840.62
348.9	814.62
349.128	829.62
349.355	831.62
349.583	806.62
349.81	835.62
350.037	783.62
350.265	771.62
350.492	810.62
350.72	805.62
350.947	808.62
351.174	774.62
351.402	795.62
351.629	770.62
351.856	777.62
352.083	783.62
352.311	788.62
352.538	799.62
352.765	798.62
352.992	763.62
353.22	791.62
353.447	780.62
353.674	790.62
353.901	794.62
354.128	780.62
354.355	783.62
354.583	813.62
354.81	781.62
355.037	775.62
355.264	790.62
355.491	778.62
355.718	799.62
355.945	794.62
356.172	820.62
356.399	809.62
356.626	816.62
356.853	816.62
357.08	799.62
357.307	797.62
357.534	798.62
357.761	808.62
357.988	809.62
358.215	764.62
358.441	808.62
358.668	794.62
358.895	783.62
359.122	775.62
359.349	791.62
359.576	790.62
359.802	789.62
360.029	799.62
360.256	789.62
360.483	797.62
360.709	789.62
360.936	750.62
361.163	788.62
361.39	794.62
361.616	811.62
361.843	804.62
362.07	784.62
362.296	770.62
362.523	792.62
362.749	770.62
362.976	820.62
363.203	769.62
363.429	787.62
363.656	794.62
363.882	806.62
364.109	756.62
364.335	777.62
364.562	790.62
364.788	794.62
365.015	806.62
365.241	795.62
365.468	789.62
365.694	781.62
365.92	797.62
366.147	795.62
366.373	778.62
366.599	775.62
366.826	799.62
367.052	763.62
367.278	773.62
367.505	798.62
367.731	803.62
367.957	798.62
368.184	807.62
368.41	817.62
368.636	815.62
368.862	797.62
369.089	784.62
369.315	824.62
369.541	823.62
369.767	801.62
369.993	839.62
370.219	831.62
370.445	838.62
370.672	845.62
370.898	837.62
371.124	838.62
371.35	845.62
371.576	889.62
371.802	870.62
372.028	898.62
372.254	875.62
372.48	862.62
372.706	893.62
372.932	898.62
373.158	869.62
373.384	875.62
373.61	848.62
373.835	870.62
374.061	865.62
374.287	852.62
374.513	879.62
374.739	914.62
374.965	969.62
375.191	967.62
375.416	932.62
375.642	939.62
375.868	878.62
376.094	901.62
376.319	870.62
376.545	909.62
376.771	884.62
376.997	869.62
377.222	876.62
377.448	862.62
377.674	896.62
377.899	866.62
378.125	849.62
378.35	862.62
378.576	831.62
378.802	848.62
379.027	866.62
379.253	844.62
379.478	868.62
379.704	861.62
379.929	866.62
380.155	863.62
380.38	840.62
380.606	853.62
380.831	860.62
381.057	867.62
381.282	856.62
381.507	866.62
381.733	882.62
381.958	886.62
382.184	901.62
382.409	900.62
382.634	893.62
382.86	879.62
383.085	918.62
383.31	941.62
383.535	963.62
383.761	984.62
383.986	967.62
384.211	996.62
384.436	1034.62
384.662	1052.62
384.887	1061.62
385.112	1040.62
385.337	1044.62
385.562	1019.62
385.787	1082.62
386.013	1051.62
386.238	1033.62
386.463	1039.62
386.688	1056.62
386.913	1029.62
387.138	1038.62
387.363	1012.62
387.588	1036.62
387.813	989.62
388.038	1035.62
388.263	1017.62
388.488	1030.62
388.713	1039.62
388.938	1026.62
389.163	980.62
389.387	1005.62
389.612	1003.62
389.837	1029.62
390.062	1020.62
390.287	1014.62
390.512	1020.62
390.736	1006.62
390.961	1019.62
391.186	1058.62
391.411	1097.62
391.636	1116.62
391.86	1157.62
392.085	1187.62
392.31	1178.62
392.534	1162.62
392.759	1102.62
392.984	1074.62
393.208	1096.62
393.433	1104.62
393.658	1110.62
393.882	1101.62
394.107	1122.62
394.331	1122.62
394.556	1102.62
394.78	1103.62
395.005	1141.62
395.229	1100.62
395.454	1142.62
395.678	1182.62
395.903	1192.62
396.127	1142.62
396.352	1120.62
396.576	1088.62
396.801	1078.62
397.025	1087.62
397.249	1106.62
397.474	1174.62
397.698	1164.62
397.922	1157.62
398.147	1150.62
398.371	1209.62
398.595	1262.62
398.82	1267.62
399.044	1378.62
399.268	1534.62
399.492	1837.62
399.717	2064.62
399.941	2063.62
400.165	1765.62
400.389	1554.62
400.613	1482.62
400.837	1387.62
401.062	1337.62
401.286	1315.62
401.51	1314.62
401.734	1272.62
401.958	1306.62
402.182	1344.62
402.406	1365.62
402.63	1384.62
402.854	1435.62
403.078	1428.62
403.302	1483.62
403.526	1516.62
403.75	1538.62
403.974	1554.62
404.198	1547.62
404.422	1579.62
404.645	1507.62
404.869	1488.62
405.093	1534.62
405.317	1451.62
405.541	1450.62
405.765	1413.62
405.988	1428.62
406.212	1441.62
406.436	1416.62
406.66	1479.62
406.883	1488.62
407.107	1621.62
407.331	1686.62
407.555	1728.62
407.778	1711.62
408.002	1667.62
408.226	1608.62
408.449	1556.62
408.673	1504.62
408.896	1505.62
409.12	1462.62
409.344	1510.62
409.567	1498.62
409.791	1505.62
410.014	1490.62
410.238	1477.62
410.461	1474.62
410.685	1403.62
410.908	1434.62
411.132	1405.62
411.355	1381.62
411.578	1344.62
411.802	1337.62
412.025	1378.62
412.249	1406.62
412.472	1373.62
412.695	1341.62
412.919	1292.62
413.142	1322.62
413.365	1328.62
413.589	1343.62
413.812	1296.62
414.035	1259.62
414.258	1291.62
414.482	1321.62
414.705	1322.62
414.928	1328.62
415.151	1328.62
415.374	1314.62
415.597	1290.62
415.821	1258.62
416.044	1275.62
416.267	1274.62
416.49	1264.62
416.713	1251.62
416.936	1303.62
417.159	1296.62
417.382	1299.62
417.605	1276.62
417.828	1298.62
418.051	1302.62
418.274	1292.62
418.497	1301.62
418.72	1325.62
418.943	1373.62
419.166	1424.62
419.389	1471.62
419.611	1478.62
419.834	1406.62
420.057	1370.62
420.28	1307.62
420.503	1280.62
420.726	1290.62
420.948	1282.62
421.171	1276.62
421.394	1281.62
421.617	1295.62
421.839	1287.62
422.062	1318.62
422.285	1275.62
422.507	1330.62
422.73	1355.62
422.953	1367.62
423.175	1368.62
423.398	1405.62
423.621	1382.62
423.843	1402.62
424.066	1426.62
424.288	1381.62
424.511	1394.62
424.733	1359.62
424.956	1310.62
425.178	1317.62
425.401	1306.62
425.623	1309.62
425.846	1236.62
426.068	1254.62
426.291	1231.62
426.513	1197.62
426.735	1231.62
426.958	1211.62
427.18	1162.62
427.402	1152.62
427.625	1145.62
427.847	1131.62
428.069	1138.62
428.292	1138.62
428.514	1125.62
428.736	1106.62
428.958	1160.62
429.181	1125.62
429.403	1119.62
429.625	1149.62
429.847	1101.62
430.069	1101.62
430.292	1107.62
430.514	1117.62
430.736	1114.62
430.958	1108.62
431.18	1111.62
431.402	1113.62
431.624	1135.62
431.846	1148.62
432.068	1141.62
432.29	1178.62
432.512	1132.62
432.734	1152.62
432.956	1122.62
433.178	1156.62
433.4	1139.62
433.622	1148.62
433.844	1166.62
434.066	1164.62
434.287	1197.62
434.509	1214.62
434.731	1252.62
434.953	1294.62
435.175	1309.62
435.397	1270.62
435.618	1234.62
435.84	1190.62
436.062	1177.62
436.284	1170.62
436.505	1132.62
436.727	1166.62
436.949	1172.62
437.17	1133.62
437.392	1148.62
437.614	1117.62
437.835	1088.62
438.057	1132.62
438.278	1077.62
438.5	1085.62
438.721	1100.62
438.943	1127.62
439.165	1104.62
439.386	1078.62
439.608	1104.62
439.829	1122.62
440.05	1104.62
440.272	1171.62
440.493	1154.62
440.715	1167.62
440.936	1203.62
441.158	1238.62
441.379	1238.62
441.6	1309.62
441.822	1326.62
442.043	1298.62
442.264	1284.62
442.486	1252.62
442.707	1254.62
442.928	1295.62
443.149	1287.62
443.371	1279.62
443.592	1286.62
443.813	1260.62
444.034	1307.62
444.255	1341.62
444.476	1447.62
444.698	1540.62
444.919	1590.62
445.14	1633.62
445.361	1453.62
445.582	1338.62
445.803	1297.62
446.024	1221.62
446.245	1196.62
446.466	1154.62
446.687	1146.62
446.908	1158.62
447.129	1124.62
447.35	1080.62
447.571	1126.62
447.792	1081.62
448.013	1092.62
448.234	1063.62
448.455	1058.62
448.675	1068.62
448.896	1054.62
449.117	1010.62
449.338	1049.62
449.559	1029.62
449.779	1027.62
450	1034.62
450.221	1057.62
450.442	1029.62
450.662	1047.62
450.883	1071.62
451.104	1072.62
451.324	1074.62
451.545	1058.62
451.766	1079.62
451.986	1053.62
452.207	1053.62
452.428	1064.62
452.648	1039.62
452.869	1011.62
453.089	1022.62
453.31	1042.62
453.53	1000.62
453.751	995.62
453.971	997.62
454.192	1008.62
454.412	1008.62
454.633	957.62
454.853	984.62
455.073	1000.62
455.294	958.62
455.514	963.62
455.734	987.62
455.955	986.62
456.175	971.62
456.395	943.62
456.616	970.62
456.836	980.62
457.056	959.62
457.276	937.62
457.497	967.62
457.717	984.62
457.937	948.62
458.157	1014.62
458.377	997.62
458.598	998.62
458.818	1044.62
459.038	1058.62
459.258	1105.62
459.478	1129.62
459.698	1184.62
459.918	1196.62
460.138	1269.62
460.358	1327.62
460.578	1364.62
460.798	1387.62
461.018	1380.62
461.238	1360.62
461.458	1319.62
461.678	1339.62
461.898	1357.62
462.118	1390.62
462.338	1445.62
462.558	1494.62
462.777	1542.62
462.997	1720.62
463.217	1892.62
463.437	1869.62
463.657	1686.62
463.876	1582.62
464.096	1579.62
464.316	1571.62
464.536	1606.62
464.755	1546.62
464.975	1460.62
465.195	1398.62
465.414	1303.62
465.634	1231.62
465.854	1212.62
466.073	1182.62
466.293	1144.62
466.512	1116.62
466.732	1123.62
466.951	1096.62
467.171	1078.62
467.391	1104.62
467.61	1086.62
467.829	1081.62
468.049	1087.62
468.268	1038.62
468.488	1047.62
468.707	1031.62
468.927	1059.62
469.146	1059.62
469.365	1046.62
469.585	1020.62
469.804	1080.62
470.023	1102.62
470.243	1131.62
470.462	1116.62
470.681	1142.62
470.901	1135.62
471.12	1109.62
471.339	1081.62
471.558	1081.62
471.777	1082.62
471.997	1074.62
472.216	1026.62
472.435	1020.62
472.654	1028.62
472.873	993.62
473.092	1014.62
473.311	985.62
473.53	1014.62
473.749	1001.62
473.968	983.62
474.187	982.62
474.406	956.62
474.625	1028.62
474.844	1018.62
475.063	1005.62
475.282	1026.62
475.501	1014.62
475.72	1026.62
475.939	1035.62
476.158	1061.62
476.377	1045.62
476.596	1035.62
476.814	1069.62
477.033	1062.62
477.252	1084.62
477.471	1127.62
477.69	1134.62
477.908	1192.62
478.127	1167.62
478.346	1231.62
478.564	1243.62
478.783	1263.62
479.002	1275.62
479.22	1274.62
479.439	1257.62
479.658	1240.62
479.876	1283.62
480.095	1310.62
480.313	1326.62
480.532	1375.62
480.751	1406.62
480.969	1300.62
481.188	1293.62
481.406	1216.62
481.624	1189.62
481.843	1203.62
482.061	1172.62
482.28	1146.62
482.498	1158.62
482.717	1124.62
482.935	1159.62
483.153	1151.62
483.372	1198.62
483.59	1141.62
483.808	1154.62
484.027	1164.62
484.245	1161.62
484.463	1210.62
484.681	1188.62
484.9	1190.62
485.118	1231.62
485.336	1242.62
485.554	1217.62
485.772	1228.62
485.99	1251.62
486.209	1222.62
486.427	1195.62
486.645	1244.62
486.863	1229.62
487.081	1204.62
487.299	1228.62
487.517	1250.62
487.735	1207.62
487.953	1241.62
488.171	1203.62
488.389	1188.62
488.607	1186.62
488.825	1203.62
489.043	1189.62
489.261	1190.62
489.479	1200.62
489.696	1181.62
489.914	1194.62
490.132	1196.62
490.35	1209.62
490.568	1192.62
490.786	1230.62
491.003	1239.62
491.221	1231.62
491.439	1236.62
491.657	1210.62
491.874	1230.62
492.092	1219.62
492.31	1210.62
492.527	1203.62
492.745	1228.62
492.963	1253.62
493.18	1256.62
493.398	1246.62
493.615	1254.62
493.833	1273.62
494.05	1271.62
494.268	1284.62
494.485	1266.62
494.703	1251.62
494.92	1294.62
