Data from Ni(NO3)2@0.25M.TitratingCurve.Agarose3%dH2O.NegLispCup.LampEnergy10.LIBS07252019_HRD10591_18-04-22-565.txt Node
Date: Thu Jul 25 18:04:22 EDT 2019
User: cochatt
Spectrometer: HR+D1059
Trigger mode: 1
Integration Time (sec): 1.000000E-1
Scans to average: 1
Electric dark correction enabled: true
Nonlinearity correction enabled: false
Boxcar width: 0
XAxis mode: Wavelengths
Number of Pixels in Spectrum: 2048
>>>>>Begin Spectral Data<<<<<
223.165	-5.75
223.4	-5.75
223.635	-5.75
223.869	-16.75
224.104	-21.75
224.338	-24.75
224.573	-8.75
224.808	-0.75
225.042	-7.75
225.277	-15.75
225.511	-8.75
225.746	-16.75
225.98	-2.75
226.215	14.25
226.449	24.25
226.683	23.25
226.918	27.25
227.152	41.25
227.387	46.25
227.621	48.25
227.856	50.25
228.09	35.25
228.324	51.25
228.559	63.25
228.793	79.25
229.027	113.25
229.262	129.25
229.496	137.25
229.73	145.25
229.964	160.25
230.199	171.25
230.433	174.25
230.667	177.25
230.901	180.25
231.136	159.25
231.37	159.25
231.604	169.25
231.838	168.25
232.072	191.25
232.306	162.25
232.541	176.25
232.775	176.25
233.009	170.25
233.243	184.25
233.477	168.25
233.711	183.25
233.945	195.25
234.179	187.25
234.413	189.25
234.647	197.25
234.881	196.25
235.115	190.25
235.349	192.25
235.583	179.25
235.817	188.25
236.051	195.25
236.285	203.25
236.519	206.25
236.753	191.25
236.987	193.25
237.221	181.25
237.455	204.25
237.689	208.25
237.922	194.25
238.156	204.25
238.39	209.25
238.624	197.25
238.858	209.25
239.091	196.25
239.325	198.25
239.559	225.25
239.793	215.25
240.027	228.25
240.26	223.25
240.494	209.25
240.728	232.25
240.961	239.25
241.195	229.25
241.429	231.25
241.662	247.25
241.896	239.25
242.13	257.25
242.363	236.25
242.597	253.25
242.83	237.25
243.064	243.25
243.298	254.25
243.531	260.25
243.765	256.25
243.998	259.25
244.232	263.25
244.465	279.25
244.699	262.25
244.932	283.25
245.166	285.25
245.399	279.25
245.633	279.25
245.866	274.25
246.099	282.25
246.333	279.25
246.566	288.25
246.8	289.25
247.033	292.25
247.266	295.25
247.5	305.25
247.733	307.25
247.966	299.25
248.2	286.25
248.433	294.25
248.666	296.25
248.899	298.25
249.133	317.25
249.366	313.25
249.599	334.25
249.832	322.25
250.066	321.25
250.299	334.25
250.532	332.25
250.765	344.25
250.998	349.25
251.231	351.25
251.465	356.25
251.698	358.25
251.931	367.25
252.164	351.25
252.397	372.25
252.63	379.25
252.863	394.25
253.096	378.25
253.329	387.25
253.562	363.25
253.795	379.25
254.028	386.25
254.261	408.25
254.494	400.25
254.727	421.25
254.96	422.25
255.193	422.25
255.426	385.25
255.659	396.25
255.892	410.25
256.124	407.25
256.357	424.25
256.59	426.25
256.823	411.25
257.056	436.25
257.289	433.25
257.521	430.25
257.754	422.25
257.987	427.25
258.22	437.25
258.452	455.25
258.685	446.25
258.918	432.25
259.151	474.25
259.383	451.25
259.616	468.25
259.849	450.25
260.081	477.25
260.314	477.25
260.547	460.25
260.779	478.25
261.012	474.25
261.244	476.25
261.477	484.25
261.71	492.25
261.942	495.25
262.175	508.25
262.407	483.25
262.64	493.25
262.872	520.25
263.105	501.25
263.337	489.25
263.57	522.25
263.802	535.25
264.035	524.25
264.267	545.25
264.499	525.25
264.732	543.25
264.964	520.25
265.197	532.25
265.429	500.25
265.661	534.25
265.894	527.25
266.126	530.25
266.358	546.25
266.591	537.25
266.823	546.25
267.055	551.25
267.287	539.25
267.52	532.25
267.752	539.25
267.984	552.25
268.216	545.25
268.448	547.25
268.681	564.25
268.913	553.25
269.145	565.25
269.377	556.25
269.609	554.25
269.841	558.25
270.073	577.25
270.306	563.25
270.538	575.25
270.77	573.25
271.002	590.25
271.234	614.25
271.466	587.25
271.698	588.25
271.93	583.25
272.162	589.25
272.394	590.25
272.626	594.25
272.858	565.25
273.09	595.25
273.322	616.25
273.553	614.25
273.785	602.25
274.017	611.25
274.249	593.25
274.481	620.25
274.713	615.25
274.945	597.25
275.176	632.25
275.408	635.25
275.64	613.25
275.872	595.25
276.104	640.25
276.335	627.25
276.567	596.25
276.799	625.25
277.031	645.25
277.262	652.25
277.494	628.25
277.726	648.25
277.957	641.25
278.189	643.25
278.421	679.25
278.652	653.25
278.884	645.25
279.115	668.25
279.347	657.25
279.579	659.25
279.81	654.25
280.042	683.25
280.273	636.25
280.505	648.25
280.736	670.25
280.968	679.25
281.199	655.25
281.431	665.25
281.662	674.25
281.894	686.25
282.125	700.25
282.356	695.25
282.588	695.25
282.819	691.25
283.051	705.25
283.282	702.25
283.513	724.25
283.745	711.25
283.976	697.25
284.207	699.25
284.439	700.25
284.67	729.25
284.901	737.25
285.132	699.25
285.364	698.25
285.595	717.25
285.826	735.25
286.057	719.25
286.288	712.25
286.52	728.25
286.751	720.25
286.982	731.25
287.213	740.25
287.444	739.25
287.675	731.25
287.906	750.25
288.138	734.25
288.369	731.25
288.6	738.25
288.831	738.25
289.062	765.25
289.293	761.25
289.524	761.25
289.755	753.25
289.986	762.25
290.217	740.25
290.448	727.25
290.679	749.25
290.91	728.25
291.141	739.25
291.371	775.25
291.602	774.25
291.833	760.25
292.064	740.25
292.295	759.25
292.526	743.25
292.757	752.25
292.987	769.25
293.218	744.25
293.449	767.25
293.68	765.25
293.91	757.25
294.141	755.25
294.372	748.25
294.603	772.25
294.833	771.25
295.064	789.25
295.295	787.25
295.525	790.25
295.756	749.25
295.987	773.25
296.217	805.25
296.448	814.25
296.679	780.25
296.909	784.25
297.14	790.25
297.37	797.25
297.601	819.25
297.831	785.25
298.062	825.25
298.292	826.25
298.523	846.25
298.753	821.25
298.984	823.25
299.214	825.25
299.445	849.25
299.675	819.25
299.905	830.25
300.136	815.25
300.366	827.25
300.597	866.25
300.827	868.25
301.057	873.25
301.288	871.25
301.518	887.25
301.748	878.25
301.979	876.25
302.209	888.25
302.439	879.25
302.669	879.25
302.9	854.25
303.13	872.25
303.36	864.25
303.59	885.25
303.82	875.25
304.051	894.25
304.281	889.25
304.511	887.25
304.741	873.25
304.971	909.25
305.201	901.25
305.431	894.25
305.661	897.25
305.891	877.25
306.121	873.25
306.352	875.25
306.582	864.25
306.812	865.25
307.042	866.25
307.272	867.25
307.502	856.25
307.731	861.25
307.961	839.25
308.191	857.25
308.421	847.25
308.651	851.25
308.881	857.25
309.111	876.25
309.341	856.25
309.571	887.25
309.8	902.25
310.03	887.25
310.26	898.25
310.49	897.25
310.72	913.25
310.949	874.25
311.179	870.25
311.409	905.25
311.639	909.25
311.868	907.25
312.098	922.25
312.328	913.25
312.557	909.25
312.787	903.25
313.017	923.25
313.246	981.25
313.476	934.25
313.706	965.25
313.935	959.25
314.165	947.25
314.394	935.25
314.624	968.25
314.853	963.25
315.083	971.25
315.312	972.25
315.542	955.25
315.771	972.25
316.001	946.25
316.23	969.25
316.46	974.25
316.689	972.25
316.919	980.25
317.148	975.25
317.377	985.25
317.607	963.25
317.836	981.25
318.065	969.25
318.295	1010.25
318.524	977.25
318.753	972.25
318.983	1000.25
319.212	997.25
319.441	994.25
319.67	1004.25
319.9	981.25
320.129	1008.25
320.358	1022.25
320.587	1029.25
320.816	1043.25
321.046	1018.25
321.275	1004.25
321.504	1023.25
321.733	1019.25
321.962	1049.25
322.191	1026.25
322.42	1033.25
322.649	1055.25
322.878	1066.25
323.108	1047.25
323.337	1051.25
323.566	1045.25
323.795	1080.25
324.024	1055.25
324.253	1070.25
324.482	1065.25
324.71	1095.25
324.939	1103.25
325.168	1081.25
325.397	1091.25
325.626	1071.25
325.855	1101.25
326.084	1101.25
326.313	1143.25
326.542	1132.25
326.77	1158.25
326.999	1170.25
327.228	1132.25
327.457	1149.25
327.686	1128.25
327.914	1130.25
328.143	1157.25
328.372	1141.25
328.6	1153.25
328.829	1144.25
329.058	1155.25
329.287	1161.25
329.515	1174.25
329.744	1201.25
329.972	1193.25
330.201	1211.25
330.43	1187.25
330.658	1196.25
330.887	1193.25
331.115	1216.25
331.344	1191.25
331.572	1233.25
331.801	1293.25
332.03	1300.25
332.258	1269.25
332.486	1344.25
332.715	1311.25
332.943	1382.25
333.172	1373.25
333.4	1367.25
333.629	1443.25
333.857	1474.25
334.085	1494.25
334.314	1492.25
334.542	1489.25
334.771	1486.25
334.999	1495.25
335.227	1499.25
335.455	1493.25
335.684	1496.25
335.912	1453.25
336.14	1463.25
336.369	1488.25
336.597	1483.25
336.825	1457.25
337.053	1473.25
337.281	1464.25
337.51	1417.25
337.738	1403.25
337.966	1418.25
338.194	1383.25
338.422	1361.25
338.65	1353.25
338.878	1352.25
339.106	1361.25
339.334	1376.25
339.562	1348.25
339.79	1301.25
340.018	1298.25
340.246	1342.25
340.474	1307.25
340.702	1291.25
340.93	1298.25
341.158	1304.25
341.386	1320.25
341.614	1369.25
341.842	1323.25
342.07	1261.25
342.298	1286.25
342.526	1285.25
342.754	1301.25
342.981	1290.25
343.209	1310.25
343.437	1391.25
343.665	1408.25
343.893	1469.25
344.12	1509.25
344.348	1448.25
344.576	1455.25
344.804	1417.25
345.031	1400.25
345.259	1333.25
345.487	1295.25
345.714	1301.25
345.942	1319.25
346.17	1312.25
346.397	1300.25
346.625	1267.25
346.853	1244.25
347.08	1245.25
347.308	1253.25
347.535	1261.25
347.763	1255.25
347.99	1221.25
348.218	1247.25
348.445	1221.25
348.673	1248.25
348.9	1237.25
349.128	1269.25
349.355	1265.25
349.583	1267.25
349.81	1191.25
350.037	1207.25
350.265	1186.25
350.492	1177.25
350.72	1217.25
350.947	1210.25
351.174	1207.25
351.402	1199.25
351.629	1269.25
351.856	1249.25
352.083	1209.25
352.311	1211.25
352.538	1199.25
352.765	1253.25
352.992	1176.25
353.22	1183.25
353.447	1172.25
353.674	1192.25
353.901	1180.25
354.128	1222.25
354.355	1153.25
354.583	1167.25
354.81	1177.25
355.037	1184.25
355.264	1177.25
355.491	1174.25
355.718	1157.25
355.945	1169.25
356.172	1205.25
356.399	1216.25
356.626	1200.25
356.853	1254.25
357.08	1200.25
357.307	1199.25
357.534	1201.25
357.761	1184.25
357.988	1183.25
358.215	1191.25
358.441	1153.25
358.668	1155.25
358.895	1206.25
359.122	1175.25
359.349	1210.25
359.576	1212.25
359.802	1224.25
360.029	1183.25
360.256	1194.25
360.483	1230.25
360.709	1176.25
360.936	1203.25
361.163	1165.25
361.39	1227.25
361.616	1199.25
361.843	1203.25
362.07	1274.25
362.296	1241.25
362.523	1226.25
362.749	1185.25
362.976	1191.25
363.203	1183.25
363.429	1189.25
363.656	1195.25
363.882	1161.25
364.109	1169.25
364.335	1173.25
364.562	1208.25
364.788	1184.25
365.015	1181.25
365.241	1157.25
365.468	1156.25
365.694	1183.25
365.92	1189.25
366.147	1177.25
366.373	1197.25
366.599	1174.25
366.826	1165.25
367.052	1186.25
367.278	1187.25
367.505	1200.25
367.731	1178.25
367.957	1175.25
368.184	1233.25
368.41	1191.25
368.636	1188.25
368.862	1219.25
369.089	1183.25
369.315	1223.25
369.541	1236.25
369.767	1219.25
369.993	1213.25
370.219	1205.25
370.445	1216.25
370.672	1224.25
370.898	1245.25
371.124	1256.25
371.35	1263.25
371.576	1261.25
371.802	1271.25
372.028	1239.25
372.254	1275.25
372.48	1261.25
372.706	1284.25
372.932	1259.25
373.158	1283.25
373.384	1271.25
373.61	1268.25
373.835	1303.25
374.061	1261.25
374.287	1262.25
374.513	1277.25
374.739	1322.25
374.965	1338.25
375.191	1363.25
375.416	1343.25
375.642	1328.25
375.868	1307.25
376.094	1303.25
376.319	1276.25
376.545	1291.25
376.771	1249.25
376.997	1264.25
377.222	1262.25
377.448	1232.25
377.674	1228.25
377.899	1246.25
378.125	1213.25
378.35	1217.25
378.576	1222.25
378.802	1225.25
379.027	1218.25
379.253	1229.25
379.478	1219.25
379.704	1215.25
379.929	1255.25
380.155	1221.25
380.38	1211.25
380.606	1228.25
380.831	1247.25
381.057	1241.25
381.282	1201.25
381.507	1237.25
381.733	1249.25
381.958	1272.25
382.184	1260.25
382.409	1279.25
382.634	1298.25
382.86	1269.25
383.085	1325.25
383.31	1315.25
383.535	1305.25
383.761	1320.25
383.986	1315.25
384.211	1362.25
384.436	1367.25
384.662	1393.25
384.887	1395.25
385.112	1393.25
385.337	1386.25
385.562	1418.25
385.787	1425.25
386.013	1463.25
386.238	1413.25
386.463	1440.25
386.688	1459.25
386.913	1441.25
387.138	1434.25
387.363	1439.25
387.588	1493.25
387.813	1466.25
388.038	1478.25
388.263	1460.25
388.488	1473.25
388.713	1436.25
388.938	1463.25
389.163	1452.25
389.387	1449.25
389.612	1458.25
389.837	1462.25
390.062	1446.25
390.287	1396.25
390.512	1463.25
390.736	1478.25
390.961	1501.25
391.186	1497.25
391.411	1522.25
391.636	1570.25
391.86	1593.25
392.085	1647.25
392.31	1593.25
392.534	1635.25
392.759	1576.25
392.984	1567.25
393.208	1547.25
393.433	1558.25
393.658	1557.25
393.882	1526.25
394.107	1534.25
394.331	1555.25
394.556	1517.25
394.78	1568.25
395.005	1559.25
395.229	1570.25
395.454	1608.25
395.678	1617.25
395.903	1613.25
396.127	1635.25
396.352	1638.25
396.576	1608.25
396.801	1552.25
397.025	1635.25
397.249	1645.25
397.474	1674.25
397.698	1676.25
397.922	1724.25
398.147	1672.25
398.371	1726.25
398.595	1783.25
398.82	1835.25
399.044	1911.25
399.268	2031.25
399.492	2191.25
399.717	2291.25
399.941	2374.25
400.165	2273.25
400.389	2159.25
400.613	2046.25
400.837	1979.25
401.062	1917.25
401.286	1896.25
401.51	1844.25
401.734	1836.25
401.958	1849.25
402.182	1909.25
402.406	1847.25
402.63	1853.25
402.854	1865.25
403.078	1880.25
403.302	1897.25
403.526	1915.25
403.75	1900.25
403.974	1898.25
404.198	1914.25
404.422	1896.25
404.645	1923.25
404.869	1939.25
405.093	1943.25
405.317	1923.25
405.541	1950.25
405.765	1960.25
405.988	1930.25
406.212	1987.25
406.436	1975.25
406.66	2025.25
406.883	2035.25
407.107	2078.25
407.331	2119.25
407.555	2171.25
407.778	2205.25
408.002	2155.25
408.226	2179.25
408.449	2123.25
408.673	2083.25
408.896	2091.25
409.12	2006.25
409.344	2095.25
409.567	2027.25
409.791	2043.25
410.014	1979.25
410.238	2001.25
410.461	1980.25
410.685	1940.25
410.908	1936.25
411.132	1972.25
411.355	1939.25
411.578	1958.25
411.802	1905.25
412.025	1945.25
412.249	1930.25
412.472	1946.25
412.695	1900.25
412.919	1884.25
413.142	1905.25
413.365	1880.25
413.589	1914.25
413.812	1897.25
414.035	1859.25
414.258	1834.25
414.482	1879.25
414.705	1871.25
414.928	1859.25
415.151	1840.25
415.374	1873.25
415.597	1827.25
415.821	1809.25
416.044	1817.25
416.267	1801.25
416.49	1811.25
416.713	1803.25
416.936	1828.25
417.159	1790.25
417.382	1780.25
417.605	1766.25
417.828	1764.25
418.051	1766.25
418.274	1823.25
418.497	1786.25
418.72	1793.25
418.943	1847.25
419.166	1956.25
419.389	2063.25
419.611	2000.25
419.834	1956.25
420.057	1890.25
420.28	1817.25
420.503	1799.25
420.726	1791.25
420.948	1757.25
421.171	1813.25
421.394	1807.25
421.617	1796.25
421.839	1784.25
422.062	1793.25
422.285	1807.25
422.507	1828.25
422.73	1753.25
422.953	1824.25
423.175	1846.25
423.398	1816.25
423.621	1815.25
423.843	1850.25
424.066	1835.25
424.288	1853.25
424.511	1810.25
424.733	1841.25
424.956	1799.25
425.178	1827.25
425.401	1808.25
425.623	1827.25
425.846	1793.25
426.068	1735.25
426.291	1744.25
426.513	1779.25
426.735	1779.25
426.958	1762.25
427.18	1728.25
427.402	1780.25
427.625	1767.25
427.847	1662.25
428.069	1738.25
428.292	1739.25
428.514	1681.25
428.736	1696.25
428.958	1695.25
429.181	1685.25
429.403	1687.25
429.625	1664.25
429.847	1669.25
430.069	1703.25
430.292	1689.25
430.514	1696.25
430.736	1695.25
430.958	1682.25
431.18	1673.25
431.402	1683.25
431.624	1700.25
431.846	1685.25
432.068	1695.25
432.29	1705.25
432.512	1699.25
432.734	1687.25
432.956	1727.25
433.178	1735.25
433.4	1733.25
433.622	1748.25
433.844	1750.25
434.066	1696.25
434.287	1710.25
434.509	1731.25
434.731	1828.25
434.953	1835.25
435.175	1848.25
435.397	1805.25
435.618	1795.25
435.84	1772.25
436.062	1722.25
436.284	1774.25
436.505	1712.25
436.727	1678.25
436.949	1705.25
437.17	1714.25
437.392	1711.25
437.614	1679.25
437.835	1633.25
438.057	1648.25
438.278	1609.25
438.5	1636.25
438.721	1657.25
438.943	1659.25
439.165	1639.25
439.386	1677.25
439.608	1691.25
439.829	1708.25
440.05	1715.25
440.272	1702.25
440.493	1707.25
440.715	1715.25
440.936	1745.25
441.158	1741.25
441.379	1777.25
441.6	1809.25
441.822	1828.25
442.043	1811.25
442.264	1816.25
442.486	1803.25
442.707	1835.25
442.928	1809.25
443.149	1823.25
443.371	1772.25
443.592	1805.25
443.813	1829.25
444.034	1881.25
444.255	1862.25
444.476	1922.25
444.698	1991.25
444.919	2058.25
445.14	2084.25
445.361	1959.25
445.582	1942.25
445.803	1849.25
446.024	1771.25
446.245	1797.25
446.466	1799.25
446.687	1718.25
446.908	1734.25
447.129	1677.25
447.35	1650.25
447.571	1631.25
447.792	1629.25
448.013	1597.25
448.234	1604.25
448.455	1608.25
448.675	1605.25
448.896	1587.25
449.117	1556.25
449.338	1577.25
449.559	1557.25
449.779	1573.25
450	1528.25
450.221	1565.25
450.442	1573.25
450.662	1561.25
450.883	1580.25
451.104	1579.25
451.324	1542.25
451.545	1550.25
451.766	1572.25
451.986	1545.25
452.207	1517.25
452.428	1555.25
452.648	1552.25
452.869	1493.25
453.089	1498.25
453.31	1548.25
453.53	1490.25
453.751	1488.25
453.971	1485.25
454.192	1465.25
454.412	1475.25
454.633	1448.25
454.853	1484.25
455.073	1484.25
455.294	1454.25
455.514	1456.25
455.734	1426.25
455.955	1437.25
456.175	1432.25
456.395	1433.25
456.616	1471.25
456.836	1444.25
457.056	1477.25
457.276	1435.25
457.497	1483.25
457.717	1482.25
457.937	1503.25
458.157	1489.25
458.377	1524.25
458.598	1563.25
458.818	1579.25
459.038	1624.25
459.258	1640.25
459.478	1677.25
459.698	1737.25
459.918	1770.25
460.138	1795.25
460.358	1856.25
460.578	1868.25
460.798	1932.25
461.018	1979.25
461.238	1898.25
461.458	1951.25
461.678	1919.25
461.898	1995.25
462.118	1957.25
462.338	2061.25
462.558	2086.25
462.777	2184.25
462.997	2219.25
463.217	2289.25
463.437	2319.25
463.657	2270.25
463.876	2189.25
464.096	2180.25
464.316	2171.25
464.536	2152.25
464.755	2139.25
464.975	2052.25
465.195	1957.25
465.414	1915.25
465.634	1821.25
465.854	1796.25
466.073	1759.25
466.293	1738.25
466.512	1689.25
466.732	1638.25
466.951	1646.25
467.171	1611.25
467.391	1664.25
467.61	1624.25
467.829	1622.25
468.049	1618.25
468.268	1627.25
468.488	1601.25
468.707	1602.25
468.927	1555.25
469.146	1591.25
469.365	1616.25
469.585	1627.25
469.804	1620.25
470.023	1655.25
470.243	1612.25
470.462	1651.25
470.681	1683.25
470.901	1639.25
471.12	1663.25
471.339	1619.25
471.558	1601.25
471.777	1613.25
471.997	1604.25
472.216	1600.25
472.435	1581.25
472.654	1537.25
472.873	1564.25
473.092	1596.25
473.311	1588.25
473.53	1565.25
473.749	1537.25
473.968	1561.25
474.187	1565.25
474.406	1559.25
474.625	1544.25
474.844	1559.25
475.063	1588.25
475.282	1599.25
475.501	1575.25
475.72	1593.25
475.939	1599.25
476.158	1661.25
476.377	1629.25
476.596	1661.25
476.814	1684.25
477.033	1681.25
477.252	1709.25
477.471	1697.25
477.69	1765.25
477.908	1766.25
478.127	1795.25
478.346	1819.25
478.564	1869.25
478.783	1853.25
479.002	1903.25
479.22	1927.25
479.439	1917.25
479.658	1941.25
479.876	1910.25
480.095	1937.25
480.313	1965.25
480.532	1943.25
480.751	1971.25
480.969	1924.25
481.188	1936.25
481.406	1879.25
481.624	1842.25
481.843	1791.25
482.061	1825.25
482.28	1837.25
482.498	1817.25
482.717	1785.25
482.935	1823.25
483.153	1838.25
483.372	1856.25
483.59	1854.25
483.808	1834.25
484.027	1836.25
484.245	1839.25
484.463	1853.25
484.681	1847.25
484.9	1843.25
485.118	1838.25
485.336	1878.25
485.554	1870.25
485.772	1917.25
485.99	1867.25
486.209	1867.25
486.427	1881.25
486.645	1916.25
486.863	1889.25
487.081	1891.25
487.299	1912.25
487.517	1877.25
487.735	1887.25
487.953	1937.25
488.171	1935.25
488.389	1896.25
488.607	1866.25
488.825	1839.25
489.043	1851.25
489.261	1857.25
489.479	1865.25
489.696	1868.25
489.914	1853.25
490.132	1912.25
490.35	1930.25
490.568	1891.25
490.786	1918.25
491.003	1957.25
