Data from Ni(NO3)2@0.5M.TitratingCurve.Agarose3%dH2O.NegLispCup.LampEnergy10.LIBS07252019_HRD10591_17-57-52-564.txt Node
Date: Thu Jul 25 17:57:52 EDT 2019
User: cochatt
Spectrometer: HR+D1059
Trigger mode: 1
Integration Time (sec): 1.000000E-1
Scans to average: 1
Electric dark correction enabled: true
Nonlinearity correction enabled: false
Boxcar width: 0
XAxis mode: Wavelengths
Number of Pixels in Spectrum: 2048
>>>>>Begin Spectral Data<<<<<
223.165	-10.94
223.4	-10.94
223.635	-10.94
223.869	-14.94
224.104	-15.94
224.338	-31.94
224.573	-11.94
224.808	-18.94
225.042	-2.94
225.277	-2.94
225.511	-5.94
225.746	0.06
225.98	4.06
226.215	21.06
226.449	25.06
226.683	11.06
226.918	32.06
227.152	23.06
227.387	44.06
227.621	41.06
227.856	46.06
228.09	51.06
228.324	42.06
228.559	65.06
228.793	86.06
229.027	170.06
229.262	192.06
229.496	167.06
229.73	187.06
229.964	222.06
230.199	258.06
230.433	250.06
230.667	243.06
230.901	232.06
231.136	207.06
231.37	217.06
231.604	245.06
231.838	267.06
232.072	276.06
232.306	251.06
232.541	230.06
232.775	215.06
233.009	207.06
233.243	199.06
233.477	204.06
233.711	206.06
233.945	220.06
234.179	203.06
234.413	219.06
234.647	206.06
234.881	223.06
235.115	215.06
235.349	205.06
235.583	207.06
235.817	185.06
236.051	198.06
236.285	199.06
236.519	208.06
236.753	199.06
236.987	210.06
237.221	218.06
237.455	212.06
237.689	208.06
237.922	220.06
238.156	229.06
238.39	233.06
238.624	212.06
238.858	216.06
239.091	213.06
239.325	233.06
239.559	264.06
239.793	286.06
240.027	301.06
240.26	246.06
240.494	255.06
240.728	261.06
240.961	248.06
241.195	239.06
241.429	235.06
241.662	266.06
241.896	294.06
242.13	306.06
242.363	270.06
242.597	256.06
242.83	264.06
243.064	266.06
243.298	267.06
243.531	259.06
243.765	276.06
243.998	295.06
244.232	303.06
244.465	296.06
244.699	273.06
244.932	278.06
245.166	278.06
245.399	290.06
245.633	274.06
245.866	307.06
246.099	292.06
246.333	293.06
246.566	306.06
246.8	291.06
247.033	311.06
247.266	316.06
247.5	329.06
247.733	314.06
247.966	326.06
248.2	328.06
248.433	327.06
248.666	335.06
248.899	364.06
249.133	345.06
249.366	335.06
249.599	346.06
249.832	336.06
250.066	352.06
250.299	367.06
250.532	351.06
250.765	367.06
250.998	384.06
251.231	401.06
251.465	447.06
251.698	428.06
251.931	403.06
252.164	402.06
252.397	387.06
252.63	400.06
252.863	388.06
253.096	409.06
253.329	407.06
253.562	407.06
253.795	416.06
254.028	407.06
254.261	445.06
254.494	447.06
254.727	443.06
254.96	430.06
255.193	426.06
255.426	439.06
255.659	448.06
255.892	459.06
256.124	437.06
256.357	454.06
256.59	461.06
256.823	446.06
257.056	481.06
257.289	469.06
257.521	463.06
257.754	487.06
257.987	480.06
258.22	485.06
258.452	501.06
258.685	496.06
258.918	502.06
259.151	494.06
259.383	496.06
259.616	491.06
259.849	519.06
260.081	529.06
260.314	517.06
260.547	524.06
260.779	514.06
261.012	522.06
261.244	527.06
261.477	530.06
261.71	526.06
261.942	539.06
262.175	545.06
262.407	546.06
262.64	528.06
262.872	542.06
263.105	569.06
263.337	549.06
263.57	571.06
263.802	573.06
264.035	575.06
264.267	580.06
264.499	564.06
264.732	568.06
264.964	590.06
265.197	585.06
265.429	599.06
265.661	584.06
265.894	582.06
266.126	573.06
266.358	613.06
266.591	590.06
266.823	613.06
267.055	596.06
267.287	609.06
267.52	595.06
267.752	601.06
267.984	599.06
268.216	595.06
268.448	593.06
268.681	623.06
268.913	633.06
269.145	612.06
269.377	617.06
269.609	620.06
269.841	609.06
270.073	643.06
270.306	629.06
270.538	625.06
270.77	630.06
271.002	621.06
271.234	620.06
271.466	652.06
271.698	631.06
271.93	633.06
272.162	659.06
272.394	651.06
272.626	678.06
272.858	658.06
273.09	646.06
273.322	688.06
273.553	656.06
273.785	661.06
274.017	640.06
274.249	681.06
274.481	678.06
274.713	709.06
274.945	700.06
275.176	696.06
275.408	664.06
275.64	663.06
275.872	688.06
276.104	667.06
276.335	682.06
276.567	701.06
276.799	675.06
277.031	695.06
277.262	713.06
277.494	722.06
277.726	693.06
277.957	715.06
278.189	696.06
278.421	711.06
278.652	721.06
278.884	721.06
279.115	738.06
279.347	748.06
279.579	733.06
279.81	704.06
280.042	723.06
280.273	719.06
280.505	744.06
280.736	732.06
280.968	734.06
281.199	705.06
281.431	730.06
281.662	745.06
281.894	716.06
282.125	758.06
282.356	742.06
282.588	755.06
282.819	756.06
283.051	756.06
283.282	745.06
283.513	746.06
283.745	768.06
283.976	760.06
284.207	763.06
284.439	765.06
284.67	750.06
284.901	805.06
285.132	790.06
285.364	786.06
285.595	793.06
285.826	779.06
286.057	786.06
286.288	779.06
286.52	796.06
286.751	802.06
286.982	782.06
287.213	806.06
287.444	793.06
287.675	825.06
287.906	795.06
288.138	795.06
288.369	802.06
288.6	807.06
288.831	791.06
289.062	825.06
289.293	813.06
289.524	800.06
289.755	802.06
289.986	786.06
290.217	782.06
290.448	805.06
290.679	815.06
290.91	815.06
291.141	828.06
291.371	821.06
291.602	813.06
291.833	813.06
292.064	814.06
292.295	803.06
292.526	842.06
292.757	805.06
292.987	797.06
293.218	803.06
293.449	828.06
293.68	831.06
293.91	805.06
294.141	814.06
294.372	830.06
294.603	823.06
294.833	823.06
295.064	836.06
295.295	843.06
295.525	846.06
295.756	819.06
295.987	837.06
296.217	848.06
296.448	824.06
296.679	829.06
296.909	827.06
297.14	852.06
297.37	896.06
297.601	848.06
297.831	847.06
298.062	844.06
298.292	847.06
298.523	898.06
298.753	877.06
298.984	893.06
299.214	889.06
299.445	903.06
299.675	893.06
299.905	924.06
300.136	937.06
300.366	948.06
300.597	969.06
300.827	935.06
301.057	912.06
301.288	907.06
301.518	920.06
301.748	915.06
301.979	902.06
302.209	890.06
302.439	911.06
302.669	903.06
302.9	896.06
303.13	912.06
303.36	923.06
303.59	916.06
303.82	949.06
304.051	943.06
304.281	943.06
304.511	951.06
304.741	929.06
304.971	952.06
305.201	992.06
305.431	995.06
305.661	989.06
305.891	975.06
306.121	974.06
306.352	972.06
306.582	930.06
306.812	958.06
307.042	969.06
307.272	958.06
307.502	977.06
307.731	979.06
307.961	965.06
308.191	951.06
308.421	984.06
308.651	964.06
308.881	976.06
309.111	967.06
309.341	968.06
309.571	1004.06
309.8	989.06
310.03	998.06
310.26	1071.06
310.49	1084.06
310.72	1013.06
310.949	987.06
311.179	1009.06
311.409	1008.06
311.639	1000.06
311.868	1017.06
312.098	999.06
312.328	1014.06
312.557	1041.06
312.787	1054.06
313.017	1033.06
313.246	1073.06
313.476	1078.06
313.706	1091.06
313.935	1060.06
314.165	1069.06
314.394	1065.06
314.624	1067.06
314.853	1056.06
315.083	1070.06
315.312	1072.06
315.542	1085.06
315.771	1080.06
316.001	1076.06
316.23	1087.06
316.46	1090.06
316.689	1109.06
316.919	1120.06
317.148	1122.06
317.377	1123.06
317.607	1123.06
317.836	1080.06
318.065	1113.06
318.295	1134.06
318.524	1118.06
318.753	1123.06
318.983	1142.06
319.212	1150.06
319.441	1162.06
319.67	1198.06
319.9	1155.06
320.129	1141.06
320.358	1153.06
320.587	1182.06
320.816	1183.06
321.046	1170.06
321.275	1176.06
321.504	1168.06
321.733	1199.06
321.962	1226.06
322.191	1206.06
322.42	1221.06
322.649	1236.06
322.878	1248.06
323.108	1221.06
323.337	1280.06
323.566	1240.06
323.795	1237.06
324.024	1259.06
324.253	1250.06
324.482	1243.06
324.71	1257.06
324.939	1265.06
325.168	1275.06
325.397	1267.06
325.626	1254.06
325.855	1252.06
326.084	1279.06
326.313	1309.06
326.542	1279.06
326.77	1352.06
326.999	1309.06
327.228	1279.06
327.457	1270.06
327.686	1324.06
327.914	1298.06
328.143	1331.06
328.372	1321.06
328.6	1343.06
328.829	1319.06
329.058	1311.06
329.287	1310.06
329.515	1348.06
329.744	1351.06
329.972	1347.06
330.201	1355.06
330.43	1357.06
330.658	1331.06
330.887	1399.06
331.115	1393.06
331.344	1372.06
331.572	1363.06
331.801	1366.06
332.03	1375.06
332.258	1402.06
332.486	1399.06
332.715	1367.06
332.943	1417.06
333.172	1405.06
333.4	1400.06
333.629	1408.06
333.857	1434.06
334.085	1428.06
334.314	1393.06
334.542	1410.06
334.771	1487.06
334.999	1425.06
335.227	1452.06
335.455	1440.06
335.684	1436.06
335.912	1464.06
336.14	1453.06
336.369	1475.06
336.597	1477.06
336.825	1486.06
337.053	1552.06
337.281	1513.06
337.51	1479.06
337.738	1517.06
337.966	1483.06
338.194	1516.06
338.422	1504.06
338.65	1462.06
338.878	1437.06
339.106	1453.06
339.334	1500.06
339.562	1507.06
339.79	1416.06
340.018	1443.06
340.246	1451.06
340.474	1467.06
340.702	1442.06
340.93	1467.06
341.158	1470.06
341.386	1512.06
341.614	1581.06
341.842	1513.06
342.07	1452.06
342.298	1448.06
342.526	1461.06
342.754	1462.06
342.981	1448.06
343.209	1461.06
343.437	1500.06
343.665	1495.06
343.893	1462.06
344.12	1473.06
344.348	1482.06
344.576	1503.06
344.804	1547.06
345.031	1477.06
345.259	1448.06
345.487	1460.06
345.714	1476.06
345.942	1544.06
346.17	1511.06
346.397	1533.06
346.625	1438.06
346.853	1461.06
347.08	1446.06
347.308	1431.06
347.535	1429.06
347.763	1431.06
347.99	1408.06
348.218	1411.06
348.445	1419.06
348.673	1389.06
348.9	1421.06
349.128	1417.06
349.355	1493.06
349.583	1483.06
349.81	1401.06
350.037	1374.06
350.265	1432.06
350.492	1397.06
350.72	1391.06
350.947	1401.06
351.174	1459.06
351.402	1456.06
351.629	1502.06
351.856	1518.06
352.083	1442.06
352.311	1431.06
352.538	1515.06
352.765	1490.06
352.992	1423.06
353.22	1360.06
353.447	1349.06
353.674	1372.06
353.901	1361.06
354.128	1355.06
354.355	1379.06
354.583	1390.06
354.81	1382.06
355.037	1384.06
355.264	1415.06
355.491	1393.06
355.718	1354.06
355.945	1368.06
356.172	1365.06
356.399	1438.06
356.626	1453.06
356.853	1454.06
357.08	1397.06
357.307	1381.06
357.534	1375.06
357.761	1372.06
357.988	1380.06
358.215	1411.06
358.441	1392.06
358.668	1376.06
358.895	1413.06
359.122	1384.06
359.349	1391.06
359.576	1393.06
359.802	1404.06
360.029	1408.06
360.256	1436.06
360.483	1396.06
360.709	1403.06
360.936	1388.06
361.163	1419.06
361.39	1409.06
361.616	1425.06
361.843	1436.06
362.07	1506.06
362.296	1519.06
362.523	1403.06
362.749	1407.06
362.976	1365.06
363.203	1380.06
363.429	1428.06
363.656	1396.06
363.882	1415.06
364.109	1405.06
364.335	1374.06
364.562	1393.06
364.788	1380.06
365.015	1393.06
365.241	1365.06
365.468	1375.06
365.694	1413.06
365.92	1407.06
366.147	1395.06
366.373	1385.06
366.599	1408.06
366.826	1391.06
367.052	1386.06
367.278	1426.06
367.505	1386.06
367.731	1433.06
367.957	1411.06
368.184	1380.06
368.41	1374.06
368.636	1433.06
368.862	1431.06
369.089	1403.06
369.315	1363.06
369.541	1418.06
369.767	1417.06
369.993	1429.06
370.219	1398.06
370.445	1404.06
370.672	1390.06
370.898	1433.06
371.124	1429.06
371.35	1431.06
371.576	1432.06
371.802	1415.06
372.028	1403.06
372.254	1421.06
372.48	1411.06
372.706	1423.06
372.932	1417.06
373.158	1422.06
373.384	1429.06
373.61	1425.06
373.835	1419.06
374.061	1448.06
374.287	1439.06
374.513	1456.06
374.739	1446.06
374.965	1426.06
375.191	1405.06
375.416	1441.06
375.642	1408.06
375.868	1425.06
376.094	1424.06
376.319	1428.06
376.545	1429.06
376.771	1425.06
376.997	1403.06
377.222	1401.06
377.448	1388.06
377.674	1392.06
377.899	1422.06
378.125	1379.06
378.35	1403.06
378.576	1404.06
378.802	1378.06
379.027	1388.06
379.253	1424.06
379.478	1397.06
379.704	1395.06
379.929	1415.06
380.155	1362.06
380.38	1381.06
380.606	1393.06
380.831	1403.06
381.057	1395.06
381.282	1385.06
381.507	1397.06
381.733	1385.06
381.958	1411.06
382.184	1393.06
382.409	1388.06
382.634	1406.06
382.86	1417.06
383.085	1377.06
383.31	1411.06
383.535	1417.06
383.761	1422.06
383.986	1406.06
384.211	1419.06
384.436	1404.06
384.662	1428.06
384.887	1417.06
385.112	1443.06
385.337	1431.06
385.562	1407.06
385.787	1500.06
386.013	1499.06
386.238	1477.06
386.463	1479.06
386.688	1472.06
386.913	1470.06
387.138	1437.06
387.363	1475.06
387.588	1461.06
387.813	1489.06
388.038	1483.06
388.263	1461.06
388.488	1438.06
388.713	1470.06
388.938	1473.06
389.163	1460.06
389.387	1433.06
389.612	1485.06
389.837	1481.06
390.062	1431.06
390.287	1479.06
390.512	1466.06
390.736	1486.06
390.961	1493.06
391.186	1455.06
391.411	1473.06
391.636	1485.06
391.86	1479.06
392.085	1457.06
392.31	1468.06
392.534	1476.06
392.759	1485.06
392.984	1518.06
393.208	1502.06
393.433	1515.06
393.658	1508.06
393.882	1536.06
394.107	1472.06
394.331	1480.06
394.556	1487.06
394.78	1473.06
395.005	1489.06
395.229	1453.06
395.454	1500.06
395.678	1463.06
395.903	1469.06
396.127	1487.06
396.352	1483.06
396.576	1498.06
396.801	1533.06
397.025	1510.06
397.249	1484.06
397.474	1505.06
397.698	1497.06
397.922	1532.06
398.147	1529.06
398.371	1530.06
398.595	1539.06
398.82	1572.06
399.044	1583.06
399.268	1566.06
399.492	1596.06
399.717	1602.06
399.941	1621.06
400.165	1611.06
400.389	1618.06
400.613	1631.06
400.837	1601.06
401.062	1612.06
401.286	1578.06
401.51	1552.06
401.734	1579.06
401.958	1589.06
402.182	1544.06
402.406	1557.06
402.63	1569.06
402.854	1579.06
403.078	1607.06
403.302	1561.06
403.526	1568.06
403.75	1551.06
403.974	1630.06
404.198	1576.06
404.422	1572.06
404.645	1558.06
404.869	1532.06
405.093	1609.06
405.317	1583.06
405.541	1616.06
405.765	1581.06
405.988	1568.06
406.212	1610.06
406.436	1658.06
406.66	1678.06
406.883	1649.06
407.107	1670.06
407.331	1620.06
407.555	1699.06
407.778	1673.06
408.002	1689.06
408.226	1683.06
408.449	1717.06
408.673	1665.06
408.896	1664.06
409.12	1657.06
409.344	1681.06
409.567	1645.06
409.791	1637.06
410.014	1625.06
410.238	1623.06
410.461	1634.06
410.685	1648.06
410.908	1643.06
411.132	1650.06
411.355	1642.06
411.578	1613.06
411.802	1640.06
412.025	1624.06
412.249	1667.06
412.472	1653.06
412.695	1610.06
412.919	1600.06
413.142	1592.06
413.365	1625.06
413.589	1596.06
413.812	1579.06
414.035	1600.06
414.258	1563.06
414.482	1576.06
414.705	1558.06
414.928	1595.06
415.151	1592.06
415.374	1549.06
415.597	1596.06
415.821	1567.06
416.044	1548.06
416.267	1528.06
416.49	1525.06
416.713	1571.06
416.936	1571.06
417.159	1532.06
417.382	1550.06
417.605	1504.06
417.828	1554.06
418.051	1504.06
418.274	1498.06
418.497	1495.06
418.72	1518.06
418.943	1499.06
419.166	1576.06
419.389	1689.06
419.611	1626.06
419.834	1579.06
420.057	1572.06
420.28	1531.06
420.503	1513.06
420.726	1469.06
420.948	1497.06
421.171	1514.06
421.394	1541.06
421.617	1537.06
421.839	1543.06
422.062	1531.06
422.285	1504.06
422.507	1549.06
422.73	1527.06
422.953	1550.06
423.175	1511.06
423.398	1558.06
423.621	1516.06
423.843	1539.06
424.066	1537.06
424.288	1541.06
424.511	1545.06
424.733	1489.06
424.956	1524.06
425.178	1544.06
425.401	1567.06
425.623	1537.06
425.846	1517.06
426.068	1551.06
426.291	1505.06
426.513	1525.06
426.735	1530.06
426.958	1512.06
427.18	1484.06
427.402	1583.06
427.625	1510.06
427.847	1515.06
428.069	1518.06
428.292	1558.06
428.514	1513.06
428.736	1527.06
428.958	1571.06
429.181	1506.06
429.403	1519.06
429.625	1517.06
429.847	1547.06
430.069	1514.06
430.292	1544.06
430.514	1518.06
430.736	1568.06
430.958	1574.06
431.18	1531.06
431.402	1529.06
431.624	1457.06
431.846	1514.06
432.068	1514.06
432.29	1505.06
432.512	1485.06
432.734	1541.06
432.956	1533.06
433.178	1563.06
433.4	1588.06
433.622	1598.06
433.844	1572.06
434.066	1579.06
434.287	1545.06
434.509	1545.06
434.731	1540.06
434.953	1558.06
435.175	1596.06
435.397	1614.06
435.618	1610.06
435.84	1524.06
436.062	1546.06
436.284	1539.06
436.505	1534.06
436.727	1553.06
436.949	1564.06
437.17	1558.06
437.392	1577.06
437.614	1526.06
437.835	1479.06
438.057	1503.06
438.278	1517.06
438.5	1515.06
438.721	1480.06
438.943	1541.06
439.165	1527.06
439.386	1505.06
439.608	1539.06
439.829	1525.06
440.05	1524.06
440.272	1520.06
440.493	1567.06
440.715	1516.06
440.936	1566.06
441.158	1551.06
441.379	1549.06
441.6	1556.06
441.822	1549.06
442.043	1559.06
442.264	1573.06
442.486	1566.06
442.707	1558.06
442.928	1543.06
443.149	1579.06
443.371	1588.06
443.592	1661.06
443.813	1662.06
444.034	1579.06
444.255	1547.06
444.476	1548.06
444.698	1553.06
444.919	1612.06
445.14	1727.06
445.361	1655.06
445.582	1596.06
445.803	1571.06
446.024	1492.06
446.245	1573.06
446.466	1521.06
446.687	1460.06
446.908	1512.06
447.129	1498.06
447.35	1503.06
447.571	1472.06
447.792	1442.06
448.013	1448.06
448.234	1453.06
448.455	1444.06
448.675	1461.06
448.896	1466.06
449.117	1413.06
449.338	1437.06
449.559	1440.06
449.779	1440.06
450	1412.06
450.221	1408.06
450.442	1413.06
450.662	1438.06
450.883	1443.06
451.104	1462.06
451.324	1450.06
451.545	1431.06
451.766	1397.06
451.986	1366.06
452.207	1403.06
452.428	1404.06
452.648	1427.06
452.869	1376.06
453.089	1423.06
453.31	1460.06
453.53	1424.06
453.751	1402.06
453.971	1410.06
454.192	1405.06
454.412	1456.06
454.633	1407.06
454.853	1401.06
455.073	1408.06
455.294	1375.06
455.514	1403.06
455.734	1429.06
455.955	1448.06
456.175	1457.06
456.395	1425.06
456.616	1383.06
456.836	1378.06
457.056	1415.06
457.276	1366.06
457.497	1429.06
457.717	1431.06
457.937	1434.06
458.157	1405.06
458.377	1421.06
458.598	1435.06
458.818	1422.06
459.038	1445.06
459.258	1441.06
459.478	1537.06
459.698	1627.06
459.918	1632.06
460.138	1607.06
460.358	1583.06
460.578	1545.06
460.798	1637.06
461.018	1609.06
461.238	1552.06
461.458	1529.06
461.678	1531.06
461.898	1540.06
462.118	1494.06
462.338	1558.06
462.558	1597.06
462.777	1633.06
462.997	1668.06
463.217	1646.06
463.437	1709.06
463.657	1693.06
463.876	1630.06
464.096	1647.06
464.316	1584.06
464.536	1555.06
464.755	1571.06
464.975	1555.06
465.195	1544.06
465.414	1557.06
465.634	1518.06
465.854	1487.06
466.073	1520.06
466.293	1495.06
466.512	1472.06
466.732	1464.06
466.951	1507.06
467.171	1496.06
467.391	1524.06
467.61	1515.06
467.829	1480.06
468.049	1482.06
468.268	1467.06
468.488	1465.06
468.707	1493.06
468.927	1484.06
469.146	1469.06
469.365	1543.06
469.585	1478.06
469.804	1491.06
470.023	1478.06
470.243	1527.06
470.462	1493.06
470.681	1463.06
470.901	1487.06
471.12	1508.06
471.339	1500.06
471.558	1496.06
471.777	1516.06
471.997	1482.06
472.216	1510.06
472.435	1508.06
472.654	1474.06
472.873	1540.06
473.092	1495.06
473.311	1492.06
473.53	1533.06
473.749	1542.06
473.968	1507.06
474.187	1488.06
474.406	1530.06
474.625	1560.06
474.844	1513.06
475.063	1575.06
475.282	1600.06
475.501	1592.06
475.72	1572.06
475.939	1571.06
476.158	1568.06
476.377	1613.06
476.596	1566.06
476.814	1609.06
477.033	1593.06
477.252	1631.06
477.471	1611.06
477.69	1624.06
477.908	1672.06
478.127	1661.06
478.346	1663.06
478.564	1717.06
478.783	1729.06
479.002	1822.06
479.22	1862.06
479.439	1787.06
479.658	1745.06
479.876	1767.06
480.095	1724.06
480.313	1731.06
480.532	1732.06
480.751	1749.06
480.969	1759.06
481.188	1753.06
481.406	1732.06
481.624	1758.06
481.843	1785.06
482.061	1800.06
482.28	1767.06
482.498	1771.06
482.717	1788.06
482.935	1827.06
483.153	1850.06
483.372	1920.06
483.59	1904.06
483.808	1880.06
484.027	1787.06
484.245	1809.06
484.463	1825.06
484.681	1846.06
484.9	1801.06
485.118	1826.06
485.336	1791.06
485.554	1844.06
485.772	1833.06
485.99	1845.06
486.209	1834.06
486.427	1829.06
486.645	1813.06
486.863	1882.06
487.081	1836.06
487.299	1849.06
487.517	1851.06
487.735	1886.06
487.953	1928.06
488.171	1921.06
488.389	1873.06
488.607	1859.06
488.825	1863.06
489.043	1852.06
489.261	1846.06
489.479	1845.06
489.696	1872.06
489.914	1863.06
490.132	1867.06
490.35	1856.06
490.568	1899.06
