Data from Ni(NO3)2@0.0625M.TitratingCurve.Agarose3%dH2O.NegLispCup.LampEnergy10.LIBS07252019_HRD10591_18-13-19-569.txt Node
Date: Thu Jul 25 18:13:19 EDT 2019
User: cochatt
Spectrometer: HR+D1059
Trigger mode: 1
Integration Time (sec): 1.000000E-1
Scans to average: 1
Electric dark correction enabled: true
Nonlinearity correction enabled: false
Boxcar width: 0
XAxis mode: Wavelengths
Number of Pixels in Spectrum: 2048
>>>>>Begin Spectral Data<<<<<
223.165	-22.88
223.4	-22.88
223.635	-22.88
223.869	-14.88
224.104	-7.88
224.338	-11.88
224.573	-19.88
224.808	-23.88
225.042	-9.88
225.277	-8.88
225.511	-7.88
225.746	12.12
225.98	3.12
226.215	15.12
226.449	12.12
226.683	18.12
226.918	29.12
227.152	38.12
227.387	40.12
227.621	33.12
227.856	43.12
228.09	43.12
228.324	54.12
228.559	55.12
228.793	60.12
229.027	78.12
229.262	97.12
229.496	107.12
229.73	100.12
229.964	101.12
230.199	115.12
230.433	111.12
230.667	110.12
230.901	97.12
231.136	127.12
231.37	111.12
231.604	128.12
231.838	122.12
232.072	119.12
232.306	123.12
232.541	123.12
232.775	119.12
233.009	114.12
233.243	104.12
233.477	127.12
233.711	131.12
233.945	141.12
234.179	130.12
234.413	135.12
234.647	131.12
234.881	119.12
235.115	106.12
235.349	117.12
235.583	129.12
235.817	123.12
236.051	133.12
236.285	140.12
236.519	123.12
236.753	122.12
236.987	117.12
237.221	124.12
237.455	140.12
237.689	121.12
237.922	124.12
238.156	124.12
238.39	137.12
238.624	129.12
238.858	131.12
239.091	141.12
239.325	131.12
239.559	147.12
239.793	134.12
240.027	134.12
240.26	144.12
240.494	137.12
240.728	151.12
240.961	155.12
241.195	153.12
241.429	146.12
241.662	144.12
241.896	150.12
242.13	159.12
242.363	157.12
242.597	164.12
242.83	165.12
243.064	148.12
243.298	146.12
243.531	151.12
243.765	162.12
243.998	146.12
244.232	155.12
244.465	163.12
244.699	156.12
244.932	167.12
245.166	153.12
245.399	173.12
245.633	170.12
245.866	188.12
246.099	181.12
246.333	171.12
246.566	185.12
246.8	163.12
247.033	176.12
247.266	183.12
247.5	170.12
247.733	182.12
247.966	189.12
248.2	171.12
248.433	189.12
248.666	187.12
248.899	187.12
249.133	189.12
249.366	188.12
249.599	166.12
249.832	192.12
250.066	184.12
250.299	199.12
250.532	180.12
250.765	195.12
250.998	189.12
251.231	188.12
251.465	193.12
251.698	193.12
251.931	191.12
252.164	195.12
252.397	204.12
252.63	195.12
252.863	211.12
253.096	197.12
253.329	210.12
253.562	209.12
253.795	199.12
254.028	204.12
254.261	212.12
254.494	211.12
254.727	211.12
254.96	213.12
255.193	206.12
255.426	204.12
255.659	199.12
255.892	226.12
256.124	214.12
256.357	210.12
256.59	216.12
256.823	217.12
257.056	217.12
257.289	228.12
257.521	219.12
257.754	226.12
257.987	211.12
258.22	217.12
258.452	217.12
258.685	239.12
258.918	226.12
259.151	231.12
259.383	249.12
259.616	217.12
259.849	209.12
260.081	242.12
260.314	226.12
260.547	233.12
260.779	231.12
261.012	243.12
261.244	237.12
261.477	239.12
261.71	243.12
261.942	250.12
262.175	248.12
262.407	248.12
262.64	261.12
262.872	245.12
263.105	255.12
263.337	275.12
263.57	241.12
263.802	260.12
264.035	255.12
264.267	256.12
264.499	244.12
264.732	259.12
264.964	259.12
265.197	244.12
265.429	254.12
265.661	260.12
265.894	248.12
266.126	258.12
266.358	269.12
266.591	264.12
266.823	259.12
267.055	264.12
267.287	259.12
267.52	262.12
267.752	257.12
267.984	255.12
268.216	266.12
268.448	278.12
268.681	262.12
268.913	268.12
269.145	270.12
269.377	269.12
269.609	272.12
269.841	277.12
270.073	269.12
270.306	276.12
270.538	288.12
270.77	288.12
271.002	277.12
271.234	282.12
271.466	283.12
271.698	282.12
271.93	280.12
272.162	274.12
272.394	279.12
272.626	267.12
272.858	283.12
273.09	288.12
273.322	296.12
273.553	288.12
273.785	300.12
274.017	281.12
274.249	293.12
274.481	290.12
274.713	280.12
274.945	290.12
275.176	299.12
275.408	305.12
275.64	293.12
275.872	296.12
276.104	284.12
276.335	292.12
276.567	288.12
276.799	304.12
277.031	306.12
277.262	313.12
277.494	291.12
277.726	307.12
277.957	305.12
278.189	311.12
278.421	309.12
278.652	323.12
278.884	321.12
279.115	310.12
279.347	304.12
279.579	306.12
279.81	319.12
280.042	322.12
280.273	325.12
280.505	332.12
280.736	321.12
280.968	320.12
281.199	337.12
281.431	310.12
281.662	332.12
281.894	307.12
282.125	326.12
282.356	338.12
282.588	325.12
282.819	330.12
283.051	328.12
283.282	336.12
283.513	319.12
283.745	334.12
283.976	337.12
284.207	332.12
284.439	350.12
284.67	356.12
284.901	349.12
285.132	345.12
285.364	351.12
285.595	332.12
285.826	361.12
286.057	345.12
286.288	348.12
286.52	356.12
286.751	344.12
286.982	345.12
287.213	361.12
287.444	352.12
287.675	356.12
287.906	356.12
288.138	356.12
288.369	354.12
288.6	380.12
288.831	360.12
289.062	371.12
289.293	367.12
289.524	361.12
289.755	377.12
289.986	383.12
290.217	370.12
290.448	367.12
290.679	360.12
290.91	364.12
291.141	375.12
291.371	357.12
291.602	363.12
291.833	359.12
292.064	373.12
292.295	374.12
292.526	360.12
292.757	358.12
292.987	370.12
293.218	401.12
293.449	386.12
293.68	371.12
293.91	402.12
294.141	377.12
294.372	377.12
294.603	355.12
294.833	378.12
295.064	377.12
295.295	390.12
295.525	397.12
295.756	383.12
295.987	387.12
296.217	377.12
296.448	393.12
296.679	391.12
296.909	409.12
297.14	389.12
297.37	411.12
297.601	395.12
297.831	407.12
298.062	401.12
298.292	417.12
298.523	424.12
298.753	403.12
298.984	407.12
299.214	420.12
299.445	409.12
299.675	415.12
299.905	398.12
300.136	407.12
300.366	409.12
300.597	412.12
300.827	442.12
301.057	445.12
301.288	422.12
301.518	434.12
301.748	431.12
301.979	433.12
302.209	435.12
302.439	421.12
302.669	431.12
302.9	408.12
303.13	416.12
303.36	420.12
303.59	420.12
303.82	400.12
304.051	420.12
304.281	417.12
304.511	409.12
304.741	424.12
304.971	409.12
305.201	406.12
305.431	425.12
305.661	403.12
305.891	416.12
306.121	418.12
306.352	429.12
306.582	417.12
306.812	418.12
307.042	429.12
307.272	397.12
307.502	407.12
307.731	402.12
307.961	388.12
308.191	428.12
308.421	425.12
308.651	450.12
308.881	421.12
309.111	410.12
309.341	400.12
309.571	415.12
309.8	419.12
310.03	409.12
310.26	433.12
310.49	427.12
310.72	409.12
310.949	420.12
311.179	417.12
311.409	398.12
311.639	424.12
311.868	439.12
312.098	444.12
312.328	448.12
312.557	428.12
312.787	429.12
313.017	435.12
313.246	447.12
313.476	447.12
313.706	442.12
313.935	423.12
314.165	435.12
314.394	427.12
314.624	434.12
314.853	441.12
315.083	443.12
315.312	444.12
315.542	439.12
315.771	456.12
316.001	435.12
316.23	445.12
316.46	432.12
316.689	422.12
316.919	447.12
317.148	428.12
317.377	439.12
317.607	435.12
317.836	419.12
318.065	437.12
318.295	424.12
318.524	443.12
318.753	409.12
318.983	436.12
319.212	440.12
319.441	423.12
319.67	429.12
319.9	433.12
320.129	437.12
320.358	451.12
320.587	455.12
320.816	456.12
321.046	457.12
321.275	452.12
321.504	455.12
321.733	439.12
321.962	427.12
322.191	459.12
322.42	441.12
322.649	458.12
322.878	436.12
323.108	458.12
323.337	468.12
323.566	435.12
323.795	460.12
324.024	476.12
324.253	453.12
324.482	461.12
324.71	450.12
324.939	455.12
325.168	454.12
325.397	476.12
325.626	471.12
325.855	485.12
326.084	485.12
326.313	478.12
326.542	486.12
326.77	498.12
326.999	499.12
327.228	457.12
327.457	488.12
327.686	467.12
327.914	495.12
328.143	479.12
328.372	482.12
328.6	479.12
328.829	469.12
329.058	465.12
329.287	497.12
329.515	492.12
329.744	473.12
329.972	470.12
330.201	486.12
330.43	501.12
330.658	491.12
330.887	491.12
331.115	498.12
331.344	488.12
331.572	511.12
331.801	507.12
332.03	524.12
332.258	571.12
332.486	570.12
332.715	591.12
332.943	628.12
333.172	628.12
333.4	631.12
333.629	682.12
333.857	657.12
334.085	665.12
334.314	640.12
334.542	624.12
334.771	633.12
334.999	599.12
335.227	592.12
335.455	583.12
335.684	601.12
335.912	577.12
336.14	578.12
336.369	574.12
336.597	561.12
336.825	593.12
337.053	587.12
337.281	571.12
337.51	541.12
337.738	532.12
337.966	533.12
338.194	526.12
338.422	516.12
338.65	514.12
338.878	519.12
339.106	537.12
339.334	529.12
339.562	534.12
339.79	501.12
340.018	496.12
340.246	500.12
340.474	534.12
340.702	511.12
340.93	524.12
341.158	535.12
341.386	501.12
341.614	507.12
341.842	517.12
342.07	500.12
342.298	483.12
342.526	507.12
342.754	497.12
342.981	514.12
343.209	501.12
343.437	554.12
343.665	565.12
343.893	601.12
344.12	633.12
344.348	590.12
344.576	569.12
344.804	565.12
345.031	535.12
345.259	513.12
345.487	511.12
345.714	516.12
345.942	496.12
346.17	522.12
346.397	521.12
346.625	494.12
346.853	502.12
347.08	496.12
347.308	497.12
347.535	517.12
347.763	521.12
347.99	522.12
348.218	503.12
348.445	485.12
348.673	478.12
348.9	484.12
349.128	495.12
349.355	487.12
349.583	498.12
349.81	481.12
350.037	483.12
350.265	505.12
350.492	488.12
350.72	489.12
350.947	457.12
351.174	476.12
351.402	475.12
351.629	480.12
351.856	461.12
352.083	465.12
352.311	480.12
352.538	472.12
352.765	461.12
352.992	471.12
353.22	461.12
353.447	477.12
353.674	466.12
353.901	483.12
354.128	475.12
354.355	447.12
354.583	477.12
354.81	488.12
355.037	484.12
355.264	476.12
355.491	488.12
355.718	505.12
355.945	459.12
356.172	486.12
356.399	494.12
356.626	485.12
356.853	480.12
357.08	482.12
357.307	484.12
357.534	490.12
357.761	471.12
357.988	484.12
358.215	459.12
358.441	473.12
358.668	471.12
358.895	468.12
359.122	465.12
359.349	460.12
359.576	466.12
359.802	492.12
360.029	474.12
360.256	483.12
360.483	472.12
360.709	488.12
360.936	488.12
361.163	488.12
361.39	485.12
361.616	492.12
361.843	465.12
362.07	474.12
362.296	470.12
362.523	497.12
362.749	480.12
362.976	451.12
363.203	482.12
363.429	460.12
363.656	465.12
363.882	473.12
364.109	464.12
364.335	458.12
364.562	453.12
364.788	467.12
365.015	472.12
365.241	486.12
365.468	483.12
365.694	457.12
365.92	482.12
366.147	477.12
366.373	466.12
366.599	486.12
366.826	475.12
367.052	482.12
367.278	474.12
367.505	514.12
367.731	488.12
367.957	468.12
368.184	476.12
368.41	471.12
368.636	495.12
368.862	492.12
369.089	491.12
369.315	507.12
369.541	493.12
369.767	496.12
369.993	475.12
370.219	464.12
370.445	503.12
370.672	506.12
370.898	510.12
371.124	507.12
371.35	504.12
371.576	513.12
371.802	516.12
372.028	505.12
372.254	532.12
372.48	523.12
372.706	529.12
372.932	563.12
373.158	534.12
373.384	543.12
373.61	513.12
373.835	517.12
374.061	535.12
374.287	540.12
374.513	541.12
374.739	548.12
374.965	567.12
375.191	585.12
375.416	576.12
375.642	568.12
375.868	571.12
376.094	537.12
376.319	531.12
376.545	528.12
376.771	508.12
376.997	535.12
377.222	533.12
377.448	505.12
377.674	517.12
377.899	516.12
378.125	501.12
378.35	531.12
378.576	516.12
378.802	502.12
379.027	520.12
379.253	518.12
379.478	537.12
379.704	503.12
379.929	525.12
380.155	502.12
380.38	507.12
380.606	525.12
380.831	507.12
381.057	519.12
381.282	506.12
381.507	526.12
381.733	525.12
381.958	525.12
382.184	540.12
382.409	542.12
382.634	561.12
382.86	553.12
383.085	565.12
383.31	582.12
383.535	571.12
383.761	579.12
383.986	573.12
384.211	620.12
384.436	635.12
384.662	604.12
384.887	632.12
385.112	622.12
385.337	623.12
385.562	626.12
385.787	634.12
386.013	634.12
386.238	626.12
386.463	615.12
386.688	629.12
386.913	609.12
387.138	613.12
387.363	612.12
387.588	634.12
387.813	626.12
388.038	595.12
388.263	607.12
388.488	613.12
388.713	612.12
388.938	602.12
389.163	600.12
389.387	600.12
389.612	603.12
389.837	609.12
390.062	623.12
390.287	611.12
390.512	613.12
390.736	599.12
390.961	616.12
391.186	620.12
391.411	644.12
391.636	690.12
391.86	708.12
392.085	732.12
392.31	706.12
392.534	671.12
392.759	649.12
392.984	672.12
393.208	647.12
393.433	633.12
393.658	654.12
393.882	672.12
394.107	674.12
394.331	693.12
394.556	673.12
394.78	664.12
395.005	674.12
395.229	663.12
395.454	695.12
395.678	674.12
395.903	681.12
396.127	690.12
396.352	647.12
396.576	646.12
396.801	652.12
397.025	646.12
397.249	696.12
397.474	684.12
397.698	698.12
397.922	725.12
398.147	672.12
398.371	709.12
398.595	730.12
398.82	763.12
399.044	811.12
399.268	895.12
399.492	1052.12
399.717	1223.12
399.941	1193.12
400.165	1021.12
400.389	928.12
400.613	842.12
400.837	812.12
401.062	791.12
401.286	761.12
401.51	779.12
401.734	747.12
401.958	771.12
402.182	804.12
402.406	835.12
402.63	800.12
402.854	839.12
403.078	810.12
403.302	827.12
403.526	882.12
403.75	918.12
403.974	921.12
404.198	926.12
404.422	936.12
404.645	918.12
404.869	885.12
405.093	879.12
405.317	853.12
405.541	860.12
405.765	869.12
405.988	845.12
406.212	840.12
406.436	844.12
406.66	871.12
406.883	894.12
407.107	927.12
407.331	977.12
407.555	1005.12
407.778	1020.12
408.002	989.12
408.226	950.12
408.449	936.12
408.673	880.12
408.896	867.12
409.12	882.12
409.344	881.12
409.567	909.12
409.791	904.12
410.014	880.12
410.238	841.12
410.461	864.12
410.685	847.12
410.908	845.12
411.132	836.12
411.355	811.12
411.578	820.12
411.802	804.12
412.025	823.12
412.249	851.12
412.472	800.12
412.695	792.12
412.919	787.12
413.142	767.12
413.365	762.12
413.589	780.12
413.812	758.12
414.035	765.12
414.258	751.12
414.482	763.12
414.705	770.12
414.928	770.12
415.151	790.12
415.374	773.12
415.597	786.12
415.821	747.12
416.044	743.12
416.267	732.12
416.49	765.12
416.713	737.12
416.936	753.12
417.159	759.12
417.382	775.12
417.605	755.12
417.828	779.12
418.051	756.12
418.274	795.12
418.497	775.12
418.72	771.12
418.943	818.12
419.166	831.12
419.389	895.12
419.611	866.12
419.834	829.12
420.057	813.12
420.28	805.12
420.503	769.12
420.726	755.12
420.948	757.12
421.171	767.12
421.394	770.12
421.617	763.12
421.839	772.12
422.062	759.12
422.285	772.12
422.507	791.12
422.73	795.12
422.953	788.12
423.175	797.12
423.398	817.12
423.621	846.12
423.843	838.12
424.066	838.12
424.288	823.12
424.511	818.12
424.733	809.12
424.956	795.12
425.178	800.12
425.401	774.12
425.623	772.12
425.846	743.12
426.068	755.12
426.291	740.12
426.513	708.12
426.735	715.12
426.958	713.12
427.18	698.12
427.402	683.12
427.625	682.12
427.847	682.12
428.069	706.12
428.292	694.12
428.514	683.12
428.736	680.12
428.958	696.12
429.181	676.12
429.403	681.12
429.625	664.12
429.847	676.12
430.069	676.12
430.292	671.12
430.514	652.12
430.736	673.12
430.958	672.12
431.18	680.12
431.402	663.12
431.624	675.12
431.846	678.12
432.068	683.12
432.29	701.12
432.512	665.12
432.734	669.12
432.956	692.12
433.178	678.12
433.4	687.12
433.622	692.12
433.844	689.12
434.066	699.12
434.287	710.12
434.509	731.12
434.731	768.12
434.953	761.12
435.175	783.12
435.397	774.12
435.618	772.12
435.84	732.12
436.062	691.12
436.284	689.12
436.505	695.12
436.727	688.12
436.949	674.12
437.17	702.12
437.392	677.12
437.614	678.12
437.835	648.12
438.057	681.12
438.278	648.12
438.5	684.12
438.721	633.12
438.943	651.12
439.165	647.12
439.386	644.12
439.608	685.12
439.829	689.12
440.05	706.12
440.272	711.12
440.493	717.12
440.715	708.12
440.936	711.12
441.158	717.12
441.379	762.12
441.6	778.12
441.822	762.12
442.043	797.12
442.264	766.12
442.486	746.12
442.707	767.12
442.928	754.12
443.149	763.12
443.371	744.12
443.592	763.12
443.813	777.12
444.034	786.12
444.255	815.12
444.476	845.12
444.698	919.12
444.919	959.12
445.14	1002.12
445.361	918.12
445.582	808.12
445.803	731.12
446.024	723.12
446.245	717.12
446.466	711.12
446.687	692.12
446.908	691.12
447.129	681.12
447.35	674.12
447.571	672.12
447.792	646.12
448.013	635.12
448.234	665.12
448.455	630.12
448.675	641.12
448.896	652.12
449.117	621.12
449.338	626.12
449.559	631.12
449.779	629.12
450	619.12
450.221	657.12
450.442	635.12
450.662	641.12
450.883	682.12
451.104	679.12
451.324	656.12
451.545	660.12
451.766	656.12
451.986	648.12
452.207	642.12
452.428	673.12
452.648	651.12
452.869	658.12
453.089	617.12
453.31	645.12
453.53	630.12
453.751	625.12
453.971	621.12
454.192	629.12
454.412	612.12
454.633	619.12
454.853	622.12
455.073	609.12
455.294	599.12
455.514	584.12
455.734	577.12
455.955	577.12
456.175	617.12
456.395	592.12
456.616	606.12
456.836	593.12
457.056	598.12
457.276	574.12
457.497	621.12
457.717	609.12
457.937	600.12
458.157	631.12
458.377	632.12
458.598	609.12
458.818	647.12
459.038	669.12
459.258	685.12
459.478	704.12
459.698	719.12
459.918	741.12
460.138	741.12
460.358	814.12
460.578	825.12
460.798	823.12
461.018	826.12
461.238	813.12
461.458	807.12
461.678	804.12
461.898	823.12
462.118	807.12
462.338	852.12
462.558	895.12
462.777	897.12
462.997	1021.12
463.217	1128.12
463.437	1126.12
463.657	1035.12
463.876	971.12
464.096	977.12
464.316	965.12
464.536	970.12
464.755	940.12
464.975	886.12
465.195	854.12
465.414	817.12
465.634	752.12
465.854	724.12
466.073	722.12
466.293	704.12
466.512	705.12
466.732	674.12
466.951	701.12
467.171	669.12
467.391	693.12
467.61	705.12
467.829	661.12
468.049	668.12
468.268	660.12
468.488	642.12
468.707	612.12
468.927	650.12
469.146	629.12
469.365	649.12
469.585	660.12
469.804	656.12
470.023	665.12
470.243	693.12
470.462	695.12
470.681	705.12
470.901	701.12
471.12	682.12
471.339	667.12
471.558	652.12
471.777	657.12
471.997	657.12
472.216	635.12
472.435	633.12
472.654	629.12
472.873	610.12
473.092	606.12
473.311	636.12
473.53	613.12
473.749	608.12
473.968	587.12
474.187	636.12
474.406	639.12
474.625	637.12
474.844	617.12
475.063	617.12
475.282	638.12
475.501	637.12
475.72	637.12
475.939	662.12
476.158	622.12
476.377	627.12
476.596	667.12
476.814	658.12
477.033	640.12
477.252	669.12
477.471	687.12
477.69	703.12
477.908	732.12
478.127	725.12
478.346	727.12
478.564	749.12
478.783	768.12
479.002	780.12
479.22	778.12
479.439	787.12
479.658	785.12
479.876	787.12
480.095	797.12
480.313	808.12
480.532	819.12
480.751	839.12
480.969	809.12
481.188	772.12
481.406	755.12
481.624	743.12
481.843	700.12
482.061	725.12
482.28	716.12
482.498	699.12
482.717	692.12
482.935	695.12
483.153	704.12
483.372	709.12
483.59	691.12
483.808	695.12
484.027	716.12
484.245	708.12
484.463	717.12
484.681	731.12
484.9	708.12
485.118	763.12
485.336	743.12
485.554	764.12
485.772	757.12
485.99	752.12
486.209	779.12
486.427	753.12
486.645	755.12
486.863	767.12
487.081	749.12
487.299	736.12
487.517	739.12
487.735	742.12
487.953	752.12
488.171	738.12
488.389	737.12
488.607	745.12
488.825	731.12
489.043	742.12
489.261	732.12
489.479	724.12
489.696	749.12
489.914	740.12
490.132	744.12
490.35	751.12
490.568	737.12
490.786	721.12
491.003	731.12
491.221	737.12
491.439	722.12
491.657	715.12
491.874	731.12
492.092	764.12
492.31	748.12
492.527	787.12
492.745	785.12
492.963	775.12
493.18	769.12
493.398	752.12
493.615	759.12
493.833	794.12
494.05	788.12
494.268	791.12
494.485	786.12
494.703	784.12
494.92	777.12
495.138	762.12
495.355	779.12
495.573	771.12
495.79	767.12
496.008	792.12
496.225	799.12
496.442	830.12
496.66	839.12
496.877	825.12
497.094	867.12
497.312	840.12
497.529	850.12
497.746	862.12
497.963	906.12
498.181	945.12
498.398	966.12
498.615	1020.12
498.832	1120.12
499.049	1167.12
499.267	1292.12
499.484	1431.12
499.701	1576.12
499.918	1749.12
500.135	2028.12
500.352	2353.12
500.569	2454.12
500.786	2404.12
501.003	2257.12
501.22	1948.12
