Data from Ni(NO3)2Standard.Agarose3%.GreenCap.LampEnergy5.5.E.O_HRD10591_14-42-48-188.txt Node
Date: Mon Jul 22 14:42:48 EDT 2019
User: cochatt
Spectrometer: HR+D1059
Trigger mode: 1
Integration Time (sec): 1.000000E-1
Scans to average: 1
Electric dark correction enabled: true
Nonlinearity correction enabled: false
Boxcar width: 0
XAxis mode: Wavelengths
Number of Pixels in Spectrum: 2048
>>>>>Begin Spectral Data<<<<<
223.165	-24.56
223.4	-24.56
223.635	-24.56
223.869	-26.56
224.104	-10.56
224.338	-5.56
224.573	-18.56
224.808	-10.56
225.042	-22.56
225.277	-9.56
225.511	4.44
225.746	0.44
225.98	0.44
226.215	17.44
226.449	21.44
226.683	19.44
226.918	24.44
227.152	40.44
227.387	40.44
227.621	32.44
227.856	39.44
228.09	34.44
228.324	48.44
228.559	50.44
228.793	54.44
229.027	59.44
229.262	56.44
229.496	59.44
229.73	73.44
229.964	74.44
230.199	77.44
230.433	69.44
230.667	83.44
230.901	78.44
231.136	77.44
231.37	65.44
231.604	91.44
231.838	82.44
232.072	75.44
232.306	72.44
232.541	88.44
232.775	59.44
233.009	71.44
233.243	64.44
233.477	93.44
233.711	89.44
233.945	85.44
234.179	74.44
234.413	87.44
234.647	82.44
234.881	78.44
235.115	88.44
235.349	91.44
235.583	84.44
235.817	74.44
236.051	77.44
236.285	72.44
236.519	64.44
236.753	77.44
236.987	72.44
237.221	70.44
237.455	76.44
237.689	87.44
237.922	77.44
238.156	76.44
238.39	75.44
238.624	81.44
238.858	84.44
239.091	86.44
239.325	90.44
239.559	86.44
239.793	79.44
240.027	86.44
240.26	76.44
240.494	77.44
240.728	79.44
240.961	78.44
241.195	76.44
241.429	82.44
241.662	86.44
241.896	68.44
242.13	71.44
242.363	84.44
242.597	80.44
242.83	72.44
243.064	73.44
243.298	87.44
243.531	67.44
243.765	73.44
243.998	85.44
244.232	90.44
244.465	80.44
244.699	94.44
244.932	79.44
245.166	86.44
245.399	83.44
245.633	81.44
245.866	75.44
246.099	77.44
246.333	81.44
246.566	70.44
246.8	82.44
247.033	80.44
247.266	63.44
247.5	77.44
247.733	76.44
247.966	82.44
248.2	84.44
248.433	74.44
248.666	83.44
248.899	78.44
249.133	66.44
249.366	82.44
249.599	74.44
249.832	74.44
250.066	92.44
250.299	87.44
250.532	75.44
250.765	70.44
250.998	66.44
251.231	67.44
251.465	65.44
251.698	74.44
251.931	88.44
252.164	88.44
252.397	71.44
252.63	80.44
252.863	82.44
253.096	70.44
253.329	88.44
253.562	91.44
253.795	82.44
254.028	93.44
254.261	84.44
254.494	68.44
254.727	82.44
254.96	78.44
255.193	65.44
255.426	83.44
255.659	78.44
255.892	89.44
256.124	73.44
256.357	83.44
256.59	83.44
256.823	70.44
257.056	72.44
257.289	68.44
257.521	81.44
257.754	75.44
257.987	95.44
258.22	78.44
258.452	79.44
258.685	79.44
258.918	77.44
259.151	85.44
259.383	70.44
259.616	78.44
259.849	84.44
260.081	72.44
260.314	79.44
260.547	92.44
260.779	72.44
261.012	82.44
261.244	55.44
261.477	85.44
261.71	82.44
261.942	93.44
262.175	80.44
262.407	81.44
262.64	79.44
262.872	95.44
263.105	82.44
263.337	80.44
263.57	72.44
263.802	93.44
264.035	76.44
264.267	75.44
264.499	76.44
264.732	88.44
264.964	89.44
265.197	83.44
265.429	88.44
265.661	84.44
265.894	78.44
266.126	78.44
266.358	90.44
266.591	85.44
266.823	93.44
267.055	84.44
267.287	84.44
267.52	64.44
267.752	87.44
267.984	90.44
268.216	97.44
268.448	77.44
268.681	100.44
268.913	90.44
269.145	88.44
269.377	83.44
269.609	94.44
269.841	83.44
270.073	95.44
270.306	91.44
270.538	95.44
270.77	81.44
271.002	78.44
271.234	73.44
271.466	79.44
271.698	79.44
271.93	82.44
272.162	85.44
272.394	84.44
272.626	80.44
272.858	77.44
273.09	76.44
273.322	92.44
273.553	84.44
273.785	76.44
274.017	82.44
274.249	82.44
274.481	85.44
274.713	98.44
274.945	80.44
275.176	82.44
275.408	70.44
275.64	90.44
275.872	76.44
276.104	78.44
276.335	85.44
276.567	87.44
276.799	82.44
277.031	89.44
277.262	98.44
277.494	94.44
277.726	70.44
277.957	78.44
278.189	79.44
278.421	74.44
278.652	85.44
278.884	70.44
279.115	90.44
279.347	85.44
279.579	81.44
279.81	88.44
280.042	96.44
280.273	91.44
280.505	91.44
280.736	91.44
280.968	93.44
281.199	75.44
281.431	81.44
281.662	97.44
281.894	82.44
282.125	88.44
282.356	85.44
282.588	85.44
282.819	66.44
283.051	83.44
283.282	90.44
283.513	99.44
283.745	82.44
283.976	96.44
284.207	85.44
284.439	87.44
284.67	81.44
284.901	82.44
285.132	80.44
285.364	91.44
285.595	83.44
285.826	87.44
286.057	66.44
286.288	66.44
286.52	77.44
286.751	89.44
286.982	102.44
287.213	92.44
287.444	82.44
287.675	86.44
287.906	78.44
288.138	92.44
288.369	76.44
288.6	83.44
288.831	86.44
289.062	84.44
289.293	84.44
289.524	96.44
289.755	91.44
289.986	89.44
290.217	103.44
290.448	89.44
290.679	81.44
290.91	100.44
291.141	99.44
291.371	79.44
291.602	91.44
291.833	87.44
292.064	95.44
292.295	83.44
292.526	82.44
292.757	97.44
292.987	79.44
293.218	75.44
293.449	89.44
293.68	91.44
293.91	75.44
294.141	102.44
294.372	90.44
294.603	82.44
294.833	96.44
295.064	79.44
295.295	85.44
295.525	80.44
295.756	80.44
295.987	84.44
296.217	81.44
296.448	78.44
296.679	94.44
296.909	72.44
297.14	71.44
297.37	80.44
297.601	106.44
297.831	88.44
298.062	82.44
298.292	85.44
298.523	91.44
298.753	99.44
298.984	87.44
299.214	82.44
299.445	88.44
299.675	80.44
299.905	97.44
300.136	89.44
300.366	86.44
300.597	86.44
300.827	102.44
301.057	81.44
301.288	89.44
301.518	88.44
301.748	80.44
301.979	81.44
302.209	80.44
302.439	72.44
302.669	94.44
302.9	83.44
303.13	92.44
303.36	86.44
303.59	89.44
303.82	94.44
304.051	90.44
304.281	83.44
304.511	95.44
304.741	83.44
304.971	90.44
305.201	87.44
305.431	83.44
305.661	86.44
305.891	89.44
306.121	93.44
306.352	95.44
306.582	80.44
306.812	89.44
307.042	82.44
307.272	83.44
307.502	91.44
307.731	92.44
307.961	94.44
308.191	91.44
308.421	90.44
308.651	78.44
308.881	90.44
309.111	100.44
309.341	69.44
309.571	100.44
309.8	98.44
310.03	84.44
310.26	95.44
310.49	89.44
310.72	90.44
310.949	85.44
311.179	87.44
311.409	68.44
311.639	85.44
311.868	82.44
312.098	77.44
312.328	94.44
312.557	82.44
312.787	76.44
313.017	87.44
313.246	99.44
313.476	81.44
313.706	89.44
313.935	95.44
314.165	90.44
314.394	76.44
314.624	95.44
314.853	90.44
315.083	91.44
315.312	85.44
315.542	90.44
315.771	90.44
316.001	96.44
316.23	84.44
316.46	90.44
316.689	82.44
316.919	78.44
317.148	98.44
317.377	89.44
317.607	92.44
317.836	82.44
318.065	90.44
318.295	91.44
318.524	99.44
318.753	82.44
318.983	78.44
319.212	94.44
319.441	91.44
319.67	87.44
319.9	77.44
320.129	86.44
320.358	90.44
320.587	88.44
320.816	83.44
321.046	81.44
321.275	93.44
321.504	78.44
321.733	92.44
321.962	88.44
322.191	94.44
322.42	97.44
322.649	94.44
322.878	92.44
323.108	79.44
323.337	84.44
323.566	92.44
323.795	90.44
324.024	92.44
324.253	89.44
324.482	84.44
324.71	85.44
324.939	81.44
325.168	88.44
325.397	82.44
325.626	95.44
325.855	80.44
326.084	75.44
326.313	88.44
326.542	84.44
326.77	81.44
326.999	81.44
327.228	94.44
327.457	84.44
327.686	84.44
327.914	88.44
328.143	85.44
328.372	98.44
328.6	85.44
328.829	71.44
329.058	86.44
329.287	98.44
329.515	90.44
329.744	91.44
329.972	98.44
330.201	96.44
330.43	84.44
330.658	95.44
330.887	84.44
331.115	89.44
331.344	77.44
331.572	88.44
331.801	92.44
332.03	77.44
332.258	85.44
332.486	78.44
332.715	89.44
332.943	82.44
333.172	84.44
333.4	93.44
333.629	88.44
333.857	93.44
334.085	81.44
334.314	93.44
334.542	83.44
334.771	91.44
334.999	78.44
335.227	82.44
335.455	79.44
335.684	89.44
335.912	82.44
336.14	89.44
336.369	92.44
336.597	96.44
336.825	78.44
337.053	69.44
337.281	86.44
337.51	91.44
337.738	91.44
337.966	99.44
338.194	84.44
338.422	83.44
338.65	91.44
338.878	79.44
339.106	90.44
339.334	97.44
339.562	100.44
339.79	89.44
340.018	100.44
340.246	84.44
340.474	86.44
340.702	96.44
340.93	88.44
341.158	79.44
341.386	83.44
341.614	87.44
341.842	76.44
342.07	81.44
342.298	79.44
342.526	87.44
342.754	91.44
342.981	88.44
343.209	81.44
343.437	90.44
343.665	91.44
343.893	92.44
344.12	83.44
344.348	78.44
344.576	78.44
344.804	90.44
345.031	82.44
345.259	78.44
345.487	86.44
345.714	77.44
345.942	80.44
346.17	90.44
346.397	104.44
346.625	89.44
346.853	87.44
347.08	99.44
347.308	77.44
347.535	73.44
347.763	96.44
347.99	95.44
348.218	78.44
348.445	78.44
348.673	93.44
348.9	101.44
349.128	91.44
349.355	87.44
349.583	78.44
349.81	94.44
350.037	97.44
350.265	78.44
350.492	90.44
350.72	86.44
350.947	89.44
351.174	84.44
351.402	91.44
351.629	89.44
351.856	98.44
352.083	93.44
352.311	88.44
352.538	86.44
352.765	87.44
352.992	96.44
353.22	88.44
353.447	70.44
353.674	91.44
353.901	83.44
354.128	84.44
354.355	94.44
354.583	82.44
354.81	92.44
355.037	86.44
355.264	81.44
355.491	87.44
355.718	67.44
355.945	92.44
356.172	94.44
356.399	88.44
356.626	78.44
356.853	93.44
357.08	89.44
357.307	94.44
357.534	91.44
357.761	95.44
357.988	96.44
358.215	90.44
358.441	90.44
358.668	96.44
358.895	91.44
359.122	86.44
359.349	94.44
359.576	97.44
359.802	78.44
360.029	89.44
360.256	82.44
360.483	79.44
360.709	87.44
360.936	88.44
361.163	88.44
361.39	96.44
361.616	93.44
361.843	91.44
362.07	92.44
362.296	101.44
362.523	88.44
362.749	87.44
362.976	88.44
363.203	75.44
363.429	85.44
363.656	83.44
363.882	92.44
364.109	88.44
364.335	109.44
364.562	94.44
364.788	80.44
365.015	88.44
365.241	76.44
365.468	90.44
365.694	90.44
365.92	91.44
366.147	93.44
366.373	90.44
366.599	91.44
366.826	84.44
367.052	76.44
367.278	72.44
367.505	77.44
367.731	73.44
367.957	76.44
368.184	76.44
368.41	93.44
368.636	100.44
368.862	85.44
369.089	76.44
369.315	95.44
369.541	79.44
369.767	84.44
369.993	78.44
370.219	91.44
370.445	89.44
370.672	91.44
370.898	83.44
371.124	86.44
371.35	89.44
371.576	85.44
371.802	90.44
372.028	81.44
372.254	89.44
372.48	88.44
372.706	73.44
372.932	85.44
373.158	76.44
373.384	95.44
373.61	89.44
373.835	91.44
374.061	105.44
374.287	79.44
374.513	91.44
374.739	76.44
374.965	80.44
375.191	89.44
375.416	86.44
375.642	93.44
375.868	86.44
376.094	90.44
376.319	92.44
376.545	82.44
376.771	67.44
376.997	84.44
377.222	86.44
377.448	80.44
377.674	82.44
377.899	81.44
378.125	73.44
378.35	94.44
378.576	93.44
378.802	93.44
379.027	86.44
379.253	102.44
379.478	78.44
379.704	93.44
379.929	77.44
380.155	85.44
380.38	97.44
380.606	93.44
380.831	83.44
381.057	89.44
381.282	94.44
381.507	69.44
381.733	101.44
381.958	99.44
382.184	87.44
382.409	85.44
382.634	89.44
382.86	79.44
383.085	102.44
383.31	96.44
383.535	86.44
383.761	75.44
383.986	84.44
384.211	99.44
384.436	93.44
384.662	86.44
384.887	85.44
385.112	82.44
385.337	93.44
385.562	80.44
385.787	88.44
386.013	98.44
386.238	82.44
386.463	96.44
386.688	98.44
386.913	90.44
387.138	83.44
387.363	88.44
387.588	84.44
387.813	90.44
388.038	90.44
388.263	90.44
388.488	80.44
388.713	83.44
388.938	76.44
389.163	77.44
389.387	75.44
389.612	65.44
389.837	81.44
390.062	90.44
390.287	84.44
390.512	87.44
390.736	73.44
390.961	65.44
391.186	81.44
391.411	110.44
391.636	92.44
391.86	81.44
392.085	88.44
392.31	92.44
392.534	84.44
392.759	72.44
392.984	85.44
393.208	96.44
393.433	77.44
393.658	68.44
393.882	80.44
394.107	85.44
394.331	82.44
394.556	96.44
394.78	95.44
395.005	92.44
395.229	68.44
395.454	92.44
395.678	93.44
395.903	85.44
396.127	95.44
396.352	80.44
396.576	78.44
396.801	91.44
397.025	87.44
397.249	78.44
397.474	98.44
397.698	93.44
397.922	88.44
398.147	76.44
398.371	88.44
398.595	86.44
398.82	84.44
399.044	89.44
399.268	78.44
399.492	78.44
399.717	96.44
399.941	85.44
400.165	90.44
400.389	85.44
400.613	86.44
400.837	85.44
401.062	94.44
401.286	93.44
401.51	90.44
401.734	88.44
401.958	94.44
402.182	74.44
402.406	84.44
402.63	79.44
402.854	84.44
403.078	92.44
403.302	70.44
403.526	79.44
403.75	96.44
403.974	92.44
404.198	77.44
404.422	101.44
404.645	78.44
404.869	95.44
405.093	78.44
405.317	99.44
405.541	79.44
405.765	74.44
405.988	80.44
406.212	88.44
406.436	82.44
406.66	89.44
406.883	98.44
407.107	86.44
407.331	88.44
407.555	81.44
407.778	101.44
408.002	93.44
408.226	93.44
408.449	89.44
408.673	90.44
408.896	95.44
409.12	93.44
409.344	78.44
409.567	75.44
409.791	91.44
410.014	90.44
410.238	101.44
410.461	105.44
410.685	84.44
410.908	85.44
411.132	93.44
411.355	84.44
411.578	83.44
411.802	101.44
412.025	79.44
412.249	84.44
412.472	86.44
412.695	102.44
412.919	104.44
413.142	84.44
413.365	78.44
413.589	75.44
413.812	89.44
414.035	89.44
414.258	80.44
414.482	82.44
414.705	78.44
414.928	94.44
415.151	88.44
415.374	91.44
415.597	88.44
415.821	77.44
416.044	94.44
416.267	91.44
416.49	81.44
416.713	75.44
416.936	89.44
417.159	90.44
417.382	79.44
417.605	85.44
417.828	82.44
418.051	77.44
418.274	77.44
418.497	88.44
418.72	79.44
418.943	78.44
419.166	88.44
419.389	81.44
419.611	81.44
419.834	89.44
420.057	97.44
420.28	81.44
420.503	97.44
420.726	81.44
420.948	79.44
421.171	83.44
421.394	93.44
421.617	98.44
421.839	85.44
422.062	90.44
422.285	84.44
422.507	92.44
422.73	87.44
422.953	74.44
423.175	80.44
423.398	84.44
423.621	81.44
423.843	92.44
424.066	85.44
424.288	87.44
424.511	90.44
424.733	85.44
424.956	94.44
425.178	80.44
425.401	86.44
425.623	83.44
425.846	92.44
426.068	89.44
426.291	88.44
426.513	85.44
426.735	92.44
426.958	69.44
427.18	85.44
427.402	74.44
427.625	86.44
427.847	68.44
428.069	76.44
428.292	98.44
428.514	78.44
428.736	84.44
428.958	89.44
429.181	93.44
429.403	100.44
429.625	89.44
429.847	84.44
430.069	77.44
430.292	85.44
430.514	88.44
430.736	78.44
430.958	82.44
431.18	81.44
431.402	84.44
431.624	87.44
431.846	75.44
432.068	98.44
432.29	88.44
432.512	83.44
432.734	85.44
432.956	82.44
433.178	85.44
433.4	104.44
433.622	88.44
433.844	95.44
434.066	100.44
434.287	87.44
434.509	105.44
434.731	103.44
434.953	76.44
435.175	86.44
435.397	95.44
435.618	79.44
435.84	83.44
436.062	82.44
436.284	80.44
436.505	88.44
436.727	89.44
436.949	90.44
437.17	86.44
437.392	81.44
437.614	91.44
437.835	87.44
438.057	81.44
438.278	83.44
438.5	88.44
438.721	79.44
438.943	73.44
439.165	82.44
439.386	75.44
439.608	85.44
439.829	96.44
440.05	99.44
440.272	88.44
440.493	86.44
440.715	80.44
440.936	89.44
441.158	85.44
441.379	71.44
441.6	85.44
441.822	75.44
442.043	86.44
442.264	91.44
442.486	89.44
442.707	87.44
442.928	69.44
443.149	76.44
443.371	92.44
443.592	90.44
443.813	82.44
444.034	115.44
444.255	84.44
444.476	103.44
444.698	91.44
444.919	88.44
445.14	199.44
445.361	132.44
445.582	95.44
445.803	82.44
446.024	84.44
446.245	94.44
446.466	107.44
446.687	83.44
446.908	82.44
447.129	84.44
447.35	88.44
447.571	88.44
447.792	87.44
448.013	88.44
448.234	87.44
448.455	93.44
448.675	75.44
448.896	83.44
449.117	71.44
449.338	81.44
449.559	87.44
449.779	81.44
450	81.44
450.221	82.44
450.442	90.44
450.662	91.44
450.883	83.44
451.104	68.44
451.324	82.44
451.545	85.44
451.766	87.44
451.986	88.44
452.207	85.44
452.428	83.44
452.648	76.44
452.869	82.44
453.089	91.44
453.31	78.44
453.53	86.44
453.751	94.44
453.971	94.44
454.192	94.44
454.412	83.44
454.633	82.44
454.853	81.44
455.073	100.44
455.294	96.44
455.514	75.44
455.734	97.44
455.955	84.44
456.175	92.44
456.395	70.44
456.616	81.44
456.836	75.44
457.056	100.44
457.276	88.44
457.497	98.44
457.717	72.44
457.937	86.44
458.157	96.44
458.377	79.44
458.598	93.44
458.818	76.44
459.038	79.44
459.258	86.44
459.478	99.44
459.698	88.44
459.918	75.44
460.138	96.44
460.358	86.44
460.578	84.44
460.798	87.44
461.018	89.44
461.238	96.44
461.458	97.44
461.678	95.44
461.898	86.44
462.118	88.44
462.338	100.44
462.558	91.44
462.777	82.44
462.997	82.44
463.217	107.44
463.437	91.44
463.657	83.44
463.876	90.44
464.096	102.44
464.316	85.44
464.536	94.44
464.755	89.44
464.975	88.44
465.195	90.44
465.414	92.44
465.634	84.44
465.854	77.44
466.073	73.44
466.293	88.44
466.512	93.44
466.732	84.44
466.951	94.44
467.171	101.44
467.391	89.44
467.61	92.44
467.829	76.44
468.049	80.44
468.268	83.44
468.488	94.44
468.707	93.44
468.927	93.44
469.146	74.44
469.365	89.44
469.585	85.44
469.804	76.44
470.023	85.44
470.243	102.44
470.462	102.44
470.681	101.44
470.901	82.44
471.12	83.44
471.339	107.44
471.558	98.44
471.777	103.44
471.997	88.44
472.216	81.44
472.435	85.44
472.654	90.44
472.873	91.44
473.092	103.44
473.311	86.44
473.53	94.44
473.749	95.44
473.968	91.44
474.187	92.44
474.406	84.44
474.625	100.44
474.844	95.44
475.063	101.44
475.282	85.44
475.501	95.44
475.72	98.44
475.939	86.44
476.158	93.44
476.377	96.44
476.596	86.44
476.814	85.44
477.033	89.44
477.252	98.44
477.471	89.44
477.69	96.44
477.908	83.44
478.127	84.44
478.346	86.44
478.564	80.44
478.783	86.44
479.002	96.44
479.22	76.44
479.439	95.44
479.658	84.44
479.876	89.44
480.095	80.44
480.313	89.44
480.532	92.44
480.751	92.44
480.969	94.44
481.188	99.44
481.406	95.44
481.624	81.44
481.843	78.44
482.061	79.44
482.28	82.44
482.498	89.44
482.717	90.44
482.935	80.44
483.153	94.44
483.372	97.44
483.59	99.44
483.808	92.44
484.027	86.44
484.245	90.44
484.463	93.44
484.681	94.44
484.9	97.44
485.118	92.44
485.336	98.44
485.554	96.44
485.772	97.44
485.99	98.44
486.209	109.44
486.427	91.44
486.645	93.44
486.863	81.44
487.081	75.44
487.299	100.44
487.517	97.44
487.735	92.44
487.953	90.44
488.171	82.44
488.389	97.44
488.607	87.44
488.825	78.44
489.043	86.44
489.261	98.44
489.479	88.44
489.696	88.44
489.914	81.44
490.132	82.44
490.35	96.44
490.568	87.44
490.786	87.44
491.003	104.44
491.221	82.44
491.439	86.44
491.657	100.44
491.874	91.44
492.092	99.44
492.31	95.44
492.527	101.44
492.745	88.44
492.963	92.44
493.18	96.44
493.398	76.44
493.615	102.44
493.833	80.44
494.05	87.44
494.268	96.44
494.485	89.44
494.703	80.44
494.92	85.44
495.138	96.44
495.355	98.44
495.573	91.44
495.79	101.44
496.008	94.44
496.225	85.44
496.442	87.44
496.66	107.44
496.877	89.44
497.094	100.44
497.312	87.44
497.529	101.44
497.746	101.44
497.963	97.44
498.181	88.44
498.398	98.44
498.615	98.44
498.832	106.44
499.049	114.44
499.267	91.44
499.484	104.44
499.701	102.44
499.918	104.44
500.135	105.44
500.352	114.44
500.569	107.44
500.786	100.44
501.003	129.44
501.22	108.44
501.437	114.44
501.654	99.44
501.871	96.44
502.088	89.44
502.305	91.44
502.522	93.44
502.739	94.44
502.956	87.44
503.172	105.44
503.389	88.44
503.606	86.44
503.823	92.44
504.04	102.44
504.256	101.44
504.473	97.44
504.69	99.44
504.907	110.44
505.123	90.44
505.34	98.44
505.557	98.44
505.773	104.44
505.99	94.44
506.207	85.44
506.423	96.44
506.64	100.44
506.856	103.44
507.073	102.44
507.289	81.44
507.506	86.44
507.722	80.44
507.939	86.44
508.155	78.44
508.372	95.44
508.588	96.44
508.805	97.44
509.021	84.44
509.238	100.44
509.454	109.44
509.67	94.44
509.887	87.44
510.103	91.44
510.319	92.44
510.536	91.44
510.752	87.44
510.968	93.44
511.184	90.44
511.401	78.44
511.617	100.44
511.833	87.44
512.049	99.44
512.265	89.44
512.481	93.44
512.698	76.44
512.914	94.44
513.13	96.44
513.346	88.44
513.562	81.44
513.778	92.44
513.994	90.44
514.21	91.44
514.426	82.44
514.642	83.44
514.858	84.44
515.074	88.44
515.29	95.44
515.506	96.44
515.721	79.44
515.937	97.44
516.153	83.44
516.369	97.44
516.585	92.44
516.801	94.44
517.016	90.44
517.232	94.44
517.448	100.44
517.664	104.44
517.879	98.44
518.095	84.44
518.311	90.44
