Data from Ni(NO3)2@0.0625M.TitratingCurve.Agarose3%dH2O.NegLispCup.LampEnergy10.LIBS07252019_HRD10591_18-14-27-570.txt Node
Date: Thu Jul 25 18:14:27 EDT 2019
User: cochatt
Spectrometer: HR+D1059
Trigger mode: 1
Integration Time (sec): 1.000000E-1
Scans to average: 1
Electric dark correction enabled: true
Nonlinearity correction enabled: false
Boxcar width: 0
XAxis mode: Wavelengths
Number of Pixels in Spectrum: 2048
>>>>>Begin Spectral Data<<<<<
223.165	-12.31
223.4	-12.31
223.635	-12.31
223.869	-4.31
224.104	-29.31
224.338	-6.31
224.573	-17.31
224.808	-17.31
225.042	1.69
225.277	-7.31
225.511	-22.31
225.746	7.69
225.98	5.69
226.215	14.69
226.449	12.69
226.683	22.69
226.918	27.69
227.152	23.69
227.387	26.69
227.621	44.69
227.856	52.69
228.09	30.69
228.324	54.69
228.559	45.69
228.793	74.69
229.027	104.69
229.262	102.69
229.496	89.69
229.73	89.69
229.964	105.69
230.199	103.69
230.433	130.69
230.667	93.69
230.901	129.69
231.136	116.69
231.37	119.69
231.604	131.69
231.838	127.69
232.072	124.69
232.306	130.69
232.541	110.69
232.775	129.69
233.009	126.69
233.243	127.69
233.477	127.69
233.711	116.69
233.945	127.69
234.179	129.69
234.413	126.69
234.647	122.69
234.881	122.69
235.115	131.69
235.349	134.69
235.583	126.69
235.817	123.69
236.051	123.69
236.285	126.69
236.519	128.69
236.753	129.69
236.987	132.69
237.221	137.69
237.455	137.69
237.689	132.69
237.922	129.69
238.156	109.69
238.39	138.69
238.624	127.69
238.858	132.69
239.091	140.69
239.325	129.69
239.559	161.69
239.793	149.69
240.027	140.69
240.26	141.69
240.494	152.69
240.728	155.69
240.961	157.69
241.195	157.69
241.429	148.69
241.662	143.69
241.896	156.69
242.13	150.69
242.363	149.69
242.597	153.69
242.83	158.69
243.064	157.69
243.298	161.69
243.531	162.69
243.765	149.69
243.998	153.69
244.232	173.69
244.465	163.69
244.699	156.69
244.932	179.69
245.166	185.69
245.399	170.69
245.633	174.69
245.866	164.69
246.099	170.69
246.333	171.69
246.566	172.69
246.8	170.69
247.033	165.69
247.266	182.69
247.5	169.69
247.733	187.69
247.966	179.69
248.2	164.69
248.433	188.69
248.666	158.69
248.899	185.69
249.133	201.69
249.366	181.69
249.599	206.69
249.832	187.69
250.066	187.69
250.299	190.69
250.532	198.69
250.765	206.69
250.998	198.69
251.231	195.69
251.465	190.69
251.698	199.69
251.931	201.69
252.164	200.69
252.397	204.69
252.63	205.69
252.863	216.69
253.096	215.69
253.329	226.69
253.562	205.69
253.795	215.69
254.028	206.69
254.261	207.69
254.494	212.69
254.727	210.69
254.96	212.69
255.193	195.69
255.426	208.69
255.659	217.69
255.892	203.69
256.124	231.69
256.357	207.69
256.59	204.69
256.823	221.69
257.056	226.69
257.289	228.69
257.521	235.69
257.754	228.69
257.987	227.69
258.22	234.69
258.452	236.69
258.685	237.69
258.918	230.69
259.151	223.69
259.383	229.69
259.616	226.69
259.849	243.69
260.081	238.69
260.314	246.69
260.547	240.69
260.779	219.69
261.012	229.69
261.244	260.69
261.477	248.69
261.71	273.69
261.942	236.69
262.175	238.69
262.407	237.69
262.64	236.69
262.872	245.69
263.105	254.69
263.337	263.69
263.57	257.69
263.802	253.69
264.035	239.69
264.267	255.69
264.499	255.69
264.732	271.69
264.964	250.69
265.197	238.69
265.429	259.69
265.661	261.69
265.894	262.69
266.126	260.69
266.358	256.69
266.591	260.69
266.823	276.69
267.055	265.69
267.287	279.69
267.52	268.69
267.752	267.69
267.984	261.69
268.216	281.69
268.448	274.69
268.681	279.69
268.913	260.69
269.145	265.69
269.377	284.69
269.609	266.69
269.841	284.69
270.073	270.69
270.306	290.69
270.538	279.69
270.77	291.69
271.002	283.69
271.234	284.69
271.466	283.69
271.698	298.69
271.93	292.69
272.162	273.69
272.394	297.69
272.626	265.69
272.858	287.69
273.09	292.69
273.322	269.69
273.553	282.69
273.785	294.69
274.017	293.69
274.249	298.69
274.481	301.69
274.713	297.69
274.945	313.69
275.176	308.69
275.408	298.69
275.64	312.69
275.872	298.69
276.104	305.69
276.335	318.69
276.567	297.69
276.799	296.69
277.031	317.69
277.262	314.69
277.494	302.69
277.726	313.69
277.957	321.69
278.189	314.69
278.421	327.69
278.652	327.69
278.884	318.69
279.115	313.69
279.347	321.69
279.579	317.69
279.81	338.69
280.042	338.69
280.273	329.69
280.505	334.69
280.736	333.69
280.968	350.69
281.199	338.69
281.431	328.69
281.662	334.69
281.894	346.69
282.125	327.69
282.356	348.69
282.588	345.69
282.819	354.69
283.051	339.69
283.282	333.69
283.513	363.69
283.745	346.69
283.976	340.69
284.207	349.69
284.439	356.69
284.67	349.69
284.901	348.69
285.132	337.69
285.364	361.69
285.595	352.69
285.826	346.69
286.057	357.69
286.288	351.69
286.52	371.69
286.751	341.69
286.982	377.69
287.213	353.69
287.444	366.69
287.675	377.69
287.906	399.69
288.138	362.69
288.369	377.69
288.6	378.69
288.831	364.69
289.062	395.69
289.293	375.69
289.524	375.69
289.755	366.69
289.986	370.69
290.217	363.69
290.448	383.69
290.679	371.69
290.91	388.69
291.141	385.69
291.371	394.69
291.602	378.69
291.833	371.69
292.064	385.69
292.295	375.69
292.526	396.69
292.757	399.69
292.987	385.69
293.218	389.69
293.449	383.69
293.68	399.69
293.91	387.69
294.141	400.69
294.372	381.69
294.603	384.69
294.833	388.69
295.064	380.69
295.295	381.69
295.525	391.69
295.756	389.69
295.987	396.69
296.217	413.69
296.448	394.69
296.679	399.69
296.909	406.69
297.14	381.69
297.37	421.69
297.601	414.69
297.831	409.69
298.062	400.69
298.292	438.69
298.523	420.69
298.753	431.69
298.984	429.69
299.214	424.69
299.445	441.69
299.675	439.69
299.905	433.69
300.136	414.69
300.366	405.69
300.597	442.69
300.827	441.69
301.057	435.69
301.288	449.69
301.518	457.69
301.748	435.69
301.979	462.69
302.209	452.69
302.439	445.69
302.669	433.69
302.9	462.69
303.13	412.69
303.36	458.69
303.59	448.69
303.82	445.69
304.051	433.69
304.281	431.69
304.511	428.69
304.741	423.69
304.971	444.69
305.201	441.69
305.431	437.69
305.661	450.69
305.891	427.69
306.121	419.69
306.352	456.69
306.582	457.69
306.812	424.69
307.042	414.69
307.272	412.69
307.502	421.69
307.731	443.69
307.961	411.69
308.191	401.69
308.421	397.69
308.651	396.69
308.881	437.69
309.111	416.69
309.341	417.69
309.571	438.69
309.8	429.69
310.03	429.69
310.26	426.69
310.49	437.69
310.72	433.69
310.949	428.69
311.179	451.69
311.409	452.69
311.639	434.69
311.868	429.69
312.098	432.69
312.328	437.69
312.557	446.69
312.787	455.69
313.017	427.69
313.246	453.69
313.476	451.69
313.706	446.69
313.935	458.69
314.165	475.69
314.394	465.69
314.624	460.69
314.853	454.69
315.083	451.69
315.312	453.69
315.542	463.69
315.771	460.69
316.001	459.69
316.23	447.69
316.46	419.69
316.689	443.69
316.919	445.69
317.148	447.69
317.377	451.69
317.607	446.69
317.836	446.69
318.065	447.69
318.295	460.69
318.524	453.69
318.753	429.69
318.983	462.69
319.212	443.69
319.441	459.69
319.67	444.69
319.9	458.69
320.129	441.69
320.358	455.69
320.587	441.69
320.816	462.69
321.046	437.69
321.275	455.69
321.504	447.69
321.733	443.69
321.962	433.69
322.191	457.69
322.42	459.69
322.649	454.69
322.878	454.69
323.108	466.69
323.337	484.69
323.566	477.69
323.795	471.69
324.024	454.69
324.253	474.69
324.482	483.69
324.71	461.69
324.939	463.69
325.168	475.69
325.397	460.69
325.626	474.69
325.855	482.69
326.084	507.69
326.313	504.69
326.542	490.69
326.77	499.69
326.999	500.69
327.228	484.69
327.457	491.69
327.686	486.69
327.914	497.69
328.143	493.69
328.372	499.69
328.6	482.69
328.829	474.69
329.058	485.69
329.287	483.69
329.515	505.69
329.744	521.69
329.972	525.69
330.201	501.69
330.43	514.69
330.658	493.69
330.887	497.69
331.115	529.69
331.344	534.69
331.572	540.69
331.801	536.69
332.03	559.69
332.258	581.69
332.486	573.69
332.715	588.69
332.943	600.69
333.172	634.69
333.4	658.69
333.629	683.69
333.857	675.69
334.085	650.69
334.314	653.69
334.542	627.69
334.771	622.69
334.999	647.69
335.227	614.69
335.455	631.69
335.684	625.69
335.912	606.69
336.14	605.69
336.369	590.69
336.597	597.69
336.825	616.69
337.053	595.69
337.281	575.69
337.51	582.69
337.738	552.69
337.966	550.69
338.194	559.69
338.422	561.69
338.65	539.69
338.878	534.69
339.106	538.69
339.334	573.69
339.562	545.69
339.79	498.69
340.018	518.69
340.246	527.69
340.474	538.69
340.702	513.69
340.93	538.69
341.158	514.69
341.386	539.69
341.614	526.69
341.842	519.69
342.07	508.69
342.298	515.69
342.526	537.69
342.754	499.69
342.981	514.69
343.209	542.69
343.437	545.69
343.665	596.69
343.893	653.69
344.12	643.69
344.348	629.69
344.576	602.69
344.804	566.69
345.031	545.69
345.259	549.69
345.487	543.69
345.714	531.69
345.942	530.69
346.17	516.69
346.397	514.69
346.625	521.69
346.853	511.69
347.08	522.69
347.308	532.69
347.535	536.69
347.763	522.69
347.99	523.69
348.218	512.69
348.445	519.69
348.673	486.69
348.9	498.69
349.128	522.69
349.355	515.69
349.583	501.69
349.81	471.69
350.037	515.69
350.265	478.69
350.492	525.69
350.72	474.69
350.947	499.69
351.174	520.69
351.402	482.69
351.629	505.69
351.856	488.69
352.083	475.69
352.311	499.69
352.538	500.69
352.765	519.69
352.992	501.69
353.22	478.69
353.447	493.69
353.674	499.69
353.901	490.69
354.128	493.69
354.355	478.69
354.583	491.69
354.81	516.69
355.037	495.69
355.264	493.69
355.491	497.69
355.718	484.69
355.945	505.69
356.172	517.69
356.399	495.69
356.626	511.69
356.853	516.69
357.08	487.69
357.307	497.69
357.534	501.69
357.761	487.69
357.988	495.69
358.215	472.69
358.441	480.69
358.668	487.69
358.895	521.69
359.122	490.69
359.349	493.69
359.576	502.69
359.802	502.69
360.029	482.69
360.256	502.69
360.483	505.69
360.709	498.69
360.936	483.69
361.163	499.69
361.39	501.69
361.616	520.69
361.843	513.69
362.07	511.69
362.296	500.69
362.523	496.69
362.749	506.69
362.976	499.69
363.203	478.69
363.429	476.69
363.656	480.69
363.882	507.69
364.109	479.69
364.335	486.69
364.562	482.69
364.788	498.69
365.015	483.69
365.241	477.69
365.468	494.69
365.694	476.69
365.92	470.69
366.147	457.69
366.373	482.69
366.599	501.69
366.826	480.69
367.052	509.69
367.278	494.69
367.505	486.69
367.731	487.69
367.957	486.69
368.184	500.69
368.41	497.69
368.636	502.69
368.862	477.69
369.089	490.69
369.315	506.69
369.541	507.69
369.767	514.69
369.993	509.69
370.219	522.69
370.445	517.69
370.672	519.69
370.898	524.69
371.124	531.69
371.35	531.69
371.576	514.69
371.802	538.69
372.028	526.69
372.254	526.69
372.48	550.69
372.706	559.69
372.932	577.69
373.158	554.69
373.384	561.69
373.61	535.69
373.835	525.69
374.061	561.69
374.287	536.69
374.513	554.69
374.739	583.69
374.965	593.69
375.191	583.69
375.416	593.69
375.642	570.69
375.868	567.69
376.094	595.69
376.319	590.69
376.545	549.69
376.771	556.69
376.997	543.69
377.222	518.69
377.448	534.69
377.674	552.69
377.899	544.69
378.125	547.69
378.35	550.69
378.576	519.69
378.802	521.69
379.027	511.69
379.253	539.69
379.478	522.69
379.704	521.69
379.929	540.69
380.155	527.69
380.38	526.69
380.606	523.69
380.831	555.69
381.057	535.69
381.282	537.69
381.507	541.69
381.733	554.69
381.958	543.69
382.184	545.69
382.409	555.69
382.634	547.69
382.86	555.69
383.085	581.69
383.31	588.69
383.535	594.69
383.761	582.69
383.986	611.69
384.211	599.69
384.436	637.69
384.662	641.69
384.887	641.69
385.112	630.69
385.337	650.69
385.562	635.69
385.787	666.69
386.013	663.69
386.238	644.69
386.463	652.69
386.688	636.69
386.913	628.69
387.138	631.69
387.363	622.69
387.588	623.69
387.813	630.69
388.038	633.69
388.263	651.69
388.488	633.69
388.713	648.69
388.938	625.69
389.163	617.69
389.387	625.69
389.612	627.69
389.837	614.69
390.062	614.69
390.287	655.69
390.512	629.69
390.736	623.69
390.961	648.69
391.186	667.69
391.411	655.69
391.636	677.69
391.86	712.69
392.085	758.69
392.31	730.69
392.534	710.69
392.759	698.69
392.984	692.69
393.208	694.69
393.433	680.69
393.658	682.69
393.882	674.69
394.107	697.69
394.331	726.69
394.556	695.69
394.78	697.69
395.005	695.69
395.229	722.69
395.454	715.69
395.678	727.69
395.903	707.69
396.127	719.69
396.352	675.69
396.576	661.69
396.801	667.69
397.025	713.69
397.249	686.69
397.474	707.69
397.698	702.69
397.922	705.69
398.147	713.69
398.371	735.69
398.595	744.69
398.82	771.69
399.044	838.69
399.268	926.69
399.492	1044.69
399.717	1243.69
399.941	1243.69
400.165	1060.69
400.389	952.69
400.613	868.69
400.837	810.69
401.062	807.69
401.286	792.69
401.51	765.69
401.734	784.69
401.958	807.69
402.182	813.69
402.406	794.69
402.63	843.69
402.854	861.69
403.078	862.69
403.302	895.69
403.526	907.69
403.75	936.69
403.974	947.69
404.198	922.69
404.422	959.69
404.645	926.69
404.869	907.69
405.093	907.69
405.317	884.69
405.541	894.69
405.765	894.69
405.988	876.69
406.212	856.69
406.436	877.69
406.66	901.69
406.883	917.69
407.107	983.69
407.331	985.69
407.555	1054.69
407.778	1055.69
408.002	1028.69
408.226	967.69
408.449	944.69
408.673	917.69
408.896	907.69
409.12	890.69
409.344	909.69
409.567	908.69
409.791	935.69
410.014	941.69
410.238	939.69
410.461	903.69
410.685	902.69
410.908	872.69
411.132	860.69
411.355	843.69
411.578	839.69
411.802	835.69
412.025	860.69
412.249	825.69
412.472	878.69
412.695	809.69
412.919	804.69
413.142	777.69
413.365	793.69
413.589	803.69
413.812	791.69
414.035	782.69
414.258	804.69
414.482	821.69
414.705	830.69
414.928	803.69
415.151	811.69
415.374	821.69
415.597	802.69
415.821	771.69
416.044	762.69
416.267	760.69
416.49	757.69
416.713	781.69
416.936	790.69
417.159	805.69
417.382	757.69
417.605	775.69
417.828	794.69
418.051	797.69
418.274	784.69
418.497	805.69
418.72	826.69
418.943	825.69
419.166	853.69
419.389	923.69
419.611	901.69
419.834	838.69
420.057	847.69
420.28	808.69
420.503	778.69
420.726	808.69
420.948	802.69
421.171	789.69
421.394	789.69
421.617	781.69
421.839	786.69
422.062	834.69
422.285	792.69
422.507	815.69
422.73	818.69
422.953	810.69
423.175	844.69
423.398	869.69
423.621	840.69
423.843	865.69
424.066	858.69
424.288	854.69
424.511	855.69
424.733	824.69
424.956	832.69
425.178	866.69
425.401	816.69
425.623	797.69
425.846	776.69
426.068	771.69
426.291	729.69
426.513	770.69
426.735	761.69
426.958	763.69
427.18	743.69
427.402	732.69
427.625	701.69
427.847	716.69
428.069	707.69
428.292	725.69
428.514	708.69
428.736	686.69
428.958	701.69
429.181	738.69
429.403	705.69
429.625	678.69
429.847	706.69
430.069	683.69
430.292	711.69
430.514	683.69
430.736	685.69
430.958	701.69
431.18	679.69
431.402	714.69
431.624	703.69
431.846	710.69
432.068	722.69
432.29	738.69
432.512	731.69
432.734	710.69
432.956	681.69
433.178	735.69
433.4	701.69
433.622	716.69
433.844	739.69
434.066	742.69
434.287	731.69
434.509	756.69
434.731	822.69
434.953	826.69
435.175	820.69
435.397	821.69
435.618	761.69
435.84	745.69
436.062	723.69
436.284	727.69
436.505	723.69
436.727	717.69
436.949	715.69
437.17	702.69
437.392	685.69
437.614	727.69
437.835	691.69
438.057	704.69
438.278	681.69
438.5	670.69
438.721	677.69
438.943	708.69
439.165	694.69
439.386	704.69
439.608	692.69
439.829	704.69
440.05	716.69
440.272	731.69
440.493	746.69
440.715	755.69
440.936	749.69
441.158	763.69
441.379	756.69
441.6	823.69
441.822	839.69
442.043	816.69
442.264	801.69
442.486	763.69
442.707	786.69
442.928	781.69
443.149	795.69
443.371	805.69
443.592	810.69
443.813	850.69
444.034	818.69
444.255	837.69
444.476	876.69
444.698	962.69
444.919	979.69
445.14	1037.69
445.361	928.69
445.582	852.69
445.803	792.69
446.024	763.69
446.245	771.69
446.466	742.69
446.687	746.69
446.908	734.69
447.129	701.69
447.35	719.69
447.571	685.69
447.792	693.69
448.013	700.69
448.234	673.69
448.455	660.69
448.675	652.69
448.896	661.69
449.117	674.69
449.338	663.69
449.559	679.69
449.779	673.69
450	659.69
450.221	673.69
450.442	670.69
450.662	675.69
450.883	697.69
451.104	671.69
451.324	695.69
451.545	710.69
451.766	673.69
451.986	668.69
452.207	666.69
452.428	689.69
452.648	679.69
452.869	659.69
453.089	664.69
453.31	673.69
453.53	653.69
453.751	655.69
453.971	653.69
454.192	683.69
454.412	627.69
454.633	638.69
454.853	635.69
455.073	607.69
455.294	612.69
455.514	626.69
455.734	629.69
455.955	633.69
456.175	649.69
456.395	636.69
456.616	620.69
456.836	637.69
457.056	644.69
457.276	592.69
457.497	623.69
457.717	605.69
457.937	618.69
458.157	629.69
458.377	642.69
458.598	638.69
458.818	680.69
459.038	689.69
459.258	699.69
459.478	715.69
459.698	747.69
459.918	793.69
460.138	777.69
460.358	836.69
460.578	860.69
460.798	864.69
461.018	892.69
461.238	844.69
461.458	838.69
461.678	857.69
461.898	830.69
462.118	864.69
462.338	906.69
462.558	957.69
462.777	959.69
462.997	1064.69
463.217	1198.69
463.437	1219.69
463.657	1123.69
463.876	1004.69
464.096	1009.69
464.316	1025.69
464.536	1032.69
464.755	983.69
464.975	941.69
465.195	917.69
465.414	852.69
465.634	771.69
465.854	734.69
466.073	766.69
466.293	741.69
466.512	725.69
466.732	719.69
466.951	722.69
467.171	684.69
467.391	714.69
467.61	705.69
467.829	707.69
468.049	680.69
468.268	678.69
468.488	669.69
468.707	661.69
468.927	693.69
469.146	666.69
469.365	705.69
469.585	702.69
469.804	699.69
470.023	717.69
470.243	732.69
470.462	722.69
470.681	734.69
470.901	706.69
471.12	716.69
471.339	695.69
471.558	691.69
471.777	686.69
471.997	666.69
472.216	656.69
472.435	671.69
472.654	660.69
472.873	654.69
473.092	649.69
473.311	635.69
473.53	641.69
473.749	650.69
473.968	658.69
474.187	661.69
474.406	654.69
474.625	642.69
474.844	691.69
475.063	644.69
475.282	645.69
475.501	664.69
475.72	686.69
475.939	691.69
476.158	685.69
476.377	705.69
476.596	677.69
476.814	719.69
477.033	704.69
477.252	707.69
477.471	723.69
477.69	714.69
477.908	738.69
478.127	769.69
478.346	804.69
478.564	807.69
478.783	813.69
479.002	821.69
479.22	821.69
479.439	813.69
479.658	798.69
479.876	828.69
480.095	845.69
480.313	889.69
480.532	910.69
480.751	904.69
480.969	856.69
481.188	815.69
481.406	799.69
481.624	755.69
481.843	768.69
482.061	739.69
482.28	756.69
482.498	772.69
482.717	736.69
482.935	746.69
483.153	768.69
483.372	759.69
483.59	731.69
483.808	775.69
484.027	775.69
484.245	746.69
484.463	759.69
484.681	787.69
484.9	809.69
485.118	795.69
485.336	820.69
485.554	801.69
485.772	822.69
485.99	802.69
486.209	815.69
486.427	802.69
486.645	835.69
486.863	814.69
487.081	807.69
487.299	832.69
487.517	808.69
487.735	803.69
487.953	819.69
488.171	801.69
488.389	796.69
488.607	795.69
488.825	757.69
489.043	777.69
489.261	807.69
489.479	782.69
489.696	799.69
489.914	802.69
490.132	806.69
490.35	807.69
490.568	778.69
490.786	814.69
491.003	822.69
491.221	791.69
491.439	794.69
491.657	799.69
491.874	824.69
492.092	795.69
492.31	814.69
492.527	824.69
492.745	810.69
492.963	823.69
493.18	815.69
493.398	826.69
493.615	814.69
493.833	836.69
494.05	805.69
494.268	828.69
494.485	821.69
494.703	851.69
494.92	853.69
495.138	830.69
495.355	810.69
495.573	823.69
495.79	840.69
496.008	843.69
496.225	821.69
496.442	881.69
496.66	875.69
496.877	866.69
497.094	872.69
497.312	882.69
497.529	913.69
497.746	917.69
497.963	954.69
498.181	980.69
498.398	1030.69
498.615	1085.69
498.832	1165.69
499.049	1228.69
499.267	1334.69
499.484	1465.69
499.701	1657.69
499.918	1799.69
500.135	2138.69
500.352	2439.69
500.569	2603.69
500.786	2563.69
501.003	2289.69
501.22	2074.69
