Data from Ni(NO3)2@0.125M.TitratingCurve.Agarose3%dH2O.NegLispCup.LampEnergy10.LIBS07252019_HRD10591_18-09-12-567.txt Node
Date: Thu Jul 25 18:09:12 EDT 2019
User: cochatt
Spectrometer: HR+D1059
Trigger mode: 1
Integration Time (sec): 1.000000E-1
Scans to average: 1
Electric dark correction enabled: true
Nonlinearity correction enabled: false
Boxcar width: 0
XAxis mode: Wavelengths
Number of Pixels in Spectrum: 2048
>>>>>Begin Spectral Data<<<<<
223.165	-11.88
223.4	-11.88
223.635	-11.88
223.869	-11.88
224.104	-11.88
224.338	-24.88
224.573	-12.88
224.808	-11.88
225.042	-13.88
225.277	-15.88
225.511	-0.88
225.746	12.12
225.98	11.12
226.215	12.12
226.449	12.12
226.683	14.12
226.918	27.12
227.152	27.12
227.387	33.12
227.621	32.12
227.856	37.12
228.09	41.12
228.324	30.12
228.559	59.12
228.793	74.12
229.027	87.12
229.262	101.12
229.496	93.12
229.73	104.12
229.964	111.12
230.199	103.12
230.433	117.12
230.667	120.12
230.901	106.12
231.136	123.12
231.37	133.12
231.604	125.12
231.838	127.12
232.072	121.12
232.306	130.12
232.541	125.12
232.775	123.12
233.009	136.12
233.243	137.12
233.477	128.12
233.711	128.12
233.945	128.12
234.179	138.12
234.413	121.12
234.647	140.12
234.881	127.12
235.115	134.12
235.349	121.12
235.583	135.12
235.817	144.12
236.051	125.12
236.285	146.12
236.519	129.12
236.753	124.12
236.987	127.12
237.221	129.12
237.455	160.12
237.689	136.12
237.922	129.12
238.156	136.12
238.39	138.12
238.624	141.12
238.858	138.12
239.091	139.12
239.325	145.12
239.559	150.12
239.793	144.12
240.027	147.12
240.26	147.12
240.494	146.12
240.728	162.12
240.961	174.12
241.195	151.12
241.429	161.12
241.662	154.12
241.896	147.12
242.13	143.12
242.363	153.12
242.597	151.12
242.83	166.12
243.064	182.12
243.298	173.12
243.531	168.12
243.765	166.12
243.998	159.12
244.232	176.12
244.465	180.12
244.699	178.12
244.932	178.12
245.166	182.12
245.399	183.12
245.633	176.12
245.866	191.12
246.099	170.12
246.333	172.12
246.566	187.12
246.8	206.12
247.033	192.12
247.266	195.12
247.5	189.12
247.733	172.12
247.966	183.12
248.2	187.12
248.433	215.12
248.666	197.12
248.899	191.12
249.133	196.12
249.366	209.12
249.599	210.12
249.832	188.12
250.066	194.12
250.299	201.12
250.532	202.12
250.765	193.12
250.998	226.12
251.231	214.12
251.465	215.12
251.698	207.12
251.931	231.12
252.164	226.12
252.397	235.12
252.63	240.12
252.863	224.12
253.096	245.12
253.329	240.12
253.562	225.12
253.795	233.12
254.028	234.12
254.261	223.12
254.494	241.12
254.727	257.12
254.96	246.12
255.193	245.12
255.426	241.12
255.659	232.12
255.892	253.12
256.124	256.12
256.357	243.12
256.59	264.12
256.823	231.12
257.056	262.12
257.289	231.12
257.521	259.12
257.754	255.12
257.987	263.12
258.22	245.12
258.452	283.12
258.685	275.12
258.918	272.12
259.151	246.12
259.383	235.12
259.616	257.12
259.849	266.12
260.081	265.12
260.314	271.12
260.547	285.12
260.779	265.12
261.012	279.12
261.244	275.12
261.477	272.12
261.71	279.12
261.942	265.12
262.175	273.12
262.407	276.12
262.64	267.12
262.872	275.12
263.105	280.12
263.337	314.12
263.57	280.12
263.802	288.12
264.035	293.12
264.267	287.12
264.499	269.12
264.732	289.12
264.964	277.12
265.197	308.12
265.429	304.12
265.661	313.12
265.894	297.12
266.126	292.12
266.358	289.12
266.591	331.12
266.823	307.12
267.055	314.12
267.287	309.12
267.52	290.12
267.752	304.12
267.984	312.12
268.216	301.12
268.448	331.12
268.681	305.12
268.913	316.12
269.145	325.12
269.377	307.12
269.609	320.12
269.841	320.12
270.073	324.12
270.306	323.12
270.538	334.12
270.77	333.12
271.002	323.12
271.234	328.12
271.466	303.12
271.698	319.12
271.93	320.12
272.162	324.12
272.394	322.12
272.626	325.12
272.858	336.12
273.09	333.12
273.322	334.12
273.553	326.12
273.785	329.12
274.017	329.12
274.249	325.12
274.481	329.12
274.713	328.12
274.945	332.12
275.176	329.12
275.408	325.12
275.64	340.12
275.872	348.12
276.104	330.12
276.335	347.12
276.567	351.12
276.799	339.12
277.031	361.12
277.262	360.12
277.494	342.12
277.726	370.12
277.957	356.12
278.189	361.12
278.421	337.12
278.652	380.12
278.884	377.12
279.115	347.12
279.347	375.12
279.579	357.12
279.81	343.12
280.042	373.12
280.273	371.12
280.505	390.12
280.736	371.12
280.968	347.12
281.199	374.12
281.431	369.12
281.662	381.12
281.894	378.12
282.125	386.12
282.356	385.12
282.588	383.12
282.819	403.12
283.051	380.12
283.282	387.12
283.513	389.12
283.745	374.12
283.976	394.12
284.207	373.12
284.439	386.12
284.67	405.12
284.901	394.12
285.132	392.12
285.364	408.12
285.595	404.12
285.826	405.12
286.057	408.12
286.288	400.12
286.52	428.12
286.751	395.12
286.982	405.12
287.213	426.12
287.444	415.12
287.675	412.12
287.906	423.12
288.138	426.12
288.369	428.12
288.6	421.12
288.831	434.12
289.062	413.12
289.293	420.12
289.524	428.12
289.755	417.12
289.986	421.12
290.217	397.12
290.448	435.12
290.679	426.12
290.91	423.12
291.141	411.12
291.371	426.12
291.602	433.12
291.833	433.12
292.064	443.12
292.295	437.12
292.526	445.12
292.757	457.12
292.987	416.12
293.218	428.12
293.449	432.12
293.68	433.12
293.91	441.12
294.141	426.12
294.372	449.12
294.603	425.12
294.833	434.12
295.064	433.12
295.295	437.12
295.525	432.12
295.756	449.12
295.987	452.12
296.217	457.12
296.448	435.12
296.679	428.12
296.909	433.12
297.14	443.12
297.37	439.12
297.601	470.12
297.831	445.12
298.062	469.12
298.292	475.12
298.523	493.12
298.753	480.12
298.984	467.12
299.214	460.12
299.445	470.12
299.675	472.12
299.905	458.12
300.136	452.12
300.366	467.12
300.597	473.12
300.827	506.12
301.057	516.12
301.288	511.12
301.518	479.12
301.748	513.12
301.979	519.12
302.209	487.12
302.439	482.12
302.669	489.12
302.9	473.12
303.13	474.12
303.36	475.12
303.59	461.12
303.82	468.12
304.051	492.12
304.281	484.12
304.511	476.12
304.741	481.12
304.971	487.12
305.201	488.12
305.431	466.12
305.661	459.12
305.891	482.12
306.121	463.12
306.352	469.12
306.582	480.12
306.812	476.12
307.042	476.12
307.272	463.12
307.502	468.12
307.731	484.12
307.961	479.12
308.191	475.12
308.421	454.12
308.651	473.12
308.881	467.12
309.111	479.12
309.341	453.12
309.571	475.12
309.8	481.12
310.03	477.12
310.26	476.12
310.49	479.12
310.72	483.12
310.949	471.12
311.179	481.12
311.409	455.12
311.639	480.12
311.868	488.12
312.098	493.12
312.328	490.12
312.557	495.12
312.787	487.12
313.017	517.12
313.246	509.12
313.476	513.12
313.706	515.12
313.935	525.12
314.165	513.12
314.394	522.12
314.624	521.12
314.853	504.12
315.083	500.12
315.312	499.12
315.542	499.12
315.771	493.12
316.001	525.12
316.23	514.12
316.46	481.12
316.689	487.12
316.919	482.12
317.148	505.12
317.377	508.12
317.607	500.12
317.836	500.12
318.065	488.12
318.295	498.12
318.524	524.12
318.753	485.12
318.983	489.12
319.212	487.12
319.441	496.12
319.67	503.12
319.9	486.12
320.129	507.12
320.358	506.12
320.587	505.12
320.816	481.12
321.046	497.12
321.275	515.12
321.504	487.12
321.733	529.12
321.962	509.12
322.191	529.12
322.42	516.12
322.649	539.12
322.878	521.12
323.108	535.12
323.337	525.12
323.566	525.12
323.795	521.12
324.024	541.12
324.253	537.12
324.482	522.12
324.71	526.12
324.939	550.12
325.168	560.12
325.397	509.12
325.626	544.12
325.855	544.12
326.084	562.12
326.313	556.12
326.542	568.12
326.77	593.12
326.999	552.12
327.228	536.12
327.457	535.12
327.686	547.12
327.914	557.12
328.143	571.12
328.372	550.12
328.6	547.12
328.829	561.12
329.058	586.12
329.287	549.12
329.515	561.12
329.744	559.12
329.972	578.12
330.201	562.12
330.43	577.12
330.658	571.12
330.887	584.12
331.115	582.12
331.344	576.12
331.572	604.12
331.801	589.12
332.03	627.12
332.258	643.12
332.486	676.12
332.715	703.12
332.943	714.12
333.172	708.12
333.4	771.12
333.629	778.12
333.857	802.12
334.085	782.12
334.314	759.12
334.542	728.12
334.771	729.12
334.999	704.12
335.227	711.12
335.455	732.12
335.684	710.12
335.912	713.12
336.14	696.12
336.369	690.12
336.597	703.12
336.825	698.12
337.053	708.12
337.281	676.12
337.51	677.12
337.738	651.12
337.966	647.12
338.194	619.12
338.422	641.12
338.65	621.12
338.878	619.12
339.106	605.12
339.334	627.12
339.562	623.12
339.79	612.12
340.018	599.12
340.246	587.12
340.474	610.12
340.702	599.12
340.93	614.12
341.158	619.12
341.386	604.12
341.614	611.12
341.842	613.12
342.07	585.12
342.298	584.12
342.526	599.12
342.754	603.12
342.981	587.12
343.209	589.12
343.437	629.12
343.665	684.12
343.893	737.12
344.12	769.12
344.348	706.12
344.576	669.12
344.804	659.12
345.031	627.12
345.259	634.12
345.487	591.12
345.714	593.12
345.942	603.12
346.17	619.12
346.397	588.12
346.625	618.12
346.853	595.12
347.08	547.12
347.308	592.12
347.535	587.12
347.763	605.12
347.99	605.12
348.218	613.12
348.445	600.12
348.673	577.12
348.9	600.12
349.128	587.12
349.355	578.12
349.583	592.12
349.81	579.12
350.037	563.12
350.265	575.12
350.492	562.12
350.72	563.12
350.947	549.12
351.174	571.12
351.402	563.12
351.629	556.12
351.856	554.12
352.083	541.12
352.311	554.12
352.538	577.12
352.765	573.12
352.992	576.12
353.22	547.12
353.447	538.12
353.674	540.12
353.901	562.12
354.128	554.12
354.355	575.12
354.583	580.12
354.81	571.12
355.037	574.12
355.264	547.12
355.491	573.12
355.718	553.12
355.945	570.12
356.172	581.12
356.399	565.12
356.626	570.12
356.853	567.12
357.08	555.12
357.307	559.12
357.534	551.12
357.761	567.12
357.988	563.12
358.215	562.12
358.441	580.12
358.668	561.12
358.895	563.12
359.122	550.12
359.349	563.12
359.576	569.12
359.802	562.12
360.029	559.12
360.256	559.12
360.483	590.12
360.709	567.12
360.936	543.12
361.163	552.12
361.39	543.12
361.616	575.12
361.843	577.12
362.07	564.12
362.296	573.12
362.523	559.12
362.749	556.12
362.976	575.12
363.203	558.12
363.429	571.12
363.656	546.12
363.882	572.12
364.109	559.12
364.335	560.12
364.562	556.12
364.788	556.12
365.015	552.12
365.241	531.12
365.468	564.12
365.694	553.12
365.92	533.12
366.147	542.12
366.373	555.12
366.599	561.12
366.826	559.12
367.052	568.12
367.278	546.12
367.505	548.12
367.731	575.12
367.957	567.12
368.184	572.12
368.41	568.12
368.636	572.12
368.862	544.12
369.089	565.12
369.315	570.12
369.541	548.12
369.767	568.12
369.993	575.12
370.219	576.12
370.445	590.12
370.672	581.12
370.898	591.12
371.124	601.12
371.35	593.12
371.576	606.12
371.802	595.12
372.028	580.12
372.254	608.12
372.48	601.12
372.706	618.12
372.932	623.12
373.158	630.12
373.384	608.12
373.61	608.12
373.835	622.12
374.061	609.12
374.287	619.12
374.513	608.12
374.739	636.12
374.965	641.12
375.191	693.12
375.416	665.12
375.642	633.12
375.868	651.12
376.094	629.12
376.319	634.12
376.545	616.12
376.771	603.12
376.997	628.12
377.222	625.12
377.448	611.12
377.674	600.12
377.899	590.12
378.125	612.12
378.35	590.12
378.576	590.12
378.802	626.12
379.027	584.12
379.253	618.12
379.478	607.12
379.704	564.12
379.929	619.12
380.155	580.12
380.38	598.12
380.606	618.12
380.831	614.12
381.057	594.12
381.282	596.12
381.507	603.12
381.733	595.12
381.958	601.12
382.184	618.12
382.409	620.12
382.634	617.12
382.86	609.12
383.085	652.12
383.31	639.12
383.535	659.12
383.761	647.12
383.986	683.12
384.211	684.12
384.436	678.12
384.662	700.12
384.887	731.12
385.112	721.12
385.337	732.12
385.562	698.12
385.787	724.12
386.013	718.12
386.238	717.12
386.463	741.12
386.688	732.12
386.913	705.12
387.138	736.12
387.363	710.12
387.588	706.12
387.813	692.12
388.038	695.12
388.263	699.12
388.488	722.12
388.713	681.12
388.938	695.12
389.163	695.12
389.387	712.12
389.612	716.12
389.837	672.12
390.062	699.12
390.287	707.12
390.512	692.12
390.736	698.12
390.961	728.12
391.186	710.12
391.411	752.12
391.636	773.12
391.86	795.12
392.085	804.12
392.31	799.12
392.534	781.12
392.759	771.12
392.984	769.12
393.208	734.12
393.433	795.12
393.658	761.12
393.882	760.12
394.107	771.12
394.331	787.12
394.556	774.12
394.78	772.12
395.005	762.12
395.229	767.12
395.454	799.12
395.678	809.12
395.903	829.12
396.127	790.12
396.352	776.12
396.576	745.12
396.801	746.12
397.025	770.12
397.249	774.12
397.474	792.12
397.698	810.12
397.922	791.12
398.147	801.12
398.371	820.12
398.595	823.12
398.82	865.12
399.044	916.12
399.268	996.12
399.492	1184.12
399.717	1384.12
399.941	1393.12
400.165	1164.12
400.389	1061.12
400.613	971.12
400.837	933.12
401.062	873.12
401.286	887.12
401.51	854.12
401.734	895.12
401.958	888.12
402.182	924.12
402.406	927.12
402.63	941.12
402.854	967.12
403.078	960.12
403.302	1018.12
403.526	1043.12
403.75	1084.12
403.974	1074.12
404.198	1076.12
404.422	1091.12
404.645	1043.12
404.869	1013.12
405.093	1031.12
405.317	1003.12
405.541	1013.12
405.765	988.12
405.988	1002.12
406.212	977.12
406.436	961.12
406.66	992.12
406.883	1008.12
407.107	1080.12
407.331	1140.12
407.555	1191.12
407.778	1185.12
408.002	1108.12
408.226	1115.12
408.449	1090.12
408.673	1053.12
408.896	1028.12
409.12	1029.12
409.344	1048.12
409.567	1041.12
409.791	1081.12
410.014	1022.12
410.238	1023.12
410.461	1027.12
410.685	1032.12
410.908	988.12
411.132	971.12
411.355	945.12
411.578	939.12
411.802	954.12
412.025	943.12
412.249	949.12
412.472	947.12
412.695	916.12
412.919	918.12
413.142	868.12
413.365	897.12
413.589	919.12
413.812	897.12
414.035	865.12
414.258	896.12
414.482	903.12
414.705	902.12
414.928	939.12
415.151	911.12
415.374	933.12
415.597	896.12
415.821	903.12
416.044	911.12
416.267	903.12
416.49	916.12
416.713	917.12
416.936	907.12
417.159	895.12
417.382	905.12
417.605	880.12
417.828	898.12
418.051	934.12
418.274	925.12
418.497	907.12
418.72	927.12
418.943	947.12
419.166	1011.12
419.389	1054.12
419.611	1024.12
419.834	977.12
420.057	945.12
420.28	921.12
420.503	893.12
420.726	882.12
420.948	911.12
421.171	875.12
421.394	919.12
421.617	888.12
421.839	931.12
422.062	887.12
422.285	917.12
422.507	969.12
422.73	968.12
422.953	957.12
423.175	977.12
423.398	995.12
423.621	964.12
423.843	976.12
424.066	984.12
424.288	951.12
424.511	979.12
424.733	941.12
424.956	962.12
425.178	922.12
425.401	911.12
425.623	904.12
425.846	888.12
426.068	901.12
426.291	866.12
426.513	889.12
426.735	847.12
426.958	845.12
427.18	844.12
427.402	843.12
427.625	840.12
427.847	811.12
428.069	834.12
428.292	819.12
428.514	809.12
428.736	807.12
428.958	816.12
429.181	798.12
429.403	827.12
429.625	793.12
429.847	804.12
430.069	802.12
430.292	818.12
430.514	783.12
430.736	812.12
430.958	814.12
431.18	802.12
431.402	778.12
431.624	805.12
431.846	804.12
432.068	841.12
432.29	828.12
432.512	809.12
432.734	846.12
432.956	803.12
433.178	840.12
433.4	839.12
433.622	842.12
433.844	809.12
434.066	845.12
434.287	828.12
434.509	867.12
434.731	911.12
434.953	945.12
435.175	936.12
435.397	949.12
435.618	888.12
435.84	860.12
436.062	856.12
436.284	842.12
436.505	818.12
436.727	825.12
436.949	812.12
437.17	829.12
437.392	820.12
437.614	808.12
437.835	769.12
438.057	807.12
438.278	794.12
438.5	794.12
438.721	787.12
438.943	824.12
439.165	798.12
439.386	794.12
439.608	836.12
439.829	838.12
440.05	848.12
440.272	855.12
440.493	845.12
440.715	847.12
440.936	857.12
441.158	892.12
441.379	895.12
441.6	941.12
441.822	955.12
442.043	961.12
442.264	916.12
442.486	912.12
442.707	960.12
442.928	943.12
443.149	924.12
443.371	905.12
443.592	916.12
443.813	923.12
444.034	951.12
444.255	937.12
444.476	1012.12
444.698	1091.12
444.919	1136.12
445.14	1245.12
445.361	1063.12
445.582	963.12
445.803	913.12
446.024	875.12
446.245	872.12
446.466	871.12
446.687	853.12
446.908	838.12
447.129	819.12
447.35	823.12
447.571	830.12
447.792	777.12
448.013	786.12
448.234	796.12
448.455	789.12
448.675	808.12
448.896	780.12
449.117	770.12
449.338	782.12
449.559	771.12
449.779	754.12
450	770.12
450.221	770.12
450.442	773.12
450.662	791.12
450.883	801.12
451.104	819.12
451.324	823.12
451.545	799.12
451.766	799.12
451.986	806.12
452.207	764.12
452.428	782.12
452.648	772.12
452.869	792.12
453.089	791.12
453.31	758.12
453.53	765.12
453.751	743.12
453.971	745.12
454.192	756.12
454.412	719.12
454.633	735.12
454.853	717.12
455.073	746.12
455.294	708.12
455.514	706.12
455.734	711.12
455.955	703.12
456.175	715.12
456.395	722.12
456.616	703.12
456.836	726.12
457.056	712.12
457.276	711.12
457.497	705.12
457.717	716.12
457.937	702.12
458.157	734.12
458.377	736.12
458.598	745.12
458.818	732.12
459.038	779.12
459.258	840.12
459.478	839.12
459.698	847.12
459.918	891.12
460.138	896.12
460.358	969.12
460.578	1001.12
460.798	997.12
461.018	1007.12
461.238	972.12
461.458	982.12
461.678	967.12
461.898	971.12
462.118	1010.12
462.338	1045.12
462.558	1079.12
462.777	1144.12
462.997	1228.12
463.217	1365.12
463.437	1403.12
463.657	1236.12
463.876	1178.12
464.096	1161.12
464.316	1165.12
464.536	1171.12
464.755	1140.12
464.975	1100.12
465.195	1009.12
465.414	991.12
465.634	898.12
465.854	879.12
466.073	844.12
466.293	863.12
466.512	842.12
466.732	836.12
466.951	830.12
467.171	831.12
467.391	826.12
467.61	808.12
467.829	850.12
468.049	799.12
468.268	769.12
468.488	739.12
468.707	773.12
468.927	769.12
469.146	778.12
469.365	801.12
469.585	787.12
469.804	837.12
470.023	827.12
470.243	827.12
470.462	839.12
470.681	856.12
470.901	827.12
471.12	835.12
471.339	822.12
471.558	831.12
471.777	782.12
471.997	786.12
472.216	769.12
472.435	746.12
472.654	746.12
472.873	756.12
473.092	746.12
473.311	728.12
473.53	747.12
473.749	767.12
473.968	728.12
474.187	743.12
474.406	740.12
474.625	747.12
474.844	746.12
475.063	762.12
475.282	764.12
475.501	752.12
475.72	751.12
475.939	791.12
476.158	768.12
476.377	785.12
476.596	760.12
476.814	808.12
477.033	768.12
477.252	806.12
477.471	845.12
477.69	838.12
477.908	869.12
478.127	902.12
478.346	903.12
478.564	939.12
478.783	901.12
479.002	931.12
479.22	960.12
479.439	933.12
479.658	920.12
479.876	911.12
480.095	946.12
480.313	1000.12
480.532	1045.12
480.751	1009.12
480.969	967.12
481.188	929.12
481.406	896.12
481.624	851.12
481.843	855.12
482.061	835.12
482.28	867.12
482.498	816.12
482.717	861.12
482.935	839.12
483.153	855.12
483.372	854.12
483.59	860.12
483.808	857.12
484.027	863.12
484.245	882.12
484.463	879.12
484.681	895.12
484.9	891.12
485.118	897.12
485.336	901.12
485.554	906.12
485.772	920.12
485.99	931.12
486.209	917.12
486.427	908.12
486.645	944.12
486.863	911.12
487.081	911.12
487.299	936.12
487.517	911.12
487.735	909.12
487.953	920.12
488.171	919.12
488.389	898.12
488.607	926.12
488.825	888.12
489.043	891.12
489.261	890.12
489.479	883.12
489.696	889.12
489.914	910.12
490.132	891.12
490.35	920.12
490.568	909.12
490.786	896.12
491.003	922.12
491.221	935.12
491.439	918.12
491.657	933.12
491.874	905.12
492.092	923.12
492.31	927.12
492.527	949.12
492.745	944.12
492.963	916.12
493.18	949.12
493.398	924.12
493.615	944.12
493.833	935.12
494.05	937.12
494.268	954.12
494.485	955.12
494.703	975.12
494.92	963.12
495.138	956.12
495.355	967.12
495.573	959.12
495.79	952.12
496.008	980.12
496.225	972.12
496.442	972.12
496.66	1010.12
496.877	967.12
497.094	1045.12
497.312	1034.12
497.529	1059.12
497.746	1060.12
497.963	1104.12
498.181	1110.12
498.398	1141.12
498.615	1270.12
498.832	1345.12
499.049	1437.12
499.267	1607.12
499.484	1711.12
499.701	1906.12
499.918	2166.12
500.135	2468.12
500.352	2924.12
