Data from Ni(NO3)2@0.25M.TitratingCurve.Agarose3%dH2O.NegLispCup.LampEnergy10.LIBS07252019_HRD10591_18-03-15-565.txt Node
Date: Thu Jul 25 18:03:15 EDT 2019
User: cochatt
Spectrometer: HR+D1059
Trigger mode: 1
Integration Time (sec): 1.000000E-1
Scans to average: 1
Electric dark correction enabled: true
Nonlinearity correction enabled: false
Boxcar width: 0
XAxis mode: Wavelengths
Number of Pixels in Spectrum: 2048
>>>>>Begin Spectral Data<<<<<
223.165	-21.88
223.4	-21.88
223.635	-21.88
223.869	-17.88
224.104	-18.88
224.338	-22.88
224.573	-21.88
224.808	-18.88
225.042	0.12
225.277	-15.88
225.511	12.12
225.746	-2.88
225.98	2.12
226.215	22.12
226.449	16.12
226.683	16.12
226.918	32.12
227.152	40.12
227.387	35.12
227.621	48.12
227.856	36.12
228.09	53.12
228.324	52.12
228.559	66.12
228.793	84.12
229.027	116.12
229.262	114.12
229.496	116.12
229.73	115.12
229.964	123.12
230.199	132.12
230.433	129.12
230.667	128.12
230.901	143.12
231.136	137.12
231.37	121.12
231.604	132.12
231.838	138.12
232.072	157.12
232.306	146.12
232.541	149.12
232.775	143.12
233.009	143.12
233.243	158.12
233.477	137.12
233.711	144.12
233.945	148.12
234.179	142.12
234.413	144.12
234.647	150.12
234.881	132.12
235.115	135.12
235.349	150.12
235.583	157.12
235.817	134.12
236.051	137.12
236.285	142.12
236.519	158.12
236.753	153.12
236.987	156.12
237.221	156.12
237.455	149.12
237.689	154.12
237.922	145.12
238.156	155.12
238.39	163.12
238.624	162.12
238.858	153.12
239.091	154.12
239.325	142.12
239.559	181.12
239.793	156.12
240.027	158.12
240.26	187.12
240.494	175.12
240.728	158.12
240.961	188.12
241.195	186.12
241.429	187.12
241.662	175.12
241.896	194.12
242.13	175.12
242.363	194.12
242.597	189.12
242.83	186.12
243.064	184.12
243.298	186.12
243.531	205.12
243.765	204.12
243.998	204.12
244.232	191.12
244.465	205.12
244.699	183.12
244.932	201.12
245.166	194.12
245.399	204.12
245.633	205.12
245.866	194.12
246.099	215.12
246.333	215.12
246.566	215.12
246.8	207.12
247.033	232.12
247.266	250.12
247.5	227.12
247.733	218.12
247.966	230.12
248.2	243.12
248.433	230.12
248.666	228.12
248.899	245.12
249.133	236.12
249.366	256.12
249.599	231.12
249.832	230.12
250.066	256.12
250.299	243.12
250.532	249.12
250.765	248.12
250.998	270.12
251.231	274.12
251.465	274.12
251.698	283.12
251.931	281.12
252.164	295.12
252.397	293.12
252.63	280.12
252.863	304.12
253.096	291.12
253.329	299.12
253.562	299.12
253.795	284.12
254.028	290.12
254.261	301.12
254.494	325.12
254.727	336.12
254.96	306.12
255.193	332.12
255.426	318.12
255.659	327.12
255.892	320.12
256.124	328.12
256.357	353.12
256.59	347.12
256.823	329.12
257.056	341.12
257.289	351.12
257.521	364.12
257.754	346.12
257.987	363.12
258.22	367.12
258.452	349.12
258.685	347.12
258.918	354.12
259.151	351.12
259.383	375.12
259.616	370.12
259.849	379.12
260.081	382.12
260.314	387.12
260.547	377.12
260.779	375.12
261.012	384.12
261.244	362.12
261.477	386.12
261.71	381.12
261.942	365.12
262.175	386.12
262.407	386.12
262.64	379.12
262.872	383.12
263.105	382.12
263.337	381.12
263.57	398.12
263.802	411.12
264.035	392.12
264.267	420.12
264.499	393.12
264.732	392.12
264.964	425.12
265.197	420.12
265.429	411.12
265.661	410.12
265.894	406.12
266.126	399.12
266.358	426.12
266.591	413.12
266.823	427.12
267.055	444.12
267.287	419.12
267.52	434.12
267.752	436.12
267.984	420.12
268.216	437.12
268.448	461.12
268.681	448.12
268.913	434.12
269.145	468.12
269.377	462.12
269.609	470.12
269.841	444.12
270.073	461.12
270.306	466.12
270.538	452.12
270.77	458.12
271.002	458.12
271.234	461.12
271.466	436.12
271.698	452.12
271.93	470.12
272.162	475.12
272.394	467.12
272.626	471.12
272.858	472.12
273.09	470.12
273.322	468.12
273.553	448.12
273.785	474.12
274.017	462.12
274.249	476.12
274.481	484.12
274.713	475.12
274.945	467.12
275.176	483.12
275.408	484.12
275.64	492.12
275.872	472.12
276.104	496.12
276.335	488.12
276.567	478.12
276.799	506.12
277.031	468.12
277.262	490.12
277.494	495.12
277.726	482.12
277.957	503.12
278.189	501.12
278.421	494.12
278.652	485.12
278.884	509.12
279.115	498.12
279.347	500.12
279.579	494.12
279.81	510.12
280.042	531.12
280.273	522.12
280.505	515.12
280.736	528.12
280.968	546.12
281.199	527.12
281.431	517.12
281.662	507.12
281.894	518.12
282.125	512.12
282.356	538.12
282.588	535.12
282.819	524.12
283.051	544.12
283.282	541.12
283.513	528.12
283.745	549.12
283.976	532.12
284.207	539.12
284.439	558.12
284.67	559.12
284.901	533.12
285.132	542.12
285.364	544.12
285.595	542.12
285.826	528.12
286.057	551.12
286.288	564.12
286.52	552.12
286.751	563.12
286.982	557.12
287.213	562.12
287.444	559.12
287.675	550.12
287.906	538.12
288.138	554.12
288.369	560.12
288.6	553.12
288.831	566.12
289.062	562.12
289.293	575.12
289.524	558.12
289.755	569.12
289.986	568.12
290.217	555.12
290.448	563.12
290.679	555.12
290.91	566.12
291.141	562.12
291.371	577.12
291.602	580.12
291.833	561.12
292.064	559.12
292.295	570.12
292.526	577.12
292.757	563.12
292.987	575.12
293.218	552.12
293.449	580.12
293.68	578.12
293.91	575.12
294.141	564.12
294.372	589.12
294.603	586.12
294.833	575.12
295.064	588.12
295.295	567.12
295.525	565.12
295.756	568.12
295.987	563.12
296.217	574.12
296.448	594.12
296.679	594.12
296.909	598.12
297.14	590.12
297.37	572.12
297.601	573.12
297.831	606.12
298.062	616.12
298.292	612.12
298.523	618.12
298.753	636.12
298.984	635.12
299.214	611.12
299.445	612.12
299.675	603.12
299.905	639.12
300.136	632.12
300.366	630.12
300.597	648.12
300.827	622.12
301.057	622.12
301.288	650.12
301.518	644.12
301.748	655.12
301.979	651.12
302.209	647.12
302.439	651.12
302.669	641.12
302.9	627.12
303.13	654.12
303.36	654.12
303.59	654.12
303.82	629.12
304.051	639.12
304.281	684.12
304.511	662.12
304.741	659.12
304.971	668.12
305.201	661.12
305.431	662.12
305.661	668.12
305.891	663.12
306.121	668.12
306.352	630.12
306.582	667.12
306.812	646.12
307.042	646.12
307.272	661.12
307.502	647.12
307.731	649.12
307.961	634.12
308.191	639.12
308.421	655.12
308.651	667.12
308.881	652.12
309.111	653.12
309.341	648.12
309.571	669.12
309.8	688.12
310.03	678.12
310.26	695.12
310.49	715.12
310.72	695.12
310.949	678.12
311.179	692.12
311.409	717.12
311.639	694.12
311.868	692.12
312.098	672.12
312.328	690.12
312.557	711.12
312.787	715.12
313.017	719.12
313.246	726.12
313.476	730.12
313.706	712.12
313.935	719.12
314.165	718.12
314.394	734.12
314.624	743.12
314.853	734.12
315.083	731.12
315.312	746.12
315.542	735.12
315.771	750.12
316.001	774.12
316.23	761.12
316.46	783.12
316.689	782.12
316.919	755.12
317.148	762.12
317.377	781.12
317.607	760.12
317.836	750.12
318.065	759.12
318.295	745.12
318.524	772.12
318.753	774.12
318.983	785.12
319.212	750.12
319.441	792.12
319.67	793.12
319.9	824.12
320.129	772.12
320.358	798.12
320.587	803.12
320.816	836.12
321.046	834.12
321.275	835.12
321.504	804.12
321.733	831.12
321.962	825.12
322.191	838.12
322.42	830.12
322.649	877.12
322.878	860.12
323.108	868.12
323.337	879.12
323.566	884.12
323.795	870.12
324.024	886.12
324.253	876.12
324.482	887.12
324.71	908.12
324.939	892.12
325.168	926.12
325.397	886.12
325.626	938.12
325.855	915.12
326.084	936.12
326.313	955.12
326.542	950.12
326.77	946.12
326.999	965.12
327.228	919.12
327.457	964.12
327.686	925.12
327.914	963.12
328.143	988.12
328.372	959.12
328.6	990.12
328.829	952.12
329.058	955.12
329.287	969.12
329.515	989.12
329.744	1002.12
329.972	1002.12
330.201	1004.12
330.43	988.12
330.658	994.12
330.887	1032.12
331.115	1026.12
331.344	1025.12
331.572	1085.12
331.801	1058.12
332.03	1080.12
332.258	1051.12
332.486	1106.12
332.715	1081.12
332.943	1081.12
333.172	1132.12
333.4	1152.12
333.629	1181.12
333.857	1190.12
334.085	1242.12
334.314	1208.12
334.542	1192.12
334.771	1206.12
334.999	1172.12
335.227	1213.12
335.455	1245.12
335.684	1236.12
335.912	1194.12
336.14	1208.12
336.369	1211.12
336.597	1239.12
336.825	1216.12
337.053	1214.12
337.281	1229.12
337.51	1199.12
337.738	1150.12
337.966	1169.12
338.194	1205.12
338.422	1162.12
338.65	1126.12
338.878	1147.12
339.106	1142.12
339.334	1157.12
339.562	1125.12
339.79	1133.12
340.018	1139.12
340.246	1110.12
340.474	1109.12
340.702	1111.12
340.93	1113.12
341.158	1123.12
341.386	1124.12
341.614	1155.12
341.842	1118.12
342.07	1110.12
342.298	1091.12
342.526	1120.12
342.754	1101.12
342.981	1116.12
343.209	1125.12
343.437	1178.12
343.665	1238.12
343.893	1218.12
344.12	1206.12
344.348	1251.12
344.576	1242.12
344.804	1224.12
345.031	1158.12
345.259	1146.12
345.487	1159.12
345.714	1164.12
345.942	1127.12
346.17	1160.12
346.397	1147.12
346.625	1069.12
346.853	1048.12
347.08	1067.12
347.308	1067.12
347.535	1089.12
347.763	1081.12
347.99	1054.12
348.218	1068.12
348.445	1079.12
348.673	1044.12
348.9	1037.12
349.128	1074.12
349.355	1074.12
349.583	1102.12
349.81	1040.12
350.037	1070.12
350.265	1008.12
350.492	1076.12
350.72	1030.12
350.947	1014.12
351.174	1066.12
351.402	1056.12
351.629	1091.12
351.856	1060.12
352.083	1070.12
352.311	1053.12
352.538	1055.12
352.765	1093.12
352.992	1041.12
353.22	1014.12
353.447	1010.12
353.674	1002.12
353.901	1055.12
354.128	1013.12
354.355	1010.12
354.583	1045.12
354.81	991.12
355.037	1010.12
355.264	1032.12
355.491	995.12
355.718	1023.12
355.945	1022.12
356.172	1018.12
356.399	1029.12
356.626	1050.12
356.853	1053.12
357.08	1018.12
357.307	1064.12
357.534	1012.12
357.761	1022.12
357.988	1028.12
358.215	1006.12
358.441	1006.12
358.668	1017.12
358.895	1008.12
359.122	1026.12
359.349	1032.12
359.576	1025.12
359.802	1022.12
360.029	1030.12
360.256	1012.12
360.483	988.12
360.709	1022.12
360.936	1030.12
361.163	1011.12
361.39	1059.12
361.616	1042.12
361.843	1071.12
362.07	1040.12
362.296	1068.12
362.523	984.12
362.749	1006.12
362.976	1011.12
363.203	988.12
363.429	1026.12
363.656	1016.12
363.882	1008.12
364.109	1019.12
364.335	1030.12
364.562	1023.12
364.788	984.12
365.015	1019.12
365.241	991.12
365.468	1004.12
365.694	1012.12
365.92	1006.12
366.147	1010.12
366.373	1000.12
366.599	1001.12
366.826	989.12
367.052	1007.12
367.278	1021.12
367.505	1020.12
367.731	1026.12
367.957	1028.12
368.184	1000.12
368.41	1012.12
368.636	1023.12
368.862	1053.12
369.089	1023.12
369.315	1036.12
369.541	1013.12
369.767	1019.12
369.993	1030.12
370.219	1030.12
370.445	1019.12
370.672	1027.12
370.898	1025.12
371.124	1038.12
371.35	1041.12
371.576	1056.12
371.802	1068.12
372.028	1092.12
372.254	1056.12
372.48	1037.12
372.706	1074.12
372.932	1066.12
373.158	1059.12
373.384	1068.12
373.61	1081.12
373.835	1050.12
374.061	1038.12
374.287	1056.12
374.513	1071.12
374.739	1073.12
374.965	1082.12
375.191	1088.12
375.416	1101.12
375.642	1084.12
375.868	1069.12
376.094	1066.12
376.319	1046.12
376.545	1050.12
376.771	1026.12
376.997	1039.12
377.222	1017.12
377.448	1036.12
377.674	1051.12
377.899	1030.12
378.125	1021.12
378.35	985.12
378.576	1005.12
378.802	981.12
379.027	1057.12
379.253	980.12
379.478	1015.12
379.704	1032.12
379.929	1004.12
380.155	1022.12
380.38	1004.12
380.606	990.12
380.831	1015.12
381.057	1042.12
381.282	990.12
381.507	1035.12
381.733	1035.12
381.958	997.12
382.184	1051.12
382.409	1046.12
382.634	1070.12
382.86	1034.12
383.085	1063.12
383.31	1062.12
383.535	1066.12
383.761	1084.12
383.986	1092.12
384.211	1083.12
384.436	1118.12
384.662	1079.12
384.887	1120.12
385.112	1108.12
385.337	1131.12
385.562	1169.12
385.787	1140.12
386.013	1173.12
386.238	1172.12
386.463	1175.12
386.688	1192.12
386.913	1156.12
387.138	1161.12
387.363	1174.12
387.588	1160.12
387.813	1159.12
388.038	1168.12
388.263	1159.12
388.488	1160.12
388.713	1181.12
388.938	1152.12
389.163	1199.12
389.387	1170.12
389.612	1160.12
389.837	1160.12
390.062	1142.12
390.287	1199.12
390.512	1187.12
390.736	1205.12
390.961	1205.12
391.186	1199.12
391.411	1221.12
391.636	1276.12
391.86	1261.12
392.085	1278.12
392.31	1240.12
392.534	1262.12
392.759	1248.12
392.984	1229.12
393.208	1229.12
393.433	1259.12
393.658	1232.12
393.882	1213.12
394.107	1231.12
394.331	1229.12
394.556	1256.12
394.78	1238.12
395.005	1248.12
395.229	1261.12
395.454	1273.12
395.678	1308.12
395.903	1277.12
396.127	1272.12
396.352	1228.12
396.576	1270.12
396.801	1264.12
397.025	1290.12
397.249	1337.12
397.474	1342.12
397.698	1339.12
397.922	1380.12
398.147	1350.12
398.371	1414.12
398.595	1390.12
398.82	1450.12
399.044	1512.12
399.268	1594.12
399.492	1670.12
399.717	1724.12
399.941	1758.12
400.165	1709.12
400.389	1662.12
400.613	1618.12
400.837	1570.12
401.062	1535.12
401.286	1459.12
401.51	1451.12
401.734	1440.12
401.958	1496.12
402.182	1458.12
402.406	1443.12
402.63	1481.12
402.854	1474.12
403.078	1478.12
403.302	1462.12
403.526	1470.12
403.75	1479.12
403.974	1492.12
404.198	1491.12
404.422	1514.12
404.645	1507.12
404.869	1505.12
405.093	1529.12
405.317	1506.12
405.541	1544.12
405.765	1515.12
405.988	1504.12
406.212	1605.12
406.436	1574.12
406.66	1609.12
406.883	1628.12
407.107	1679.12
407.331	1684.12
407.555	1751.12
407.778	1730.12
408.002	1671.12
408.226	1703.12
408.449	1723.12
408.673	1627.12
408.896	1597.12
409.12	1596.12
409.344	1618.12
409.567	1629.12
409.791	1591.12
410.014	1573.12
410.238	1598.12
410.461	1576.12
410.685	1587.12
410.908	1558.12
411.132	1540.12
411.355	1509.12
411.578	1520.12
411.802	1535.12
412.025	1475.12
412.249	1536.12
412.472	1520.12
412.695	1477.12
412.919	1509.12
413.142	1494.12
413.365	1499.12
413.589	1508.12
413.812	1491.12
414.035	1481.12
414.258	1506.12
414.482	1493.12
414.705	1495.12
414.928	1524.12
415.151	1482.12
415.374	1482.12
415.597	1468.12
415.821	1455.12
416.044	1474.12
416.267	1425.12
416.49	1428.12
416.713	1445.12
416.936	1475.12
417.159	1456.12
417.382	1451.12
417.605	1411.12
417.828	1424.12
418.051	1460.12
418.274	1468.12
418.497	1474.12
418.72	1481.12
418.943	1450.12
419.166	1516.12
419.389	1619.12
419.611	1637.12
419.834	1599.12
420.057	1531.12
420.28	1525.12
420.503	1476.12
420.726	1433.12
420.948	1460.12
421.171	1473.12
421.394	1474.12
421.617	1484.12
421.839	1472.12
422.062	1462.12
422.285	1459.12
422.507	1470.12
422.73	1498.12
422.953	1487.12
423.175	1461.12
423.398	1484.12
423.621	1443.12
423.843	1489.12
424.066	1475.12
424.288	1466.12
424.511	1475.12
424.733	1466.12
424.956	1484.12
425.178	1458.12
425.401	1462.12
425.623	1497.12
425.846	1450.12
426.068	1478.12
426.291	1451.12
426.513	1437.12
426.735	1394.12
426.958	1431.12
427.18	1430.12
427.402	1447.12
427.625	1414.12
427.847	1424.12
428.069	1402.12
428.292	1417.12
428.514	1379.12
428.736	1406.12
428.958	1432.12
429.181	1378.12
429.403	1393.12
429.625	1438.12
429.847	1401.12
430.069	1400.12
430.292	1408.12
430.514	1345.12
430.736	1406.12
430.958	1406.12
431.18	1379.12
431.402	1404.12
431.624	1406.12
431.846	1395.12
432.068	1434.12
432.29	1434.12
432.512	1402.12
432.734	1426.12
432.956	1400.12
433.178	1439.12
433.4	1424.12
433.622	1447.12
433.844	1455.12
434.066	1466.12
434.287	1451.12
434.509	1482.12
434.731	1466.12
434.953	1496.12
435.175	1504.12
435.397	1527.12
435.618	1465.12
435.84	1396.12
436.062	1447.12
436.284	1408.12
436.505	1414.12
436.727	1380.12
436.949	1421.12
437.17	1412.12
437.392	1414.12
437.614	1402.12
437.835	1368.12
438.057	1354.12
438.278	1353.12
438.5	1381.12
438.721	1388.12
438.943	1368.12
439.165	1402.12
439.386	1388.12
439.608	1414.12
439.829	1390.12
440.05	1396.12
440.272	1396.12
440.493	1430.12
440.715	1423.12
440.936	1476.12
441.158	1451.12
441.379	1482.12
441.6	1481.12
441.822	1518.12
442.043	1521.12
442.264	1499.12
442.486	1490.12
442.707	1491.12
442.928	1482.12
443.149	1509.12
443.371	1506.12
443.592	1519.12
443.813	1514.12
444.034	1571.12
444.255	1558.12
444.476	1587.12
444.698	1604.12
444.919	1632.12
445.14	1708.12
445.361	1619.12
445.582	1565.12
445.803	1505.12
446.024	1481.12
446.245	1514.12
446.466	1513.12
446.687	1458.12
446.908	1444.12
447.129	1411.12
447.35	1415.12
447.571	1396.12
447.792	1351.12
448.013	1370.12
448.234	1356.12
448.455	1347.12
448.675	1321.12
448.896	1319.12
449.117	1304.12
449.338	1324.12
449.559	1288.12
449.779	1283.12
450	1287.12
450.221	1300.12
450.442	1341.12
450.662	1349.12
450.883	1296.12
451.104	1351.12
451.324	1295.12
451.545	1295.12
451.766	1313.12
451.986	1285.12
452.207	1263.12
452.428	1300.12
452.648	1271.12
452.869	1256.12
453.089	1256.12
453.31	1273.12
453.53	1231.12
453.751	1215.12
453.971	1238.12
454.192	1247.12
454.412	1210.12
454.633	1245.12
454.853	1268.12
455.073	1250.12
455.294	1221.12
455.514	1251.12
455.734	1245.12
455.955	1235.12
456.175	1245.12
456.395	1242.12
456.616	1205.12
456.836	1234.12
457.056	1258.12
457.276	1160.12
457.497	1234.12
457.717	1243.12
457.937	1248.12
458.157	1292.12
458.377	1302.12
458.598	1318.12
458.818	1322.12
459.038	1333.12
459.258	1357.12
459.478	1391.12
459.698	1440.12
459.918	1494.12
460.138	1460.12
460.358	1546.12
460.578	1503.12
460.798	1574.12
461.018	1563.12
461.238	1601.12
461.458	1552.12
461.678	1540.12
461.898	1623.12
462.118	1626.12
462.338	1629.12
462.558	1674.12
462.777	1733.12
462.997	1768.12
463.217	1809.12
463.437	1833.12
463.657	1802.12
463.876	1769.12
464.096	1770.12
464.316	1745.12
464.536	1748.12
464.755	1698.12
464.975	1694.12
465.195	1615.12
465.414	1570.12
465.634	1497.12
465.854	1491.12
466.073	1420.12
466.293	1435.12
466.512	1430.12
466.732	1400.12
466.951	1399.12
467.171	1360.12
467.391	1385.12
467.61	1343.12
467.829	1357.12
468.049	1332.12
468.268	1336.12
468.488	1340.12
468.707	1310.12
468.927	1338.12
469.146	1359.12
469.365	1359.12
469.585	1334.12
469.804	1350.12
470.023	1380.12
470.243	1403.12
470.462	1386.12
470.681	1380.12
470.901	1398.12
471.12	1396.12
471.339	1360.12
471.558	1406.12
471.777	1367.12
471.997	1354.12
472.216	1351.12
472.435	1344.12
472.654	1345.12
472.873	1295.12
473.092	1316.12
473.311	1374.12
473.53	1340.12
473.749	1299.12
473.968	1339.12
474.187	1333.12
474.406	1360.12
474.625	1366.12
474.844	1343.12
475.063	1372.12
475.282	1378.12
475.501	1363.12
475.72	1364.12
475.939	1388.12
476.158	1400.12
476.377	1408.12
476.596	1407.12
476.814	1428.12
477.033	1416.12
477.252	1436.12
477.471	1472.12
477.69	1473.12
477.908	1525.12
478.127	1548.12
478.346	1516.12
478.564	1551.12
478.783	1564.12
479.002	1599.12
479.22	1615.12
479.439	1617.12
479.658	1623.12
479.876	1577.12
480.095	1632.12
480.313	1658.12
480.532	1658.12
480.751	1662.12
480.969	1587.12
481.188	1598.12
481.406	1588.12
481.624	1566.12
481.843	1551.12
482.061	1546.12
482.28	1556.12
482.498	1573.12
482.717	1562.12
482.935	1538.12
483.153	1565.12
483.372	1591.12
483.59	1560.12
483.808	1549.12
484.027	1513.12
484.245	1614.12
484.463	1541.12
484.681	1598.12
484.9	1575.12
485.118	1559.12
485.336	1585.12
485.554	1588.12
485.772	1591.12
485.99	1584.12
486.209	1564.12
486.427	1594.12
486.645	1608.12
486.863	1600.12
487.081	1619.12
487.299	1552.12
487.517	1584.12
487.735	1616.12
487.953	1600.12
488.171	1627.12
488.389	1633.12
488.607	1616.12
488.825	1596.12
489.043	1575.12
489.261	1582.12
489.479	1567.12
489.696	1598.12
489.914	1564.12
490.132	1650.12
490.35	1626.12
490.568	1641.12
490.786	1642.12
491.003	1664.12
491.221	1644.12
491.439	1669.12
491.657	1661.12
491.874	1680.12
