Data from Ni(NO3)2@0.5M.TitratingCurve.Agarose3%dH2O.NegLispCup.LampEnergy10.LIBS07252019_HRD10591_17-58-48-565.txt Node
Date: Thu Jul 25 17:58:48 EDT 2019
User: cochatt
Spectrometer: HR+D1059
Trigger mode: 1
Integration Time (sec): 1.000000E-1
Scans to average: 1
Electric dark correction enabled: true
Nonlinearity correction enabled: false
Boxcar width: 0
XAxis mode: Wavelengths
Number of Pixels in Spectrum: 2048
>>>>>Begin Spectral Data<<<<<
223.165	-6.12
223.4	-6.12
223.635	-6.12
223.869	-26.12
224.104	-19.12
224.338	-15.12
224.573	-26.12
224.808	-8.12
225.042	-9.12
225.277	-2.12
225.511	-10.12
225.746	-4.12
225.98	17.88
226.215	10.88
226.449	28.88
226.683	23.88
226.918	21.88
227.152	22.88
227.387	48.88
227.621	38.88
227.856	50.88
228.09	62.88
228.324	51.88
228.559	52.88
228.793	72.88
229.027	140.88
229.262	158.88
229.496	151.88
229.73	156.88
229.964	193.88
230.199	221.88
230.433	237.88
230.667	231.88
230.901	208.88
231.136	181.88
231.37	178.88
231.604	202.88
231.838	216.88
232.072	230.88
232.306	219.88
232.541	211.88
232.775	174.88
233.009	168.88
233.243	171.88
233.477	162.88
233.711	179.88
233.945	186.88
234.179	175.88
234.413	173.88
234.647	188.88
234.881	200.88
235.115	180.88
235.349	154.88
235.583	187.88
235.817	179.88
236.051	165.88
236.285	178.88
236.519	166.88
236.753	176.88
236.987	172.88
237.221	181.88
237.455	181.88
237.689	180.88
237.922	196.88
238.156	183.88
238.39	174.88
238.624	182.88
238.858	178.88
239.091	199.88
239.325	198.88
239.559	217.88
239.793	243.88
240.027	250.88
240.26	206.88
240.494	188.88
240.728	182.88
240.961	206.88
241.195	199.88
241.429	223.88
241.662	235.88
241.896	256.88
242.13	276.88
242.363	219.88
242.597	202.88
242.83	235.88
243.064	205.88
243.298	228.88
243.531	231.88
243.765	220.88
243.998	234.88
244.232	244.88
244.465	258.88
244.699	221.88
244.932	227.88
245.166	218.88
245.399	249.88
245.633	232.88
245.866	237.88
246.099	239.88
246.333	235.88
246.566	243.88
246.8	246.88
247.033	235.88
247.266	226.88
247.5	235.88
247.733	274.88
247.966	258.88
248.2	246.88
248.433	254.88
248.666	257.88
248.899	269.88
249.133	278.88
249.366	263.88
249.599	265.88
249.832	268.88
250.066	280.88
250.299	278.88
250.532	268.88
250.765	276.88
250.998	293.88
251.231	333.88
251.465	337.88
251.698	313.88
251.931	290.88
252.164	270.88
252.397	307.88
252.63	293.88
252.863	303.88
253.096	302.88
253.329	314.88
253.562	304.88
253.795	316.88
254.028	312.88
254.261	317.88
254.494	314.88
254.727	302.88
254.96	328.88
255.193	323.88
255.426	316.88
255.659	320.88
255.892	321.88
256.124	339.88
256.357	341.88
256.59	332.88
256.823	310.88
257.056	332.88
257.289	339.88
257.521	338.88
257.754	341.88
257.987	329.88
258.22	344.88
258.452	346.88
258.685	335.88
258.918	356.88
259.151	348.88
259.383	348.88
259.616	358.88
259.849	349.88
260.081	346.88
260.314	352.88
260.547	375.88
260.779	371.88
261.012	362.88
261.244	376.88
261.477	368.88
261.71	383.88
261.942	398.88
262.175	396.88
262.407	384.88
262.64	392.88
262.872	381.88
263.105	377.88
263.337	404.88
263.57	383.88
263.802	378.88
264.035	403.88
264.267	408.88
264.499	392.88
264.732	404.88
264.964	400.88
265.197	396.88
265.429	402.88
265.661	412.88
265.894	411.88
266.126	396.88
266.358	407.88
266.591	440.88
266.823	419.88
267.055	386.88
267.287	389.88
267.52	401.88
267.752	422.88
267.984	425.88
268.216	418.88
268.448	423.88
268.681	441.88
268.913	431.88
269.145	425.88
269.377	427.88
269.609	445.88
269.841	424.88
270.073	438.88
270.306	432.88
270.538	438.88
270.77	452.88
271.002	442.88
271.234	447.88
271.466	435.88
271.698	444.88
271.93	445.88
272.162	466.88
272.394	471.88
272.626	447.88
272.858	440.88
273.09	464.88
273.322	452.88
273.553	453.88
273.785	471.88
274.017	454.88
274.249	479.88
274.481	474.88
274.713	460.88
274.945	472.88
275.176	472.88
275.408	481.88
275.64	484.88
275.872	504.88
276.104	477.88
276.335	505.88
276.567	495.88
276.799	503.88
277.031	488.88
277.262	495.88
277.494	467.88
277.726	498.88
277.957	495.88
278.189	527.88
278.421	502.88
278.652	516.88
278.884	509.88
279.115	522.88
279.347	527.88
279.579	514.88
279.81	506.88
280.042	499.88
280.273	528.88
280.505	515.88
280.736	529.88
280.968	536.88
281.199	531.88
281.431	539.88
281.662	518.88
281.894	520.88
282.125	523.88
282.356	546.88
282.588	541.88
282.819	526.88
283.051	542.88
283.282	542.88
283.513	550.88
283.745	551.88
283.976	534.88
284.207	563.88
284.439	558.88
284.67	552.88
284.901	569.88
285.132	542.88
285.364	545.88
285.595	547.88
285.826	532.88
286.057	572.88
286.288	556.88
286.52	569.88
286.751	573.88
286.982	571.88
287.213	543.88
287.444	570.88
287.675	584.88
287.906	574.88
288.138	574.88
288.369	572.88
288.6	579.88
288.831	598.88
289.062	585.88
289.293	586.88
289.524	579.88
289.755	565.88
289.986	598.88
290.217	590.88
290.448	589.88
290.679	581.88
290.91	600.88
291.141	588.88
291.371	584.88
291.602	614.88
291.833	619.88
292.064	588.88
292.295	592.88
292.526	576.88
292.757	588.88
292.987	585.88
293.218	591.88
293.449	605.88
293.68	598.88
293.91	579.88
294.141	578.88
294.372	598.88
294.603	580.88
294.833	628.88
295.064	589.88
295.295	606.88
295.525	607.88
295.756	613.88
295.987	620.88
296.217	603.88
296.448	634.88
296.679	623.88
296.909	608.88
297.14	610.88
297.37	646.88
297.601	629.88
297.831	628.88
298.062	646.88
298.292	646.88
298.523	638.88
298.753	640.88
298.984	647.88
299.214	638.88
299.445	644.88
299.675	652.88
299.905	657.88
300.136	669.88
300.366	694.88
300.597	700.88
300.827	703.88
301.057	661.88
301.288	678.88
301.518	668.88
301.748	671.88
301.979	697.88
302.209	671.88
302.439	685.88
302.669	664.88
302.9	678.88
303.13	652.88
303.36	680.88
303.59	683.88
303.82	688.88
304.051	707.88
304.281	699.88
304.511	662.88
304.741	697.88
304.971	711.88
305.201	732.88
305.431	740.88
305.661	742.88
305.891	734.88
306.121	692.88
306.352	696.88
306.582	686.88
306.812	674.88
307.042	702.88
307.272	682.88
307.502	677.88
307.731	666.88
307.961	691.88
308.191	674.88
308.421	694.88
308.651	716.88
308.881	679.88
309.111	688.88
309.341	708.88
309.571	694.88
309.8	706.88
310.03	764.88
310.26	770.88
310.49	779.88
310.72	734.88
310.949	698.88
311.179	722.88
311.409	709.88
311.639	716.88
311.868	724.88
312.098	718.88
312.328	719.88
312.557	728.88
312.787	738.88
313.017	728.88
313.246	732.88
313.476	778.88
313.706	766.88
313.935	749.88
314.165	742.88
314.394	740.88
314.624	748.88
314.853	732.88
315.083	763.88
315.312	772.88
315.542	759.88
315.771	775.88
316.001	754.88
316.23	756.88
316.46	762.88
316.689	772.88
316.919	743.88
317.148	741.88
317.377	758.88
317.607	786.88
317.836	752.88
318.065	764.88
318.295	748.88
318.524	765.88
318.753	776.88
318.983	780.88
319.212	759.88
319.441	775.88
319.67	782.88
319.9	791.88
320.129	784.88
320.358	802.88
320.587	794.88
320.816	814.88
321.046	801.88
321.275	792.88
321.504	799.88
321.733	823.88
321.962	840.88
322.191	835.88
322.42	834.88
322.649	794.88
322.878	790.88
323.108	795.88
323.337	853.88
323.566	850.88
323.795	830.88
324.024	801.88
324.253	818.88
324.482	846.88
324.71	834.88
324.939	830.88
325.168	853.88
325.397	850.88
325.626	841.88
325.855	838.88
326.084	840.88
326.313	844.88
326.542	837.88
326.77	885.88
326.999	856.88
327.228	869.88
327.457	875.88
327.686	843.88
327.914	859.88
328.143	881.88
328.372	845.88
328.6	854.88
328.829	873.88
329.058	849.88
329.287	864.88
329.515	872.88
329.744	854.88
329.972	900.88
330.201	890.88
330.43	891.88
330.658	903.88
330.887	897.88
331.115	897.88
331.344	909.88
331.572	922.88
331.801	938.88
332.03	924.88
332.258	922.88
332.486	907.88
332.715	924.88
332.943	938.88
333.172	943.88
333.4	967.88
333.629	988.88
333.857	997.88
334.085	1020.88
334.314	984.88
334.542	976.88
334.771	1014.88
334.999	1014.88
335.227	1008.88
335.455	1013.88
335.684	977.88
335.912	1004.88
336.14	1006.88
336.369	1003.88
336.597	1021.88
336.825	1018.88
337.053	1037.88
337.281	1019.88
337.51	1039.88
337.738	1005.88
337.966	1036.88
338.194	1010.88
338.422	1005.88
338.65	970.88
338.878	997.88
339.106	982.88
339.334	1052.88
339.562	1002.88
339.79	957.88
340.018	958.88
340.246	946.88
340.474	939.88
340.702	955.88
340.93	943.88
341.158	958.88
341.386	1036.88
341.614	1068.88
341.842	1010.88
342.07	973.88
342.298	932.88
342.526	983.88
342.754	937.88
342.981	940.88
343.209	954.88
343.437	1016.88
343.665	1017.88
343.893	988.88
344.12	987.88
344.348	1013.88
344.576	1027.88
344.804	1036.88
345.031	973.88
345.259	980.88
345.487	1006.88
345.714	1009.88
345.942	1005.88
346.17	1055.88
346.397	1017.88
346.625	987.88
346.853	925.88
347.08	933.88
347.308	922.88
347.535	922.88
347.763	925.88
347.99	899.88
348.218	912.88
348.445	907.88
348.673	932.88
348.9	942.88
349.128	933.88
349.355	982.88
349.583	957.88
349.81	918.88
350.037	913.88
350.265	880.88
350.492	902.88
350.72	905.88
350.947	916.88
351.174	916.88
351.402	985.88
351.629	996.88
351.856	973.88
352.083	943.88
352.311	962.88
352.538	1024.88
352.765	999.88
352.992	871.88
353.22	855.88
353.447	877.88
353.674	892.88
353.901	868.88
354.128	876.88
354.355	881.88
354.583	895.88
354.81	874.88
355.037	898.88
355.264	888.88
355.491	882.88
355.718	884.88
355.945	874.88
356.172	873.88
356.399	938.88
356.626	956.88
356.853	933.88
357.08	912.88
357.307	920.88
357.534	905.88
357.761	903.88
357.988	889.88
358.215	912.88
358.441	882.88
358.668	876.88
358.895	895.88
359.122	898.88
359.349	889.88
359.576	911.88
359.802	919.88
360.029	894.88
360.256	914.88
360.483	886.88
360.709	900.88
360.936	928.88
361.163	919.88
361.39	903.88
361.616	925.88
361.843	957.88
362.07	978.88
362.296	962.88
362.523	905.88
362.749	908.88
362.976	900.88
363.203	913.88
363.429	888.88
363.656	913.88
363.882	900.88
364.109	901.88
364.335	900.88
364.562	908.88
364.788	903.88
365.015	896.88
365.241	882.88
365.468	935.88
365.694	902.88
365.92	888.88
366.147	920.88
366.373	920.88
366.599	914.88
366.826	935.88
367.052	892.88
367.278	901.88
367.505	926.88
367.731	884.88
367.957	892.88
368.184	914.88
368.41	925.88
368.636	926.88
368.862	926.88
369.089	907.88
369.315	931.88
369.541	919.88
369.767	937.88
369.993	920.88
370.219	942.88
370.445	916.88
370.672	977.88
370.898	940.88
371.124	948.88
371.35	932.88
371.576	922.88
371.802	970.88
372.028	965.88
372.254	971.88
372.48	962.88
372.706	955.88
372.932	971.88
373.158	992.88
373.384	974.88
373.61	968.88
373.835	995.88
374.061	976.88
374.287	971.88
374.513	951.88
374.739	1001.88
374.965	996.88
375.191	984.88
375.416	1006.88
375.642	1003.88
375.868	1016.88
376.094	952.88
376.319	967.88
376.545	934.88
376.771	974.88
376.997	967.88
377.222	954.88
377.448	966.88
377.674	956.88
377.899	957.88
378.125	943.88
378.35	947.88
378.576	959.88
378.802	937.88
379.027	944.88
379.253	970.88
379.478	931.88
379.704	928.88
379.929	936.88
380.155	937.88
380.38	950.88
380.606	966.88
380.831	943.88
381.057	946.88
381.282	976.88
381.507	971.88
381.733	943.88
381.958	969.88
382.184	952.88
382.409	960.88
382.634	972.88
382.86	978.88
383.085	952.88
383.31	1000.88
383.535	997.88
383.761	1012.88
383.986	1035.88
384.211	993.88
384.436	1014.88
384.662	1026.88
384.887	1023.88
385.112	1059.88
385.337	1046.88
385.562	1063.88
385.787	1058.88
386.013	1074.88
386.238	1066.88
386.463	1060.88
386.688	1076.88
386.913	1071.88
387.138	1090.88
387.363	1057.88
387.588	1041.88
387.813	1068.88
388.038	1063.88
388.263	1044.88
388.488	1089.88
388.713	1087.88
388.938	1068.88
389.163	1078.88
389.387	1058.88
389.612	1076.88
389.837	1076.88
390.062	1061.88
390.287	1062.88
390.512	1104.88
390.736	1063.88
390.961	1069.88
391.186	1087.88
391.411	1078.88
391.636	1108.88
391.86	1120.88
392.085	1107.88
392.31	1109.88
392.534	1123.88
392.759	1110.88
392.984	1112.88
393.208	1130.88
393.433	1139.88
393.658	1114.88
393.882	1125.88
394.107	1142.88
394.331	1111.88
394.556	1123.88
394.78	1122.88
395.005	1129.88
395.229	1116.88
395.454	1162.88
395.678	1155.88
395.903	1147.88
396.127	1144.88
396.352	1161.88
396.576	1163.88
396.801	1148.88
397.025	1175.88
397.249	1168.88
397.474	1190.88
397.698	1184.88
397.922	1199.88
398.147	1162.88
398.371	1206.88
398.595	1252.88
398.82	1238.88
399.044	1268.88
399.268	1335.88
399.492	1351.88
399.717	1425.88
399.941	1452.88
400.165	1422.88
400.389	1373.88
400.613	1364.88
400.837	1299.88
401.062	1271.88
401.286	1300.88
401.51	1267.88
401.734	1305.88
401.958	1301.88
402.182	1236.88
402.406	1300.88
402.63	1259.88
402.854	1261.88
403.078	1272.88
403.302	1232.88
403.526	1259.88
403.75	1237.88
403.974	1302.88
404.198	1276.88
404.422	1293.88
404.645	1290.88
404.869	1268.88
405.093	1284.88
405.317	1287.88
405.541	1305.88
405.765	1294.88
405.988	1322.88
406.212	1277.88
406.436	1363.88
406.66	1380.88
406.883	1341.88
407.107	1374.88
407.331	1401.88
407.555	1436.88
407.778	1450.88
408.002	1442.88
408.226	1432.88
408.449	1423.88
408.673	1386.88
408.896	1360.88
409.12	1340.88
409.344	1381.88
409.567	1308.88
409.791	1351.88
410.014	1338.88
410.238	1353.88
410.461	1338.88
410.685	1314.88
410.908	1306.88
411.132	1327.88
411.355	1287.88
411.578	1332.88
411.802	1300.88
412.025	1325.88
412.249	1295.88
412.472	1308.88
412.695	1275.88
412.919	1270.88
413.142	1268.88
413.365	1273.88
413.589	1274.88
413.812	1256.88
414.035	1271.88
414.258	1258.88
414.482	1276.88
414.705	1249.88
414.928	1243.88
415.151	1256.88
415.374	1259.88
415.597	1245.88
415.821	1244.88
416.044	1239.88
416.267	1223.88
416.49	1219.88
416.713	1178.88
416.936	1234.88
417.159	1205.88
417.382	1227.88
417.605	1204.88
417.828	1208.88
418.051	1224.88
418.274	1224.88
418.497	1209.88
418.72	1250.88
418.943	1207.88
419.166	1260.88
419.389	1328.88
419.611	1307.88
419.834	1257.88
420.057	1260.88
420.28	1237.88
420.503	1221.88
420.726	1150.88
420.948	1187.88
421.171	1190.88
421.394	1208.88
421.617	1199.88
421.839	1211.88
422.062	1210.88
422.285	1187.88
422.507	1239.88
422.73	1200.88
422.953	1210.88
423.175	1205.88
423.398	1216.88
423.621	1189.88
423.843	1184.88
424.066	1204.88
424.288	1229.88
424.511	1214.88
424.733	1197.88
424.956	1189.88
425.178	1199.88
425.401	1232.88
425.623	1226.88
425.846	1227.88
426.068	1193.88
426.291	1203.88
426.513	1186.88
426.735	1202.88
426.958	1181.88
427.18	1126.88
427.402	1196.88
427.625	1200.88
427.847	1150.88
428.069	1152.88
428.292	1144.88
428.514	1168.88
428.736	1188.88
428.958	1158.88
429.181	1158.88
429.403	1144.88
429.625	1169.88
429.847	1152.88
430.069	1144.88
430.292	1160.88
430.514	1154.88
430.736	1169.88
430.958	1176.88
431.18	1169.88
431.402	1159.88
431.624	1184.88
431.846	1154.88
432.068	1173.88
432.29	1191.88
432.512	1149.88
432.734	1210.88
432.956	1184.88
433.178	1180.88
433.4	1233.88
433.622	1250.88
433.844	1204.88
434.066	1239.88
434.287	1196.88
434.509	1231.88
434.731	1207.88
434.953	1251.88
435.175	1284.88
435.397	1285.88
435.618	1240.88
435.84	1208.88
436.062	1207.88
436.284	1178.88
436.505	1172.88
436.727	1192.88
436.949	1203.88
437.17	1186.88
437.392	1172.88
437.614	1171.88
437.835	1144.88
438.057	1151.88
438.278	1115.88
438.5	1154.88
438.721	1096.88
438.943	1135.88
439.165	1111.88
439.386	1131.88
439.608	1148.88
439.829	1151.88
440.05	1157.88
440.272	1172.88
440.493	1188.88
440.715	1186.88
440.936	1207.88
441.158	1184.88
441.379	1215.88
441.6	1243.88
441.822	1267.88
442.043	1241.88
442.264	1194.88
442.486	1223.88
442.707	1212.88
442.928	1222.88
443.149	1226.88
443.371	1264.88
443.592	1342.88
443.813	1296.88
444.034	1263.88
444.255	1255.88
444.476	1279.88
444.698	1323.88
444.919	1325.88
445.14	1423.88
445.361	1338.88
445.582	1276.88
445.803	1217.88
446.024	1178.88
446.245	1196.88
446.466	1187.88
446.687	1134.88
446.908	1166.88
447.129	1135.88
447.35	1131.88
447.571	1137.88
447.792	1082.88
448.013	1108.88
448.234	1074.88
448.455	1064.88
448.675	1088.88
448.896	1071.88
449.117	1086.88
449.338	1090.88
449.559	1055.88
449.779	1045.88
450	1086.88
450.221	1034.88
450.442	1074.88
450.662	1079.88
450.883	1095.88
451.104	1099.88
451.324	1086.88
451.545	1069.88
451.766	1052.88
451.986	1052.88
452.207	1037.88
452.428	1026.88
452.648	1025.88
452.869	1048.88
453.089	1032.88
453.31	1084.88
453.53	1020.88
453.751	1031.88
453.971	1032.88
454.192	1097.88
454.412	1102.88
454.633	1015.88
454.853	1046.88
455.073	1016.88
455.294	1006.88
455.514	1064.88
455.734	1069.88
455.955	1088.88
456.175	1061.88
456.395	1043.88
456.616	1039.88
456.836	1026.88
457.056	1034.88
457.276	1032.88
457.497	1054.88
457.717	1096.88
457.937	1088.88
458.157	1057.88
458.377	1060.88
458.598	1047.88
458.818	1076.88
459.038	1118.88
459.258	1151.88
459.478	1246.88
459.698	1346.88
459.918	1307.88
460.138	1259.88
460.358	1293.88
460.578	1290.88
460.798	1317.88
461.018	1350.88
461.238	1278.88
461.458	1238.88
461.678	1219.88
461.898	1256.88
462.118	1262.88
462.338	1299.88
462.558	1349.88
462.777	1378.88
462.997	1431.88
463.217	1438.88
463.437	1506.88
463.657	1504.88
463.876	1391.88
464.096	1411.88
464.316	1358.88
464.536	1374.88
464.755	1312.88
464.975	1287.88
465.195	1288.88
465.414	1260.88
465.634	1200.88
465.854	1192.88
466.073	1196.88
466.293	1157.88
466.512	1157.88
466.732	1144.88
466.951	1151.88
467.171	1135.88
467.391	1156.88
467.61	1112.88
467.829	1120.88
468.049	1101.88
468.268	1084.88
468.488	1111.88
468.707	1127.88
468.927	1138.88
469.146	1160.88
469.365	1166.88
469.585	1129.88
469.804	1126.88
470.023	1108.88
470.243	1111.88
470.462	1114.88
470.681	1140.88
470.901	1154.88
471.12	1132.88
471.339	1110.88
471.558	1148.88
471.777	1172.88
471.997	1119.88
472.216	1092.88
472.435	1142.88
472.654	1103.88
472.873	1079.88
473.092	1139.88
473.311	1144.88
473.53	1103.88
473.749	1109.88
473.968	1092.88
474.187	1102.88
474.406	1100.88
474.625	1098.88
474.844	1123.88
475.063	1125.88
475.282	1146.88
475.501	1154.88
475.72	1146.88
475.939	1155.88
476.158	1163.88
476.377	1184.88
476.596	1152.88
476.814	1204.88
477.033	1206.88
477.252	1192.88
477.471	1218.88
477.69	1238.88
477.908	1239.88
478.127	1256.88
478.346	1230.88
478.564	1301.88
478.783	1298.88
479.002	1383.88
479.22	1407.88
479.439	1351.88
479.658	1321.88
479.876	1323.88
480.095	1358.88
480.313	1373.88
480.532	1333.88
480.751	1340.88
480.969	1359.88
481.188	1324.88
481.406	1301.88
481.624	1266.88
481.843	1331.88
482.061	1309.88
482.28	1321.88
482.498	1322.88
482.717	1350.88
482.935	1318.88
483.153	1356.88
483.372	1398.88
483.59	1451.88
483.808	1365.88
484.027	1374.88
484.245	1332.88
484.463	1370.88
484.681	1390.88
484.9	1336.88
485.118	1368.88
485.336	1341.88
485.554	1369.88
485.772	1330.88
485.99	1359.88
486.209	1384.88
486.427	1340.88
486.645	1356.88
486.863	1379.88
487.081	1406.88
487.299	1372.88
487.517	1402.88
487.735	1382.88
487.953	1416.88
488.171	1389.88
488.389	1398.88
488.607	1372.88
488.825	1380.88
489.043	1356.88
489.261	1360.88
489.479	1349.88
489.696	1358.88
489.914	1371.88
490.132	1365.88
490.35	1379.88
490.568	1369.88
490.786	1379.88
491.003	1367.88
491.221	1396.88
491.439	1433.88
491.657	1367.88
491.874	1438.88
492.092	1422.88
492.31	1438.88
492.527	1419.88
492.745	1424.88
492.963	1418.88
493.18	1383.88
493.398	1429.88
493.615	1364.88
493.833	1408.88
494.05	1388.88
494.268	1431.88
