Data from Ni(NO3)2@0.25M.TitratingCurve.Agarose3%dH2O.NegLispCup.LampEnergy10.LIBS07252019_HRD10591_18-03-26-565.txt Node
Date: Thu Jul 25 18:03:26 EDT 2019
User: cochatt
Spectrometer: HR+D1059
Trigger mode: 1
Integration Time (sec): 1.000000E-1
Scans to average: 1
Electric dark correction enabled: true
Nonlinearity correction enabled: false
Boxcar width: 0
XAxis mode: Wavelengths
Number of Pixels in Spectrum: 2048
>>>>>Begin Spectral Data<<<<<
223.165	-12.06
223.4	-12.06
223.635	-12.06
223.869	-22.06
224.104	-18.06
224.338	-20.06
224.573	-24.06
224.808	-6.06
225.042	3.94
225.277	-7.06
225.511	-5.06
225.746	12.94
225.98	9.94
226.215	0.94
226.449	1.94
226.683	27.94
226.918	17.94
227.152	38.94
227.387	33.94
227.621	46.94
227.856	65.94
228.09	47.94
228.324	40.94
228.559	56.94
228.793	58.94
229.027	101.94
229.262	87.94
229.496	96.94
229.73	81.94
229.964	110.94
230.199	114.94
230.433	110.94
230.667	106.94
230.901	125.94
231.136	106.94
231.37	122.94
231.604	121.94
231.838	117.94
232.072	129.94
232.306	128.94
232.541	121.94
232.775	115.94
233.009	112.94
233.243	116.94
233.477	125.94
233.711	127.94
233.945	117.94
234.179	114.94
234.413	114.94
234.647	110.94
234.881	121.94
235.115	140.94
235.349	119.94
235.583	124.94
235.817	123.94
236.051	119.94
236.285	123.94
236.519	135.94
236.753	122.94
236.987	111.94
237.221	116.94
237.455	138.94
237.689	128.94
237.922	127.94
238.156	126.94
238.39	123.94
238.624	120.94
238.858	122.94
239.091	125.94
239.325	116.94
239.559	135.94
239.793	145.94
240.027	140.94
240.26	131.94
240.494	128.94
240.728	125.94
240.961	134.94
241.195	129.94
241.429	149.94
241.662	116.94
241.896	146.94
242.13	120.94
242.363	125.94
242.597	136.94
242.83	148.94
243.064	142.94
243.298	134.94
243.531	155.94
243.765	145.94
243.998	149.94
244.232	144.94
244.465	155.94
244.699	147.94
244.932	156.94
245.166	157.94
245.399	167.94
245.633	148.94
245.866	148.94
246.099	151.94
246.333	160.94
246.566	163.94
246.8	151.94
247.033	153.94
247.266	149.94
247.5	168.94
247.733	178.94
247.966	167.94
248.2	173.94
248.433	170.94
248.666	175.94
248.899	170.94
249.133	171.94
249.366	186.94
249.599	169.94
249.832	169.94
250.066	187.94
250.299	166.94
250.532	170.94
250.765	189.94
250.998	191.94
251.231	180.94
251.465	193.94
251.698	182.94
251.931	195.94
252.164	190.94
252.397	188.94
252.63	199.94
252.863	190.94
253.096	194.94
253.329	193.94
253.562	194.94
253.795	185.94
254.028	198.94
254.261	212.94
254.494	200.94
254.727	197.94
254.96	208.94
255.193	208.94
255.426	189.94
255.659	194.94
255.892	205.94
256.124	212.94
256.357	211.94
256.59	231.94
256.823	212.94
257.056	224.94
257.289	205.94
257.521	228.94
257.754	213.94
257.987	220.94
258.22	234.94
258.452	234.94
258.685	232.94
258.918	244.94
259.151	234.94
259.383	232.94
259.616	227.94
259.849	238.94
260.081	221.94
260.314	258.94
260.547	243.94
260.779	246.94
261.012	261.94
261.244	245.94
261.477	228.94
261.71	253.94
261.942	233.94
262.175	250.94
262.407	247.94
262.64	234.94
262.872	238.94
263.105	242.94
263.337	255.94
263.57	241.94
263.802	248.94
264.035	257.94
264.267	243.94
264.499	245.94
264.732	250.94
264.964	275.94
265.197	275.94
265.429	260.94
265.661	266.94
265.894	258.94
266.126	271.94
266.358	253.94
266.591	269.94
266.823	261.94
267.055	276.94
267.287	265.94
267.52	277.94
267.752	263.94
267.984	263.94
268.216	272.94
268.448	293.94
268.681	296.94
268.913	269.94
269.145	294.94
269.377	271.94
269.609	265.94
269.841	238.94
270.073	271.94
270.306	275.94
270.538	277.94
270.77	288.94
271.002	305.94
271.234	292.94
271.466	298.94
271.698	269.94
271.93	285.94
272.162	274.94
272.394	288.94
272.626	287.94
272.858	293.94
273.09	287.94
273.322	294.94
273.553	296.94
273.785	286.94
274.017	288.94
274.249	317.94
274.481	305.94
274.713	293.94
274.945	295.94
275.176	306.94
275.408	307.94
275.64	305.94
275.872	305.94
276.104	302.94
276.335	299.94
276.567	293.94
276.799	305.94
277.031	307.94
277.262	291.94
277.494	314.94
277.726	291.94
277.957	302.94
278.189	302.94
278.421	309.94
278.652	318.94
278.884	325.94
279.115	305.94
279.347	321.94
279.579	303.94
279.81	322.94
280.042	307.94
280.273	331.94
280.505	339.94
280.736	323.94
280.968	323.94
281.199	316.94
281.431	340.94
281.662	322.94
281.894	314.94
282.125	340.94
282.356	327.94
282.588	317.94
282.819	310.94
283.051	327.94
283.282	328.94
283.513	337.94
283.745	331.94
283.976	345.94
284.207	344.94
284.439	340.94
284.67	341.94
284.901	334.94
285.132	326.94
285.364	328.94
285.595	354.94
285.826	359.94
286.057	351.94
286.288	337.94
286.52	346.94
286.751	334.94
286.982	333.94
287.213	355.94
287.444	367.94
287.675	350.94
287.906	337.94
288.138	351.94
288.369	348.94
288.6	337.94
288.831	359.94
289.062	342.94
289.293	366.94
289.524	354.94
289.755	356.94
289.986	362.94
290.217	365.94
290.448	370.94
290.679	363.94
290.91	373.94
291.141	366.94
291.371	349.94
291.602	355.94
291.833	371.94
292.064	347.94
292.295	376.94
292.526	342.94
292.757	346.94
292.987	338.94
293.218	342.94
293.449	355.94
293.68	366.94
293.91	361.94
294.141	395.94
294.372	364.94
294.603	346.94
294.833	364.94
295.064	371.94
295.295	363.94
295.525	345.94
295.756	351.94
295.987	366.94
296.217	375.94
296.448	367.94
296.679	363.94
296.909	385.94
297.14	367.94
297.37	385.94
297.601	378.94
297.831	380.94
298.062	377.94
298.292	395.94
298.523	395.94
298.753	367.94
298.984	379.94
299.214	375.94
299.445	383.94
299.675	378.94
299.905	378.94
300.136	399.94
300.366	381.94
300.597	413.94
300.827	414.94
301.057	396.94
301.288	397.94
301.518	403.94
301.748	383.94
301.979	404.94
302.209	400.94
302.439	411.94
302.669	401.94
302.9	394.94
303.13	410.94
303.36	411.94
303.59	391.94
303.82	397.94
304.051	421.94
304.281	407.94
304.511	398.94
304.741	394.94
304.971	408.94
305.201	412.94
305.431	434.94
305.661	420.94
305.891	399.94
306.121	404.94
306.352	392.94
306.582	411.94
306.812	392.94
307.042	403.94
307.272	402.94
307.502	392.94
307.731	403.94
307.961	405.94
308.191	415.94
308.421	397.94
308.651	398.94
308.881	396.94
309.111	395.94
309.341	403.94
309.571	409.94
309.8	425.94
310.03	406.94
310.26	417.94
310.49	416.94
310.72	413.94
310.949	430.94
311.179	407.94
311.409	413.94
311.639	422.94
311.868	408.94
312.098	412.94
312.328	384.94
312.557	426.94
312.787	426.94
313.017	466.94
313.246	446.94
313.476	448.94
313.706	439.94
313.935	441.94
314.165	451.94
314.394	438.94
314.624	431.94
314.853	454.94
315.083	435.94
315.312	453.94
315.542	425.94
315.771	451.94
316.001	438.94
316.23	456.94
316.46	434.94
316.689	432.94
316.919	453.94
317.148	440.94
317.377	441.94
317.607	448.94
317.836	474.94
318.065	443.94
318.295	441.94
318.524	440.94
318.753	457.94
318.983	445.94
319.212	458.94
319.441	459.94
319.67	455.94
319.9	466.94
320.129	466.94
320.358	474.94
320.587	467.94
320.816	464.94
321.046	454.94
321.275	471.94
321.504	465.94
321.733	483.94
321.962	468.94
322.191	462.94
322.42	497.94
322.649	484.94
322.878	468.94
323.108	474.94
323.337	475.94
323.566	509.94
323.795	513.94
324.024	498.94
324.253	497.94
324.482	481.94
324.71	504.94
324.939	515.94
325.168	505.94
325.397	504.94
325.626	511.94
325.855	526.94
326.084	533.94
326.313	547.94
326.542	535.94
326.77	541.94
326.999	546.94
327.228	533.94
327.457	531.94
327.686	564.94
327.914	533.94
328.143	544.94
328.372	524.94
328.6	563.94
328.829	549.94
329.058	531.94
329.287	570.94
329.515	553.94
329.744	563.94
329.972	571.94
330.201	548.94
330.43	561.94
330.658	585.94
330.887	582.94
331.115	579.94
331.344	579.94
331.572	586.94
331.801	594.94
332.03	585.94
332.258	615.94
332.486	600.94
332.715	639.94
332.943	669.94
333.172	658.94
333.4	701.94
333.629	705.94
333.857	703.94
334.085	710.94
334.314	715.94
334.542	719.94
334.771	715.94
334.999	680.94
335.227	693.94
335.455	703.94
335.684	691.94
335.912	690.94
336.14	675.94
336.369	666.94
336.597	690.94
336.825	702.94
337.053	674.94
337.281	682.94
337.51	662.94
337.738	638.94
337.966	651.94
338.194	651.94
338.422	643.94
338.65	642.94
338.878	633.94
339.106	623.94
339.334	632.94
339.562	613.94
339.79	615.94
340.018	606.94
340.246	589.94
340.474	622.94
340.702	616.94
340.93	610.94
341.158	617.94
341.386	609.94
341.614	621.94
341.842	625.94
342.07	610.94
342.298	606.94
342.526	605.94
342.754	603.94
342.981	600.94
343.209	622.94
343.437	650.94
343.665	661.94
343.893	678.94
344.12	722.94
344.348	697.94
344.576	660.94
344.804	669.94
345.031	634.94
345.259	637.94
345.487	622.94
345.714	606.94
345.942	612.94
346.17	611.94
346.397	599.94
346.625	599.94
346.853	589.94
347.08	577.94
347.308	591.94
347.535	589.94
347.763	578.94
347.99	553.94
348.218	587.94
348.445	574.94
348.673	593.94
348.9	613.94
349.128	569.94
349.355	614.94
349.583	590.94
349.81	579.94
350.037	563.94
350.265	577.94
350.492	558.94
350.72	570.94
350.947	577.94
351.174	587.94
351.402	587.94
351.629	577.94
351.856	580.94
352.083	561.94
352.311	587.94
352.538	563.94
352.765	572.94
352.992	561.94
353.22	555.94
353.447	551.94
353.674	530.94
353.901	556.94
354.128	555.94
354.355	536.94
354.583	557.94
354.81	559.94
355.037	545.94
355.264	558.94
355.491	547.94
355.718	567.94
355.945	558.94
356.172	551.94
356.399	557.94
356.626	572.94
356.853	583.94
357.08	569.94
357.307	559.94
357.534	576.94
357.761	560.94
357.988	560.94
358.215	538.94
358.441	549.94
358.668	556.94
358.895	566.94
359.122	561.94
359.349	545.94
359.576	580.94
359.802	561.94
360.029	549.94
360.256	552.94
360.483	558.94
360.709	530.94
360.936	553.94
361.163	543.94
361.39	535.94
361.616	578.94
361.843	561.94
362.07	593.94
362.296	568.94
362.523	575.94
362.749	556.94
362.976	552.94
363.203	569.94
363.429	551.94
363.656	549.94
363.882	540.94
364.109	563.94
364.335	539.94
364.562	558.94
364.788	544.94
365.015	554.94
365.241	548.94
365.468	558.94
365.694	533.94
365.92	561.94
366.147	552.94
366.373	550.94
366.599	557.94
366.826	557.94
367.052	552.94
367.278	546.94
367.505	570.94
367.731	573.94
367.957	569.94
368.184	574.94
368.41	573.94
368.636	574.94
368.862	562.94
369.089	575.94
369.315	563.94
369.541	558.94
369.767	569.94
369.993	566.94
370.219	559.94
370.445	577.94
370.672	588.94
370.898	583.94
371.124	607.94
371.35	579.94
371.576	566.94
371.802	574.94
372.028	584.94
372.254	571.94
372.48	592.94
372.706	597.94
372.932	625.94
373.158	606.94
373.384	607.94
373.61	567.94
373.835	595.94
374.061	597.94
374.287	593.94
374.513	591.94
374.739	637.94
374.965	637.94
375.191	637.94
375.416	622.94
375.642	612.94
375.868	613.94
376.094	629.94
376.319	576.94
376.545	597.94
376.771	596.94
376.997	585.94
377.222	586.94
377.448	597.94
377.674	581.94
377.899	581.94
378.125	579.94
378.35	597.94
378.576	582.94
378.802	590.94
379.027	563.94
379.253	565.94
379.478	551.94
379.704	574.94
379.929	563.94
380.155	581.94
380.38	561.94
380.606	559.94
380.831	577.94
381.057	587.94
381.282	585.94
381.507	565.94
381.733	567.94
381.958	585.94
382.184	604.94
382.409	577.94
382.634	581.94
382.86	587.94
383.085	609.94
383.31	616.94
383.535	607.94
383.761	610.94
383.986	614.94
384.211	641.94
384.436	637.94
384.662	643.94
384.887	637.94
385.112	658.94
385.337	656.94
385.562	646.94
385.787	669.94
386.013	686.94
386.238	677.94
386.463	671.94
386.688	694.94
386.913	662.94
387.138	665.94
387.363	674.94
387.588	658.94
387.813	668.94
388.038	675.94
388.263	682.94
388.488	671.94
388.713	672.94
388.938	659.94
389.163	677.94
389.387	676.94
389.612	645.94
389.837	632.94
390.062	650.94
390.287	668.94
390.512	671.94
390.736	658.94
390.961	686.94
391.186	685.94
391.411	702.94
391.636	714.94
391.86	737.94
392.085	737.94
392.31	770.94
392.534	741.94
392.759	713.94
392.984	716.94
393.208	718.94
393.433	709.94
393.658	715.94
393.882	718.94
394.107	707.94
394.331	725.94
394.556	717.94
394.78	709.94
395.005	727.94
395.229	725.94
395.454	726.94
395.678	726.94
395.903	734.94
396.127	749.94
396.352	738.94
396.576	734.94
396.801	726.94
397.025	746.94
397.249	757.94
397.474	765.94
397.698	815.94
397.922	766.94
398.147	761.94
398.371	797.94
398.595	815.94
398.82	834.94
399.044	903.94
399.268	974.94
399.492	1060.94
399.717	1135.94
399.941	1154.94
400.165	1067.94
400.389	989.94
400.613	917.94
400.837	908.94
401.062	874.94
401.286	859.94
401.51	860.94
401.734	854.94
401.958	860.94
402.182	852.94
402.406	870.94
402.63	857.94
402.854	877.94
403.078	895.94
403.302	867.94
403.526	913.94
403.75	899.94
403.974	886.94
404.198	932.94
404.422	917.94
404.645	923.94
404.869	913.94
405.093	905.94
405.317	922.94
405.541	912.94
405.765	895.94
405.988	914.94
406.212	929.94
406.436	921.94
406.66	958.94
406.883	953.94
407.107	980.94
407.331	1031.94
407.555	1058.94
407.778	1042.94
408.002	1034.94
408.226	1009.94
408.449	1021.94
408.673	951.94
408.896	963.94
409.12	973.94
409.344	968.94
409.567	927.94
409.791	940.94
410.014	941.94
410.238	920.94
410.461	925.94
410.685	951.94
410.908	882.94
411.132	926.94
411.355	899.94
411.578	876.94
411.802	900.94
412.025	914.94
412.249	916.94
412.472	899.94
412.695	901.94
412.919	878.94
413.142	899.94
413.365	883.94
413.589	897.94
413.812	878.94
414.035	861.94
414.258	867.94
414.482	897.94
414.705	878.94
414.928	852.94
415.151	885.94
415.374	902.94
415.597	862.94
415.821	849.94
416.044	831.94
416.267	855.94
416.49	864.94
416.713	829.94
416.936	868.94
417.159	835.94
417.382	852.94
417.605	848.94
417.828	858.94
418.051	886.94
418.274	837.94
418.497	859.94
418.72	895.94
418.943	872.94
419.166	927.94
419.389	988.94
419.611	975.94
419.834	923.94
420.057	919.94
420.28	881.94
420.503	870.94
420.726	873.94
420.948	881.94
421.171	857.94
421.394	871.94
421.617	867.94
421.839	860.94
422.062	861.94
422.285	845.94
422.507	872.94
422.73	870.94
422.953	882.94
423.175	887.94
423.398	878.94
423.621	899.94
423.843	905.94
424.066	874.94
424.288	869.94
424.511	879.94
424.733	875.94
424.956	885.94
425.178	870.94
425.401	879.94
425.623	891.94
425.846	861.94
426.068	874.94
426.291	825.94
426.513	848.94
426.735	826.94
426.958	840.94
427.18	811.94
427.402	806.94
427.625	803.94
427.847	801.94
428.069	833.94
428.292	833.94
428.514	810.94
428.736	818.94
428.958	797.94
429.181	811.94
429.403	788.94
429.625	787.94
429.847	796.94
430.069	787.94
430.292	795.94
430.514	759.94
430.736	787.94
430.958	816.94
431.18	813.94
431.402	813.94
431.624	817.94
431.846	812.94
432.068	798.94
432.29	802.94
432.512	811.94
432.734	825.94
432.956	798.94
433.178	819.94
433.4	820.94
433.622	834.94
433.844	834.94
434.066	853.94
434.287	837.94
434.509	817.94
434.731	887.94
434.953	871.94
435.175	885.94
435.397	881.94
435.618	872.94
435.84	855.94
436.062	797.94
436.284	819.94
436.505	821.94
436.727	837.94
436.949	824.94
437.17	798.94
437.392	809.94
437.614	790.94
437.835	779.94
438.057	791.94
438.278	783.94
438.5	785.94
438.721	796.94
438.943	808.94
439.165	787.94
439.386	808.94
439.608	806.94
439.829	821.94
440.05	825.94
440.272	863.94
440.493	862.94
440.715	833.94
440.936	863.94
441.158	869.94
441.379	855.94
441.6	901.94
441.822	895.94
442.043	897.94
442.264	892.94
442.486	868.94
442.707	909.94
442.928	892.94
443.149	872.94
443.371	914.94
443.592	899.94
443.813	907.94
444.034	931.94
444.255	927.94
444.476	970.94
444.698	992.94
444.919	1029.94
445.14	1127.94
445.361	992.94
445.582	937.94
445.803	917.94
446.024	891.94
446.245	859.94
446.466	881.94
446.687	851.94
446.908	832.94
447.129	824.94
447.35	816.94
447.571	832.94
447.792	793.94
448.013	787.94
448.234	787.94
448.455	772.94
448.675	785.94
448.896	760.94
449.117	774.94
449.338	775.94
449.559	754.94
449.779	751.94
450	769.94
450.221	746.94
450.442	751.94
450.662	801.94
450.883	775.94
451.104	777.94
451.324	773.94
451.545	759.94
451.766	750.94
451.986	749.94
452.207	741.94
452.428	750.94
452.648	742.94
452.869	733.94
453.089	713.94
453.31	717.94
453.53	718.94
453.751	714.94
453.971	687.94
454.192	719.94
454.412	725.94
454.633	694.94
454.853	696.94
455.073	714.94
455.294	722.94
455.514	709.94
455.734	707.94
455.955	707.94
456.175	684.94
456.395	697.94
456.616	711.94
456.836	705.94
457.056	695.94
457.276	690.94
457.497	711.94
457.717	729.94
457.937	705.94
458.157	705.94
458.377	726.94
458.598	736.94
458.818	742.94
459.038	778.94
459.258	774.94
459.478	812.94
459.698	820.94
459.918	850.94
460.138	875.94
460.358	918.94
460.578	909.94
460.798	938.94
461.018	913.94
461.238	930.94
461.458	935.94
461.678	932.94
461.898	931.94
462.118	973.94
462.338	975.94
462.558	1041.94
462.777	1035.94
462.997	1119.94
463.217	1143.94
463.437	1158.94
463.657	1097.94
463.876	1065.94
464.096	1052.94
464.316	1067.94
464.536	1060.94
464.755	1047.94
464.975	990.94
465.195	923.94
465.414	903.94
465.634	837.94
465.854	838.94
466.073	841.94
466.293	821.94
466.512	777.94
466.732	797.94
466.951	801.94
467.171	779.94
467.391	794.94
467.61	806.94
467.829	792.94
468.049	803.94
468.268	755.94
468.488	744.94
468.707	757.94
468.927	745.94
469.146	750.94
469.365	759.94
469.585	789.94
469.804	801.94
470.023	799.94
470.243	818.94
470.462	806.94
470.681	804.94
470.901	804.94
471.12	824.94
471.339	781.94
471.558	759.94
471.777	774.94
471.997	773.94
472.216	761.94
472.435	770.94
472.654	745.94
472.873	733.94
473.092	732.94
473.311	757.94
473.53	758.94
473.749	729.94
473.968	723.94
474.187	746.94
474.406	754.94
474.625	739.94
474.844	733.94
475.063	748.94
475.282	749.94
475.501	743.94
475.72	733.94
475.939	743.94
476.158	757.94
476.377	763.94
476.596	770.94
476.814	799.94
477.033	789.94
477.252	757.94
477.471	806.94
477.69	842.94
477.908	855.94
478.127	879.94
478.346	849.94
478.564	900.94
478.783	905.94
479.002	906.94
479.22	894.94
479.439	920.94
479.658	891.94
479.876	911.94
480.095	897.94
480.313	939.94
480.532	953.94
480.751	936.94
480.969	911.94
481.188	856.94
481.406	848.94
481.624	855.94
481.843	847.94
482.061	860.94
482.28	849.94
482.498	846.94
482.717	848.94
482.935	851.94
483.153	886.94
483.372	873.94
483.59	867.94
483.808	868.94
484.027	832.94
484.245	831.94
484.463	833.94
484.681	861.94
484.9	844.94
485.118	894.94
485.336	831.94
485.554	889.94
485.772	878.94
485.99	878.94
486.209	867.94
486.427	865.94
486.645	854.94
486.863	889.94
487.081	851.94
487.299	859.94
487.517	871.94
487.735	890.94
487.953	875.94
488.171	919.94
488.389	887.94
488.607	869.94
488.825	860.94
489.043	843.94
489.261	869.94
489.479	839.94
489.696	838.94
489.914	878.94
490.132	855.94
490.35	898.94
490.568	905.94
490.786	895.94
491.003	909.94
491.221	910.94
491.439	921.94
491.657	922.94
491.874	916.94
492.092	955.94
492.31	936.94
492.527	933.94
492.745	965.94
492.963	930.94
493.18	926.94
493.398	930.94
493.615	925.94
493.833	944.94
494.05	923.94
494.268	921.94
494.485	944.94
494.703	970.94
494.92	947.94
495.138	990.94
495.355	943.94
495.573	954.94
495.79	974.94
496.008	984.94
496.225	969.94
496.442	1009.94
496.66	997.94
496.877	1009.94
497.094	1032.94
497.312	1053.94
497.529	1073.94
497.746	1063.94
497.963	1124.94
498.181	1159.94
498.398	1212.94
498.615	1255.94
498.832	1297.94
499.049	1416.94
499.267	1509.94
499.484	1596.94
499.701	1713.94
499.918	1890.94
500.135	2077.94
500.352	2286.94
500.569	2391.94
500.786	2319.94
501.003	2210.94
