Data from Ni(NO3)2Standard.Agarose3%.GreenCap.LampEnergy5.5.E.O_HRD10591_14-42-32-189.txt Node
Date: Mon Jul 22 14:42:32 EDT 2019
User: cochatt
Spectrometer: HR+D1059
Trigger mode: 1
Integration Time (sec): 1.000000E-1
Scans to average: 1
Electric dark correction enabled: true
Nonlinearity correction enabled: false
Boxcar width: 0
XAxis mode: Wavelengths
Number of Pixels in Spectrum: 2048
>>>>>Begin Spectral Data<<<<<
223.165	-22.25
223.4	-22.25
223.635	-22.25
223.869	-11.25
224.104	-12.25
224.338	-16.25
224.573	-9.25
224.808	-31.25
225.042	-13.25
225.277	-13.25
225.511	7.75
225.746	9.75
225.98	34.75
226.215	4.75
226.449	7.75
226.683	20.75
226.918	18.75
227.152	24.75
227.387	27.75
227.621	40.75
227.856	40.75
228.09	54.75
228.324	48.75
228.559	42.75
228.793	48.75
229.027	59.75
229.262	71.75
229.496	67.75
229.73	73.75
229.964	62.75
230.199	68.75
230.433	90.75
230.667	80.75
230.901	74.75
231.136	74.75
231.37	79.75
231.604	70.75
231.838	76.75
232.072	74.75
232.306	89.75
232.541	94.75
232.775	67.75
233.009	83.75
233.243	68.75
233.477	74.75
233.711	71.75
233.945	87.75
234.179	67.75
234.413	71.75
234.647	87.75
234.881	88.75
235.115	68.75
235.349	76.75
235.583	68.75
235.817	61.75
236.051	61.75
236.285	82.75
236.519	70.75
236.753	69.75
236.987	74.75
237.221	79.75
237.455	66.75
237.689	77.75
237.922	83.75
238.156	64.75
238.39	73.75
238.624	76.75
238.858	84.75
239.091	76.75
239.325	79.75
239.559	72.75
239.793	72.75
240.027	85.75
240.26	76.75
240.494	60.75
240.728	76.75
240.961	68.75
241.195	89.75
241.429	83.75
241.662	68.75
241.896	73.75
242.13	63.75
242.363	62.75
242.597	68.75
242.83	69.75
243.064	76.75
243.298	82.75
243.531	87.75
243.765	83.75
243.998	71.75
244.232	77.75
244.465	62.75
244.699	73.75
244.932	84.75
245.166	76.75
245.399	71.75
245.633	78.75
245.866	71.75
246.099	66.75
246.333	80.75
246.566	81.75
246.8	71.75
247.033	80.75
247.266	71.75
247.5	84.75
247.733	74.75
247.966	78.75
248.2	61.75
248.433	74.75
248.666	68.75
248.899	75.75
249.133	83.75
249.366	87.75
249.599	74.75
249.832	73.75
250.066	75.75
250.299	76.75
250.532	83.75
250.765	76.75
250.998	73.75
251.231	82.75
251.465	66.75
251.698	75.75
251.931	69.75
252.164	82.75
252.397	64.75
252.63	64.75
252.863	86.75
253.096	75.75
253.329	96.75
253.562	74.75
253.795	70.75
254.028	82.75
254.261	62.75
254.494	67.75
254.727	80.75
254.96	89.75
255.193	83.75
255.426	81.75
255.659	73.75
255.892	77.75
256.124	71.75
256.357	80.75
256.59	70.75
256.823	84.75
257.056	69.75
257.289	74.75
257.521	73.75
257.754	90.75
257.987	87.75
258.22	75.75
258.452	72.75
258.685	58.75
258.918	86.75
259.151	80.75
259.383	60.75
259.616	72.75
259.849	71.75
260.081	82.75
260.314	70.75
260.547	82.75
260.779	76.75
261.012	80.75
261.244	55.75
261.477	86.75
261.71	88.75
261.942	78.75
262.175	74.75
262.407	76.75
262.64	84.75
262.872	78.75
263.105	83.75
263.337	79.75
263.57	88.75
263.802	80.75
264.035	78.75
264.267	78.75
264.499	84.75
264.732	84.75
264.964	82.75
265.197	82.75
265.429	106.75
265.661	85.75
265.894	91.75
266.126	95.75
266.358	78.75
266.591	69.75
266.823	71.75
267.055	81.75
267.287	77.75
267.52	70.75
267.752	83.75
267.984	84.75
268.216	76.75
268.448	66.75
268.681	72.75
268.913	77.75
269.145	70.75
269.377	71.75
269.609	70.75
269.841	70.75
270.073	79.75
270.306	83.75
270.538	86.75
270.77	73.75
271.002	78.75
271.234	70.75
271.466	76.75
271.698	74.75
271.93	71.75
272.162	67.75
272.394	89.75
272.626	80.75
272.858	70.75
273.09	69.75
273.322	79.75
273.553	90.75
273.785	77.75
274.017	70.75
274.249	77.75
274.481	92.75
274.713	72.75
274.945	80.75
275.176	89.75
275.408	80.75
275.64	77.75
275.872	88.75
276.104	84.75
276.335	76.75
276.567	87.75
276.799	81.75
277.031	73.75
277.262	81.75
277.494	70.75
277.726	95.75
277.957	92.75
278.189	88.75
278.421	82.75
278.652	81.75
278.884	84.75
279.115	68.75
279.347	86.75
279.579	79.75
279.81	85.75
280.042	67.75
280.273	72.75
280.505	73.75
280.736	76.75
280.968	93.75
281.199	84.75
281.431	77.75
281.662	80.75
281.894	79.75
282.125	79.75
282.356	92.75
282.588	98.75
282.819	88.75
283.051	83.75
283.282	96.75
283.513	83.75
283.745	106.75
283.976	97.75
284.207	95.75
284.439	76.75
284.67	90.75
284.901	86.75
285.132	91.75
285.364	85.75
285.595	75.75
285.826	80.75
286.057	78.75
286.288	86.75
286.52	90.75
286.751	72.75
286.982	98.75
287.213	84.75
287.444	63.75
287.675	81.75
287.906	100.75
288.138	72.75
288.369	94.75
288.6	79.75
288.831	76.75
289.062	88.75
289.293	80.75
289.524	89.75
289.755	82.75
289.986	87.75
290.217	82.75
290.448	84.75
290.679	83.75
290.91	86.75
291.141	74.75
291.371	83.75
291.602	87.75
291.833	82.75
292.064	74.75
292.295	81.75
292.526	83.75
292.757	87.75
292.987	88.75
293.218	87.75
293.449	87.75
293.68	81.75
293.91	89.75
294.141	84.75
294.372	69.75
294.603	81.75
294.833	91.75
295.064	84.75
295.295	98.75
295.525	88.75
295.756	84.75
295.987	82.75
296.217	81.75
296.448	83.75
296.679	84.75
296.909	77.75
297.14	97.75
297.37	84.75
297.601	102.75
297.831	83.75
298.062	78.75
298.292	87.75
298.523	86.75
298.753	85.75
298.984	83.75
299.214	87.75
299.445	87.75
299.675	84.75
299.905	78.75
300.136	91.75
300.366	82.75
300.597	89.75
300.827	84.75
301.057	93.75
301.288	82.75
301.518	87.75
301.748	92.75
301.979	87.75
302.209	85.75
302.439	83.75
302.669	82.75
302.9	73.75
303.13	83.75
303.36	100.75
303.59	95.75
303.82	85.75
304.051	79.75
304.281	92.75
304.511	78.75
304.741	82.75
304.971	81.75
305.201	90.75
305.431	87.75
305.661	85.75
305.891	81.75
306.121	75.75
306.352	87.75
306.582	96.75
306.812	70.75
307.042	90.75
307.272	94.75
307.502	88.75
307.731	94.75
307.961	83.75
308.191	86.75
308.421	79.75
308.651	73.75
308.881	76.75
309.111	99.75
309.341	79.75
309.571	86.75
309.8	85.75
310.03	71.75
310.26	85.75
310.49	73.75
310.72	68.75
310.949	87.75
311.179	82.75
311.409	88.75
311.639	80.75
311.868	67.75
312.098	98.75
312.328	74.75
312.557	81.75
312.787	74.75
313.017	83.75
313.246	81.75
313.476	71.75
313.706	102.75
313.935	89.75
314.165	68.75
314.394	91.75
314.624	73.75
314.853	88.75
315.083	85.75
315.312	82.75
315.542	94.75
315.771	86.75
316.001	85.75
316.23	78.75
316.46	75.75
316.689	75.75
316.919	99.75
317.148	88.75
317.377	96.75
317.607	87.75
317.836	95.75
318.065	83.75
318.295	93.75
318.524	92.75
318.753	91.75
318.983	96.75
319.212	85.75
319.441	88.75
319.67	90.75
319.9	97.75
320.129	86.75
320.358	94.75
320.587	74.75
320.816	84.75
321.046	87.75
321.275	75.75
321.504	90.75
321.733	97.75
321.962	87.75
322.191	76.75
322.42	92.75
322.649	80.75
322.878	77.75
323.108	86.75
323.337	79.75
323.566	72.75
323.795	77.75
324.024	85.75
324.253	83.75
324.482	98.75
324.71	88.75
324.939	88.75
325.168	78.75
325.397	72.75
325.626	88.75
325.855	75.75
326.084	88.75
326.313	72.75
326.542	81.75
326.77	76.75
326.999	89.75
327.228	77.75
327.457	97.75
327.686	74.75
327.914	86.75
328.143	80.75
328.372	76.75
328.6	76.75
328.829	96.75
329.058	66.75
329.287	76.75
329.515	84.75
329.744	95.75
329.972	80.75
330.201	72.75
330.43	79.75
330.658	88.75
330.887	73.75
331.115	80.75
331.344	93.75
331.572	84.75
331.801	85.75
332.03	75.75
332.258	91.75
332.486	82.75
332.715	76.75
332.943	79.75
333.172	82.75
333.4	84.75
333.629	84.75
333.857	79.75
334.085	82.75
334.314	71.75
334.542	82.75
334.771	83.75
334.999	74.75
335.227	90.75
335.455	86.75
335.684	84.75
335.912	74.75
336.14	82.75
336.369	80.75
336.597	80.75
336.825	83.75
337.053	75.75
337.281	73.75
337.51	83.75
337.738	77.75
337.966	74.75
338.194	83.75
338.422	88.75
338.65	82.75
338.878	88.75
339.106	69.75
339.334	79.75
339.562	75.75
339.79	81.75
340.018	71.75
340.246	92.75
340.474	96.75
340.702	81.75
340.93	81.75
341.158	79.75
341.386	70.75
341.614	94.75
341.842	105.75
342.07	95.75
342.298	86.75
342.526	89.75
342.754	74.75
342.981	87.75
343.209	78.75
343.437	78.75
343.665	87.75
343.893	80.75
344.12	94.75
344.348	89.75
344.576	78.75
344.804	70.75
345.031	80.75
345.259	83.75
345.487	87.75
345.714	74.75
345.942	80.75
346.17	100.75
346.397	89.75
346.625	89.75
346.853	92.75
347.08	82.75
347.308	95.75
347.535	93.75
347.763	81.75
347.99	91.75
348.218	92.75
348.445	70.75
348.673	82.75
348.9	78.75
349.128	86.75
349.355	83.75
349.583	89.75
349.81	89.75
350.037	72.75
350.265	88.75
350.492	83.75
350.72	85.75
350.947	87.75
351.174	73.75
351.402	86.75
351.629	75.75
351.856	86.75
352.083	101.75
352.311	97.75
352.538	89.75
352.765	84.75
352.992	85.75
353.22	88.75
353.447	80.75
353.674	83.75
353.901	76.75
354.128	91.75
354.355	79.75
354.583	89.75
354.81	103.75
355.037	100.75
355.264	87.75
355.491	100.75
355.718	69.75
355.945	82.75
356.172	93.75
356.399	82.75
356.626	70.75
356.853	70.75
357.08	73.75
357.307	89.75
357.534	87.75
357.761	97.75
357.988	85.75
358.215	81.75
358.441	76.75
358.668	74.75
358.895	85.75
359.122	87.75
359.349	89.75
359.576	77.75
359.802	84.75
360.029	83.75
360.256	80.75
360.483	67.75
360.709	65.75
360.936	81.75
361.163	91.75
361.39	75.75
361.616	69.75
361.843	86.75
362.07	83.75
362.296	83.75
362.523	80.75
362.749	82.75
362.976	81.75
363.203	84.75
363.429	85.75
363.656	85.75
363.882	83.75
364.109	87.75
364.335	78.75
364.562	94.75
364.788	85.75
365.015	80.75
365.241	76.75
365.468	90.75
365.694	81.75
365.92	89.75
366.147	88.75
366.373	90.75
366.599	73.75
366.826	83.75
367.052	77.75
367.278	82.75
367.505	83.75
367.731	83.75
367.957	76.75
368.184	88.75
368.41	79.75
368.636	79.75
368.862	76.75
369.089	76.75
369.315	75.75
369.541	82.75
369.767	81.75
369.993	75.75
370.219	84.75
370.445	71.75
370.672	72.75
370.898	76.75
371.124	76.75
371.35	84.75
371.576	76.75
371.802	81.75
372.028	86.75
372.254	84.75
372.48	87.75
372.706	86.75
372.932	77.75
373.158	82.75
373.384	88.75
373.61	81.75
373.835	77.75
374.061	81.75
374.287	86.75
374.513	86.75
374.739	75.75
374.965	80.75
375.191	90.75
375.416	85.75
375.642	83.75
375.868	92.75
376.094	81.75
376.319	76.75
376.545	73.75
376.771	96.75
376.997	87.75
377.222	80.75
377.448	92.75
377.674	88.75
377.899	81.75
378.125	91.75
378.35	80.75
378.576	81.75
378.802	95.75
379.027	84.75
379.253	82.75
379.478	87.75
379.704	89.75
379.929	87.75
380.155	103.75
380.38	88.75
380.606	80.75
380.831	83.75
381.057	82.75
381.282	86.75
381.507	81.75
381.733	87.75
381.958	83.75
382.184	82.75
382.409	72.75
382.634	79.75
382.86	79.75
383.085	79.75
383.31	83.75
383.535	92.75
383.761	89.75
383.986	81.75
384.211	78.75
384.436	86.75
384.662	82.75
384.887	88.75
385.112	82.75
385.337	96.75
385.562	83.75
385.787	84.75
386.013	81.75
386.238	86.75
386.463	81.75
386.688	64.75
386.913	80.75
387.138	82.75
387.363	73.75
387.588	86.75
387.813	88.75
388.038	86.75
388.263	90.75
388.488	97.75
388.713	89.75
388.938	84.75
389.163	78.75
389.387	80.75
389.612	78.75
389.837	60.75
390.062	88.75
390.287	82.75
390.512	78.75
390.736	75.75
390.961	82.75
391.186	82.75
391.411	95.75
391.636	87.75
391.86	90.75
392.085	85.75
392.31	90.75
392.534	88.75
392.759	81.75
392.984	80.75
393.208	79.75
393.433	74.75
393.658	94.75
393.882	77.75
394.107	81.75
394.331	70.75
394.556	71.75
394.78	72.75
395.005	88.75
395.229	79.75
395.454	88.75
395.678	77.75
395.903	83.75
396.127	95.75
396.352	92.75
396.576	94.75
396.801	96.75
397.025	87.75
397.249	81.75
397.474	88.75
397.698	76.75
397.922	67.75
398.147	88.75
398.371	87.75
398.595	89.75
398.82	70.75
399.044	87.75
399.268	73.75
399.492	75.75
399.717	89.75
399.941	80.75
400.165	89.75
400.389	96.75
400.613	98.75
400.837	84.75
401.062	73.75
401.286	91.75
401.51	80.75
401.734	75.75
401.958	83.75
402.182	84.75
402.406	85.75
402.63	84.75
402.854	82.75
403.078	89.75
403.302	69.75
403.526	88.75
403.75	79.75
403.974	97.75
404.198	83.75
404.422	84.75
404.645	73.75
404.869	86.75
405.093	81.75
405.317	85.75
405.541	72.75
405.765	70.75
405.988	87.75
406.212	76.75
406.436	82.75
406.66	84.75
406.883	79.75
407.107	90.75
407.331	89.75
407.555	79.75
407.778	83.75
408.002	87.75
408.226	79.75
408.449	76.75
408.673	96.75
408.896	88.75
409.12	91.75
409.344	90.75
409.567	89.75
409.791	72.75
410.014	96.75
410.238	90.75
410.461	89.75
410.685	88.75
410.908	87.75
411.132	75.75
411.355	79.75
411.578	77.75
411.802	67.75
412.025	95.75
412.249	82.75
412.472	79.75
412.695	80.75
412.919	95.75
413.142	104.75
413.365	86.75
413.589	79.75
413.812	81.75
414.035	85.75
414.258	80.75
414.482	80.75
414.705	82.75
414.928	86.75
415.151	88.75
415.374	85.75
415.597	78.75
415.821	86.75
416.044	88.75
416.267	88.75
416.49	76.75
416.713	87.75
416.936	75.75
417.159	76.75
417.382	86.75
417.605	73.75
417.828	64.75
418.051	79.75
418.274	89.75
418.497	88.75
418.72	80.75
418.943	70.75
419.166	98.75
419.389	82.75
419.611	85.75
419.834	100.75
420.057	91.75
420.28	79.75
420.503	92.75
420.726	76.75
420.948	91.75
421.171	86.75
421.394	71.75
421.617	82.75
421.839	88.75
422.062	97.75
422.285	71.75
422.507	71.75
422.73	82.75
422.953	90.75
423.175	66.75
423.398	93.75
423.621	77.75
423.843	97.75
424.066	87.75
424.288	77.75
424.511	74.75
424.733	78.75
424.956	86.75
425.178	99.75
425.401	80.75
425.623	78.75
425.846	77.75
426.068	71.75
426.291	78.75
426.513	80.75
426.735	83.75
426.958	81.75
427.18	85.75
427.402	93.75
427.625	95.75
427.847	65.75
428.069	82.75
428.292	90.75
428.514	83.75
428.736	86.75
428.958	87.75
429.181	86.75
429.403	89.75
429.625	87.75
429.847	88.75
430.069	85.75
430.292	93.75
430.514	90.75
430.736	102.75
430.958	117.75
431.18	72.75
431.402	89.75
431.624	84.75
431.846	83.75
432.068	87.75
432.29	76.75
432.512	74.75
432.734	96.75
432.956	86.75
433.178	94.75
433.4	94.75
433.622	93.75
433.844	87.75
434.066	84.75
434.287	80.75
434.509	64.75
434.731	89.75
434.953	87.75
435.175	88.75
435.397	86.75
435.618	82.75
435.84	92.75
436.062	85.75
436.284	84.75
436.505	79.75
436.727	68.75
436.949	85.75
437.17	80.75
437.392	75.75
437.614	86.75
437.835	95.75
438.057	86.75
438.278	80.75
438.5	80.75
438.721	62.75
438.943	78.75
439.165	85.75
439.386	83.75
439.608	76.75
439.829	83.75
440.05	82.75
440.272	82.75
440.493	81.75
440.715	75.75
440.936	75.75
441.158	68.75
441.379	89.75
441.6	72.75
441.822	62.75
442.043	81.75
442.264	83.75
442.486	85.75
442.707	85.75
442.928	101.75
443.149	76.75
443.371	91.75
443.592	90.75
443.813	87.75
444.034	83.75
444.255	87.75
444.476	81.75
444.698	84.75
444.919	87.75
445.14	190.75
445.361	134.75
445.582	92.75
445.803	89.75
446.024	93.75
446.245	82.75
446.466	76.75
446.687	83.75
446.908	95.75
447.129	93.75
447.35	79.75
447.571	81.75
447.792	81.75
448.013	91.75
448.234	71.75
448.455	83.75
448.675	94.75
448.896	81.75
449.117	85.75
449.338	86.75
449.559	79.75
449.779	83.75
450	77.75
450.221	82.75
450.442	79.75
450.662	76.75
450.883	70.75
451.104	83.75
451.324	76.75
451.545	79.75
451.766	96.75
451.986	89.75
452.207	92.75
452.428	86.75
452.648	84.75
452.869	86.75
453.089	75.75
453.31	87.75
453.53	81.75
453.751	84.75
453.971	78.75
454.192	75.75
454.412	82.75
454.633	83.75
454.853	72.75
455.073	82.75
455.294	80.75
455.514	88.75
455.734	97.75
455.955	80.75
456.175	99.75
456.395	78.75
456.616	89.75
456.836	77.75
457.056	80.75
457.276	86.75
457.497	95.75
457.717	81.75
457.937	86.75
458.157	91.75
458.377	82.75
458.598	87.75
458.818	83.75
459.038	80.75
459.258	77.75
459.478	92.75
459.698	99.75
459.918	88.75
460.138	85.75
460.358	91.75
460.578	76.75
460.798	98.75
461.018	74.75
461.238	70.75
461.458	86.75
461.678	77.75
461.898	84.75
462.118	93.75
462.338	91.75
462.558	87.75
462.777	80.75
462.997	89.75
463.217	90.75
463.437	94.75
463.657	73.75
463.876	91.75
464.096	79.75
464.316	89.75
464.536	87.75
464.755	88.75
464.975	91.75
465.195	79.75
465.414	89.75
465.634	88.75
465.854	75.75
466.073	87.75
466.293	80.75
466.512	66.75
466.732	73.75
466.951	87.75
467.171	96.75
467.391	94.75
467.61	89.75
467.829	80.75
468.049	100.75
468.268	81.75
468.488	70.75
468.707	93.75
468.927	82.75
469.146	98.75
469.365	73.75
469.585	94.75
469.804	74.75
470.023	88.75
470.243	79.75
470.462	82.75
470.681	87.75
470.901	78.75
471.12	78.75
471.339	62.75
471.558	72.75
471.777	92.75
471.997	99.75
472.216	95.75
472.435	83.75
472.654	71.75
472.873	98.75
473.092	100.75
473.311	79.75
473.53	93.75
473.749	89.75
473.968	82.75
474.187	98.75
474.406	81.75
474.625	79.75
474.844	84.75
475.063	75.75
475.282	86.75
475.501	90.75
475.72	94.75
475.939	80.75
476.158	86.75
476.377	97.75
476.596	86.75
476.814	81.75
477.033	91.75
477.252	83.75
477.471	90.75
477.69	81.75
477.908	85.75
478.127	89.75
478.346	106.75
478.564	82.75
478.783	90.75
479.002	106.75
479.22	104.75
479.439	87.75
479.658	89.75
479.876	78.75
480.095	80.75
480.313	95.75
480.532	85.75
480.751	80.75
480.969	88.75
481.188	77.75
481.406	83.75
481.624	91.75
481.843	81.75
482.061	93.75
482.28	91.75
482.498	77.75
482.717	99.75
482.935	76.75
483.153	91.75
483.372	87.75
483.59	79.75
483.808	76.75
484.027	84.75
484.245	95.75
484.463	80.75
484.681	102.75
484.9	98.75
485.118	85.75
485.336	86.75
485.554	101.75
485.772	87.75
485.99	74.75
486.209	87.75
486.427	76.75
486.645	88.75
486.863	77.75
487.081	67.75
487.299	82.75
487.517	93.75
487.735	89.75
487.953	83.75
488.171	92.75
488.389	91.75
488.607	87.75
488.825	70.75
489.043	92.75
489.261	82.75
489.479	83.75
489.696	78.75
489.914	92.75
490.132	68.75
490.35	93.75
490.568	94.75
490.786	81.75
491.003	98.75
491.221	77.75
491.439	89.75
491.657	104.75
491.874	94.75
492.092	120.75
492.31	110.75
492.527	112.75
492.745	88.75
492.963	83.75
493.18	99.75
493.398	103.75
493.615	95.75
493.833	94.75
494.05	96.75
494.268	100.75
494.485	104.75
494.703	95.75
494.92	91.75
495.138	102.75
495.355	103.75
495.573	92.75
495.79	82.75
496.008	97.75
496.225	101.75
496.442	83.75
496.66	101.75
496.877	83.75
497.094	95.75
497.312	89.75
497.529	87.75
497.746	102.75
497.963	90.75
498.181	103.75
498.398	98.75
498.615	105.75
498.832	89.75
499.049	89.75
499.267	103.75
499.484	122.75
499.701	113.75
499.918	99.75
500.135	119.75
500.352	112.75
500.569	122.75
500.786	110.75
501.003	110.75
501.22	107.75
501.437	100.75
501.654	96.75
501.871	106.75
502.088	99.75
502.305	89.75
502.522	97.75
502.739	70.75
502.956	97.75
503.172	102.75
503.389	97.75
503.606	98.75
503.823	105.75
504.04	87.75
504.256	97.75
504.473	90.75
504.69	84.75
504.907	98.75
505.123	91.75
505.34	95.75
505.557	90.75
505.773	94.75
505.99	80.75
506.207	96.75
506.423	82.75
506.64	82.75
506.856	92.75
507.073	90.75
507.289	76.75
507.506	106.75
507.722	102.75
507.939	70.75
508.155	86.75
508.372	90.75
508.588	84.75
508.805	74.75
509.021	91.75
509.238	85.75
509.454	94.75
509.67	75.75
509.887	84.75
510.103	90.75
510.319	83.75
510.536	80.75
510.752	81.75
510.968	92.75
511.184	80.75
511.401	77.75
511.617	85.75
511.833	81.75
512.049	86.75
512.265	87.75
512.481	96.75
512.698	94.75
512.914	95.75
513.13	95.75
513.346	83.75
513.562	85.75
513.778	89.75
513.994	91.75
514.21	88.75
514.426	93.75
514.642	81.75
514.858	95.75
515.074	89.75
515.29	76.75
515.506	95.75
515.721	84.75
515.937	97.75
516.153	90.75
516.369	90.75
516.585	83.75
516.801	94.75
517.016	89.75
517.232	95.75
517.448	89.75
517.664	98.75
517.879	85.75
518.095	95.75
518.311	91.75
518.527	96.75
518.742	94.75
