Data from Ni(NO3)2@0.25M.TitratingCurve.Agarose3%dH2O.NegLispCup.LampEnergy10.LIBS07252019_HRD10591_18-05-20-566.txt Node
Date: Thu Jul 25 18:05:20 EDT 2019
User: cochatt
Spectrometer: HR+D1059
Trigger mode: 1
Integration Time (sec): 1.000000E-1
Scans to average: 1
Electric dark correction enabled: true
Nonlinearity correction enabled: false
Boxcar width: 0
XAxis mode: Wavelengths
Number of Pixels in Spectrum: 2048
>>>>>Begin Spectral Data<<<<<
223.165	-26.69
223.4	-26.69
223.635	-26.69
223.869	-13.69
224.104	-12.69
224.338	-7.69
224.573	-21.69
224.808	-9.69
225.042	-5.69
225.277	-10.69
225.511	8.31
225.746	15.31
225.98	3.31
226.215	0.31
226.449	36.31
226.683	16.31
226.918	14.31
227.152	14.31
227.387	37.31
227.621	36.31
227.856	42.31
228.09	40.31
228.324	53.31
228.559	61.31
228.793	58.31
229.027	63.31
229.262	81.31
229.496	70.31
229.73	83.31
229.964	91.31
230.199	99.31
230.433	108.31
230.667	104.31
230.901	101.31
231.136	86.31
231.37	94.31
231.604	106.31
231.838	117.31
232.072	108.31
232.306	118.31
232.541	107.31
232.775	128.31
233.009	115.31
233.243	113.31
233.477	103.31
233.711	111.31
233.945	115.31
234.179	107.31
234.413	104.31
234.647	113.31
234.881	111.31
235.115	99.31
235.349	105.31
235.583	116.31
235.817	104.31
236.051	115.31
236.285	117.31
236.519	107.31
236.753	102.31
236.987	119.31
237.221	120.31
237.455	117.31
237.689	134.31
237.922	124.31
238.156	126.31
238.39	125.31
238.624	129.31
238.858	109.31
239.091	116.31
239.325	107.31
239.559	119.31
239.793	128.31
240.027	120.31
240.26	127.31
240.494	107.31
240.728	117.31
240.961	133.31
241.195	130.31
241.429	114.31
241.662	119.31
241.896	118.31
242.13	127.31
242.363	123.31
242.597	111.31
242.83	131.31
243.064	129.31
243.298	126.31
243.531	135.31
243.765	142.31
243.998	124.31
244.232	135.31
244.465	129.31
244.699	125.31
244.932	139.31
245.166	118.31
245.399	132.31
245.633	133.31
245.866	155.31
246.099	153.31
246.333	140.31
246.566	131.31
246.8	119.31
247.033	149.31
247.266	133.31
247.5	131.31
247.733	144.31
247.966	143.31
248.2	152.31
248.433	153.31
248.666	154.31
248.899	151.31
249.133	159.31
249.366	160.31
249.599	153.31
249.832	159.31
250.066	159.31
250.299	165.31
250.532	167.31
250.765	158.31
250.998	158.31
251.231	170.31
251.465	183.31
251.698	163.31
251.931	168.31
252.164	164.31
252.397	166.31
252.63	168.31
252.863	170.31
253.096	172.31
253.329	176.31
253.562	187.31
253.795	179.31
254.028	192.31
254.261	171.31
254.494	173.31
254.727	186.31
254.96	184.31
255.193	183.31
255.426	164.31
255.659	187.31
255.892	182.31
256.124	177.31
256.357	192.31
256.59	192.31
256.823	179.31
257.056	195.31
257.289	189.31
257.521	201.31
257.754	194.31
257.987	201.31
258.22	203.31
258.452	203.31
258.685	195.31
258.918	196.31
259.151	201.31
259.383	205.31
259.616	198.31
259.849	200.31
260.081	212.31
260.314	200.31
260.547	193.31
260.779	216.31
261.012	218.31
261.244	212.31
261.477	223.31
261.71	210.31
261.942	223.31
262.175	205.31
262.407	219.31
262.64	197.31
262.872	208.31
263.105	220.31
263.337	231.31
263.57	218.31
263.802	218.31
264.035	209.31
264.267	219.31
264.499	210.31
264.732	205.31
264.964	221.31
265.197	209.31
265.429	214.31
265.661	231.31
265.894	243.31
266.126	249.31
266.358	247.31
266.591	226.31
266.823	230.31
267.055	225.31
267.287	220.31
267.52	228.31
267.752	231.31
267.984	239.31
268.216	233.31
268.448	249.31
268.681	241.31
268.913	243.31
269.145	241.31
269.377	225.31
269.609	243.31
269.841	229.31
270.073	243.31
270.306	229.31
270.538	228.31
270.77	232.31
271.002	236.31
271.234	223.31
271.466	238.31
271.698	221.31
271.93	227.31
272.162	244.31
272.394	241.31
272.626	233.31
272.858	242.31
273.09	232.31
273.322	243.31
273.553	263.31
273.785	257.31
274.017	274.31
274.249	271.31
274.481	260.31
274.713	262.31
274.945	243.31
275.176	236.31
275.408	246.31
275.64	250.31
275.872	261.31
276.104	260.31
276.335	263.31
276.567	255.31
276.799	250.31
277.031	269.31
277.262	264.31
277.494	256.31
277.726	267.31
277.957	270.31
278.189	269.31
278.421	269.31
278.652	269.31
278.884	261.31
279.115	269.31
279.347	264.31
279.579	276.31
279.81	257.31
280.042	297.31
280.273	267.31
280.505	272.31
280.736	268.31
280.968	273.31
281.199	293.31
281.431	286.31
281.662	267.31
281.894	290.31
282.125	273.31
282.356	265.31
282.588	257.31
282.819	269.31
283.051	285.31
283.282	289.31
283.513	284.31
283.745	307.31
283.976	295.31
284.207	298.31
284.439	287.31
284.67	301.31
284.901	289.31
285.132	283.31
285.364	294.31
285.595	298.31
285.826	288.31
286.057	289.31
286.288	296.31
286.52	294.31
286.751	296.31
286.982	290.31
287.213	309.31
287.444	306.31
287.675	292.31
287.906	310.31
288.138	289.31
288.369	293.31
288.6	292.31
288.831	303.31
289.062	293.31
289.293	295.31
289.524	275.31
289.755	295.31
289.986	303.31
290.217	298.31
290.448	313.31
290.679	307.31
290.91	297.31
291.141	315.31
291.371	321.31
291.602	326.31
291.833	298.31
292.064	330.31
292.295	301.31
292.526	320.31
292.757	303.31
292.987	309.31
293.218	322.31
293.449	308.31
293.68	308.31
293.91	311.31
294.141	311.31
294.372	308.31
294.603	298.31
294.833	321.31
295.064	300.31
295.295	322.31
295.525	319.31
295.756	314.31
295.987	320.31
296.217	314.31
296.448	348.31
296.679	294.31
296.909	311.31
297.14	325.31
297.37	336.31
297.601	330.31
297.831	310.31
298.062	328.31
298.292	317.31
298.523	321.31
298.753	339.31
298.984	333.31
299.214	327.31
299.445	306.31
299.675	342.31
299.905	336.31
300.136	333.31
300.366	345.31
300.597	346.31
300.827	338.31
301.057	341.31
301.288	337.31
301.518	333.31
301.748	347.31
301.979	351.31
302.209	345.31
302.439	350.31
302.669	354.31
302.9	356.31
303.13	337.31
303.36	359.31
303.59	359.31
303.82	349.31
304.051	351.31
304.281	330.31
304.511	333.31
304.741	338.31
304.971	319.31
305.201	329.31
305.431	353.31
305.661	349.31
305.891	355.31
306.121	334.31
306.352	358.31
306.582	342.31
306.812	335.31
307.042	356.31
307.272	333.31
307.502	356.31
307.731	328.31
307.961	341.31
308.191	320.31
308.421	346.31
308.651	343.31
308.881	340.31
309.111	327.31
309.341	356.31
309.571	336.31
309.8	353.31
310.03	354.31
310.26	377.31
310.49	359.31
310.72	362.31
310.949	337.31
311.179	347.31
311.409	348.31
311.639	368.31
311.868	368.31
312.098	377.31
312.328	346.31
312.557	367.31
312.787	374.31
313.017	355.31
313.246	381.31
313.476	369.31
313.706	387.31
313.935	376.31
314.165	387.31
314.394	385.31
314.624	380.31
314.853	369.31
315.083	396.31
315.312	372.31
315.542	375.31
315.771	385.31
316.001	391.31
316.23	371.31
316.46	380.31
316.689	371.31
316.919	387.31
317.148	363.31
317.377	362.31
317.607	368.31
317.836	359.31
318.065	393.31
318.295	372.31
318.524	369.31
318.753	377.31
318.983	381.31
319.212	395.31
319.441	374.31
319.67	388.31
319.9	395.31
320.129	387.31
320.358	365.31
320.587	383.31
320.816	371.31
321.046	400.31
321.275	394.31
321.504	395.31
321.733	416.31
321.962	401.31
322.191	392.31
322.42	403.31
322.649	400.31
322.878	397.31
323.108	429.31
323.337	388.31
323.566	418.31
323.795	412.31
324.024	433.31
324.253	405.31
324.482	421.31
324.71	393.31
324.939	409.31
325.168	405.31
325.397	413.31
325.626	423.31
325.855	438.31
326.084	451.31
326.313	444.31
326.542	464.31
326.77	460.31
326.999	415.31
327.228	448.31
327.457	429.31
327.686	436.31
327.914	438.31
328.143	449.31
328.372	445.31
328.6	431.31
328.829	450.31
329.058	449.31
329.287	456.31
329.515	447.31
329.744	450.31
329.972	474.31
330.201	454.31
330.43	439.31
330.658	475.31
330.887	476.31
331.115	449.31
331.344	484.31
331.572	464.31
331.801	453.31
332.03	511.31
332.258	509.31
332.486	522.31
332.715	537.31
332.943	575.31
333.172	579.31
333.4	586.31
333.629	612.31
333.857	624.31
334.085	599.31
334.314	600.31
334.542	562.31
334.771	588.31
334.999	572.31
335.227	580.31
335.455	582.31
335.684	552.31
335.912	567.31
336.14	551.31
336.369	552.31
336.597	565.31
336.825	551.31
337.053	543.31
337.281	544.31
337.51	551.31
337.738	519.31
337.966	529.31
338.194	522.31
338.422	511.31
338.65	511.31
338.878	506.31
339.106	498.31
339.334	504.31
339.562	505.31
339.79	503.31
340.018	480.31
340.246	484.31
340.474	482.31
340.702	489.31
340.93	499.31
341.158	494.31
341.386	475.31
341.614	488.31
341.842	490.31
342.07	484.31
342.298	477.31
342.526	477.31
342.754	483.31
342.981	498.31
343.209	509.31
343.437	519.31
343.665	556.31
343.893	590.31
344.12	577.31
344.348	579.31
344.576	563.31
344.804	531.31
345.031	501.31
345.259	495.31
345.487	507.31
345.714	496.31
345.942	483.31
346.17	477.31
346.397	488.31
346.625	477.31
346.853	471.31
347.08	451.31
347.308	456.31
347.535	486.31
347.763	480.31
347.99	473.31
348.218	465.31
348.445	466.31
348.673	464.31
348.9	463.31
349.128	474.31
349.355	466.31
349.583	463.31
349.81	473.31
350.037	471.31
350.265	469.31
350.492	454.31
350.72	458.31
350.947	452.31
351.174	452.31
351.402	471.31
351.629	469.31
351.856	442.31
352.083	452.31
352.311	460.31
352.538	468.31
352.765	459.31
352.992	451.31
353.22	444.31
353.447	457.31
353.674	478.31
353.901	467.31
354.128	459.31
354.355	460.31
354.583	465.31
354.81	470.31
355.037	434.31
355.264	443.31
355.491	468.31
355.718	452.31
355.945	456.31
356.172	447.31
356.399	466.31
356.626	448.31
356.853	457.31
357.08	455.31
357.307	476.31
357.534	453.31
357.761	469.31
357.988	465.31
358.215	455.31
358.441	465.31
358.668	467.31
358.895	457.31
359.122	472.31
359.349	467.31
359.576	455.31
359.802	448.31
360.029	459.31
360.256	438.31
360.483	459.31
360.709	448.31
360.936	470.31
361.163	495.31
361.39	443.31
361.616	439.31
361.843	461.31
362.07	477.31
362.296	472.31
362.523	430.31
362.749	472.31
362.976	452.31
363.203	458.31
363.429	472.31
363.656	449.31
363.882	433.31
364.109	442.31
364.335	445.31
364.562	440.31
364.788	457.31
365.015	444.31
365.241	439.31
365.468	458.31
365.694	454.31
365.92	445.31
366.147	449.31
366.373	439.31
366.599	442.31
366.826	445.31
367.052	461.31
367.278	448.31
367.505	440.31
367.731	468.31
367.957	467.31
368.184	461.31
368.41	450.31
368.636	436.31
368.862	452.31
369.089	461.31
369.315	465.31
369.541	453.31
369.767	476.31
369.993	476.31
370.219	476.31
370.445	477.31
370.672	485.31
370.898	472.31
371.124	470.31
371.35	471.31
371.576	482.31
371.802	476.31
372.028	473.31
372.254	490.31
372.48	495.31
372.706	515.31
372.932	509.31
373.158	517.31
373.384	488.31
373.61	510.31
373.835	495.31
374.061	475.31
374.287	491.31
374.513	516.31
374.739	505.31
374.965	524.31
375.191	533.31
375.416	540.31
375.642	504.31
375.868	488.31
376.094	499.31
376.319	485.31
376.545	483.31
376.771	466.31
376.997	465.31
377.222	476.31
377.448	484.31
377.674	490.31
377.899	457.31
378.125	465.31
378.35	478.31
378.576	494.31
378.802	485.31
379.027	476.31
379.253	477.31
379.478	455.31
379.704	455.31
379.929	475.31
380.155	489.31
380.38	471.31
380.606	466.31
380.831	477.31
381.057	494.31
381.282	457.31
381.507	475.31
381.733	473.31
381.958	476.31
382.184	466.31
382.409	466.31
382.634	482.31
382.86	511.31
383.085	528.31
383.31	508.31
383.535	499.31
383.761	505.31
383.986	503.31
384.211	538.31
384.436	531.31
384.662	572.31
384.887	573.31
385.112	575.31
385.337	578.31
385.562	567.31
385.787	579.31
386.013	605.31
386.238	583.31
386.463	574.31
386.688	583.31
386.913	543.31
387.138	560.31
387.363	569.31
387.588	544.31
387.813	591.31
388.038	548.31
388.263	561.31
388.488	569.31
388.713	558.31
388.938	558.31
389.163	561.31
389.387	573.31
389.612	547.31
389.837	565.31
390.062	546.31
390.287	549.31
390.512	544.31
390.736	571.31
390.961	570.31
391.186	572.31
391.411	626.31
391.636	600.31
391.86	631.31
392.085	615.31
392.31	637.31
392.534	608.31
392.759	607.31
392.984	599.31
393.208	608.31
393.433	606.31
393.658	605.31
393.882	586.31
394.107	619.31
394.331	614.31
394.556	625.31
394.78	613.31
395.005	604.31
395.229	597.31
395.454	648.31
395.678	635.31
395.903	650.31
396.127	619.31
396.352	611.31
396.576	617.31
396.801	597.31
397.025	635.31
397.249	620.31
397.474	659.31
397.698	646.31
397.922	642.31
398.147	623.31
398.371	661.31
398.595	671.31
398.82	730.31
399.044	769.31
399.268	841.31
399.492	924.31
399.717	1023.31
399.941	1003.31
400.165	937.31
400.389	824.31
400.613	808.31
400.837	785.31
401.062	715.31
401.286	721.31
401.51	711.31
401.734	690.31
401.958	729.31
402.182	736.31
402.406	728.31
402.63	738.31
402.854	765.31
403.078	775.31
403.302	781.31
403.526	804.31
403.75	807.31
403.974	808.31
404.198	780.31
404.422	835.31
404.645	800.31
404.869	821.31
405.093	815.31
405.317	788.31
405.541	780.31
405.765	787.31
405.988	787.31
406.212	802.31
406.436	810.31
406.66	787.31
406.883	803.31
407.107	873.31
407.331	876.31
407.555	932.31
407.778	901.31
408.002	920.31
408.226	896.31
408.449	856.31
408.673	843.31
408.896	844.31
409.12	809.31
409.344	819.31
409.567	821.31
409.791	828.31
410.014	782.31
410.238	795.31
410.461	775.31
410.685	773.31
410.908	768.31
411.132	778.31
411.355	762.31
411.578	753.31
411.802	773.31
412.025	737.31
412.249	769.31
412.472	751.31
412.695	755.31
412.919	731.31
413.142	730.31
413.365	735.31
413.589	738.31
413.812	721.31
414.035	719.31
414.258	719.31
414.482	723.31
414.705	748.31
414.928	710.31
415.151	711.31
415.374	737.31
415.597	680.31
415.821	726.31
416.044	707.31
416.267	718.31
416.49	720.31
416.713	702.31
416.936	716.31
417.159	720.31
417.382	711.31
417.605	726.31
417.828	710.31
418.051	731.31
418.274	721.31
418.497	729.31
418.72	752.31
418.943	746.31
419.166	779.31
419.389	828.31
419.611	831.31
419.834	801.31
420.057	754.31
420.28	738.31
420.503	716.31
420.726	709.31
420.948	724.31
421.171	748.31
421.394	731.31
421.617	726.31
421.839	738.31
422.062	739.31
422.285	727.31
422.507	771.31
422.73	736.31
422.953	757.31
423.175	752.31
423.398	767.31
423.621	751.31
423.843	779.31
424.066	779.31
424.288	765.31
424.511	769.31
424.733	775.31
424.956	739.31
425.178	747.31
425.401	742.31
425.623	722.31
425.846	712.31
426.068	713.31
426.291	705.31
426.513	731.31
426.735	699.31
426.958	673.31
427.18	667.31
427.402	697.31
427.625	671.31
427.847	673.31
428.069	681.31
428.292	699.31
428.514	672.31
428.736	685.31
428.958	673.31
429.181	691.31
429.403	661.31
429.625	651.31
429.847	645.31
430.069	676.31
430.292	655.31
430.514	657.31
430.736	669.31
430.958	661.31
431.18	646.31
431.402	655.31
431.624	665.31
431.846	674.31
432.068	647.31
432.29	661.31
432.512	666.31
432.734	666.31
432.956	678.31
433.178	693.31
433.4	689.31
433.622	677.31
433.844	689.31
434.066	654.31
434.287	695.31
434.509	714.31
434.731	737.31
434.953	754.31
435.175	766.31
435.397	742.31
435.618	715.31
435.84	711.31
436.062	684.31
436.284	682.31
436.505	675.31
436.727	686.31
436.949	676.31
437.17	690.31
437.392	676.31
437.614	648.31
437.835	651.31
438.057	663.31
438.278	640.31
438.5	655.31
438.721	638.31
438.943	659.31
439.165	654.31
439.386	668.31
439.608	676.31
439.829	678.31
440.05	682.31
440.272	688.31
440.493	703.31
440.715	696.31
440.936	707.31
441.158	701.31
441.379	735.31
441.6	746.31
441.822	785.31
442.043	758.31
442.264	760.31
442.486	728.31
442.707	766.31
442.928	744.31
443.149	732.31
443.371	740.31
443.592	746.31
443.813	763.31
444.034	772.31
444.255	805.31
444.476	839.31
444.698	858.31
444.919	883.31
445.14	955.31
445.361	904.31
445.582	808.31
445.803	745.31
446.024	717.31
446.245	717.31
446.466	714.31
446.687	717.31
446.908	664.31
447.129	671.31
447.35	672.31
447.571	674.31
447.792	658.31
448.013	679.31
448.234	638.31
448.455	643.31
448.675	633.31
448.896	628.31
449.117	662.31
449.338	628.31
449.559	632.31
449.779	634.31
450	633.31
450.221	633.31
450.442	631.31
450.662	620.31
450.883	627.31
451.104	663.31
451.324	630.31
451.545	649.31
451.766	645.31
451.986	639.31
452.207	651.31
452.428	594.31
452.648	611.31
452.869	625.31
453.089	603.31
453.31	599.31
453.53	599.31
453.751	591.31
453.971	617.31
454.192	584.31
454.412	588.31
454.633	582.31
454.853	604.31
455.073	584.31
455.294	589.31
455.514	593.31
455.734	586.31
455.955	585.31
456.175	576.31
456.395	580.31
456.616	589.31
456.836	560.31
457.056	587.31
457.276	577.31
457.497	577.31
457.717	598.31
457.937	582.31
458.157	610.31
458.377	603.31
458.598	592.31
458.818	633.31
459.038	646.31
459.258	667.31
459.478	675.31
459.698	689.31
459.918	709.31
460.138	756.31
460.358	803.31
460.578	789.31
460.798	814.31
461.018	821.31
461.238	803.31
461.458	801.31
461.678	808.31
461.898	827.31
462.118	793.31
462.338	851.31
462.558	875.31
462.777	921.31
462.997	964.31
463.217	1056.31
463.437	1051.31
463.657	984.31
463.876	937.31
464.096	918.31
464.316	901.31
464.536	937.31
464.755	888.31
464.975	874.31
465.195	803.31
465.414	752.31
465.634	723.31
465.854	703.31
466.073	692.31
466.293	697.31
466.512	681.31
466.732	664.31
466.951	665.31
467.171	644.31
467.391	654.31
467.61	665.31
467.829	665.31
468.049	643.31
468.268	629.31
468.488	625.31
468.707	614.31
468.927	613.31
469.146	630.31
469.365	626.31
469.585	611.31
469.804	664.31
470.023	682.31
470.243	667.31
470.462	657.31
470.681	699.31
470.901	658.31
471.12	679.31
471.339	676.31
471.558	671.31
471.777	637.31
471.997	630.31
472.216	625.31
472.435	637.31
472.654	613.31
472.873	610.31
473.092	613.31
473.311	624.31
473.53	629.31
473.749	615.31
473.968	585.31
474.187	607.31
474.406	607.31
474.625	620.31
474.844	616.31
475.063	631.31
475.282	624.31
475.501	613.31
475.72	621.31
475.939	634.31
476.158	649.31
476.377	645.31
476.596	641.31
476.814	650.31
477.033	637.31
477.252	646.31
477.471	678.31
477.69	672.31
477.908	709.31
478.127	707.31
478.346	721.31
478.564	739.31
478.783	744.31
479.002	783.31
479.22	753.31
479.439	755.31
479.658	771.31
479.876	756.31
480.095	775.31
480.313	785.31
480.532	801.31
480.751	775.31
480.969	788.31
481.188	732.31
481.406	695.31
481.624	737.31
481.843	698.31
482.061	683.31
482.28	692.31
482.498	689.31
482.717	683.31
482.935	695.31
483.153	683.31
483.372	694.31
483.59	684.31
483.808	684.31
484.027	673.31
484.245	703.31
484.463	699.31
484.681	709.31
484.9	696.31
485.118	732.31
485.336	696.31
485.554	703.31
485.772	717.31
485.99	726.31
486.209	706.31
486.427	716.31
486.645	716.31
486.863	724.31
487.081	727.31
487.299	721.31
487.517	733.31
487.735	750.31
487.953	732.31
488.171	730.31
488.389	736.31
488.607	713.31
488.825	737.31
489.043	694.31
489.261	720.31
489.479	728.31
489.696	719.31
489.914	729.31
490.132	718.31
490.35	741.31
490.568	731.31
490.786	744.31
491.003	718.31
491.221	732.31
491.439	737.31
491.657	776.31
491.874	771.31
492.092	762.31
492.31	774.31
492.527	753.31
492.745	787.31
492.963	747.31
493.18	754.31
493.398	752.31
493.615	767.31
493.833	760.31
494.05	771.31
494.268	809.31
494.485	803.31
494.703	797.31
494.92	764.31
495.138	783.31
495.355	774.31
495.573	784.31
495.79	804.31
496.008	795.31
496.225	799.31
496.442	805.31
496.66	831.31
496.877	826.31
497.094	851.31
497.312	889.31
497.529	869.31
497.746	908.31
497.963	915.31
498.181	971.31
498.398	1014.31
498.615	1077.31
498.832	1133.31
499.049	1199.31
499.267	1305.31
499.484	1440.31
499.701	1579.31
499.918	1687.31
500.135	1928.31
500.352	2127.31
500.569	2188.31
500.786	2247.31
501.003	2114.31
501.22	1906.31
501.437	1710.31
