Data from Ni(NO3)2@0.125M.TitratingCurve.Agarose3%dH2O.NegLispCup.LampEnergy10.LIBS07252019_HRD10591_18-10-06-568.txt Node
Date: Thu Jul 25 18:10:06 EDT 2019
User: cochatt
Spectrometer: HR+D1059
Trigger mode: 1
Integration Time (sec): 1.000000E-1
Scans to average: 1
Electric dark correction enabled: true
Nonlinearity correction enabled: false
Boxcar width: 0
XAxis mode: Wavelengths
Number of Pixels in Spectrum: 2048
>>>>>Begin Spectral Data<<<<<
223.165	-16.19
223.4	-16.19
223.635	-16.19
223.869	-8.19
224.104	-29.19
224.338	-12.19
224.573	-15.19
224.808	-13.19
225.042	-14.19
225.277	-23.19
225.511	3.81
225.746	2.81
225.98	7.81
226.215	13.81
226.449	11.81
226.683	33.81
226.918	25.81
227.152	31.81
227.387	38.81
227.621	31.81
227.856	42.81
228.09	37.81
228.324	46.81
228.559	63.81
228.793	62.81
229.027	109.81
229.262	106.81
229.496	119.81
229.73	113.81
229.964	118.81
230.199	120.81
230.433	110.81
230.667	118.81
230.901	117.81
231.136	137.81
231.37	134.81
231.604	141.81
231.838	139.81
232.072	123.81
232.306	134.81
232.541	147.81
232.775	128.81
233.009	157.81
233.243	148.81
233.477	133.81
233.711	139.81
233.945	141.81
234.179	146.81
234.413	133.81
234.647	125.81
234.881	139.81
235.115	151.81
235.349	147.81
235.583	145.81
235.817	148.81
236.051	130.81
236.285	151.81
236.519	134.81
236.753	135.81
236.987	141.81
237.221	148.81
237.455	151.81
237.689	160.81
237.922	141.81
238.156	145.81
238.39	158.81
238.624	157.81
238.858	158.81
239.091	165.81
239.325	150.81
239.559	155.81
239.793	173.81
240.027	151.81
240.26	166.81
240.494	161.81
240.728	157.81
240.961	161.81
241.195	183.81
241.429	201.81
241.662	171.81
241.896	168.81
242.13	178.81
242.363	166.81
242.597	174.81
242.83	187.81
243.064	190.81
243.298	187.81
243.531	187.81
243.765	189.81
243.998	191.81
244.232	187.81
244.465	204.81
244.699	203.81
244.932	193.81
245.166	213.81
245.399	197.81
245.633	201.81
245.866	196.81
246.099	199.81
246.333	210.81
246.566	209.81
246.8	210.81
247.033	209.81
247.266	212.81
247.5	200.81
247.733	220.81
247.966	219.81
248.2	224.81
248.433	211.81
248.666	234.81
248.899	212.81
249.133	213.81
249.366	226.81
249.599	227.81
249.832	235.81
250.066	223.81
250.299	217.81
250.532	217.81
250.765	228.81
250.998	231.81
251.231	235.81
251.465	232.81
251.698	239.81
251.931	248.81
252.164	235.81
252.397	249.81
252.63	242.81
252.863	241.81
253.096	235.81
253.329	253.81
253.562	259.81
253.795	245.81
254.028	265.81
254.261	258.81
254.494	255.81
254.727	246.81
254.96	266.81
255.193	254.81
255.426	270.81
255.659	266.81
255.892	256.81
256.124	267.81
256.357	260.81
256.59	265.81
256.823	266.81
257.056	252.81
257.289	276.81
257.521	266.81
257.754	279.81
257.987	261.81
258.22	298.81
258.452	261.81
258.685	280.81
258.918	293.81
259.151	299.81
259.383	290.81
259.616	292.81
259.849	277.81
260.081	293.81
260.314	278.81
260.547	277.81
260.779	288.81
261.012	302.81
261.244	317.81
261.477	304.81
261.71	288.81
261.942	298.81
262.175	306.81
262.407	325.81
262.64	320.81
262.872	336.81
263.105	309.81
263.337	323.81
263.57	306.81
263.802	318.81
264.035	314.81
264.267	335.81
264.499	313.81
264.732	317.81
264.964	305.81
265.197	318.81
265.429	320.81
265.661	321.81
265.894	331.81
266.126	333.81
266.358	321.81
266.591	324.81
266.823	332.81
267.055	339.81
267.287	347.81
267.52	344.81
267.752	350.81
267.984	323.81
268.216	333.81
268.448	335.81
268.681	326.81
268.913	351.81
269.145	342.81
269.377	341.81
269.609	344.81
269.841	368.81
270.073	360.81
270.306	354.81
270.538	345.81
270.77	354.81
271.002	344.81
271.234	362.81
271.466	357.81
271.698	377.81
271.93	364.81
272.162	347.81
272.394	343.81
272.626	356.81
272.858	369.81
273.09	351.81
273.322	371.81
273.553	334.81
273.785	370.81
274.017	367.81
274.249	373.81
274.481	372.81
274.713	357.81
274.945	370.81
275.176	374.81
275.408	375.81
275.64	382.81
275.872	374.81
276.104	380.81
276.335	370.81
276.567	379.81
276.799	385.81
277.031	395.81
277.262	382.81
277.494	388.81
277.726	390.81
277.957	377.81
278.189	409.81
278.421	389.81
278.652	389.81
278.884	386.81
279.115	393.81
279.347	406.81
279.579	404.81
279.81	387.81
280.042	399.81
280.273	421.81
280.505	395.81
280.736	405.81
280.968	413.81
281.199	418.81
281.431	407.81
281.662	417.81
281.894	429.81
282.125	431.81
282.356	447.81
282.588	433.81
282.819	430.81
283.051	436.81
283.282	433.81
283.513	434.81
283.745	422.81
283.976	414.81
284.207	431.81
284.439	446.81
284.67	441.81
284.901	436.81
285.132	436.81
285.364	454.81
285.595	435.81
285.826	445.81
286.057	445.81
286.288	444.81
286.52	466.81
286.751	447.81
286.982	459.81
287.213	454.81
287.444	445.81
287.675	447.81
287.906	460.81
288.138	455.81
288.369	448.81
288.6	460.81
288.831	487.81
289.062	473.81
289.293	477.81
289.524	471.81
289.755	460.81
289.986	473.81
290.217	470.81
290.448	464.81
290.679	475.81
290.91	487.81
291.141	468.81
291.371	452.81
291.602	486.81
291.833	479.81
292.064	481.81
292.295	473.81
292.526	494.81
292.757	490.81
292.987	475.81
293.218	501.81
293.449	477.81
293.68	490.81
293.91	462.81
294.141	486.81
294.372	474.81
294.603	465.81
294.833	492.81
295.064	484.81
295.295	497.81
295.525	493.81
295.756	483.81
295.987	488.81
296.217	493.81
296.448	502.81
296.679	499.81
296.909	520.81
297.14	504.81
297.37	513.81
297.601	522.81
297.831	514.81
298.062	501.81
298.292	511.81
298.523	525.81
298.753	561.81
298.984	525.81
299.214	525.81
299.445	541.81
299.675	521.81
299.905	523.81
300.136	551.81
300.366	507.81
300.597	526.81
300.827	539.81
301.057	542.81
301.288	548.81
301.518	533.81
301.748	539.81
301.979	547.81
302.209	558.81
302.439	536.81
302.669	538.81
302.9	554.81
303.13	532.81
303.36	536.81
303.59	543.81
303.82	520.81
304.051	552.81
304.281	526.81
304.511	535.81
304.741	529.81
304.971	523.81
305.201	552.81
305.431	539.81
305.661	523.81
305.891	517.81
306.121	530.81
306.352	533.81
306.582	536.81
306.812	524.81
307.042	533.81
307.272	544.81
307.502	531.81
307.731	534.81
307.961	540.81
308.191	529.81
308.421	524.81
308.651	534.81
308.881	551.81
309.111	502.81
309.341	514.81
309.571	529.81
309.8	526.81
310.03	542.81
310.26	522.81
310.49	551.81
310.72	562.81
310.949	531.81
311.179	528.81
311.409	537.81
311.639	550.81
311.868	569.81
312.098	547.81
312.328	543.81
312.557	547.81
312.787	529.81
313.017	554.81
313.246	564.81
313.476	557.81
313.706	571.81
313.935	567.81
314.165	581.81
314.394	561.81
314.624	590.81
314.853	579.81
315.083	564.81
315.312	559.81
315.542	580.81
315.771	582.81
316.001	579.81
316.23	564.81
316.46	543.81
316.689	555.81
316.919	567.81
317.148	570.81
317.377	561.81
317.607	559.81
317.836	553.81
318.065	563.81
318.295	557.81
318.524	565.81
318.753	557.81
318.983	557.81
319.212	550.81
319.441	562.81
319.67	569.81
319.9	552.81
320.129	548.81
320.358	569.81
320.587	567.81
320.816	546.81
321.046	562.81
321.275	548.81
321.504	567.81
321.733	544.81
321.962	560.81
322.191	574.81
322.42	559.81
322.649	588.81
322.878	585.81
323.108	566.81
323.337	574.81
323.566	566.81
323.795	580.81
324.024	605.81
324.253	573.81
324.482	586.81
324.71	579.81
324.939	597.81
325.168	582.81
325.397	599.81
325.626	599.81
325.855	580.81
326.084	621.81
326.313	648.81
326.542	615.81
326.77	622.81
326.999	615.81
327.228	612.81
327.457	612.81
327.686	617.81
327.914	615.81
328.143	635.81
328.372	625.81
328.6	613.81
328.829	643.81
329.058	640.81
329.287	628.81
329.515	617.81
329.744	629.81
329.972	645.81
330.201	645.81
330.43	634.81
330.658	636.81
330.887	655.81
331.115	658.81
331.344	660.81
331.572	691.81
331.801	685.81
332.03	695.81
332.258	716.81
332.486	725.81
332.715	737.81
332.943	817.81
333.172	803.81
333.4	827.81
333.629	881.81
333.857	848.81
334.085	812.81
334.314	843.81
334.542	803.81
334.771	807.81
334.999	743.81
335.227	777.81
335.455	787.81
335.684	746.81
335.912	755.81
336.14	761.81
336.369	759.81
336.597	780.81
336.825	742.81
337.053	756.81
337.281	744.81
337.51	744.81
337.738	732.81
337.966	700.81
338.194	693.81
338.422	691.81
338.65	679.81
338.878	670.81
339.106	668.81
339.334	668.81
339.562	670.81
339.79	676.81
340.018	647.81
340.246	657.81
340.474	667.81
340.702	654.81
340.93	647.81
341.158	677.81
341.386	655.81
341.614	641.81
341.842	662.81
342.07	655.81
342.298	642.81
342.526	650.81
342.754	646.81
342.981	638.81
343.209	681.81
343.437	701.81
343.665	738.81
343.893	830.81
344.12	833.81
344.348	777.81
344.576	727.81
344.804	713.81
345.031	697.81
345.259	698.81
345.487	680.81
345.714	650.81
345.942	658.81
346.17	641.81
346.397	645.81
346.625	653.81
346.853	652.81
347.08	626.81
347.308	634.81
347.535	651.81
347.763	673.81
347.99	643.81
348.218	671.81
348.445	681.81
348.673	653.81
348.9	640.81
349.128	629.81
349.355	637.81
349.583	622.81
349.81	649.81
350.037	623.81
350.265	617.81
350.492	629.81
350.72	630.81
350.947	625.81
351.174	624.81
351.402	612.81
351.629	595.81
351.856	613.81
352.083	622.81
352.311	595.81
352.538	631.81
352.765	598.81
352.992	620.81
353.22	601.81
353.447	595.81
353.674	612.81
353.901	610.81
354.128	623.81
354.355	617.81
354.583	612.81
354.81	620.81
355.037	629.81
355.264	609.81
355.491	626.81
355.718	618.81
355.945	625.81
356.172	623.81
356.399	597.81
356.626	613.81
356.853	601.81
357.08	598.81
357.307	604.81
357.534	637.81
357.761	635.81
357.988	628.81
358.215	610.81
358.441	634.81
358.668	623.81
358.895	606.81
359.122	587.81
359.349	610.81
359.576	614.81
359.802	618.81
360.029	606.81
360.256	611.81
360.483	614.81
360.709	600.81
360.936	613.81
361.163	610.81
361.39	601.81
361.616	641.81
361.843	596.81
362.07	615.81
362.296	642.81
362.523	605.81
362.749	593.81
362.976	572.81
363.203	612.81
363.429	592.81
363.656	598.81
363.882	610.81
364.109	613.81
364.335	620.81
364.562	614.81
364.788	611.81
365.015	619.81
365.241	585.81
365.468	589.81
365.694	623.81
365.92	587.81
366.147	593.81
366.373	617.81
366.599	605.81
366.826	607.81
367.052	609.81
367.278	604.81
367.505	607.81
367.731	600.81
367.957	600.81
368.184	608.81
368.41	625.81
368.636	619.81
368.862	617.81
369.089	621.81
369.315	615.81
369.541	629.81
369.767	646.81
369.993	649.81
370.219	641.81
370.445	660.81
370.672	664.81
370.898	637.81
371.124	644.81
371.35	662.81
371.576	650.81
371.802	671.81
372.028	659.81
372.254	654.81
372.48	675.81
372.706	675.81
372.932	693.81
373.158	696.81
373.384	684.81
373.61	682.81
373.835	674.81
374.061	654.81
374.287	647.81
374.513	684.81
374.739	701.81
374.965	724.81
375.191	748.81
375.416	722.81
375.642	727.81
375.868	698.81
376.094	685.81
376.319	679.81
376.545	689.81
376.771	671.81
376.997	658.81
377.222	695.81
377.448	653.81
377.674	652.81
377.899	646.81
378.125	663.81
378.35	670.81
378.576	653.81
378.802	685.81
379.027	665.81
379.253	649.81
379.478	649.81
379.704	660.81
379.929	637.81
380.155	652.81
380.38	659.81
380.606	637.81
380.831	643.81
381.057	650.81
381.282	654.81
381.507	667.81
381.733	659.81
381.958	674.81
382.184	676.81
382.409	678.81
382.634	694.81
382.86	697.81
383.085	737.81
383.31	707.81
383.535	724.81
383.761	726.81
383.986	735.81
384.211	747.81
384.436	779.81
384.662	779.81
384.887	803.81
385.112	813.81
385.337	838.81
385.562	803.81
385.787	773.81
386.013	820.81
386.238	854.81
386.463	780.81
386.688	799.81
386.913	789.81
387.138	762.81
387.363	791.81
387.588	775.81
387.813	773.81
388.038	778.81
388.263	759.81
388.488	772.81
388.713	776.81
388.938	762.81
389.163	765.81
389.387	798.81
389.612	781.81
389.837	745.81
390.062	761.81
390.287	779.81
390.512	772.81
390.736	786.81
390.961	805.81
391.186	803.81
391.411	836.81
391.636	851.81
391.86	914.81
392.085	892.81
392.31	881.81
392.534	871.81
392.759	861.81
392.984	830.81
393.208	846.81
393.433	830.81
393.658	821.81
393.882	832.81
394.107	834.81
394.331	865.81
394.556	857.81
394.78	862.81
395.005	852.81
395.229	860.81
395.454	870.81
395.678	902.81
395.903	868.81
396.127	881.81
396.352	866.81
396.576	837.81
396.801	818.81
397.025	826.81
397.249	856.81
397.474	891.81
397.698	878.81
397.922	874.81
398.147	858.81
398.371	878.81
398.595	899.81
398.82	963.81
399.044	1031.81
399.268	1143.81
399.492	1334.81
399.717	1522.81
399.941	1540.81
400.165	1350.81
400.389	1173.81
400.613	1075.81
400.837	1045.81
401.062	1016.81
401.286	996.81
401.51	990.81
401.734	1004.81
401.958	1016.81
402.182	969.81
402.406	1025.81
402.63	1044.81
402.854	1051.81
403.078	1059.81
403.302	1087.81
403.526	1122.81
403.75	1142.81
403.974	1140.81
404.198	1175.81
404.422	1175.81
404.645	1139.81
404.869	1120.81
405.093	1126.81
405.317	1099.81
405.541	1065.81
405.765	1073.81
405.988	1068.81
406.212	1079.81
406.436	1082.81
406.66	1096.81
406.883	1077.81
407.107	1201.81
407.331	1272.81
407.555	1314.81
407.778	1290.81
408.002	1271.81
408.226	1193.81
408.449	1184.81
408.673	1157.81
408.896	1117.81
409.12	1115.81
409.344	1148.81
409.567	1146.81
409.791	1145.81
410.014	1134.81
410.238	1106.81
410.461	1125.81
410.685	1113.81
410.908	1094.81
411.132	1079.81
411.355	1034.81
411.578	1030.81
411.802	1046.81
412.025	1013.81
412.249	1042.81
412.472	1033.81
412.695	987.81
412.919	1002.81
413.142	983.81
413.365	1005.81
413.589	994.81
413.812	971.81
414.035	969.81
414.258	981.81
414.482	1006.81
414.705	999.81
414.928	1029.81
415.151	1025.81
415.374	1012.81
415.597	999.81
415.821	951.81
416.044	967.81
416.267	996.81
416.49	962.81
416.713	968.81
416.936	985.81
417.159	953.81
417.382	952.81
417.605	990.81
417.828	989.81
418.051	998.81
418.274	985.81
418.497	967.81
418.72	1011.81
418.943	1029.81
419.166	1052.81
419.389	1123.81
419.611	1108.81
419.834	1036.81
420.057	1006.81
420.28	1025.81
420.503	959.81
420.726	981.81
420.948	973.81
421.171	989.81
421.394	992.81
421.617	998.81
421.839	962.81
422.062	1006.81
422.285	1001.81
422.507	1039.81
422.73	1029.81
422.953	1013.81
423.175	1022.81
423.398	1068.81
423.621	1028.81
423.843	1073.81
424.066	1077.81
424.288	1021.81
424.511	1054.81
424.733	1033.81
424.956	1003.81
425.178	983.81
425.401	995.81
425.623	971.81
425.846	963.81
426.068	938.81
426.291	964.81
426.513	911.81
426.735	908.81
426.958	908.81
427.18	911.81
427.402	903.81
427.625	904.81
427.847	871.81
428.069	877.81
428.292	917.81
428.514	864.81
428.736	861.81
428.958	877.81
429.181	863.81
429.403	857.81
429.625	845.81
429.847	853.81
430.069	874.81
430.292	863.81
430.514	846.81
430.736	851.81
430.958	852.81
431.18	854.81
431.402	850.81
431.624	858.81
431.846	888.81
432.068	899.81
432.29	893.81
432.512	858.81
432.734	866.81
432.956	873.81
433.178	875.81
433.4	882.81
433.622	881.81
433.844	887.81
434.066	877.81
434.287	897.81
434.509	915.81
434.731	967.81
434.953	998.81
435.175	1005.81
435.397	987.81
435.618	913.81
435.84	903.81
436.062	890.81
436.284	847.81
436.505	866.81
436.727	882.81
436.949	908.81
437.17	881.81
437.392	852.81
437.614	863.81
437.835	855.81
438.057	833.81
438.278	832.81
438.5	833.81
438.721	858.81
438.943	877.81
439.165	839.81
439.386	877.81
439.608	892.81
439.829	858.81
440.05	881.81
440.272	901.81
440.493	866.81
440.715	897.81
440.936	923.81
441.158	905.81
441.379	961.81
441.6	978.81
441.822	1004.81
442.043	1011.81
442.264	1002.81
442.486	967.81
442.707	991.81
442.928	993.81
443.149	1002.81
443.371	987.81
443.592	996.81
443.813	995.81
444.034	1024.81
444.255	1060.81
444.476	1052.81
444.698	1160.81
444.919	1226.81
445.14	1290.81
445.361	1109.81
445.582	1039.81
445.803	958.81
446.024	927.81
446.245	946.81
446.466	933.81
446.687	897.81
446.908	912.81
447.129	886.81
447.35	845.81
447.571	881.81
447.792	825.81
448.013	829.81
448.234	850.81
448.455	839.81
448.675	806.81
448.896	807.81
449.117	809.81
449.338	820.81
449.559	808.81
449.779	814.81
450	804.81
450.221	814.81
450.442	799.81
450.662	824.81
450.883	843.81
451.104	831.81
451.324	849.81
451.545	829.81
451.766	833.81
451.986	809.81
452.207	811.81
452.428	821.81
452.648	817.81
452.869	805.81
453.089	796.81
453.31	803.81
453.53	780.81
453.751	775.81
453.971	792.81
454.192	787.81
454.412	761.81
454.633	790.81
454.853	771.81
455.073	795.81
455.294	773.81
455.514	745.81
455.734	772.81
455.955	753.81
456.175	737.81
456.395	747.81
456.616	756.81
456.836	743.81
457.056	754.81
457.276	785.81
457.497	755.81
457.717	732.81
457.937	753.81
458.157	787.81
458.377	792.81
458.598	809.81
458.818	812.81
459.038	813.81
459.258	854.81
459.478	899.81
459.698	898.81
459.918	908.81
460.138	990.81
460.358	1051.81
460.578	1037.81
460.798	1036.81
461.018	1070.81
461.238	1045.81
461.458	1025.81
461.678	1035.81
461.898	1043.81
462.118	1070.81
462.338	1116.81
462.558	1142.81
462.777	1191.81
462.997	1269.81
463.217	1457.81
463.437	1419.81
463.657	1294.81
463.876	1225.81
464.096	1216.81
464.316	1237.81
464.536	1215.81
464.755	1185.81
464.975	1150.81
465.195	1077.81
465.414	1025.81
465.634	979.81
465.854	942.81
466.073	911.81
466.293	891.81
466.512	863.81
466.732	869.81
466.951	850.81
467.171	881.81
467.391	863.81
467.61	852.81
467.829	873.81
468.049	820.81
468.268	809.81
468.488	773.81
468.707	792.81
468.927	807.81
469.146	790.81
469.365	820.81
469.585	833.81
469.804	841.81
470.023	835.81
470.243	844.81
470.462	878.81
470.681	889.81
470.901	867.81
471.12	861.81
471.339	862.81
471.558	805.81
471.777	807.81
471.997	826.81
472.216	809.81
472.435	779.81
472.654	788.81
472.873	781.81
473.092	797.81
473.311	783.81
473.53	825.81
473.749	782.81
473.968	782.81
474.187	760.81
474.406	793.81
474.625	764.81
474.844	809.81
475.063	817.81
475.282	782.81
475.501	801.81
475.72	781.81
475.939	814.81
476.158	844.81
476.377	818.81
476.596	813.81
476.814	837.81
477.033	826.81
477.252	841.81
477.471	887.81
477.69	923.81
477.908	920.81
478.127	941.81
478.346	942.81
478.564	987.81
478.783	975.81
479.002	1011.81
479.22	1006.81
479.439	999.81
479.658	962.81
479.876	980.81
480.095	1024.81
480.313	1043.81
480.532	1090.81
480.751	1076.81
480.969	1003.81
481.188	957.81
481.406	977.81
481.624	917.81
481.843	898.81
482.061	913.81
482.28	908.81
482.498	876.81
482.717	910.81
482.935	879.81
483.153	881.81
483.372	912.81
483.59	896.81
483.808	886.81
484.027	886.81
484.245	920.81
484.463	923.81
484.681	933.81
484.9	935.81
485.118	923.81
485.336	931.81
485.554	932.81
485.772	939.81
485.99	947.81
486.209	965.81
486.427	938.81
486.645	941.81
486.863	996.81
487.081	967.81
487.299	929.81
487.517	939.81
487.735	946.81
487.953	925.81
488.171	953.81
488.389	908.81
488.607	921.81
488.825	932.81
489.043	943.81
489.261	917.81
489.479	923.81
489.696	948.81
489.914	951.81
490.132	939.81
490.35	935.81
490.568	964.81
490.786	955.81
491.003	932.81
491.221	947.81
491.439	961.81
491.657	959.81
491.874	968.81
492.092	945.81
492.31	963.81
492.527	996.81
492.745	961.81
492.963	957.81
493.18	983.81
493.398	975.81
493.615	1006.81
493.833	1003.81
494.05	995.81
494.268	1003.81
494.485	1016.81
494.703	1004.81
494.92	1021.81
495.138	1010.81
495.355	993.81
495.573	1024.81
495.79	1027.81
496.008	972.81
496.225	998.81
496.442	1052.81
496.66	1035.81
496.877	1047.81
497.094	1065.81
497.312	1062.81
497.529	1074.81
497.746	1122.81
497.963	1153.81
498.181	1205.81
498.398	1226.81
498.615	1320.81
498.832	1405.81
499.049	1493.81
499.267	1661.81
499.484	1847.81
