Data from Ni(NO3)2@0.5M.TitratingCurve.Agarose3%dH2O.NegLispCup.LampEnergy10.LIBS07252019_HRD10591_17-59-28-564.txt Node
Date: Thu Jul 25 17:59:28 EDT 2019
User: cochatt
Spectrometer: HR+D1059
Trigger mode: 1
Integration Time (sec): 1.000000E-1
Scans to average: 1
Electric dark correction enabled: true
Nonlinearity correction enabled: false
Boxcar width: 0
XAxis mode: Wavelengths
Number of Pixels in Spectrum: 2048
>>>>>Begin Spectral Data<<<<<
223.165	-11.75
223.4	-11.75
223.635	-11.75
223.869	-18.75
224.104	-26.75
224.338	-9.75
224.573	-10.75
224.808	-4.75
225.042	-2.75
225.277	-7.75
225.511	-6.75
225.746	-1.75
225.98	7.25
226.215	17.25
226.449	16.25
226.683	20.25
226.918	19.25
227.152	21.25
227.387	33.25
227.621	37.25
227.856	52.25
228.09	43.25
228.324	52.25
228.559	55.25
228.793	86.25
229.027	128.25
229.262	163.25
229.496	141.25
229.73	166.25
229.964	204.25
230.199	229.25
230.433	227.25
230.667	222.25
230.901	191.25
231.136	175.25
231.37	173.25
231.604	205.25
231.838	226.25
232.072	242.25
232.306	222.25
232.541	203.25
232.775	182.25
233.009	192.25
233.243	178.25
233.477	167.25
233.711	170.25
233.945	185.25
234.179	180.25
234.413	182.25
234.647	192.25
234.881	206.25
235.115	194.25
235.349	163.25
235.583	168.25
235.817	181.25
236.051	184.25
236.285	167.25
236.519	188.25
236.753	176.25
236.987	164.25
237.221	197.25
237.455	182.25
237.689	193.25
237.922	180.25
238.156	195.25
238.39	204.25
238.624	173.25
238.858	190.25
239.091	194.25
239.325	220.25
239.559	224.25
239.793	243.25
240.027	238.25
240.26	215.25
240.494	205.25
240.728	214.25
240.961	206.25
241.195	228.25
241.429	213.25
241.662	233.25
241.896	261.25
242.13	266.25
242.363	224.25
242.597	197.25
242.83	215.25
243.064	214.25
243.298	221.25
243.531	218.25
243.765	219.25
243.998	238.25
244.232	262.25
244.465	235.25
244.699	231.25
244.932	269.25
245.166	244.25
245.399	227.25
245.633	243.25
245.866	234.25
246.099	254.25
246.333	256.25
246.566	223.25
246.8	248.25
247.033	264.25
247.266	247.25
247.5	256.25
247.733	264.25
247.966	244.25
248.2	269.25
248.433	263.25
248.666	269.25
248.899	291.25
249.133	253.25
249.366	276.25
249.599	264.25
249.832	282.25
250.066	284.25
250.299	269.25
250.532	297.25
250.765	288.25
250.998	311.25
251.231	326.25
251.465	318.25
251.698	333.25
251.931	306.25
252.164	308.25
252.397	291.25
252.63	311.25
252.863	317.25
253.096	302.25
253.329	302.25
253.562	318.25
253.795	310.25
254.028	317.25
254.261	337.25
254.494	312.25
254.727	324.25
254.96	333.25
255.193	334.25
255.426	341.25
255.659	313.25
255.892	328.25
256.124	330.25
256.357	341.25
256.59	343.25
256.823	342.25
257.056	334.25
257.289	341.25
257.521	342.25
257.754	340.25
257.987	358.25
258.22	362.25
258.452	360.25
258.685	364.25
258.918	363.25
259.151	358.25
259.383	374.25
259.616	373.25
259.849	361.25
260.081	378.25
260.314	358.25
260.547	382.25
260.779	377.25
261.012	388.25
261.244	376.25
261.477	384.25
261.71	389.25
261.942	373.25
262.175	372.25
262.407	389.25
262.64	385.25
262.872	398.25
263.105	395.25
263.337	408.25
263.57	403.25
263.802	400.25
264.035	401.25
264.267	393.25
264.499	394.25
264.732	408.25
264.964	417.25
265.197	412.25
265.429	415.25
265.661	418.25
265.894	408.25
266.126	420.25
266.358	431.25
266.591	434.25
266.823	433.25
267.055	415.25
267.287	425.25
267.52	432.25
267.752	436.25
267.984	445.25
268.216	436.25
268.448	452.25
268.681	420.25
268.913	451.25
269.145	440.25
269.377	449.25
269.609	429.25
269.841	444.25
270.073	461.25
270.306	468.25
270.538	448.25
270.77	455.25
271.002	462.25
271.234	481.25
271.466	452.25
271.698	455.25
271.93	468.25
272.162	459.25
272.394	477.25
272.626	467.25
272.858	478.25
273.09	475.25
273.322	444.25
273.553	467.25
273.785	489.25
274.017	467.25
274.249	461.25
274.481	482.25
274.713	488.25
274.945	507.25
275.176	492.25
275.408	494.25
275.64	489.25
275.872	512.25
276.104	522.25
276.335	488.25
276.567	500.25
276.799	538.25
277.031	507.25
277.262	519.25
277.494	502.25
277.726	508.25
277.957	518.25
278.189	506.25
278.421	515.25
278.652	517.25
278.884	498.25
279.115	531.25
279.347	540.25
279.579	526.25
279.81	533.25
280.042	540.25
280.273	522.25
280.505	548.25
280.736	534.25
280.968	546.25
281.199	545.25
281.431	562.25
281.662	563.25
281.894	565.25
282.125	554.25
282.356	553.25
282.588	566.25
282.819	564.25
283.051	569.25
283.282	575.25
283.513	581.25
283.745	542.25
283.976	549.25
284.207	565.25
284.439	585.25
284.67	596.25
284.901	588.25
285.132	578.25
285.364	583.25
285.595	582.25
285.826	578.25
286.057	572.25
286.288	583.25
286.52	582.25
286.751	588.25
286.982	584.25
287.213	595.25
287.444	576.25
287.675	604.25
287.906	601.25
288.138	617.25
288.369	616.25
288.6	603.25
288.831	608.25
289.062	591.25
289.293	609.25
289.524	608.25
289.755	618.25
289.986	595.25
290.217	606.25
290.448	627.25
290.679	626.25
290.91	625.25
291.141	588.25
291.371	618.25
291.602	603.25
291.833	587.25
292.064	616.25
292.295	630.25
292.526	604.25
292.757	631.25
292.987	626.25
293.218	618.25
293.449	624.25
293.68	610.25
293.91	639.25
294.141	652.25
294.372	621.25
294.603	638.25
294.833	640.25
295.064	636.25
295.295	623.25
295.525	619.25
295.756	622.25
295.987	633.25
296.217	630.25
296.448	648.25
296.679	657.25
296.909	648.25
297.14	660.25
297.37	649.25
297.601	644.25
297.831	625.25
298.062	652.25
298.292	666.25
298.523	683.25
298.753	657.25
298.984	642.25
299.214	675.25
299.445	667.25
299.675	680.25
299.905	671.25
300.136	707.25
300.366	738.25
300.597	750.25
300.827	716.25
301.057	736.25
301.288	705.25
301.518	726.25
301.748	708.25
301.979	710.25
302.209	705.25
302.439	674.25
302.669	688.25
302.9	703.25
303.13	685.25
303.36	724.25
303.59	704.25
303.82	742.25
304.051	720.25
304.281	734.25
304.511	721.25
304.741	716.25
304.971	736.25
305.201	742.25
305.431	764.25
305.661	756.25
305.891	735.25
306.121	738.25
306.352	736.25
306.582	708.25
306.812	724.25
307.042	690.25
307.272	726.25
307.502	712.25
307.731	717.25
307.961	702.25
308.191	720.25
308.421	713.25
308.651	723.25
308.881	711.25
309.111	702.25
309.341	728.25
309.571	727.25
309.8	730.25
310.03	776.25
310.26	796.25
310.49	792.25
310.72	761.25
310.949	739.25
311.179	744.25
311.409	756.25
311.639	722.25
311.868	780.25
312.098	759.25
312.328	737.25
312.557	752.25
312.787	761.25
313.017	757.25
313.246	778.25
313.476	804.25
313.706	799.25
313.935	781.25
314.165	797.25
314.394	780.25
314.624	770.25
314.853	757.25
315.083	774.25
315.312	768.25
315.542	785.25
315.771	773.25
316.001	780.25
316.23	798.25
316.46	787.25
316.689	802.25
316.919	795.25
317.148	812.25
317.377	778.25
317.607	798.25
317.836	766.25
318.065	793.25
318.295	816.25
318.524	797.25
318.753	772.25
318.983	803.25
319.212	830.25
319.441	834.25
319.67	805.25
319.9	797.25
320.129	824.25
320.358	802.25
320.587	814.25
320.816	807.25
321.046	809.25
321.275	850.25
321.504	837.25
321.733	833.25
321.962	852.25
322.191	838.25
322.42	834.25
322.649	826.25
322.878	853.25
323.108	850.25
323.337	864.25
323.566	833.25
323.795	873.25
324.024	846.25
324.253	857.25
324.482	857.25
324.71	876.25
324.939	854.25
325.168	877.25
325.397	850.25
325.626	862.25
325.855	865.25
326.084	873.25
326.313	872.25
326.542	882.25
326.77	884.25
326.999	901.25
327.228	889.25
327.457	877.25
327.686	875.25
327.914	888.25
328.143	901.25
328.372	889.25
328.6	882.25
328.829	876.25
329.058	901.25
329.287	897.25
329.515	905.25
329.744	893.25
329.972	909.25
330.201	925.25
330.43	936.25
330.658	912.25
330.887	919.25
331.115	933.25
331.344	972.25
331.572	938.25
331.801	974.25
332.03	961.25
332.258	979.25
332.486	972.25
332.715	1003.25
332.943	964.25
333.172	1012.25
333.4	975.25
333.629	1011.25
333.857	1028.25
334.085	1020.25
334.314	1033.25
334.542	1059.25
334.771	1040.25
334.999	1019.25
335.227	1041.25
335.455	1057.25
335.684	1056.25
335.912	1049.25
336.14	1022.25
336.369	1053.25
336.597	1040.25
336.825	1051.25
337.053	1061.25
337.281	1074.25
337.51	1032.25
337.738	1038.25
337.966	1037.25
338.194	1046.25
338.422	1007.25
338.65	1000.25
338.878	981.25
339.106	1021.25
339.334	1037.25
339.562	1011.25
339.79	1022.25
340.018	989.25
340.246	967.25
340.474	965.25
340.702	967.25
340.93	996.25
341.158	1008.25
341.386	1024.25
341.614	1058.25
341.842	1036.25
342.07	964.25
342.298	972.25
342.526	979.25
342.754	958.25
342.981	974.25
343.209	982.25
343.437	1039.25
343.665	1029.25
343.893	1043.25
344.12	1063.25
344.348	1042.25
344.576	1063.25
344.804	1053.25
345.031	1001.25
345.259	997.25
345.487	1027.25
345.714	1031.25
345.942	1033.25
346.17	1066.25
346.397	1033.25
346.625	979.25
346.853	933.25
347.08	934.25
347.308	967.25
347.535	946.25
347.763	941.25
347.99	950.25
348.218	948.25
348.445	930.25
348.673	947.25
348.9	894.25
349.128	971.25
349.355	997.25
349.583	998.25
349.81	948.25
350.037	923.25
350.265	901.25
350.492	904.25
350.72	942.25
350.947	923.25
351.174	990.25
351.402	976.25
351.629	1010.25
351.856	968.25
352.083	935.25
352.311	978.25
352.538	1046.25
352.765	1017.25
352.992	898.25
353.22	947.25
353.447	902.25
353.674	915.25
353.901	950.25
354.128	917.25
354.355	908.25
354.583	887.25
354.81	913.25
355.037	930.25
355.264	913.25
355.491	909.25
355.718	884.25
355.945	916.25
356.172	905.25
356.399	914.25
356.626	921.25
356.853	956.25
357.08	941.25
357.307	920.25
357.534	911.25
357.761	933.25
357.988	915.25
358.215	905.25
358.441	908.25
358.668	894.25
358.895	910.25
359.122	915.25
359.349	914.25
359.576	933.25
359.802	924.25
360.029	906.25
360.256	879.25
360.483	916.25
360.709	906.25
360.936	934.25
361.163	934.25
361.39	896.25
361.616	932.25
361.843	1003.25
362.07	1000.25
362.296	987.25
362.523	936.25
362.749	945.25
362.976	929.25
363.203	933.25
363.429	901.25
363.656	911.25
363.882	893.25
364.109	930.25
364.335	921.25
364.562	919.25
364.788	928.25
365.015	916.25
365.241	948.25
365.468	917.25
365.694	907.25
365.92	933.25
366.147	923.25
366.373	932.25
366.599	922.25
366.826	940.25
367.052	937.25
367.278	909.25
367.505	930.25
367.731	950.25
367.957	910.25
368.184	954.25
368.41	947.25
368.636	937.25
368.862	957.25
369.089	932.25
369.315	961.25
369.541	946.25
369.767	956.25
369.993	958.25
370.219	963.25
370.445	973.25
370.672	934.25
370.898	987.25
371.124	972.25
371.35	979.25
371.576	985.25
371.802	995.25
372.028	985.25
372.254	987.25
372.48	996.25
372.706	976.25
372.932	986.25
373.158	997.25
373.384	967.25
373.61	981.25
373.835	977.25
374.061	1001.25
374.287	1017.25
374.513	1013.25
374.739	1001.25
374.965	1008.25
375.191	1046.25
375.416	1013.25
375.642	1026.25
375.868	1026.25
376.094	1003.25
376.319	977.25
376.545	974.25
376.771	984.25
376.997	960.25
377.222	967.25
377.448	965.25
377.674	993.25
377.899	986.25
378.125	977.25
378.35	969.25
378.576	967.25
378.802	1005.25
379.027	969.25
379.253	987.25
379.478	978.25
379.704	966.25
379.929	981.25
380.155	992.25
380.38	930.25
380.606	954.25
380.831	996.25
381.057	1015.25
381.282	958.25
381.507	987.25
381.733	992.25
381.958	993.25
382.184	986.25
382.409	993.25
382.634	981.25
382.86	985.25
383.085	1033.25
383.31	1002.25
383.535	1036.25
383.761	1018.25
383.986	1017.25
384.211	1025.25
384.436	1050.25
384.662	1031.25
384.887	1085.25
385.112	1057.25
385.337	1058.25
385.562	1059.25
385.787	1092.25
386.013	1140.25
386.238	1078.25
386.463	1101.25
386.688	1132.25
386.913	1106.25
387.138	1122.25
387.363	1101.25
387.588	1088.25
387.813	1126.25
388.038	1078.25
388.263	1112.25
388.488	1137.25
388.713	1128.25
388.938	1095.25
389.163	1109.25
389.387	1120.25
389.612	1116.25
389.837	1097.25
390.062	1099.25
390.287	1109.25
390.512	1097.25
390.736	1133.25
390.961	1145.25
391.186	1133.25
391.411	1112.25
391.636	1141.25
391.86	1188.25
392.085	1170.25
392.31	1154.25
392.534	1158.25
392.759	1186.25
392.984	1176.25
393.208	1166.25
393.433	1146.25
393.658	1172.25
393.882	1172.25
394.107	1140.25
394.331	1153.25
394.556	1128.25
394.78	1159.25
395.005	1161.25
395.229	1161.25
395.454	1204.25
395.678	1184.25
395.903	1192.25
396.127	1191.25
396.352	1194.25
396.576	1148.25
396.801	1163.25
397.025	1212.25
397.249	1197.25
397.474	1224.25
397.698	1228.25
397.922	1248.25
398.147	1260.25
398.371	1250.25
398.595	1282.25
398.82	1316.25
399.044	1354.25
399.268	1406.25
399.492	1462.25
399.717	1513.25
399.941	1501.25
400.165	1466.25
400.389	1460.25
400.613	1420.25
400.837	1357.25
401.062	1319.25
401.286	1304.25
401.51	1334.25
401.734	1314.25
401.958	1320.25
402.182	1306.25
402.406	1286.25
402.63	1319.25
402.854	1334.25
403.078	1285.25
403.302	1303.25
403.526	1292.25
403.75	1319.25
403.974	1332.25
404.198	1332.25
404.422	1353.25
404.645	1332.25
404.869	1318.25
405.093	1370.25
405.317	1329.25
405.541	1360.25
405.765	1352.25
405.988	1347.25
406.212	1394.25
406.436	1396.25
406.66	1397.25
406.883	1422.25
407.107	1474.25
407.331	1472.25
407.555	1566.25
407.778	1512.25
408.002	1478.25
408.226	1505.25
408.449	1497.25
408.673	1486.25
408.896	1438.25
409.12	1437.25
409.344	1445.25
409.567	1396.25
409.791	1421.25
410.014	1417.25
410.238	1365.25
410.461	1384.25
410.685	1364.25
410.908	1398.25
411.132	1398.25
411.355	1339.25
411.578	1362.25
411.802	1366.25
412.025	1337.25
412.249	1387.25
412.472	1405.25
412.695	1337.25
412.919	1349.25
413.142	1353.25
413.365	1348.25
413.589	1341.25
413.812	1330.25
414.035	1308.25
414.258	1340.25
414.482	1330.25
414.705	1330.25
414.928	1295.25
415.151	1325.25
415.374	1306.25
415.597	1341.25
415.821	1272.25
416.044	1252.25
416.267	1280.25
416.49	1276.25
416.713	1255.25
416.936	1267.25
417.159	1267.25
417.382	1261.25
417.605	1264.25
417.828	1251.25
418.051	1273.25
418.274	1313.25
418.497	1237.25
418.72	1283.25
418.943	1225.25
419.166	1308.25
419.389	1404.25
419.611	1362.25
419.834	1309.25
420.057	1302.25
420.28	1253.25
420.503	1229.25
420.726	1258.25
420.948	1235.25
421.171	1255.25
421.394	1236.25
421.617	1253.25
421.839	1280.25
422.062	1256.25
422.285	1224.25
422.507	1267.25
422.73	1241.25
422.953	1260.25
423.175	1245.25
423.398	1249.25
423.621	1229.25
423.843	1252.25
424.066	1248.25
424.288	1235.25
424.511	1216.25
424.733	1248.25
424.956	1253.25
425.178	1255.25
425.401	1244.25
425.623	1269.25
425.846	1241.25
426.068	1212.25
426.291	1237.25
426.513	1233.25
426.735	1210.25
426.958	1216.25
427.18	1238.25
427.402	1197.25
427.625	1227.25
427.847	1174.25
428.069	1187.25
428.292	1213.25
428.514	1202.25
428.736	1199.25
428.958	1216.25
429.181	1172.25
429.403	1165.25
429.625	1176.25
429.847	1198.25
430.069	1200.25
430.292	1197.25
430.514	1186.25
430.736	1232.25
430.958	1206.25
431.18	1212.25
431.402	1213.25
431.624	1213.25
431.846	1170.25
432.068	1176.25
432.29	1213.25
432.512	1233.25
432.734	1216.25
432.956	1227.25
433.178	1238.25
433.4	1280.25
433.622	1302.25
433.844	1266.25
434.066	1295.25
434.287	1250.25
434.509	1258.25
434.731	1242.25
434.953	1288.25
435.175	1314.25
435.397	1377.25
435.618	1250.25
435.84	1253.25
436.062	1215.25
436.284	1206.25
436.505	1213.25
436.727	1229.25
436.949	1204.25
437.17	1232.25
437.392	1225.25
437.614	1168.25
437.835	1168.25
438.057	1157.25
438.278	1145.25
438.5	1191.25
438.721	1165.25
438.943	1179.25
439.165	1158.25
439.386	1163.25
439.608	1212.25
439.829	1201.25
440.05	1204.25
440.272	1212.25
440.493	1197.25
440.715	1243.25
440.936	1216.25
441.158	1250.25
441.379	1225.25
441.6	1289.25
441.822	1278.25
442.043	1293.25
442.264	1255.25
442.486	1257.25
442.707	1254.25
442.928	1269.25
443.149	1228.25
443.371	1318.25
443.592	1395.25
443.813	1340.25
444.034	1260.25
444.255	1304.25
444.476	1304.25
444.698	1317.25
444.919	1401.25
445.14	1466.25
445.361	1388.25
445.582	1321.25
445.803	1267.25
446.024	1228.25
446.245	1287.25
446.466	1216.25
446.687	1171.25
446.908	1167.25
447.129	1188.25
447.35	1159.25
447.571	1160.25
447.792	1157.25
448.013	1149.25
448.234	1086.25
448.455	1135.25
448.675	1107.25
448.896	1076.25
449.117	1096.25
449.338	1102.25
449.559	1098.25
449.779	1096.25
450	1113.25
450.221	1067.25
450.442	1096.25
450.662	1076.25
450.883	1125.25
451.104	1169.25
451.324	1102.25
451.545	1101.25
451.766	1086.25
451.986	1086.25
452.207	1031.25
452.428	1064.25
452.648	1109.25
452.869	1047.25
453.089	1084.25
453.31	1105.25
453.53	1044.25
453.751	1072.25
453.971	1066.25
454.192	1105.25
454.412	1107.25
454.633	1074.25
454.853	1047.25
455.073	1056.25
455.294	1056.25
455.514	1085.25
455.734	1108.25
455.955	1104.25
456.175	1114.25
456.395	1083.25
456.616	1059.25
456.836	1052.25
457.056	1041.25
457.276	1036.25
457.497	1084.25
457.717	1114.25
457.937	1109.25
458.157	1099.25
458.377	1045.25
458.598	1132.25
458.818	1124.25
459.038	1123.25
459.258	1162.25
459.478	1254.25
459.698	1385.25
459.918	1389.25
460.138	1344.25
460.358	1312.25
460.578	1328.25
460.798	1398.25
461.018	1369.25
461.238	1314.25
461.458	1285.25
461.678	1251.25
461.898	1317.25
462.118	1330.25
462.338	1356.25
462.558	1385.25
462.777	1462.25
462.997	1480.25
463.217	1546.25
463.437	1592.25
463.657	1551.25
463.876	1463.25
464.096	1474.25
464.316	1409.25
464.536	1405.25
464.755	1388.25
464.975	1367.25
465.195	1282.25
465.414	1322.25
465.634	1286.25
465.854	1226.25
466.073	1229.25
466.293	1202.25
466.512	1197.25
466.732	1139.25
466.951	1178.25
467.171	1165.25
467.391	1192.25
467.61	1177.25
467.829	1182.25
468.049	1148.25
468.268	1144.25
468.488	1149.25
468.707	1139.25
468.927	1152.25
469.146	1137.25
469.365	1192.25
469.585	1150.25
469.804	1146.25
470.023	1161.25
470.243	1164.25
470.462	1172.25
470.681	1157.25
470.901	1140.25
471.12	1125.25
471.339	1154.25
471.558	1153.25
471.777	1158.25
471.997	1150.25
472.216	1132.25
472.435	1120.25
472.654	1161.25
472.873	1112.25
473.092	1147.25
473.311	1133.25
473.53	1162.25
473.749	1122.25
473.968	1163.25
474.187	1129.25
474.406	1099.25
474.625	1152.25
474.844	1178.25
475.063	1147.25
475.282	1174.25
475.501	1175.25
475.72	1175.25
475.939	1181.25
476.158	1217.25
476.377	1188.25
476.596	1211.25
476.814	1219.25
477.033	1172.25
477.252	1249.25
477.471	1247.25
477.69	1255.25
477.908	1258.25
478.127	1302.25
478.346	1292.25
478.564	1287.25
478.783	1365.25
479.002	1411.25
479.22	1452.25
479.439	1382.25
479.658	1369.25
479.876	1378.25
480.095	1378.25
480.313	1390.25
480.532	1409.25
480.751	1408.25
480.969	1390.25
481.188	1384.25
481.406	1361.25
481.624	1391.25
481.843	1343.25
482.061	1386.25
482.28	1367.25
482.498	1370.25
482.717	1356.25
482.935	1388.25
483.153	1401.25
483.372	1440.25
483.59	1475.25
483.808	1446.25
484.027	1386.25
484.245	1379.25
484.463	1390.25
484.681	1411.25
484.9	1414.25
485.118	1409.25
485.336	1421.25
485.554	1444.25
485.772	1411.25
485.99	1387.25
486.209	1404.25
486.427	1396.25
486.645	1416.25
486.863	1423.25
487.081	1457.25
487.299	1428.25
487.517	1447.25
487.735	1470.25
487.953	1468.25
488.171	1428.25
488.389	1397.25
488.607	1441.25
488.825	1436.25
489.043	1399.25
489.261	1382.25
489.479	1403.25
489.696	1432.25
489.914	1428.25
490.132	1437.25
490.35	1416.25
490.568	1411.25
490.786	1429.25
491.003	1432.25
491.221	1446.25
491.439	1420.25
491.657	1437.25
491.874	1448.25
492.092	1444.25
492.31	1455.25
492.527	1486.25
492.745	1457.25
492.963	1448.25
493.18	1472.25
493.398	1430.25
493.615	1453.25
493.833	1429.25
