Data from Ni(NO3)2Standard.Agarose3%.GreenCap.LampEnergy5.5.E.O_HRD10591_14-41-59-188.txt Node
Date: Mon Jul 22 14:41:59 EDT 2019
User: cochatt
Spectrometer: HR+D1059
Trigger mode: 1
Integration Time (sec): 1.000000E-1
Scans to average: 1
Electric dark correction enabled: true
Nonlinearity correction enabled: false
Boxcar width: 0
XAxis mode: Wavelengths
Number of Pixels in Spectrum: 2048
>>>>>Begin Spectral Data<<<<<
223.165	-26.69
223.4	-26.69
223.635	-26.69
223.869	-11.69
224.104	-15.69
224.338	-13.69
224.573	-23.69
224.808	-1.69
225.042	-7.69
225.277	2.31
225.511	-13.69
225.746	-0.69
225.98	6.31
226.215	20.31
226.449	8.31
226.683	13.31
226.918	30.31
227.152	34.31
227.387	21.31
227.621	47.31
227.856	47.31
228.09	55.31
228.324	58.31
228.559	46.31
228.793	65.31
229.027	71.31
229.262	66.31
229.496	59.31
229.73	58.31
229.964	73.31
230.199	69.31
230.433	63.31
230.667	87.31
230.901	66.31
231.136	84.31
231.37	89.31
231.604	71.31
231.838	82.31
232.072	93.31
232.306	85.31
232.541	74.31
232.775	90.31
233.009	84.31
233.243	80.31
233.477	89.31
233.711	72.31
233.945	72.31
234.179	74.31
234.413	81.31
234.647	86.31
234.881	67.31
235.115	83.31
235.349	68.31
235.583	82.31
235.817	71.31
236.051	79.31
236.285	65.31
236.519	84.31
236.753	73.31
236.987	88.31
237.221	76.31
237.455	70.31
237.689	94.31
237.922	75.31
238.156	80.31
238.39	83.31
238.624	83.31
238.858	71.31
239.091	79.31
239.325	89.31
239.559	82.31
239.793	70.31
240.027	71.31
240.26	74.31
240.494	78.31
240.728	81.31
240.961	68.31
241.195	93.31
241.429	75.31
241.662	78.31
241.896	72.31
242.13	79.31
242.363	76.31
242.597	76.31
242.83	69.31
243.064	79.31
243.298	78.31
243.531	71.31
243.765	89.31
243.998	66.31
244.232	74.31
244.465	69.31
244.699	82.31
244.932	67.31
245.166	82.31
245.399	89.31
245.633	87.31
245.866	90.31
246.099	63.31
246.333	80.31
246.566	72.31
246.8	71.31
247.033	85.31
247.266	71.31
247.5	59.31
247.733	80.31
247.966	86.31
248.2	71.31
248.433	80.31
248.666	66.31
248.899	78.31
249.133	74.31
249.366	99.31
249.599	80.31
249.832	71.31
250.066	77.31
250.299	59.31
250.532	78.31
250.765	87.31
250.998	82.31
251.231	63.31
251.465	88.31
251.698	77.31
251.931	93.31
252.164	72.31
252.397	87.31
252.63	68.31
252.863	69.31
253.096	82.31
253.329	97.31
253.562	91.31
253.795	84.31
254.028	72.31
254.261	72.31
254.494	78.31
254.727	76.31
254.96	95.31
255.193	84.31
255.426	80.31
255.659	78.31
255.892	75.31
256.124	70.31
256.357	62.31
256.59	79.31
256.823	78.31
257.056	85.31
257.289	88.31
257.521	87.31
257.754	82.31
257.987	75.31
258.22	71.31
258.452	69.31
258.685	90.31
258.918	66.31
259.151	91.31
259.383	88.31
259.616	76.31
259.849	80.31
260.081	76.31
260.314	88.31
260.547	77.31
260.779	80.31
261.012	76.31
261.244	66.31
261.477	84.31
261.71	86.31
261.942	79.31
262.175	92.31
262.407	92.31
262.64	77.31
262.872	64.31
263.105	60.31
263.337	72.31
263.57	72.31
263.802	86.31
264.035	88.31
264.267	91.31
264.499	91.31
264.732	68.31
264.964	92.31
265.197	76.31
265.429	87.31
265.661	71.31
265.894	85.31
266.126	69.31
266.358	75.31
266.591	82.31
266.823	82.31
267.055	76.31
267.287	84.31
267.52	95.31
267.752	83.31
267.984	88.31
268.216	80.31
268.448	84.31
268.681	76.31
268.913	95.31
269.145	80.31
269.377	72.31
269.609	74.31
269.841	68.31
270.073	102.31
270.306	87.31
270.538	83.31
270.77	85.31
271.002	92.31
271.234	83.31
271.466	84.31
271.698	83.31
271.93	78.31
272.162	80.31
272.394	88.31
272.626	91.31
272.858	86.31
273.09	92.31
273.322	75.31
273.553	92.31
273.785	82.31
274.017	81.31
274.249	73.31
274.481	91.31
274.713	87.31
274.945	76.31
275.176	76.31
275.408	73.31
275.64	84.31
275.872	84.31
276.104	90.31
276.335	69.31
276.567	81.31
276.799	76.31
277.031	90.31
277.262	85.31
277.494	91.31
277.726	77.31
277.957	88.31
278.189	81.31
278.421	89.31
278.652	101.31
278.884	89.31
279.115	83.31
279.347	80.31
279.579	89.31
279.81	82.31
280.042	72.31
280.273	76.31
280.505	93.31
280.736	99.31
280.968	95.31
281.199	95.31
281.431	65.31
281.662	71.31
281.894	78.31
282.125	97.31
282.356	84.31
282.588	86.31
282.819	80.31
283.051	74.31
283.282	79.31
283.513	89.31
283.745	74.31
283.976	69.31
284.207	80.31
284.439	82.31
284.67	81.31
284.901	78.31
285.132	94.31
285.364	87.31
285.595	76.31
285.826	87.31
286.057	84.31
286.288	87.31
286.52	94.31
286.751	91.31
286.982	80.31
287.213	91.31
287.444	98.31
287.675	88.31
287.906	79.31
288.138	89.31
288.369	82.31
288.6	82.31
288.831	83.31
289.062	93.31
289.293	97.31
289.524	90.31
289.755	81.31
289.986	76.31
290.217	94.31
290.448	82.31
290.679	92.31
290.91	84.31
291.141	87.31
291.371	76.31
291.602	70.31
291.833	75.31
292.064	76.31
292.295	75.31
292.526	89.31
292.757	98.31
292.987	84.31
293.218	77.31
293.449	83.31
293.68	85.31
293.91	80.31
294.141	82.31
294.372	84.31
294.603	95.31
294.833	89.31
295.064	101.31
295.295	87.31
295.525	84.31
295.756	84.31
295.987	81.31
296.217	93.31
296.448	89.31
296.679	71.31
296.909	92.31
297.14	87.31
297.37	82.31
297.601	83.31
297.831	74.31
298.062	81.31
298.292	80.31
298.523	82.31
298.753	76.31
298.984	86.31
299.214	87.31
299.445	93.31
299.675	88.31
299.905	79.31
300.136	67.31
300.366	89.31
300.597	73.31
300.827	81.31
301.057	75.31
301.288	86.31
301.518	83.31
301.748	79.31
301.979	90.31
302.209	99.31
302.439	89.31
302.669	83.31
302.9	80.31
303.13	78.31
303.36	67.31
303.59	84.31
303.82	88.31
304.051	73.31
304.281	82.31
304.511	88.31
304.741	96.31
304.971	81.31
305.201	97.31
305.431	83.31
305.661	91.31
305.891	83.31
306.121	85.31
306.352	75.31
306.582	82.31
306.812	80.31
307.042	81.31
307.272	94.31
307.502	85.31
307.731	82.31
307.961	89.31
308.191	86.31
308.421	88.31
308.651	91.31
308.881	86.31
309.111	92.31
309.341	86.31
309.571	71.31
309.8	81.31
310.03	77.31
310.26	74.31
310.49	87.31
310.72	73.31
310.949	75.31
311.179	87.31
311.409	90.31
311.639	86.31
311.868	83.31
312.098	75.31
312.328	87.31
312.557	73.31
312.787	95.31
313.017	76.31
313.246	80.31
313.476	79.31
313.706	66.31
313.935	75.31
314.165	84.31
314.394	83.31
314.624	84.31
314.853	84.31
315.083	104.31
315.312	76.31
315.542	83.31
315.771	88.31
316.001	86.31
316.23	88.31
316.46	91.31
316.689	84.31
316.919	83.31
317.148	88.31
317.377	90.31
317.607	68.31
317.836	74.31
318.065	79.31
318.295	76.31
318.524	96.31
318.753	84.31
318.983	79.31
319.212	91.31
319.441	80.31
319.67	75.31
319.9	82.31
320.129	78.31
320.358	73.31
320.587	86.31
320.816	79.31
321.046	92.31
321.275	87.31
321.504	68.31
321.733	75.31
321.962	81.31
322.191	89.31
322.42	83.31
322.649	88.31
322.878	95.31
323.108	78.31
323.337	98.31
323.566	83.31
323.795	77.31
324.024	75.31
324.253	95.31
324.482	83.31
324.71	78.31
324.939	75.31
325.168	92.31
325.397	87.31
325.626	74.31
325.855	96.31
326.084	97.31
326.313	76.31
326.542	72.31
326.77	81.31
326.999	65.31
327.228	91.31
327.457	84.31
327.686	87.31
327.914	79.31
328.143	98.31
328.372	100.31
328.6	64.31
328.829	79.31
329.058	81.31
329.287	85.31
329.515	74.31
329.744	86.31
329.972	83.31
330.201	91.31
330.43	86.31
330.658	71.31
330.887	90.31
331.115	81.31
331.344	80.31
331.572	85.31
331.801	80.31
332.03	82.31
332.258	79.31
332.486	93.31
332.715	87.31
332.943	90.31
333.172	73.31
333.4	77.31
333.629	75.31
333.857	89.31
334.085	101.31
334.314	86.31
334.542	94.31
334.771	73.31
334.999	75.31
335.227	79.31
335.455	90.31
335.684	86.31
335.912	87.31
336.14	82.31
336.369	76.31
336.597	73.31
336.825	82.31
337.053	74.31
337.281	80.31
337.51	72.31
337.738	81.31
337.966	84.31
338.194	68.31
338.422	89.31
338.65	76.31
338.878	75.31
339.106	74.31
339.334	94.31
339.562	89.31
339.79	86.31
340.018	88.31
340.246	82.31
340.474	77.31
340.702	75.31
340.93	88.31
341.158	72.31
341.386	87.31
341.614	97.31
341.842	83.31
342.07	83.31
342.298	73.31
342.526	84.31
342.754	86.31
342.981	94.31
343.209	82.31
343.437	86.31
343.665	96.31
343.893	88.31
344.12	97.31
344.348	74.31
344.576	91.31
344.804	80.31
345.031	90.31
345.259	82.31
345.487	93.31
345.714	77.31
345.942	98.31
346.17	96.31
346.397	82.31
346.625	78.31
346.853	93.31
347.08	81.31
347.308	77.31
347.535	79.31
347.763	89.31
347.99	78.31
348.218	75.31
348.445	89.31
348.673	96.31
348.9	81.31
349.128	79.31
349.355	76.31
349.583	84.31
349.81	85.31
350.037	84.31
350.265	96.31
350.492	73.31
350.72	80.31
350.947	96.31
351.174	93.31
351.402	87.31
351.629	94.31
351.856	88.31
352.083	94.31
352.311	88.31
352.538	82.31
352.765	83.31
352.992	80.31
353.22	67.31
353.447	95.31
353.674	89.31
353.901	98.31
354.128	85.31
354.355	75.31
354.583	88.31
354.81	83.31
355.037	95.31
355.264	78.31
355.491	83.31
355.718	77.31
355.945	89.31
356.172	90.31
356.399	90.31
356.626	95.31
356.853	77.31
357.08	80.31
357.307	67.31
357.534	79.31
357.761	82.31
357.988	90.31
358.215	72.31
358.441	76.31
358.668	73.31
358.895	91.31
359.122	88.31
359.349	75.31
359.576	75.31
359.802	78.31
360.029	85.31
360.256	92.31
360.483	89.31
360.709	80.31
360.936	75.31
361.163	84.31
361.39	78.31
361.616	89.31
361.843	77.31
362.07	72.31
362.296	82.31
362.523	85.31
362.749	83.31
362.976	72.31
363.203	98.31
363.429	83.31
363.656	75.31
363.882	94.31
364.109	97.31
364.335	79.31
364.562	78.31
364.788	85.31
365.015	80.31
365.241	80.31
365.468	91.31
365.694	90.31
365.92	86.31
366.147	83.31
366.373	81.31
366.599	88.31
366.826	86.31
367.052	78.31
367.278	88.31
367.505	75.31
367.731	75.31
367.957	74.31
368.184	101.31
368.41	87.31
368.636	80.31
368.862	80.31
369.089	83.31
369.315	74.31
369.541	91.31
369.767	82.31
369.993	91.31
370.219	83.31
370.445	90.31
370.672	82.31
370.898	85.31
371.124	78.31
371.35	80.31
371.576	70.31
371.802	86.31
372.028	79.31
372.254	86.31
372.48	94.31
372.706	69.31
372.932	82.31
373.158	79.31
373.384	89.31
373.61	82.31
373.835	80.31
374.061	90.31
374.287	96.31
374.513	94.31
374.739	73.31
374.965	69.31
375.191	84.31
375.416	86.31
375.642	81.31
375.868	72.31
376.094	80.31
376.319	102.31
376.545	84.31
376.771	70.31
376.997	75.31
377.222	81.31
377.448	85.31
377.674	82.31
377.899	96.31
378.125	85.31
378.35	96.31
378.576	86.31
378.802	68.31
379.027	79.31
379.253	86.31
379.478	82.31
379.704	78.31
379.929	97.31
380.155	76.31
380.38	74.31
380.606	80.31
380.831	74.31
381.057	75.31
381.282	82.31
381.507	74.31
381.733	94.31
381.958	66.31
382.184	89.31
382.409	82.31
382.634	86.31
382.86	74.31
383.085	83.31
383.31	77.31
383.535	71.31
383.761	83.31
383.986	75.31
384.211	68.31
384.436	71.31
384.662	70.31
384.887	87.31
385.112	88.31
385.337	98.31
385.562	76.31
385.787	85.31
386.013	82.31
386.238	71.31
386.463	83.31
386.688	86.31
386.913	84.31
387.138	78.31
387.363	79.31
387.588	83.31
387.813	74.31
388.038	89.31
388.263	80.31
388.488	71.31
388.713	80.31
388.938	79.31
389.163	77.31
389.387	76.31
389.612	100.31
389.837	82.31
390.062	81.31
390.287	81.31
390.512	94.31
390.736	87.31
390.961	58.31
391.186	80.31
391.411	73.31
391.636	86.31
391.86	86.31
392.085	81.31
392.31	96.31
392.534	75.31
392.759	78.31
392.984	91.31
393.208	74.31
393.433	79.31
393.658	92.31
393.882	87.31
394.107	82.31
394.331	87.31
394.556	71.31
394.78	64.31
395.005	71.31
395.229	87.31
395.454	87.31
395.678	77.31
395.903	89.31
396.127	87.31
396.352	83.31
396.576	91.31
396.801	80.31
397.025	83.31
397.249	85.31
397.474	75.31
397.698	80.31
397.922	96.31
398.147	86.31
398.371	88.31
398.595	80.31
398.82	99.31
399.044	73.31
399.268	85.31
399.492	75.31
399.717	82.31
399.941	75.31
400.165	85.31
400.389	83.31
400.613	76.31
400.837	95.31
401.062	75.31
401.286	82.31
401.51	96.31
401.734	79.31
401.958	75.31
402.182	75.31
402.406	84.31
402.63	82.31
402.854	84.31
403.078	82.31
403.302	83.31
403.526	67.31
403.75	82.31
403.974	77.31
404.198	90.31
404.422	103.31
404.645	88.31
404.869	90.31
405.093	84.31
405.317	86.31
405.541	82.31
405.765	86.31
405.988	75.31
406.212	86.31
406.436	96.31
406.66	84.31
406.883	73.31
407.107	86.31
407.331	78.31
407.555	88.31
407.778	88.31
408.002	78.31
408.226	81.31
408.449	93.31
408.673	100.31
408.896	81.31
409.12	95.31
409.344	86.31
409.567	85.31
409.791	76.31
410.014	85.31
410.238	82.31
410.461	78.31
410.685	86.31
410.908	96.31
411.132	80.31
411.355	68.31
411.578	102.31
411.802	80.31
412.025	79.31
412.249	88.31
412.472	98.31
412.695	90.31
412.919	72.31
413.142	84.31
413.365	95.31
413.589	87.31
413.812	85.31
414.035	84.31
414.258	92.31
414.482	85.31
414.705	93.31
414.928	84.31
415.151	85.31
415.374	85.31
415.597	81.31
415.821	87.31
416.044	76.31
416.267	89.31
416.49	92.31
416.713	71.31
416.936	82.31
417.159	96.31
417.382	83.31
417.605	73.31
417.828	78.31
418.051	83.31
418.274	72.31
418.497	67.31
418.72	78.31
418.943	82.31
419.166	75.31
419.389	86.31
419.611	84.31
419.834	94.31
420.057	79.31
420.28	88.31
420.503	89.31
420.726	82.31
420.948	78.31
421.171	82.31
421.394	91.31
421.617	86.31
421.839	77.31
422.062	73.31
422.285	81.31
422.507	93.31
422.73	88.31
422.953	80.31
423.175	79.31
423.398	77.31
423.621	98.31
423.843	80.31
424.066	79.31
424.288	79.31
424.511	94.31
424.733	86.31
424.956	81.31
425.178	95.31
425.401	89.31
425.623	81.31
425.846	94.31
426.068	74.31
426.291	95.31
426.513	89.31
426.735	74.31
426.958	71.31
427.18	76.31
427.402	96.31
427.625	99.31
427.847	77.31
428.069	78.31
428.292	79.31
428.514	97.31
428.736	87.31
428.958	84.31
429.181	90.31
429.403	80.31
429.625	85.31
429.847	87.31
430.069	88.31
430.292	83.31
430.514	81.31
430.736	92.31
430.958	74.31
431.18	76.31
431.402	80.31
431.624	84.31
431.846	91.31
432.068	95.31
432.29	79.31
432.512	85.31
432.734	69.31
432.956	72.31
433.178	76.31
433.4	90.31
433.622	74.31
433.844	78.31
434.066	88.31
434.287	84.31
434.509	82.31
434.731	92.31
434.953	83.31
435.175	71.31
435.397	77.31
435.618	83.31
435.84	71.31
436.062	89.31
436.284	99.31
436.505	88.31
436.727	75.31
436.949	84.31
437.17	78.31
437.392	96.31
437.614	93.31
437.835	82.31
438.057	84.31
438.278	96.31
438.5	83.31
438.721	87.31
438.943	84.31
439.165	100.31
439.386	81.31
439.608	93.31
439.829	83.31
440.05	97.31
440.272	90.31
440.493	82.31
440.715	88.31
440.936	74.31
441.158	90.31
441.379	91.31
441.6	84.31
441.822	91.31
442.043	79.31
442.264	79.31
442.486	95.31
442.707	71.31
442.928	74.31
443.149	66.31
443.371	80.31
443.592	79.31
443.813	90.31
444.034	81.31
444.255	88.31
444.476	79.31
444.698	87.31
444.919	80.31
445.14	202.31
445.361	148.31
445.582	96.31
445.803	90.31
446.024	86.31
446.245	73.31
446.466	76.31
446.687	70.31
446.908	78.31
447.129	72.31
447.35	80.31
447.571	75.31
447.792	81.31
448.013	87.31
448.234	79.31
448.455	91.31
448.675	82.31
448.896	89.31
449.117	87.31
449.338	79.31
449.559	85.31
449.779	91.31
450	84.31
450.221	83.31
450.442	80.31
450.662	68.31
450.883	90.31
451.104	91.31
451.324	82.31
451.545	76.31
451.766	92.31
451.986	93.31
452.207	94.31
452.428	82.31
452.648	70.31
452.869	82.31
453.089	100.31
453.31	82.31
453.53	84.31
453.751	88.31
453.971	88.31
454.192	83.31
454.412	85.31
454.633	81.31
454.853	83.31
455.073	81.31
455.294	84.31
455.514	82.31
455.734	81.31
455.955	81.31
456.175	84.31
456.395	98.31
456.616	85.31
456.836	80.31
457.056	81.31
457.276	87.31
457.497	78.31
457.717	67.31
457.937	86.31
458.157	80.31
458.377	82.31
458.598	87.31
458.818	82.31
459.038	84.31
459.258	76.31
459.478	85.31
459.698	84.31
459.918	94.31
460.138	72.31
460.358	84.31
460.578	82.31
460.798	101.31
461.018	81.31
461.238	96.31
461.458	85.31
461.678	89.31
461.898	96.31
462.118	86.31
462.338	79.31
462.558	87.31
462.777	77.31
462.997	95.31
463.217	84.31
463.437	92.31
463.657	91.31
463.876	101.31
464.096	94.31
464.316	95.31
464.536	88.31
464.755	77.31
464.975	75.31
465.195	83.31
465.414	83.31
465.634	89.31
465.854	76.31
466.073	70.31
466.293	74.31
466.512	86.31
466.732	83.31
466.951	87.31
467.171	91.31
467.391	87.31
467.61	94.31
467.829	73.31
468.049	93.31
468.268	91.31
468.488	110.31
468.707	95.31
468.927	66.31
469.146	84.31
469.365	89.31
469.585	82.31
469.804	97.31
470.023	71.31
470.243	76.31
470.462	89.31
470.681	72.31
470.901	82.31
471.12	89.31
471.339	88.31
471.558	99.31
471.777	98.31
471.997	92.31
472.216	100.31
472.435	90.31
472.654	79.31
472.873	86.31
473.092	73.31
473.311	87.31
473.53	94.31
473.749	76.31
473.968	91.31
474.187	83.31
474.406	76.31
474.625	82.31
474.844	88.31
475.063	84.31
475.282	96.31
475.501	89.31
475.72	99.31
475.939	58.31
476.158	94.31
476.377	91.31
476.596	79.31
476.814	86.31
477.033	76.31
477.252	98.31
477.471	98.31
477.69	90.31
477.908	95.31
478.127	80.31
478.346	74.31
478.564	87.31
478.783	96.31
479.002	81.31
479.22	85.31
479.439	76.31
479.658	91.31
479.876	86.31
480.095	81.31
480.313	90.31
480.532	91.31
480.751	80.31
480.969	87.31
481.188	98.31
481.406	93.31
481.624	81.31
481.843	83.31
482.061	86.31
482.28	81.31
482.498	66.31
482.717	101.31
482.935	92.31
483.153	105.31
483.372	91.31
483.59	94.31
483.808	110.31
484.027	90.31
484.245	92.31
484.463	98.31
484.681	89.31
484.9	86.31
485.118	78.31
485.336	92.31
485.554	99.31
485.772	86.31
485.99	91.31
486.209	93.31
486.427	94.31
486.645	93.31
486.863	107.31
487.081	101.31
487.299	99.31
487.517	89.31
487.735	90.31
487.953	103.31
488.171	89.31
488.389	91.31
488.607	86.31
488.825	77.31
489.043	90.31
489.261	92.31
489.479	90.31
489.696	94.31
489.914	87.31
490.132	89.31
490.35	94.31
490.568	78.31
490.786	99.31
491.003	95.31
491.221	104.31
491.439	98.31
491.657	94.31
491.874	98.31
492.092	98.31
492.31	97.31
492.527	100.31
492.745	96.31
492.963	96.31
493.18	93.31
493.398	84.31
493.615	98.31
493.833	107.31
494.05	103.31
494.268	91.31
494.485	107.31
494.703	89.31
494.92	89.31
495.138	83.31
495.355	98.31
495.573	99.31
495.79	86.31
496.008	95.31
496.225	80.31
496.442	100.31
496.66	99.31
496.877	89.31
497.094	95.31
497.312	79.31
497.529	93.31
497.746	75.31
497.963	93.31
498.181	87.31
498.398	105.31
498.615	106.31
498.832	102.31
499.049	95.31
499.267	84.31
499.484	110.31
499.701	106.31
499.918	104.31
500.135	106.31
500.352	108.31
500.569	109.31
500.786	122.31
501.003	101.31
501.22	105.31
501.437	105.31
501.654	92.31
501.871	93.31
502.088	98.31
502.305	97.31
502.522	96.31
502.739	77.31
502.956	90.31
503.172	99.31
503.389	97.31
503.606	88.31
503.823	113.31
504.04	99.31
504.256	84.31
504.473	94.31
504.69	91.31
504.907	92.31
505.123	106.31
505.34	88.31
505.557	86.31
505.773	79.31
505.99	95.31
506.207	87.31
506.423	79.31
506.64	97.31
506.856	106.31
507.073	85.31
507.289	96.31
507.506	85.31
507.722	95.31
507.939	82.31
508.155	91.31
508.372	94.31
508.588	100.31
508.805	86.31
509.021	89.31
509.238	98.31
509.454	97.31
509.67	75.31
509.887	90.31
510.103	101.31
510.319	88.31
510.536	85.31
510.752	83.31
510.968	81.31
511.184	92.31
511.401	83.31
511.617	84.31
511.833	96.31
512.049	107.31
512.265	82.31
512.481	87.31
512.698	94.31
512.914	80.31
513.13	82.31
513.346	104.31
513.562	102.31
513.778	75.31
513.994	87.31
514.21	83.31
514.426	105.31
514.642	89.31
514.858	75.31
515.074	87.31
515.29	86.31
515.506	89.31
515.721	97.31
515.937	89.31
516.153	98.31
516.369	89.31
516.585	80.31
516.801	94.31
517.016	85.31
517.232	94.31
517.448	98.31
517.664	95.31
517.879	104.31
518.095	95.31
518.311	85.31
518.527	95.31
518.742	89.31
