Data from Ni(NO3)2@0.0625M.TitratingCurve.Agarose3%dH2O.NegLispCup.LampEnergy10.LIBS07252019_HRD10591_18-13-37-568.txt Node
Date: Thu Jul 25 18:13:37 EDT 2019
User: cochatt
Spectrometer: HR+D1059
Trigger mode: 1
Integration Time (sec): 1.000000E-1
Scans to average: 1
Electric dark correction enabled: true
Nonlinearity correction enabled: false
Boxcar width: 0
XAxis mode: Wavelengths
Number of Pixels in Spectrum: 2048
>>>>>Begin Spectral Data<<<<<
223.165	-10.44
223.4	-10.44
223.635	-10.44
223.869	-29.44
224.104	-26.44
224.338	-19.44
224.573	-14.44
224.808	-20.44
225.042	-4.44
225.277	1.56
225.511	-4.44
225.746	6.56
225.98	9.56
226.215	16.56
226.449	12.56
226.683	23.56
226.918	18.56
227.152	40.56
227.387	34.56
227.621	32.56
227.856	47.56
228.09	38.56
228.324	53.56
228.559	51.56
228.793	73.56
229.027	86.56
229.262	101.56
229.496	93.56
229.73	102.56
229.964	113.56
230.199	110.56
230.433	109.56
230.667	135.56
230.901	135.56
231.136	113.56
231.37	125.56
231.604	117.56
231.838	128.56
232.072	129.56
232.306	140.56
232.541	136.56
232.775	162.56
233.009	126.56
233.243	133.56
233.477	127.56
233.711	133.56
233.945	130.56
234.179	144.56
234.413	138.56
234.647	136.56
234.881	130.56
235.115	135.56
235.349	138.56
235.583	131.56
235.817	131.56
236.051	135.56
236.285	136.56
236.519	157.56
236.753	147.56
236.987	144.56
237.221	141.56
237.455	142.56
237.689	134.56
237.922	144.56
238.156	147.56
238.39	139.56
238.624	144.56
238.858	153.56
239.091	144.56
239.325	153.56
239.559	158.56
239.793	145.56
240.027	159.56
240.26	158.56
240.494	155.56
240.728	158.56
240.961	158.56
241.195	158.56
241.429	157.56
241.662	173.56
241.896	173.56
242.13	165.56
242.363	169.56
242.597	165.56
242.83	171.56
243.064	158.56
243.298	185.56
243.531	199.56
243.765	191.56
243.998	177.56
244.232	191.56
244.465	187.56
244.699	197.56
244.932	196.56
245.166	197.56
245.399	217.56
245.633	192.56
245.866	173.56
246.099	182.56
246.333	191.56
246.566	191.56
246.8	199.56
247.033	195.56
247.266	198.56
247.5	198.56
247.733	191.56
247.966	206.56
248.2	197.56
248.433	203.56
248.666	214.56
248.899	216.56
249.133	202.56
249.366	209.56
249.599	207.56
249.832	226.56
250.066	193.56
250.299	223.56
250.532	209.56
250.765	210.56
250.998	203.56
251.231	209.56
251.465	232.56
251.698	237.56
251.931	221.56
252.164	206.56
252.397	222.56
252.63	232.56
252.863	230.56
253.096	238.56
253.329	254.56
253.562	239.56
253.795	227.56
254.028	241.56
254.261	248.56
254.494	245.56
254.727	240.56
254.96	247.56
255.193	248.56
255.426	250.56
255.659	241.56
255.892	234.56
256.124	233.56
256.357	245.56
256.59	256.56
256.823	240.56
257.056	237.56
257.289	241.56
257.521	251.56
257.754	254.56
257.987	257.56
258.22	247.56
258.452	254.56
258.685	253.56
258.918	273.56
259.151	265.56
259.383	257.56
259.616	250.56
259.849	271.56
260.081	258.56
260.314	259.56
260.547	250.56
260.779	272.56
261.012	269.56
261.244	267.56
261.477	283.56
261.71	279.56
261.942	279.56
262.175	251.56
262.407	257.56
262.64	275.56
262.872	290.56
263.105	277.56
263.337	279.56
263.57	285.56
263.802	290.56
264.035	283.56
264.267	301.56
264.499	284.56
264.732	311.56
264.964	298.56
265.197	293.56
265.429	305.56
265.661	302.56
265.894	303.56
266.126	307.56
266.358	298.56
266.591	283.56
266.823	314.56
267.055	305.56
267.287	291.56
267.52	298.56
267.752	312.56
267.984	323.56
268.216	310.56
268.448	307.56
268.681	305.56
268.913	298.56
269.145	299.56
269.377	307.56
269.609	313.56
269.841	309.56
270.073	308.56
270.306	325.56
270.538	299.56
270.77	300.56
271.002	303.56
271.234	328.56
271.466	304.56
271.698	329.56
271.93	311.56
272.162	332.56
272.394	323.56
272.626	326.56
272.858	321.56
273.09	313.56
273.322	337.56
273.553	330.56
273.785	322.56
274.017	325.56
274.249	338.56
274.481	325.56
274.713	331.56
274.945	346.56
275.176	333.56
275.408	331.56
275.64	343.56
275.872	336.56
276.104	341.56
276.335	331.56
276.567	338.56
276.799	331.56
277.031	358.56
277.262	335.56
277.494	355.56
277.726	357.56
277.957	338.56
278.189	348.56
278.421	354.56
278.652	362.56
278.884	355.56
279.115	361.56
279.347	358.56
279.579	374.56
279.81	378.56
280.042	383.56
280.273	361.56
280.505	347.56
280.736	358.56
280.968	361.56
281.199	368.56
281.431	366.56
281.662	351.56
281.894	378.56
282.125	371.56
282.356	376.56
282.588	381.56
282.819	384.56
283.051	366.56
283.282	360.56
283.513	386.56
283.745	391.56
283.976	384.56
284.207	385.56
284.439	397.56
284.67	400.56
284.901	385.56
285.132	379.56
285.364	388.56
285.595	389.56
285.826	422.56
286.057	393.56
286.288	397.56
286.52	427.56
286.751	404.56
286.982	401.56
287.213	411.56
287.444	398.56
287.675	399.56
287.906	430.56
288.138	410.56
288.369	425.56
288.6	410.56
288.831	423.56
289.062	416.56
289.293	415.56
289.524	429.56
289.755	423.56
289.986	406.56
290.217	454.56
290.448	430.56
290.679	426.56
290.91	428.56
291.141	419.56
291.371	426.56
291.602	433.56
291.833	443.56
292.064	437.56
292.295	427.56
292.526	428.56
292.757	435.56
292.987	435.56
293.218	423.56
293.449	434.56
293.68	426.56
293.91	434.56
294.141	431.56
294.372	431.56
294.603	452.56
294.833	433.56
295.064	447.56
295.295	424.56
295.525	423.56
295.756	445.56
295.987	455.56
296.217	440.56
296.448	443.56
296.679	480.56
296.909	440.56
297.14	459.56
297.37	463.56
297.601	457.56
297.831	485.56
298.062	470.56
298.292	467.56
298.523	490.56
298.753	481.56
298.984	463.56
299.214	472.56
299.445	464.56
299.675	448.56
299.905	469.56
300.136	488.56
300.366	454.56
300.597	464.56
300.827	492.56
301.057	515.56
301.288	486.56
301.518	481.56
301.748	490.56
301.979	457.56
302.209	487.56
302.439	489.56
302.669	478.56
302.9	488.56
303.13	485.56
303.36	473.56
303.59	476.56
303.82	493.56
304.051	489.56
304.281	484.56
304.511	478.56
304.741	472.56
304.971	488.56
305.201	488.56
305.431	472.56
305.661	467.56
305.891	475.56
306.121	491.56
306.352	482.56
306.582	455.56
306.812	491.56
307.042	488.56
307.272	465.56
307.502	474.56
307.731	472.56
307.961	472.56
308.191	463.56
308.421	457.56
308.651	484.56
308.881	469.56
309.111	470.56
309.341	458.56
309.571	478.56
309.8	456.56
310.03	478.56
310.26	441.56
310.49	482.56
310.72	474.56
310.949	473.56
311.179	478.56
311.409	484.56
311.639	475.56
311.868	471.56
312.098	490.56
312.328	506.56
312.557	484.56
312.787	491.56
313.017	482.56
313.246	482.56
313.476	493.56
313.706	497.56
313.935	501.56
314.165	507.56
314.394	507.56
314.624	528.56
314.853	499.56
315.083	502.56
315.312	506.56
315.542	490.56
315.771	493.56
316.001	488.56
316.23	483.56
316.46	505.56
316.689	492.56
316.919	483.56
317.148	477.56
317.377	497.56
317.607	477.56
317.836	479.56
318.065	502.56
318.295	491.56
318.524	478.56
318.753	476.56
318.983	505.56
319.212	493.56
319.441	476.56
319.67	461.56
319.9	483.56
320.129	493.56
320.358	483.56
320.587	487.56
320.816	486.56
321.046	492.56
321.275	507.56
321.504	501.56
321.733	478.56
321.962	512.56
322.191	493.56
322.42	482.56
322.649	480.56
322.878	486.56
323.108	500.56
323.337	499.56
323.566	518.56
323.795	493.56
324.024	490.56
324.253	500.56
324.482	505.56
324.71	491.56
324.939	517.56
325.168	515.56
325.397	506.56
325.626	508.56
325.855	532.56
326.084	517.56
326.313	533.56
326.542	520.56
326.77	539.56
326.999	537.56
327.228	542.56
327.457	525.56
327.686	529.56
327.914	538.56
328.143	530.56
328.372	539.56
328.6	550.56
328.829	524.56
329.058	547.56
329.287	532.56
329.515	539.56
329.744	537.56
329.972	546.56
330.201	536.56
330.43	543.56
330.658	537.56
330.887	548.56
331.115	550.56
331.344	571.56
331.572	579.56
331.801	554.56
332.03	591.56
332.258	622.56
332.486	613.56
332.715	634.56
332.943	683.56
333.172	713.56
333.4	724.56
333.629	744.56
333.857	730.56
334.085	722.56
334.314	705.56
334.542	700.56
334.771	681.56
334.999	656.56
335.227	690.56
335.455	680.56
335.684	675.56
335.912	674.56
336.14	660.56
336.369	633.56
336.597	642.56
336.825	641.56
337.053	631.56
337.281	648.56
337.51	630.56
337.738	619.56
337.966	586.56
338.194	594.56
338.422	585.56
338.65	569.56
338.878	586.56
339.106	596.56
339.334	569.56
339.562	571.56
339.79	565.56
340.018	558.56
340.246	541.56
340.474	551.56
340.702	553.56
340.93	580.56
341.158	583.56
341.386	580.56
341.614	565.56
341.842	570.56
342.07	571.56
342.298	550.56
342.526	525.56
342.754	554.56
342.981	569.56
343.209	574.56
343.437	603.56
343.665	619.56
343.893	698.56
344.12	694.56
344.348	693.56
344.576	614.56
344.804	614.56
345.031	601.56
345.259	582.56
345.487	578.56
345.714	568.56
345.942	545.56
346.17	543.56
346.397	551.56
346.625	541.56
346.853	556.56
347.08	543.56
347.308	556.56
347.535	564.56
347.763	566.56
347.99	551.56
348.218	579.56
348.445	542.56
348.673	549.56
348.9	554.56
349.128	553.56
349.355	539.56
349.583	541.56
349.81	520.56
350.037	554.56
350.265	527.56
350.492	540.56
350.72	533.56
350.947	546.56
351.174	550.56
351.402	536.56
351.629	527.56
351.856	540.56
352.083	521.56
352.311	524.56
352.538	523.56
352.765	512.56
352.992	504.56
353.22	500.56
353.447	506.56
353.674	513.56
353.901	506.56
354.128	547.56
354.355	515.56
354.583	526.56
354.81	542.56
355.037	521.56
355.264	522.56
355.491	526.56
355.718	534.56
355.945	534.56
356.172	540.56
356.399	534.56
356.626	530.56
356.853	540.56
357.08	527.56
357.307	537.56
357.534	526.56
357.761	516.56
357.988	544.56
358.215	516.56
358.441	496.56
358.668	517.56
358.895	527.56
359.122	538.56
359.349	526.56
359.576	525.56
359.802	517.56
360.029	532.56
360.256	525.56
360.483	540.56
360.709	543.56
360.936	546.56
361.163	518.56
361.39	541.56
361.616	545.56
361.843	525.56
362.07	542.56
362.296	537.56
362.523	517.56
362.749	523.56
362.976	521.56
363.203	519.56
363.429	525.56
363.656	547.56
363.882	534.56
364.109	535.56
364.335	518.56
364.562	534.56
364.788	522.56
365.015	555.56
365.241	514.56
365.468	526.56
365.694	515.56
365.92	493.56
366.147	521.56
366.373	531.56
366.599	532.56
366.826	534.56
367.052	539.56
367.278	545.56
367.505	531.56
367.731	549.56
367.957	522.56
368.184	544.56
368.41	527.56
368.636	535.56
368.862	543.56
369.089	541.56
369.315	547.56
369.541	548.56
369.767	559.56
369.993	541.56
370.219	558.56
370.445	557.56
370.672	553.56
370.898	566.56
371.124	577.56
371.35	583.56
371.576	563.56
371.802	579.56
372.028	582.56
372.254	569.56
372.48	573.56
372.706	583.56
372.932	587.56
373.158	601.56
373.384	598.56
373.61	575.56
373.835	598.56
374.061	567.56
374.287	563.56
374.513	586.56
374.739	601.56
374.965	629.56
375.191	631.56
375.416	642.56
375.642	622.56
375.868	613.56
376.094	600.56
376.319	585.56
376.545	593.56
376.771	601.56
376.997	566.56
377.222	573.56
377.448	568.56
377.674	583.56
377.899	577.56
378.125	585.56
378.35	566.56
378.576	573.56
378.802	546.56
379.027	573.56
379.253	575.56
379.478	565.56
379.704	575.56
379.929	549.56
380.155	561.56
380.38	573.56
380.606	588.56
380.831	567.56
381.057	561.56
381.282	588.56
381.507	579.56
381.733	573.56
381.958	580.56
382.184	586.56
382.409	609.56
382.634	603.56
382.86	609.56
383.085	590.56
383.31	624.56
383.535	604.56
383.761	636.56
383.986	646.56
384.211	665.56
384.436	676.56
384.662	679.56
384.887	697.56
385.112	675.56
385.337	715.56
385.562	701.56
385.787	697.56
386.013	694.56
386.238	711.56
386.463	701.56
386.688	713.56
386.913	689.56
387.138	668.56
387.363	657.56
387.588	678.56
387.813	669.56
388.038	648.56
388.263	673.56
388.488	671.56
388.713	685.56
388.938	666.56
389.163	658.56
389.387	648.56
389.612	663.56
389.837	670.56
390.062	663.56
390.287	664.56
390.512	663.56
390.736	674.56
390.961	674.56
391.186	706.56
391.411	727.56
391.636	754.56
391.86	776.56
392.085	783.56
392.31	793.56
392.534	730.56
392.759	724.56
392.984	726.56
393.208	752.56
393.433	727.56
393.658	741.56
393.882	737.56
394.107	735.56
394.331	732.56
394.556	746.56
394.78	734.56
395.005	719.56
395.229	733.56
395.454	772.56
395.678	758.56
395.903	761.56
396.127	750.56
396.352	722.56
396.576	738.56
396.801	719.56
397.025	729.56
397.249	727.56
397.474	749.56
397.698	747.56
397.922	764.56
398.147	739.56
398.371	778.56
398.595	798.56
398.82	838.56
399.044	879.56
399.268	987.56
399.492	1178.56
399.717	1343.56
399.941	1331.56
400.165	1150.56
400.389	1034.56
400.613	936.56
400.837	887.56
401.062	884.56
401.286	850.56
401.51	843.56
401.734	853.56
401.958	874.56
402.182	869.56
402.406	877.56
402.63	888.56
402.854	940.56
403.078	945.56
403.302	968.56
403.526	965.56
403.75	975.56
403.974	1006.56
404.198	1046.56
404.422	1038.56
404.645	1018.56
404.869	983.56
405.093	997.56
405.317	951.56
405.541	950.56
405.765	952.56
405.988	912.56
406.212	942.56
406.436	957.56
406.66	963.56
406.883	963.56
407.107	1018.56
407.331	1091.56
407.555	1098.56
407.778	1138.56
408.002	1087.56
408.226	1047.56
408.449	1046.56
408.673	1029.56
408.896	993.56
409.12	941.56
409.344	1009.56
409.567	1002.56
409.791	1050.56
410.014	959.56
410.238	974.56
410.461	979.56
410.685	963.56
410.908	958.56
411.132	929.56
411.355	871.56
411.578	885.56
411.802	892.56
412.025	901.56
412.249	918.56
412.472	899.56
412.695	869.56
412.919	851.56
413.142	851.56
413.365	855.56
413.589	874.56
413.812	883.56
414.035	849.56
414.258	847.56
414.482	860.56
414.705	893.56
414.928	899.56
415.151	862.56
415.374	857.56
415.597	865.56
415.821	841.56
416.044	844.56
416.267	852.56
416.49	857.56
416.713	825.56
416.936	860.56
417.159	869.56
417.382	850.56
417.605	835.56
417.828	857.56
418.051	873.56
418.274	876.56
418.497	856.56
418.72	893.56
418.943	902.56
419.166	955.56
419.389	1000.56
419.611	945.56
419.834	933.56
420.057	920.56
420.28	858.56
420.503	837.56
420.726	865.56
420.948	854.56
421.171	855.56
421.394	837.56
421.617	835.56
421.839	863.56
422.062	845.56
422.285	853.56
422.507	897.56
422.73	887.56
422.953	889.56
423.175	879.56
423.398	897.56
423.621	933.56
423.843	955.56
424.066	939.56
424.288	941.56
424.511	924.56
424.733	913.56
424.956	897.56
425.178	863.56
425.401	885.56
425.623	842.56
425.846	846.56
426.068	818.56
426.291	837.56
426.513	817.56
426.735	809.56
426.958	798.56
427.18	775.56
427.402	778.56
427.625	764.56
427.847	778.56
428.069	775.56
428.292	772.56
428.514	759.56
428.736	759.56
428.958	756.56
429.181	746.56
429.403	742.56
429.625	751.56
429.847	733.56
430.069	762.56
430.292	774.56
430.514	737.56
430.736	740.56
430.958	747.56
431.18	750.56
431.402	745.56
431.624	748.56
431.846	799.56
432.068	781.56
432.29	805.56
432.512	754.56
432.734	781.56
432.956	760.56
433.178	772.56
433.4	753.56
433.622	776.56
433.844	778.56
434.066	762.56
434.287	767.56
434.509	813.56
434.731	845.56
434.953	871.56
435.175	872.56
435.397	865.56
435.618	821.56
435.84	796.56
436.062	786.56
436.284	750.56
436.505	761.56
436.727	743.56
436.949	778.56
437.17	767.56
437.392	773.56
437.614	746.56
437.835	715.56
438.057	730.56
438.278	721.56
438.5	744.56
438.721	730.56
438.943	757.56
439.165	737.56
439.386	753.56
439.608	754.56
439.829	759.56
440.05	775.56
440.272	772.56
440.493	786.56
440.715	821.56
440.936	789.56
441.158	807.56
441.379	823.56
441.6	871.56
441.822	907.56
442.043	873.56
442.264	840.56
442.486	823.56
442.707	861.56
442.928	866.56
443.149	862.56
443.371	845.56
443.592	864.56
443.813	878.56
444.034	877.56
444.255	928.56
444.476	957.56
444.698	1008.56
444.919	1068.56
445.14	1159.56
445.361	1009.56
445.582	890.56
445.803	855.56
446.024	801.56
446.245	791.56
446.466	781.56
446.687	787.56
446.908	779.56
447.129	753.56
447.35	764.56
447.571	742.56
447.792	731.56
448.013	725.56
448.234	715.56
448.455	746.56
448.675	724.56
448.896	722.56
449.117	682.56
449.338	708.56
449.559	702.56
449.779	691.56
450	712.56
450.221	698.56
450.442	746.56
450.662	711.56
450.883	716.56
451.104	751.56
451.324	726.56
451.545	722.56
451.766	735.56
451.986	740.56
452.207	711.56
452.428	710.56
452.648	716.56
452.869	718.56
453.089	714.56
453.31	685.56
453.53	710.56
453.751	703.56
453.971	697.56
454.192	699.56
454.412	666.56
454.633	675.56
454.853	682.56
455.073	667.56
455.294	675.56
455.514	687.56
455.734	666.56
455.955	650.56
456.175	656.56
456.395	643.56
456.616	676.56
456.836	677.56
457.056	666.56
457.276	635.56
457.497	674.56
457.717	662.56
457.937	666.56
458.157	672.56
458.377	671.56
458.598	671.56
458.818	729.56
459.038	723.56
459.258	789.56
459.478	765.56
459.698	778.56
459.918	791.56
460.138	862.56
460.358	921.56
460.578	905.56
460.798	942.56
461.018	965.56
461.238	940.56
461.458	906.56
461.678	906.56
461.898	914.56
462.118	928.56
462.338	975.56
462.558	990.56
462.777	1023.56
462.997	1114.56
463.217	1272.56
463.437	1293.56
463.657	1139.56
463.876	1075.56
464.096	1085.56
464.316	1141.56
464.536	1142.56
464.755	1052.56
464.975	995.56
465.195	968.56
465.414	916.56
465.634	850.56
465.854	813.56
466.073	817.56
466.293	796.56
466.512	741.56
466.732	735.56
466.951	768.56
467.171	753.56
467.391	761.56
467.61	719.56
467.829	753.56
468.049	725.56
468.268	705.56
468.488	708.56
468.707	726.56
468.927	698.56
469.146	724.56
469.365	725.56
469.585	715.56
469.804	735.56
470.023	773.56
470.243	753.56
470.462	773.56
470.681	749.56
470.901	766.56
471.12	746.56
471.339	771.56
471.558	750.56
471.777	722.56
471.997	744.56
472.216	713.56
472.435	693.56
472.654	716.56
472.873	681.56
473.092	710.56
473.311	697.56
473.53	680.56
473.749	676.56
473.968	686.56
474.187	694.56
474.406	703.56
474.625	707.56
474.844	705.56
475.063	674.56
475.282	696.56
475.501	717.56
475.72	719.56
475.939	713.56
476.158	723.56
476.377	747.56
476.596	747.56
476.814	728.56
477.033	739.56
477.252	714.56
477.471	743.56
477.69	773.56
477.908	809.56
478.127	833.56
478.346	836.56
478.564	875.56
478.783	847.56
479.002	867.56
479.22	867.56
479.439	846.56
479.658	869.56
479.876	872.56
480.095	839.56
480.313	907.56
480.532	953.56
480.751	932.56
480.969	907.56
481.188	886.56
481.406	832.56
481.624	819.56
481.843	834.56
482.061	808.56
482.28	807.56
482.498	764.56
482.717	767.56
482.935	780.56
483.153	804.56
483.372	803.56
483.59	783.56
483.808	806.56
484.027	793.56
484.245	765.56
484.463	792.56
484.681	828.56
484.9	809.56
485.118	821.56
485.336	814.56
485.554	833.56
485.772	828.56
485.99	869.56
486.209	848.56
486.427	849.56
486.645	850.56
486.863	834.56
487.081	841.56
487.299	825.56
487.517	844.56
487.735	859.56
487.953	859.56
488.171	822.56
488.389	842.56
488.607	792.56
488.825	809.56
489.043	786.56
489.261	802.56
489.479	819.56
489.696	836.56
489.914	830.56
490.132	819.56
490.35	818.56
490.568	825.56
490.786	825.56
491.003	846.56
491.221	843.56
491.439	827.56
491.657	835.56
491.874	874.56
492.092	853.56
492.31	865.56
492.527	858.56
492.745	835.56
492.963	869.56
493.18	885.56
493.398	861.56
493.615	869.56
493.833	866.56
494.05	886.56
494.268	857.56
494.485	866.56
494.703	879.56
494.92	873.56
495.138	875.56
495.355	876.56
495.573	884.56
495.79	876.56
496.008	925.56
496.225	899.56
496.442	883.56
496.66	908.56
496.877	925.56
497.094	930.56
497.312	939.56
497.529	938.56
497.746	968.56
497.963	1006.56
498.181	1060.56
498.398	1113.56
498.615	1144.56
498.832	1209.56
499.049	1315.56
499.267	1421.56
499.484	1595.56
499.701	1796.56
499.918	1950.56
500.135	2237.56
500.352	2656.56
500.569	2820.56
500.786	2768.56
