Data from Ni(NO3)2Standard.Agarose3%.GreenCap.LampEnergy5.5.E.O_HRD10591_14-42-15-188.txt Node
Date: Mon Jul 22 14:42:15 EDT 2019
User: cochatt
Spectrometer: HR+D1059
Trigger mode: 1
Integration Time (sec): 1.000000E-1
Scans to average: 1
Electric dark correction enabled: true
Nonlinearity correction enabled: false
Boxcar width: 0
XAxis mode: Wavelengths
Number of Pixels in Spectrum: 2048
>>>>>Begin Spectral Data<<<<<
223.165	-8.56
223.4	-8.56
223.635	-8.56
223.869	-14.56
224.104	-27.56
224.338	-19.56
224.573	-16.56
224.808	-10.56
225.042	-14.56
225.277	-6.56
225.511	0.44
225.746	-5.56
225.98	12.44
226.215	26.44
226.449	15.44
226.683	17.44
226.918	33.44
227.152	18.44
227.387	41.44
227.621	30.44
227.856	46.44
228.09	45.44
228.324	53.44
228.559	60.44
228.793	51.44
229.027	55.44
229.262	73.44
229.496	74.44
229.73	66.44
229.964	69.44
230.199	80.44
230.433	83.44
230.667	80.44
230.901	68.44
231.136	75.44
231.37	88.44
231.604	84.44
231.838	81.44
232.072	78.44
232.306	91.44
232.541	70.44
232.775	80.44
233.009	76.44
233.243	82.44
233.477	80.44
233.711	87.44
233.945	96.44
234.179	73.44
234.413	96.44
234.647	89.44
234.881	86.44
235.115	74.44
235.349	76.44
235.583	82.44
235.817	73.44
236.051	81.44
236.285	76.44
236.519	84.44
236.753	79.44
236.987	74.44
237.221	83.44
237.455	88.44
237.689	85.44
237.922	84.44
238.156	73.44
238.39	72.44
238.624	73.44
238.858	75.44
239.091	57.44
239.325	79.44
239.559	69.44
239.793	91.44
240.027	83.44
240.26	71.44
240.494	77.44
240.728	71.44
240.961	78.44
241.195	86.44
241.429	74.44
241.662	76.44
241.896	73.44
242.13	76.44
242.363	83.44
242.597	68.44
242.83	69.44
243.064	84.44
243.298	78.44
243.531	100.44
243.765	69.44
243.998	76.44
244.232	89.44
244.465	81.44
244.699	65.44
244.932	85.44
245.166	81.44
245.399	59.44
245.633	70.44
245.866	75.44
246.099	85.44
246.333	66.44
246.566	91.44
246.8	71.44
247.033	67.44
247.266	80.44
247.5	72.44
247.733	78.44
247.966	89.44
248.2	80.44
248.433	78.44
248.666	84.44
248.899	80.44
249.133	88.44
249.366	89.44
249.599	90.44
249.832	86.44
250.066	93.44
250.299	70.44
250.532	95.44
250.765	78.44
250.998	83.44
251.231	70.44
251.465	86.44
251.698	79.44
251.931	85.44
252.164	92.44
252.397	68.44
252.63	78.44
252.863	81.44
253.096	79.44
253.329	76.44
253.562	78.44
253.795	78.44
254.028	86.44
254.261	86.44
254.494	68.44
254.727	82.44
254.96	88.44
255.193	73.44
255.426	75.44
255.659	75.44
255.892	75.44
256.124	78.44
256.357	77.44
256.59	67.44
256.823	76.44
257.056	79.44
257.289	79.44
257.521	82.44
257.754	97.44
257.987	75.44
258.22	90.44
258.452	74.44
258.685	75.44
258.918	82.44
259.151	85.44
259.383	76.44
259.616	90.44
259.849	91.44
260.081	86.44
260.314	76.44
260.547	85.44
260.779	86.44
261.012	90.44
261.244	85.44
261.477	91.44
261.71	84.44
261.942	77.44
262.175	81.44
262.407	76.44
262.64	89.44
262.872	77.44
263.105	88.44
263.337	93.44
263.57	79.44
263.802	92.44
264.035	75.44
264.267	83.44
264.499	72.44
264.732	85.44
264.964	82.44
265.197	77.44
265.429	83.44
265.661	82.44
265.894	82.44
266.126	95.44
266.358	76.44
266.591	73.44
266.823	82.44
267.055	64.44
267.287	84.44
267.52	93.44
267.752	72.44
267.984	82.44
268.216	92.44
268.448	86.44
268.681	93.44
268.913	96.44
269.145	83.44
269.377	87.44
269.609	74.44
269.841	90.44
270.073	88.44
270.306	92.44
270.538	88.44
270.77	85.44
271.002	92.44
271.234	73.44
271.466	88.44
271.698	97.44
271.93	83.44
272.162	88.44
272.394	84.44
272.626	75.44
272.858	82.44
273.09	90.44
273.322	85.44
273.553	69.44
273.785	71.44
274.017	70.44
274.249	75.44
274.481	96.44
274.713	80.44
274.945	90.44
275.176	84.44
275.408	79.44
275.64	84.44
275.872	92.44
276.104	77.44
276.335	98.44
276.567	83.44
276.799	74.44
277.031	77.44
277.262	84.44
277.494	99.44
277.726	81.44
277.957	73.44
278.189	78.44
278.421	79.44
278.652	106.44
278.884	73.44
279.115	84.44
279.347	92.44
279.579	82.44
279.81	74.44
280.042	88.44
280.273	78.44
280.505	90.44
280.736	96.44
280.968	93.44
281.199	81.44
281.431	83.44
281.662	95.44
281.894	78.44
282.125	80.44
282.356	88.44
282.588	65.44
282.819	104.44
283.051	86.44
283.282	82.44
283.513	81.44
283.745	74.44
283.976	63.44
284.207	81.44
284.439	85.44
284.67	83.44
284.901	75.44
285.132	78.44
285.364	89.44
285.595	88.44
285.826	86.44
286.057	85.44
286.288	61.44
286.52	92.44
286.751	87.44
286.982	104.44
287.213	91.44
287.444	96.44
287.675	89.44
287.906	99.44
288.138	79.44
288.369	92.44
288.6	84.44
288.831	73.44
289.062	98.44
289.293	84.44
289.524	72.44
289.755	88.44
289.986	95.44
290.217	84.44
290.448	91.44
290.679	93.44
290.91	68.44
291.141	90.44
291.371	105.44
291.602	83.44
291.833	77.44
292.064	79.44
292.295	88.44
292.526	93.44
292.757	88.44
292.987	88.44
293.218	91.44
293.449	86.44
293.68	86.44
293.91	85.44
294.141	92.44
294.372	81.44
294.603	90.44
294.833	93.44
295.064	79.44
295.295	97.44
295.525	93.44
295.756	81.44
295.987	84.44
296.217	83.44
296.448	76.44
296.679	86.44
296.909	88.44
297.14	89.44
297.37	83.44
297.601	82.44
297.831	95.44
298.062	68.44
298.292	94.44
298.523	90.44
298.753	92.44
298.984	99.44
299.214	88.44
299.445	89.44
299.675	99.44
299.905	86.44
300.136	89.44
300.366	83.44
300.597	83.44
300.827	75.44
301.057	86.44
301.288	92.44
301.518	94.44
301.748	106.44
301.979	90.44
302.209	87.44
302.439	81.44
302.669	88.44
302.9	90.44
303.13	83.44
303.36	93.44
303.59	89.44
303.82	82.44
304.051	96.44
304.281	100.44
304.511	94.44
304.741	88.44
304.971	86.44
305.201	101.44
305.431	90.44
305.661	83.44
305.891	87.44
306.121	94.44
306.352	85.44
306.582	84.44
306.812	84.44
307.042	82.44
307.272	91.44
307.502	88.44
307.731	86.44
307.961	93.44
308.191	90.44
308.421	95.44
308.651	92.44
308.881	90.44
309.111	77.44
309.341	83.44
309.571	88.44
309.8	93.44
310.03	80.44
310.26	95.44
310.49	93.44
310.72	104.44
310.949	86.44
311.179	89.44
311.409	97.44
311.639	84.44
311.868	96.44
312.098	85.44
312.328	84.44
312.557	89.44
312.787	84.44
313.017	88.44
313.246	92.44
313.476	99.44
313.706	89.44
313.935	81.44
314.165	82.44
314.394	92.44
314.624	72.44
314.853	93.44
315.083	80.44
315.312	94.44
315.542	71.44
315.771	84.44
316.001	89.44
316.23	88.44
316.46	86.44
316.689	80.44
316.919	83.44
317.148	77.44
317.377	91.44
317.607	82.44
317.836	92.44
318.065	96.44
318.295	88.44
318.524	74.44
318.753	77.44
318.983	89.44
319.212	85.44
319.441	97.44
319.67	83.44
319.9	106.44
320.129	83.44
320.358	76.44
320.587	94.44
320.816	93.44
321.046	91.44
321.275	91.44
321.504	84.44
321.733	70.44
321.962	95.44
322.191	85.44
322.42	82.44
322.649	81.44
322.878	77.44
323.108	86.44
323.337	88.44
323.566	79.44
323.795	87.44
324.024	84.44
324.253	101.44
324.482	88.44
324.71	90.44
324.939	72.44
325.168	93.44
325.397	88.44
325.626	82.44
325.855	86.44
326.084	85.44
326.313	81.44
326.542	92.44
326.77	79.44
326.999	83.44
327.228	82.44
327.457	96.44
327.686	98.44
327.914	88.44
328.143	97.44
328.372	84.44
328.6	93.44
328.829	90.44
329.058	78.44
329.287	91.44
329.515	105.44
329.744	82.44
329.972	86.44
330.201	85.44
330.43	87.44
330.658	84.44
330.887	97.44
331.115	72.44
331.344	86.44
331.572	90.44
331.801	78.44
332.03	75.44
332.258	98.44
332.486	85.44
332.715	82.44
332.943	86.44
333.172	99.44
333.4	88.44
333.629	89.44
333.857	95.44
334.085	83.44
334.314	92.44
334.542	84.44
334.771	89.44
334.999	84.44
335.227	94.44
335.455	83.44
335.684	92.44
335.912	87.44
336.14	86.44
336.369	82.44
336.597	90.44
336.825	76.44
337.053	94.44
337.281	92.44
337.51	85.44
337.738	81.44
337.966	78.44
338.194	77.44
338.422	73.44
338.65	93.44
338.878	69.44
339.106	89.44
339.334	89.44
339.562	89.44
339.79	77.44
340.018	90.44
340.246	96.44
340.474	101.44
340.702	100.44
340.93	86.44
341.158	97.44
341.386	83.44
341.614	92.44
341.842	91.44
342.07	74.44
342.298	83.44
342.526	92.44
342.754	86.44
342.981	85.44
343.209	89.44
343.437	93.44
343.665	95.44
343.893	108.44
344.12	90.44
344.348	86.44
344.576	79.44
344.804	96.44
345.031	92.44
345.259	80.44
345.487	77.44
345.714	102.44
345.942	93.44
346.17	98.44
346.397	90.44
346.625	89.44
346.853	81.44
347.08	85.44
347.308	104.44
347.535	93.44
347.763	94.44
347.99	97.44
348.218	104.44
348.445	85.44
348.673	97.44
348.9	72.44
349.128	74.44
349.355	90.44
349.583	90.44
349.81	90.44
350.037	100.44
350.265	92.44
350.492	91.44
350.72	87.44
350.947	85.44
351.174	90.44
351.402	90.44
351.629	90.44
351.856	85.44
352.083	90.44
352.311	91.44
352.538	82.44
352.765	77.44
352.992	104.44
353.22	82.44
353.447	91.44
353.674	81.44
353.901	88.44
354.128	92.44
354.355	87.44
354.583	101.44
354.81	87.44
355.037	100.44
355.264	76.44
355.491	89.44
355.718	99.44
355.945	77.44
356.172	82.44
356.399	86.44
356.626	81.44
356.853	76.44
357.08	83.44
357.307	98.44
357.534	92.44
357.761	93.44
357.988	84.44
358.215	97.44
358.441	105.44
358.668	81.44
358.895	88.44
359.122	85.44
359.349	74.44
359.576	87.44
359.802	82.44
360.029	96.44
360.256	96.44
360.483	84.44
360.709	86.44
360.936	95.44
361.163	83.44
361.39	94.44
361.616	93.44
361.843	83.44
362.07	104.44
362.296	96.44
362.523	81.44
362.749	82.44
362.976	78.44
363.203	89.44
363.429	77.44
363.656	88.44
363.882	84.44
364.109	90.44
364.335	83.44
364.562	96.44
364.788	78.44
365.015	98.44
365.241	101.44
365.468	92.44
365.694	101.44
365.92	90.44
366.147	100.44
366.373	96.44
366.599	81.44
366.826	82.44
367.052	77.44
367.278	78.44
367.505	78.44
367.731	85.44
367.957	72.44
368.184	89.44
368.41	91.44
368.636	101.44
368.862	87.44
369.089	89.44
369.315	94.44
369.541	98.44
369.767	90.44
369.993	77.44
370.219	81.44
370.445	78.44
370.672	93.44
370.898	94.44
371.124	93.44
371.35	81.44
371.576	76.44
371.802	84.44
372.028	77.44
372.254	75.44
372.48	97.44
372.706	85.44
372.932	97.44
373.158	82.44
373.384	91.44
373.61	78.44
373.835	89.44
374.061	90.44
374.287	93.44
374.513	95.44
374.739	103.44
374.965	87.44
375.191	82.44
375.416	78.44
375.642	90.44
375.868	88.44
376.094	88.44
376.319	92.44
376.545	71.44
376.771	80.44
376.997	93.44
377.222	82.44
377.448	86.44
377.674	81.44
377.899	92.44
378.125	103.44
378.35	88.44
378.576	96.44
378.802	91.44
379.027	76.44
379.253	88.44
379.478	96.44
379.704	84.44
379.929	91.44
380.155	81.44
380.38	89.44
380.606	76.44
380.831	76.44
381.057	78.44
381.282	75.44
381.507	81.44
381.733	87.44
381.958	86.44
382.184	86.44
382.409	91.44
382.634	79.44
382.86	91.44
383.085	72.44
383.31	72.44
383.535	89.44
383.761	80.44
383.986	67.44
384.211	76.44
384.436	94.44
384.662	89.44
384.887	79.44
385.112	90.44
385.337	81.44
385.562	73.44
385.787	97.44
386.013	87.44
386.238	82.44
386.463	81.44
386.688	92.44
386.913	91.44
387.138	99.44
387.363	85.44
387.588	72.44
387.813	86.44
388.038	88.44
388.263	81.44
388.488	96.44
388.713	93.44
388.938	86.44
389.163	89.44
389.387	88.44
389.612	74.44
389.837	92.44
390.062	87.44
390.287	90.44
390.512	90.44
390.736	94.44
390.961	87.44
391.186	80.44
391.411	74.44
391.636	90.44
391.86	80.44
392.085	84.44
392.31	86.44
392.534	84.44
392.759	92.44
392.984	79.44
393.208	82.44
393.433	91.44
393.658	86.44
393.882	100.44
394.107	80.44
394.331	91.44
394.556	87.44
394.78	88.44
395.005	84.44
395.229	97.44
395.454	82.44
395.678	75.44
395.903	78.44
396.127	79.44
396.352	89.44
396.576	87.44
396.801	84.44
397.025	82.44
397.249	105.44
397.474	79.44
397.698	92.44
397.922	92.44
398.147	80.44
398.371	74.44
398.595	88.44
398.82	90.44
399.044	90.44
399.268	82.44
399.492	91.44
399.717	82.44
399.941	84.44
400.165	90.44
400.389	82.44
400.613	92.44
400.837	88.44
401.062	84.44
401.286	91.44
401.51	84.44
401.734	84.44
401.958	71.44
402.182	91.44
402.406	96.44
402.63	87.44
402.854	89.44
403.078	92.44
403.302	78.44
403.526	76.44
403.75	83.44
403.974	86.44
404.198	85.44
404.422	88.44
404.645	78.44
404.869	94.44
405.093	80.44
405.317	82.44
405.541	81.44
405.765	82.44
405.988	83.44
406.212	86.44
406.436	99.44
406.66	88.44
406.883	84.44
407.107	77.44
407.331	89.44
407.555	94.44
407.778	81.44
408.002	98.44
408.226	88.44
408.449	85.44
408.673	87.44
408.896	75.44
409.12	88.44
409.344	104.44
409.567	93.44
409.791	81.44
410.014	91.44
410.238	99.44
410.461	88.44
410.685	84.44
410.908	83.44
411.132	84.44
411.355	78.44
411.578	81.44
411.802	87.44
412.025	94.44
412.249	92.44
412.472	82.44
412.695	71.44
412.919	93.44
413.142	81.44
413.365	90.44
413.589	82.44
413.812	92.44
414.035	78.44
414.258	93.44
414.482	100.44
414.705	85.44
414.928	84.44
415.151	72.44
415.374	90.44
415.597	86.44
415.821	82.44
416.044	89.44
416.267	91.44
416.49	74.44
416.713	78.44
416.936	90.44
417.159	76.44
417.382	78.44
417.605	87.44
417.828	84.44
418.051	87.44
418.274	83.44
418.497	94.44
418.72	86.44
418.943	106.44
419.166	87.44
419.389	83.44
419.611	85.44
419.834	86.44
420.057	96.44
420.28	75.44
420.503	91.44
420.726	82.44
420.948	85.44
421.171	81.44
421.394	71.44
421.617	100.44
421.839	81.44
422.062	93.44
422.285	91.44
422.507	85.44
422.73	78.44
422.953	69.44
423.175	85.44
423.398	85.44
423.621	81.44
423.843	72.44
424.066	82.44
424.288	103.44
424.511	95.44
424.733	83.44
424.956	76.44
425.178	82.44
425.401	77.44
425.623	84.44
425.846	78.44
426.068	89.44
426.291	93.44
426.513	76.44
426.735	101.44
426.958	78.44
427.18	85.44
427.402	80.44
427.625	96.44
427.847	88.44
428.069	81.44
428.292	87.44
428.514	76.44
428.736	62.44
428.958	98.44
429.181	96.44
429.403	81.44
429.625	78.44
429.847	89.44
430.069	95.44
430.292	84.44
430.514	81.44
430.736	96.44
430.958	96.44
431.18	89.44
431.402	79.44
431.624	87.44
431.846	72.44
432.068	80.44
432.29	91.44
432.512	74.44
432.734	73.44
432.956	78.44
433.178	96.44
433.4	89.44
433.622	90.44
433.844	81.44
434.066	84.44
434.287	87.44
434.509	87.44
434.731	87.44
434.953	77.44
435.175	75.44
435.397	98.44
435.618	95.44
435.84	78.44
436.062	85.44
436.284	97.44
436.505	91.44
436.727	78.44
436.949	103.44
437.17	78.44
437.392	77.44
437.614	82.44
437.835	85.44
438.057	89.44
438.278	93.44
438.5	102.44
438.721	78.44
438.943	84.44
439.165	86.44
439.386	86.44
439.608	87.44
439.829	83.44
440.05	86.44
440.272	92.44
440.493	85.44
440.715	82.44
440.936	86.44
441.158	83.44
441.379	72.44
441.6	83.44
441.822	95.44
442.043	86.44
442.264	88.44
442.486	76.44
442.707	90.44
442.928	108.44
443.149	84.44
443.371	76.44
443.592	92.44
443.813	88.44
444.034	87.44
444.255	83.44
444.476	83.44
444.698	77.44
444.919	90.44
445.14	228.44
445.361	144.44
445.582	100.44
445.803	81.44
446.024	94.44
446.245	96.44
446.466	74.44
446.687	86.44
446.908	94.44
447.129	70.44
447.35	77.44
447.571	82.44
447.792	82.44
448.013	77.44
448.234	78.44
448.455	82.44
448.675	85.44
448.896	94.44
449.117	80.44
449.338	90.44
449.559	97.44
449.779	93.44
450	76.44
450.221	89.44
450.442	72.44
450.662	69.44
450.883	73.44
451.104	86.44
451.324	76.44
451.545	83.44
451.766	84.44
451.986	96.44
452.207	85.44
452.428	97.44
452.648	81.44
452.869	78.44
453.089	103.44
453.31	76.44
453.53	79.44
453.751	84.44
453.971	95.44
454.192	73.44
454.412	97.44
454.633	81.44
454.853	93.44
455.073	78.44
455.294	94.44
455.514	84.44
455.734	83.44
455.955	77.44
456.175	83.44
456.395	80.44
456.616	78.44
456.836	98.44
457.056	86.44
457.276	69.44
457.497	82.44
457.717	92.44
457.937	78.44
458.157	85.44
458.377	98.44
458.598	92.44
458.818	88.44
459.038	86.44
459.258	86.44
459.478	90.44
459.698	85.44
459.918	92.44
460.138	93.44
460.358	77.44
460.578	93.44
460.798	99.44
461.018	95.44
461.238	105.44
461.458	84.44
461.678	99.44
461.898	91.44
462.118	85.44
462.338	98.44
462.558	90.44
462.777	88.44
462.997	86.44
463.217	85.44
463.437	85.44
463.657	92.44
463.876	83.44
464.096	73.44
464.316	94.44
464.536	90.44
464.755	101.44
464.975	77.44
465.195	86.44
465.414	84.44
465.634	89.44
465.854	92.44
466.073	78.44
466.293	96.44
466.512	76.44
466.732	71.44
466.951	75.44
467.171	86.44
467.391	99.44
467.61	88.44
467.829	92.44
468.049	96.44
468.268	80.44
468.488	84.44
468.707	87.44
468.927	87.44
469.146	84.44
469.365	91.44
469.585	96.44
469.804	91.44
470.023	86.44
470.243	79.44
470.462	82.44
470.681	100.44
470.901	85.44
471.12	93.44
471.339	95.44
471.558	83.44
471.777	91.44
471.997	86.44
472.216	86.44
472.435	89.44
472.654	92.44
472.873	76.44
473.092	91.44
473.311	83.44
473.53	83.44
473.749	96.44
473.968	88.44
474.187	84.44
474.406	84.44
474.625	98.44
474.844	83.44
475.063	86.44
475.282	94.44
475.501	89.44
475.72	84.44
475.939	72.44
476.158	77.44
476.377	102.44
476.596	94.44
476.814	85.44
477.033	83.44
477.252	85.44
477.471	76.44
477.69	80.44
477.908	87.44
478.127	90.44
478.346	90.44
478.564	84.44
478.783	102.44
479.002	94.44
479.22	103.44
479.439	94.44
479.658	96.44
479.876	82.44
480.095	72.44
480.313	75.44
480.532	107.44
480.751	87.44
480.969	82.44
481.188	85.44
481.406	79.44
481.624	88.44
481.843	84.44
482.061	92.44
482.28	85.44
482.498	79.44
482.717	83.44
482.935	102.44
483.153	90.44
483.372	93.44
483.59	99.44
483.808	80.44
484.027	83.44
484.245	78.44
484.463	90.44
484.681	96.44
484.9	92.44
485.118	88.44
485.336	79.44
485.554	101.44
485.772	92.44
485.99	89.44
486.209	83.44
486.427	93.44
486.645	79.44
486.863	100.44
487.081	95.44
487.299	91.44
487.517	92.44
487.735	87.44
487.953	88.44
488.171	88.44
488.389	84.44
488.607	92.44
488.825	93.44
489.043	90.44
489.261	94.44
489.479	89.44
489.696	91.44
489.914	98.44
490.132	89.44
490.35	87.44
490.568	92.44
490.786	98.44
491.003	108.44
491.221	101.44
491.439	91.44
491.657	93.44
491.874	102.44
492.092	104.44
492.31	105.44
492.527	98.44
492.745	87.44
492.963	101.44
493.18	93.44
493.398	96.44
493.615	89.44
493.833	96.44
494.05	98.44
494.268	87.44
494.485	97.44
494.703	99.44
494.92	91.44
495.138	94.44
495.355	98.44
495.573	82.44
495.79	92.44
496.008	105.44
496.225	80.44
496.442	100.44
496.66	101.44
496.877	79.44
497.094	83.44
497.312	77.44
497.529	102.44
497.746	99.44
497.963	98.44
498.181	95.44
498.398	100.44
498.615	88.44
498.832	88.44
499.049	84.44
499.267	104.44
499.484	97.44
499.701	94.44
499.918	97.44
500.135	94.44
500.352	117.44
500.569	115.44
500.786	120.44
501.003	113.44
501.22	99.44
501.437	106.44
501.654	94.44
501.871	103.44
502.088	100.44
502.305	93.44
502.522	93.44
502.739	95.44
502.956	100.44
503.172	99.44
503.389	89.44
503.606	81.44
503.823	88.44
504.04	93.44
504.256	108.44
504.473	88.44
504.69	89.44
504.907	98.44
505.123	93.44
505.34	95.44
505.557	93.44
505.773	103.44
505.99	95.44
506.207	93.44
506.423	105.44
506.64	91.44
506.856	101.44
507.073	94.44
507.289	87.44
507.506	93.44
507.722	85.44
507.939	88.44
508.155	100.44
508.372	74.44
508.588	88.44
508.805	73.44
509.021	89.44
509.238	100.44
509.454	88.44
509.67	78.44
509.887	102.44
510.103	88.44
510.319	81.44
510.536	96.44
510.752	77.44
510.968	88.44
511.184	87.44
511.401	92.44
511.617	105.44
511.833	87.44
512.049	83.44
512.265	88.44
512.481	88.44
512.698	75.44
512.914	90.44
513.13	93.44
513.346	94.44
513.562	94.44
513.778	76.44
513.994	95.44
514.21	97.44
514.426	97.44
514.642	96.44
514.858	85.44
515.074	94.44
515.29	102.44
515.506	81.44
515.721	97.44
515.937	106.44
516.153	94.44
516.369	103.44
516.585	77.44
516.801	78.44
517.016	100.44
517.232	88.44
517.448	92.44
517.664	98.44
517.879	101.44
518.095	91.44
518.311	88.44
