Data from Ni(NO3)2@0.25M.TitratingCurve.Agarose3%dH2O.NegLispCup.LampEnergy10.LIBS07252019_HRD10591_18-04-57-566.txt Node
Date: Thu Jul 25 18:04:57 EDT 2019
User: cochatt
Spectrometer: HR+D1059
Trigger mode: 1
Integration Time (sec): 1.000000E-1
Scans to average: 1
Electric dark correction enabled: true
Nonlinearity correction enabled: false
Boxcar width: 0
XAxis mode: Wavelengths
Number of Pixels in Spectrum: 2048
>>>>>Begin Spectral Data<<<<<
223.165	-29.25
223.4	-29.25
223.635	-29.25
223.869	-30.25
224.104	-8.25
224.338	-20.25
224.573	-27.25
224.808	-12.25
225.042	-1.25
225.277	-4.25
225.511	5.75
225.746	16.75
225.98	-5.25
226.215	21.75
226.449	7.75
226.683	33.75
226.918	22.75
227.152	29.75
227.387	33.75
227.621	47.75
227.856	31.75
228.09	48.75
228.324	45.75
228.559	56.75
228.793	69.75
229.027	100.75
229.262	107.75
229.496	108.75
229.73	118.75
229.964	123.75
230.199	114.75
230.433	126.75
230.667	127.75
230.901	131.75
231.136	125.75
231.37	142.75
231.604	127.75
231.838	142.75
232.072	121.75
232.306	135.75
232.541	146.75
232.775	150.75
233.009	145.75
233.243	131.75
233.477	131.75
233.711	147.75
233.945	149.75
234.179	133.75
234.413	130.75
234.647	140.75
234.881	141.75
235.115	133.75
235.349	155.75
235.583	138.75
235.817	145.75
236.051	135.75
236.285	145.75
236.519	130.75
236.753	151.75
236.987	149.75
237.221	136.75
237.455	143.75
237.689	129.75
237.922	160.75
238.156	150.75
238.39	153.75
238.624	150.75
238.858	166.75
239.091	171.75
239.325	136.75
239.559	160.75
239.793	167.75
240.027	162.75
240.26	156.75
240.494	155.75
240.728	153.75
240.961	164.75
241.195	166.75
241.429	176.75
241.662	179.75
241.896	173.75
242.13	167.75
242.363	164.75
242.597	179.75
242.83	166.75
243.064	175.75
243.298	187.75
243.531	191.75
243.765	177.75
243.998	187.75
244.232	188.75
244.465	194.75
244.699	190.75
244.932	184.75
245.166	190.75
245.399	187.75
245.633	188.75
245.866	199.75
246.099	208.75
246.333	185.75
246.566	195.75
246.8	197.75
247.033	192.75
247.266	201.75
247.5	204.75
247.733	211.75
247.966	209.75
248.2	215.75
248.433	203.75
248.666	212.75
248.899	202.75
249.133	204.75
249.366	236.75
249.599	241.75
249.832	220.75
250.066	219.75
250.299	243.75
250.532	245.75
250.765	246.75
250.998	256.75
251.231	244.75
251.465	256.75
251.698	253.75
251.931	233.75
252.164	235.75
252.397	231.75
252.63	244.75
252.863	242.75
253.096	257.75
253.329	271.75
253.562	262.75
253.795	269.75
254.028	285.75
254.261	264.75
254.494	278.75
254.727	265.75
254.96	264.75
255.193	263.75
255.426	272.75
255.659	273.75
255.892	273.75
256.124	291.75
256.357	264.75
256.59	260.75
256.823	265.75
257.056	276.75
257.289	291.75
257.521	292.75
257.754	287.75
257.987	299.75
258.22	292.75
258.452	299.75
258.685	290.75
258.918	298.75
259.151	281.75
259.383	327.75
259.616	289.75
259.849	305.75
260.081	307.75
260.314	322.75
260.547	303.75
260.779	317.75
261.012	306.75
261.244	314.75
261.477	320.75
261.71	311.75
261.942	316.75
262.175	325.75
262.407	315.75
262.64	316.75
262.872	343.75
263.105	327.75
263.337	333.75
263.57	324.75
263.802	346.75
264.035	323.75
264.267	334.75
264.499	344.75
264.732	341.75
264.964	331.75
265.197	324.75
265.429	334.75
265.661	330.75
265.894	336.75
266.126	326.75
266.358	347.75
266.591	352.75
266.823	351.75
267.055	342.75
267.287	351.75
267.52	379.75
267.752	353.75
267.984	374.75
268.216	363.75
268.448	353.75
268.681	356.75
268.913	351.75
269.145	363.75
269.377	371.75
269.609	369.75
269.841	369.75
270.073	367.75
270.306	375.75
270.538	371.75
270.77	356.75
271.002	379.75
271.234	368.75
271.466	388.75
271.698	376.75
271.93	371.75
272.162	385.75
272.394	356.75
272.626	383.75
272.858	369.75
273.09	368.75
273.322	402.75
273.553	379.75
273.785	382.75
274.017	388.75
274.249	392.75
274.481	398.75
274.713	401.75
274.945	405.75
275.176	385.75
275.408	393.75
275.64	403.75
275.872	413.75
276.104	424.75
276.335	405.75
276.567	398.75
276.799	392.75
277.031	414.75
277.262	420.75
277.494	410.75
277.726	392.75
277.957	395.75
278.189	417.75
278.421	426.75
278.652	426.75
278.884	425.75
279.115	424.75
279.347	435.75
279.579	424.75
279.81	415.75
280.042	437.75
280.273	437.75
280.505	426.75
280.736	433.75
280.968	445.75
281.199	449.75
281.431	457.75
281.662	448.75
281.894	445.75
282.125	418.75
282.356	459.75
282.588	445.75
282.819	426.75
283.051	458.75
283.282	453.75
283.513	462.75
283.745	474.75
283.976	468.75
284.207	453.75
284.439	466.75
284.67	473.75
284.901	445.75
285.132	457.75
285.364	488.75
285.595	471.75
285.826	472.75
286.057	470.75
286.288	461.75
286.52	484.75
286.751	487.75
286.982	506.75
287.213	484.75
287.444	479.75
287.675	466.75
287.906	485.75
288.138	468.75
288.369	478.75
288.6	488.75
288.831	505.75
289.062	479.75
289.293	495.75
289.524	483.75
289.755	488.75
289.986	489.75
290.217	487.75
290.448	517.75
290.679	502.75
290.91	503.75
291.141	497.75
291.371	489.75
291.602	489.75
291.833	477.75
292.064	478.75
292.295	506.75
292.526	511.75
292.757	486.75
292.987	488.75
293.218	485.75
293.449	491.75
293.68	490.75
293.91	485.75
294.141	497.75
294.372	488.75
294.603	494.75
294.833	513.75
295.064	495.75
295.295	480.75
295.525	492.75
295.756	508.75
295.987	497.75
296.217	515.75
296.448	504.75
296.679	509.75
296.909	502.75
297.14	517.75
297.37	529.75
297.601	543.75
297.831	509.75
298.062	531.75
298.292	551.75
298.523	537.75
298.753	527.75
298.984	537.75
299.214	549.75
299.445	533.75
299.675	524.75
299.905	557.75
300.136	538.75
300.366	559.75
300.597	548.75
300.827	564.75
301.057	570.75
301.288	574.75
301.518	556.75
301.748	583.75
301.979	588.75
302.209	573.75
302.439	571.75
302.669	564.75
302.9	579.75
303.13	562.75
303.36	562.75
303.59	568.75
303.82	556.75
304.051	587.75
304.281	576.75
304.511	593.75
304.741	554.75
304.971	581.75
305.201	576.75
305.431	569.75
305.661	580.75
305.891	588.75
306.121	558.75
306.352	552.75
306.582	543.75
306.812	532.75
307.042	554.75
307.272	543.75
307.502	550.75
307.731	548.75
307.961	530.75
308.191	543.75
308.421	550.75
308.651	565.75
308.881	570.75
309.111	557.75
309.341	555.75
309.571	569.75
309.8	577.75
310.03	583.75
310.26	580.75
310.49	556.75
310.72	567.75
310.949	564.75
311.179	573.75
311.409	575.75
311.639	601.75
311.868	585.75
312.098	589.75
312.328	573.75
312.557	605.75
312.787	592.75
313.017	609.75
313.246	618.75
313.476	611.75
313.706	611.75
313.935	595.75
314.165	627.75
314.394	612.75
314.624	639.75
314.853	621.75
315.083	632.75
315.312	612.75
315.542	620.75
315.771	597.75
316.001	626.75
316.23	656.75
316.46	636.75
316.689	616.75
316.919	623.75
317.148	622.75
317.377	634.75
317.607	629.75
317.836	627.75
318.065	617.75
318.295	616.75
318.524	613.75
318.753	600.75
318.983	645.75
319.212	628.75
319.441	623.75
319.67	639.75
319.9	630.75
320.129	627.75
320.358	639.75
320.587	634.75
320.816	625.75
321.046	631.75
321.275	632.75
321.504	656.75
321.733	651.75
321.962	643.75
322.191	641.75
322.42	651.75
322.649	661.75
322.878	650.75
323.108	648.75
323.337	644.75
323.566	647.75
323.795	657.75
324.024	668.75
324.253	661.75
324.482	673.75
324.71	683.75
324.939	663.75
325.168	660.75
325.397	667.75
325.626	678.75
325.855	680.75
326.084	718.75
326.313	698.75
326.542	713.75
326.77	716.75
326.999	717.75
327.228	723.75
327.457	725.75
327.686	699.75
327.914	712.75
328.143	711.75
328.372	714.75
328.6	700.75
328.829	714.75
329.058	733.75
329.287	716.75
329.515	738.75
329.744	736.75
329.972	741.75
330.201	734.75
330.43	773.75
330.658	755.75
330.887	756.75
331.115	757.75
331.344	784.75
331.572	793.75
331.801	799.75
332.03	836.75
332.258	849.75
332.486	842.75
332.715	887.75
332.943	901.75
333.172	934.75
333.4	947.75
333.629	987.75
333.857	1027.75
334.085	994.75
334.314	977.75
334.542	973.75
334.771	947.75
334.999	940.75
335.227	917.75
335.455	937.75
335.684	915.75
335.912	929.75
336.14	893.75
336.369	922.75
336.597	920.75
336.825	898.75
337.053	897.75
337.281	899.75
337.51	844.75
337.738	849.75
337.966	839.75
338.194	853.75
338.422	833.75
338.65	849.75
338.878	848.75
339.106	821.75
339.334	847.75
339.562	834.75
339.79	795.75
340.018	767.75
340.246	779.75
340.474	782.75
340.702	813.75
340.93	791.75
341.158	818.75
341.386	815.75
341.614	811.75
341.842	832.75
342.07	824.75
342.298	783.75
342.526	811.75
342.754	794.75
342.981	792.75
343.209	833.75
343.437	863.75
343.665	891.75
343.893	950.75
344.12	963.75
344.348	964.75
344.576	917.75
344.804	893.75
345.031	833.75
345.259	825.75
345.487	809.75
345.714	813.75
345.942	823.75
346.17	819.75
346.397	828.75
346.625	801.75
346.853	775.75
347.08	748.75
347.308	768.75
347.535	777.75
347.763	792.75
347.99	774.75
348.218	776.75
348.445	764.75
348.673	768.75
348.9	752.75
349.128	800.75
349.355	797.75
349.583	752.75
349.81	755.75
350.037	770.75
350.265	753.75
350.492	746.75
350.72	752.75
350.947	730.75
351.174	758.75
351.402	759.75
351.629	776.75
351.856	748.75
352.083	751.75
352.311	752.75
352.538	748.75
352.765	749.75
352.992	749.75
353.22	749.75
353.447	747.75
353.674	757.75
353.901	738.75
354.128	723.75
354.355	728.75
354.583	712.75
354.81	750.75
355.037	746.75
355.264	748.75
355.491	741.75
355.718	749.75
355.945	754.75
356.172	739.75
356.399	766.75
356.626	759.75
356.853	765.75
357.08	756.75
357.307	743.75
357.534	748.75
357.761	753.75
357.988	770.75
358.215	744.75
358.441	743.75
358.668	728.75
358.895	761.75
359.122	745.75
359.349	743.75
359.576	767.75
359.802	746.75
360.029	747.75
360.256	763.75
360.483	744.75
360.709	744.75
360.936	773.75
361.163	752.75
361.39	754.75
361.616	738.75
361.843	760.75
362.07	731.75
362.296	759.75
362.523	783.75
362.749	720.75
362.976	763.75
363.203	756.75
363.429	746.75
363.656	758.75
363.882	746.75
364.109	733.75
364.335	758.75
364.562	715.75
364.788	731.75
365.015	717.75
365.241	716.75
365.468	729.75
365.694	732.75
365.92	776.75
366.147	746.75
366.373	730.75
366.599	733.75
366.826	738.75
367.052	713.75
367.278	717.75
367.505	726.75
367.731	761.75
367.957	723.75
368.184	767.75
368.41	744.75
368.636	751.75
368.862	742.75
369.089	767.75
369.315	746.75
369.541	755.75
369.767	748.75
369.993	753.75
370.219	743.75
370.445	771.75
370.672	786.75
370.898	781.75
371.124	791.75
371.35	785.75
371.576	812.75
371.802	800.75
372.028	795.75
372.254	777.75
372.48	802.75
372.706	825.75
372.932	831.75
373.158	791.75
373.384	786.75
373.61	799.75
373.835	803.75
374.061	787.75
374.287	815.75
374.513	833.75
374.739	854.75
374.965	857.75
375.191	863.75
375.416	843.75
375.642	858.75
375.868	834.75
376.094	811.75
376.319	809.75
376.545	789.75
376.771	796.75
376.997	813.75
377.222	805.75
377.448	805.75
377.674	772.75
377.899	785.75
378.125	796.75
378.35	772.75
378.576	775.75
378.802	759.75
379.027	789.75
379.253	771.75
379.478	778.75
379.704	757.75
379.929	782.75
380.155	762.75
380.38	742.75
380.606	796.75
380.831	755.75
381.057	765.75
381.282	791.75
381.507	798.75
381.733	757.75
381.958	789.75
382.184	813.75
382.409	815.75
382.634	791.75
382.86	808.75
383.085	845.75
383.31	846.75
383.535	871.75
383.761	860.75
383.986	855.75
384.211	859.75
384.436	900.75
384.662	911.75
384.887	931.75
385.112	897.75
385.337	939.75
385.562	918.75
385.787	969.75
386.013	941.75
386.238	965.75
386.463	959.75
386.688	965.75
386.913	932.75
387.138	916.75
387.363	904.75
387.588	939.75
387.813	913.75
388.038	910.75
388.263	911.75
388.488	917.75
388.713	925.75
388.938	947.75
389.163	951.75
389.387	948.75
389.612	913.75
389.837	923.75
390.062	889.75
390.287	907.75
390.512	908.75
390.736	932.75
390.961	950.75
391.186	952.75
391.411	991.75
391.636	991.75
391.86	1029.75
392.085	1059.75
392.31	1051.75
392.534	1032.75
392.759	1028.75
392.984	997.75
393.208	983.75
393.433	997.75
393.658	979.75
393.882	982.75
394.107	995.75
394.331	1001.75
394.556	1008.75
394.78	984.75
395.005	1004.75
395.229	991.75
395.454	1036.75
395.678	1051.75
395.903	1036.75
396.127	1036.75
396.352	1010.75
396.576	1032.75
396.801	1012.75
397.025	1013.75
397.249	1024.75
397.474	1064.75
397.698	1098.75
397.922	1078.75
398.147	1073.75
398.371	1090.75
398.595	1153.75
398.82	1189.75
399.044	1273.75
399.268	1400.75
399.492	1589.75
399.717	1720.75
399.941	1705.75
400.165	1588.75
400.389	1402.75
400.613	1329.75
400.837	1233.75
401.062	1212.75
401.286	1217.75
401.51	1209.75
401.734	1202.75
401.958	1210.75
402.182	1221.75
402.406	1218.75
402.63	1226.75
402.854	1242.75
403.078	1247.75
403.302	1278.75
403.526	1316.75
403.75	1332.75
403.974	1338.75
404.198	1348.75
404.422	1354.75
404.645	1301.75
404.869	1328.75
405.093	1337.75
405.317	1320.75
405.541	1303.75
405.765	1318.75
405.988	1304.75
406.212	1327.75
406.436	1307.75
406.66	1327.75
406.883	1379.75
407.107	1409.75
407.331	1492.75
407.555	1531.75
407.778	1505.75
408.002	1475.75
408.226	1439.75
408.449	1418.75
408.673	1417.75
408.896	1331.75
409.12	1352.75
409.344	1344.75
409.567	1277.75
409.791	1314.75
410.014	1327.75
410.238	1285.75
410.461	1260.75
410.685	1290.75
410.908	1212.75
411.132	1263.75
411.355	1208.75
411.578	1248.75
411.802	1248.75
412.025	1236.75
412.249	1231.75
412.472	1222.75
412.695	1202.75
412.919	1209.75
413.142	1175.75
413.365	1176.75
413.589	1180.75
413.812	1215.75
414.035	1176.75
414.258	1168.75
414.482	1189.75
414.705	1201.75
414.928	1208.75
415.151	1211.75
415.374	1207.75
415.597	1193.75
415.821	1174.75
416.044	1125.75
416.267	1177.75
416.49	1178.75
416.713	1174.75
416.936	1147.75
417.159	1147.75
417.382	1169.75
417.605	1167.75
417.828	1184.75
418.051	1187.75
418.274	1177.75
418.497	1202.75
418.72	1218.75
418.943	1234.75
419.166	1281.75
419.389	1357.75
419.611	1325.75
419.834	1318.75
420.057	1259.75
420.28	1243.75
420.503	1209.75
420.726	1181.75
420.948	1180.75
421.171	1193.75
421.394	1173.75
421.617	1172.75
421.839	1207.75
422.062	1218.75
422.285	1178.75
422.507	1239.75
422.73	1217.75
422.953	1204.75
423.175	1210.75
423.398	1256.75
423.621	1248.75
423.843	1279.75
424.066	1253.75
424.288	1230.75
424.511	1254.75
424.733	1206.75
424.956	1206.75
425.178	1219.75
425.401	1189.75
425.623	1210.75
425.846	1149.75
426.068	1129.75
426.291	1149.75
426.513	1141.75
426.735	1138.75
426.958	1120.75
427.18	1103.75
427.402	1106.75
427.625	1094.75
427.847	1073.75
428.069	1067.75
428.292	1077.75
428.514	1071.75
428.736	1086.75
428.958	1119.75
429.181	1050.75
429.403	1037.75
429.625	1084.75
429.847	1056.75
430.069	1051.75
430.292	1072.75
430.514	1026.75
430.736	1076.75
430.958	1057.75
431.18	1056.75
431.402	1062.75
431.624	1062.75
431.846	1080.75
432.068	1096.75
432.29	1077.75
432.512	1049.75
432.734	1108.75
432.956	1075.75
433.178	1101.75
433.4	1094.75
433.622	1081.75
433.844	1143.75
434.066	1096.75
434.287	1125.75
434.509	1148.75
434.731	1194.75
434.953	1189.75
435.175	1213.75
435.397	1179.75
435.618	1133.75
435.84	1104.75
436.062	1089.75
436.284	1096.75
436.505	1085.75
436.727	1063.75
436.949	1060.75
437.17	1071.75
437.392	1036.75
437.614	1029.75
437.835	1052.75
438.057	1034.75
438.278	1035.75
438.5	1025.75
438.721	1039.75
438.943	1071.75
439.165	1055.75
439.386	1083.75
439.608	1083.75
439.829	1104.75
440.05	1087.75
440.272	1133.75
440.493	1104.75
440.715	1118.75
440.936	1121.75
441.158	1130.75
441.379	1157.75
441.6	1203.75
441.822	1203.75
442.043	1186.75
442.264	1176.75
442.486	1186.75
442.707	1193.75
442.928	1211.75
443.149	1203.75
443.371	1163.75
443.592	1210.75
443.813	1220.75
444.034	1200.75
444.255	1248.75
444.476	1311.75
444.698	1409.75
444.919	1445.75
445.14	1498.75
445.361	1408.75
445.582	1282.75
445.803	1197.75
446.024	1156.75
446.245	1129.75
446.466	1162.75
446.687	1103.75
446.908	1127.75
447.129	1089.75
447.35	1080.75
447.571	1044.75
447.792	1051.75
448.013	1043.75
448.234	1000.75
448.455	1042.75
448.675	1035.75
448.896	1023.75
449.117	991.75
449.338	1001.75
449.559	985.75
449.779	973.75
450	975.75
450.221	950.75
450.442	1010.75
450.662	1012.75
450.883	1027.75
451.104	1026.75
451.324	1002.75
451.545	1023.75
451.766	998.75
451.986	985.75
452.207	991.75
452.428	970.75
452.648	981.75
452.869	952.75
453.089	968.75
453.31	984.75
453.53	951.75
453.751	924.75
453.971	948.75
454.192	936.75
454.412	956.75
454.633	949.75
454.853	979.75
455.073	950.75
455.294	940.75
455.514	945.75
455.734	915.75
455.955	878.75
456.175	925.75
456.395	929.75
456.616	946.75
456.836	933.75
457.056	924.75
457.276	923.75
457.497	938.75
457.717	922.75
457.937	966.75
458.157	938.75
458.377	943.75
458.598	980.75
458.818	1019.75
459.038	1036.75
459.258	1061.75
459.478	1113.75
459.698	1124.75
459.918	1167.75
460.138	1211.75
460.358	1257.75
460.578	1277.75
460.798	1297.75
461.018	1277.75
461.238	1297.75
461.458	1272.75
461.678	1270.75
461.898	1286.75
462.118	1288.75
462.338	1366.75
462.558	1384.75
462.777	1466.75
462.997	1591.75
463.217	1661.75
463.437	1653.75
463.657	1558.75
463.876	1497.75
464.096	1487.75
464.316	1451.75
464.536	1458.75
464.755	1427.75
464.975	1356.75
465.195	1303.75
465.414	1241.75
465.634	1187.75
465.854	1113.75
466.073	1126.75
466.293	1102.75
466.512	1082.75
466.732	1057.75
466.951	1043.75
467.171	1045.75
467.391	1019.75
467.61	1053.75
467.829	1031.75
468.049	997.75
468.268	1017.75
468.488	969.75
468.707	991.75
468.927	1036.75
469.146	995.75
469.365	1014.75
469.585	1027.75
469.804	1019.75
470.023	1049.75
470.243	1092.75
470.462	1048.75
470.681	1071.75
470.901	1108.75
471.12	1077.75
471.339	1055.75
471.558	1057.75
471.777	1039.75
471.997	1035.75
472.216	1026.75
472.435	988.75
472.654	973.75
472.873	994.75
473.092	1023.75
473.311	972.75
473.53	1005.75
473.749	983.75
473.968	982.75
474.187	968.75
474.406	971.75
474.625	993.75
474.844	977.75
475.063	973.75
475.282	979.75
475.501	999.75
475.72	994.75
475.939	986.75
476.158	1020.75
476.377	1047.75
476.596	1044.75
476.814	1049.75
477.033	1022.75
477.252	1074.75
477.471	1077.75
477.69	1094.75
477.908	1140.75
478.127	1142.75
478.346	1174.75
478.564	1219.75
478.783	1207.75
479.002	1224.75
479.22	1229.75
479.439	1224.75
479.658	1251.75
479.876	1202.75
480.095	1250.75
480.313	1295.75
480.532	1314.75
480.751	1315.75
480.969	1275.75
481.188	1180.75
481.406	1135.75
481.624	1179.75
481.843	1129.75
482.061	1108.75
482.28	1130.75
482.498	1108.75
482.717	1119.75
482.935	1106.75
483.153	1113.75
483.372	1133.75
483.59	1107.75
483.808	1122.75
484.027	1148.75
484.245	1110.75
484.463	1143.75
484.681	1153.75
484.9	1148.75
485.118	1165.75
485.336	1130.75
485.554	1141.75
485.772	1142.75
485.99	1128.75
486.209	1163.75
486.427	1157.75
486.645	1159.75
486.863	1168.75
487.081	1161.75
487.299	1173.75
487.517	1188.75
487.735	1184.75
487.953	1175.75
488.171	1169.75
488.389	1152.75
488.607	1161.75
488.825	1147.75
489.043	1144.75
489.261	1138.75
489.479	1146.75
489.696	1160.75
489.914	1157.75
490.132	1176.75
490.35	1172.75
490.568	1156.75
490.786	1196.75
491.003	1161.75
491.221	1187.75
491.439	1223.75
491.657	1195.75
491.874	1221.75
492.092	1235.75
492.31	1231.75
492.527	1251.75
492.745	1195.75
492.963	1208.75
493.18	1211.75
493.398	1197.75
493.615	1232.75
493.833	1219.75
494.05	1214.75
494.268	1256.75
494.485	1249.75
494.703	1259.75
494.92	1271.75
495.138	1231.75
495.355	1256.75
495.573	1314.75
495.79	1304.75
496.008	1297.75
