Data from Ni(NO3)2@0.125M.TitratingCurve.Agarose3%dH2O.NegLispCup.LampEnergy10.LIBS07252019_HRD10591_18-08-43-567.txt Node
Date: Thu Jul 25 18:08:43 EDT 2019
User: cochatt
Spectrometer: HR+D1059
Trigger mode: 1
Integration Time (sec): 1.000000E-1
Scans to average: 1
Electric dark correction enabled: true
Nonlinearity correction enabled: false
Boxcar width: 0
XAxis mode: Wavelengths
Number of Pixels in Spectrum: 2048
>>>>>Begin Spectral Data<<<<<
223.165	1.19
223.4	1.19
223.635	1.19
223.869	-24.81
224.104	-31.81
224.338	-19.81
224.573	-25.81
224.808	-12.81
225.042	-9.81
225.277	0.19
225.511	-0.81
225.746	2.19
225.98	19.19
226.215	18.19
226.449	11.19
226.683	29.19
226.918	14.19
227.152	30.19
227.387	39.19
227.621	42.19
227.856	35.19
228.09	43.19
228.324	54.19
228.559	49.19
228.793	69.19
229.027	103.19
229.262	119.19
229.496	123.19
229.73	130.19
229.964	134.19
230.199	138.19
230.433	145.19
230.667	156.19
230.901	140.19
231.136	138.19
231.37	154.19
231.604	154.19
231.838	168.19
232.072	166.19
232.306	160.19
232.541	160.19
232.775	157.19
233.009	160.19
233.243	162.19
233.477	150.19
233.711	172.19
233.945	167.19
234.179	174.19
234.413	162.19
234.647	153.19
234.881	167.19
235.115	168.19
235.349	152.19
235.583	159.19
235.817	189.19
236.051	170.19
236.285	162.19
236.519	167.19
236.753	174.19
236.987	165.19
237.221	177.19
237.455	192.19
237.689	170.19
237.922	166.19
238.156	186.19
238.39	169.19
238.624	178.19
238.858	182.19
239.091	186.19
239.325	198.19
239.559	183.19
239.793	181.19
240.027	188.19
240.26	189.19
240.494	189.19
240.728	202.19
240.961	199.19
241.195	207.19
241.429	206.19
241.662	207.19
241.896	208.19
242.13	215.19
242.363	211.19
242.597	187.19
242.83	219.19
243.064	224.19
243.298	211.19
243.531	202.19
243.765	229.19
243.998	238.19
244.232	240.19
244.465	214.19
244.699	216.19
244.932	236.19
245.166	258.19
245.399	239.19
245.633	236.19
245.866	247.19
246.099	250.19
246.333	241.19
246.566	246.19
246.8	243.19
247.033	235.19
247.266	241.19
247.5	247.19
247.733	246.19
247.966	248.19
248.2	242.19
248.433	265.19
248.666	268.19
248.899	273.19
249.133	268.19
249.366	266.19
249.599	268.19
249.832	268.19
250.066	261.19
250.299	269.19
250.532	285.19
250.765	287.19
250.998	285.19
251.231	294.19
251.465	287.19
251.698	300.19
251.931	307.19
252.164	293.19
252.397	302.19
252.63	327.19
252.863	299.19
253.096	296.19
253.329	307.19
253.562	300.19
253.795	299.19
254.028	300.19
254.261	321.19
254.494	319.19
254.727	337.19
254.96	315.19
255.193	321.19
255.426	314.19
255.659	312.19
255.892	334.19
256.124	321.19
256.357	326.19
256.59	344.19
256.823	321.19
257.056	349.19
257.289	341.19
257.521	350.19
257.754	339.19
257.987	328.19
258.22	340.19
258.452	357.19
258.685	331.19
258.918	364.19
259.151	358.19
259.383	375.19
259.616	363.19
259.849	358.19
260.081	363.19
260.314	360.19
260.547	370.19
260.779	365.19
261.012	362.19
261.244	357.19
261.477	356.19
261.71	379.19
261.942	381.19
262.175	367.19
262.407	385.19
262.64	370.19
262.872	374.19
263.105	377.19
263.337	386.19
263.57	375.19
263.802	389.19
264.035	375.19
264.267	381.19
264.499	390.19
264.732	384.19
264.964	387.19
265.197	391.19
265.429	400.19
265.661	404.19
265.894	405.19
266.126	402.19
266.358	409.19
266.591	399.19
266.823	398.19
267.055	401.19
267.287	410.19
267.52	425.19
267.752	418.19
267.984	421.19
268.216	412.19
268.448	428.19
268.681	431.19
268.913	447.19
269.145	451.19
269.377	420.19
269.609	416.19
269.841	428.19
270.073	426.19
270.306	439.19
270.538	426.19
270.77	411.19
271.002	435.19
271.234	443.19
271.466	461.19
271.698	439.19
271.93	442.19
272.162	441.19
272.394	439.19
272.626	446.19
272.858	427.19
273.09	456.19
273.322	456.19
273.553	446.19
273.785	463.19
274.017	450.19
274.249	466.19
274.481	456.19
274.713	456.19
274.945	471.19
275.176	462.19
275.408	462.19
275.64	483.19
275.872	480.19
276.104	457.19
276.335	461.19
276.567	474.19
276.799	470.19
277.031	482.19
277.262	479.19
277.494	476.19
277.726	489.19
277.957	478.19
278.189	473.19
278.421	488.19
278.652	483.19
278.884	486.19
279.115	489.19
279.347	485.19
279.579	499.19
279.81	494.19
280.042	505.19
280.273	508.19
280.505	491.19
280.736	497.19
280.968	512.19
281.199	501.19
281.431	513.19
281.662	511.19
281.894	521.19
282.125	531.19
282.356	516.19
282.588	523.19
282.819	540.19
283.051	523.19
283.282	524.19
283.513	525.19
283.745	538.19
283.976	527.19
284.207	525.19
284.439	534.19
284.67	536.19
284.901	540.19
285.132	557.19
285.364	561.19
285.595	538.19
285.826	544.19
286.057	544.19
286.288	560.19
286.52	551.19
286.751	543.19
286.982	544.19
287.213	559.19
287.444	546.19
287.675	565.19
287.906	565.19
288.138	576.19
288.369	570.19
288.6	552.19
288.831	581.19
289.062	581.19
289.293	584.19
289.524	564.19
289.755	582.19
289.986	566.19
290.217	583.19
290.448	587.19
290.679	600.19
290.91	580.19
291.141	576.19
291.371	577.19
291.602	590.19
291.833	577.19
292.064	570.19
292.295	580.19
292.526	581.19
292.757	608.19
292.987	567.19
293.218	570.19
293.449	595.19
293.68	601.19
293.91	584.19
294.141	578.19
294.372	582.19
294.603	613.19
294.833	599.19
295.064	604.19
295.295	602.19
295.525	610.19
295.756	613.19
295.987	616.19
296.217	602.19
296.448	609.19
296.679	587.19
296.909	598.19
297.14	615.19
297.37	617.19
297.601	630.19
297.831	625.19
298.062	626.19
298.292	656.19
298.523	670.19
298.753	654.19
298.984	659.19
299.214	626.19
299.445	645.19
299.675	623.19
299.905	641.19
300.136	642.19
300.366	667.19
300.597	653.19
300.827	658.19
301.057	658.19
301.288	670.19
301.518	671.19
301.748	662.19
301.979	679.19
302.209	669.19
302.439	678.19
302.669	660.19
302.9	638.19
303.13	646.19
303.36	630.19
303.59	621.19
303.82	660.19
304.051	643.19
304.281	649.19
304.511	645.19
304.741	664.19
304.971	649.19
305.201	659.19
305.431	659.19
305.661	670.19
305.891	641.19
306.121	653.19
306.352	639.19
306.582	647.19
306.812	638.19
307.042	643.19
307.272	666.19
307.502	652.19
307.731	621.19
307.961	636.19
308.191	632.19
308.421	637.19
308.651	645.19
308.881	627.19
309.111	626.19
309.341	638.19
309.571	632.19
309.8	644.19
310.03	626.19
310.26	650.19
310.49	646.19
310.72	674.19
310.949	638.19
311.179	666.19
311.409	662.19
311.639	668.19
311.868	673.19
312.098	685.19
312.328	664.19
312.557	669.19
312.787	676.19
313.017	657.19
313.246	694.19
313.476	699.19
313.706	680.19
313.935	664.19
314.165	705.19
314.394	713.19
314.624	718.19
314.853	680.19
315.083	673.19
315.312	689.19
315.542	707.19
315.771	656.19
316.001	680.19
316.23	681.19
316.46	693.19
316.689	708.19
316.919	694.19
317.148	701.19
317.377	700.19
317.607	699.19
317.836	662.19
318.065	670.19
318.295	666.19
318.524	706.19
318.753	666.19
318.983	689.19
319.212	667.19
319.441	687.19
319.67	691.19
319.9	698.19
320.129	697.19
320.358	677.19
320.587	700.19
320.816	695.19
321.046	700.19
321.275	704.19
321.504	695.19
321.733	703.19
321.962	718.19
322.191	706.19
322.42	695.19
322.649	711.19
322.878	712.19
323.108	686.19
323.337	694.19
323.566	727.19
323.795	715.19
324.024	719.19
324.253	696.19
324.482	715.19
324.71	708.19
324.939	716.19
325.168	722.19
325.397	730.19
325.626	738.19
325.855	754.19
326.084	790.19
326.313	752.19
326.542	789.19
326.77	779.19
326.999	781.19
327.228	763.19
327.457	738.19
327.686	769.19
327.914	766.19
328.143	775.19
328.372	778.19
328.6	788.19
328.829	773.19
329.058	777.19
329.287	742.19
329.515	783.19
329.744	791.19
329.972	806.19
330.201	795.19
330.43	803.19
330.658	783.19
330.887	812.19
331.115	821.19
331.344	831.19
331.572	803.19
331.801	857.19
332.03	879.19
332.258	889.19
332.486	904.19
332.715	958.19
332.943	991.19
333.172	1033.19
333.4	1056.19
333.629	1069.19
333.857	1069.19
334.085	1071.19
334.314	1047.19
334.542	1018.19
334.771	990.19
334.999	1004.19
335.227	987.19
335.455	1005.19
335.684	981.19
335.912	953.19
336.14	955.19
336.369	941.19
336.597	923.19
336.825	954.19
337.053	954.19
337.281	945.19
337.51	909.19
337.738	886.19
337.966	909.19
338.194	857.19
338.422	838.19
338.65	847.19
338.878	869.19
339.106	865.19
339.334	864.19
339.562	862.19
339.79	866.19
340.018	838.19
340.246	816.19
340.474	841.19
340.702	803.19
340.93	857.19
341.158	824.19
341.386	854.19
341.614	843.19
341.842	812.19
342.07	818.19
342.298	815.19
342.526	800.19
342.754	828.19
342.981	832.19
343.209	846.19
343.437	881.19
343.665	953.19
343.893	987.19
344.12	1058.19
344.348	986.19
344.576	931.19
344.804	914.19
345.031	879.19
345.259	858.19
345.487	831.19
345.714	831.19
345.942	827.19
346.17	844.19
346.397	835.19
346.625	802.19
346.853	796.19
347.08	789.19
347.308	809.19
347.535	842.19
347.763	847.19
347.99	840.19
348.218	842.19
348.445	803.19
348.673	796.19
348.9	775.19
349.128	802.19
349.355	800.19
349.583	807.19
349.81	783.19
350.037	779.19
350.265	782.19
350.492	760.19
350.72	757.19
350.947	792.19
351.174	784.19
351.402	797.19
351.629	779.19
351.856	785.19
352.083	749.19
352.311	790.19
352.538	795.19
352.765	780.19
352.992	764.19
353.22	764.19
353.447	775.19
353.674	758.19
353.901	748.19
354.128	735.19
354.355	734.19
354.583	771.19
354.81	790.19
355.037	752.19
355.264	739.19
355.491	768.19
355.718	761.19
355.945	771.19
356.172	795.19
356.399	791.19
356.626	789.19
356.853	786.19
357.08	778.19
357.307	781.19
357.534	766.19
357.761	760.19
357.988	777.19
358.215	750.19
358.441	764.19
358.668	767.19
358.895	781.19
359.122	748.19
359.349	779.19
359.576	763.19
359.802	789.19
360.029	773.19
360.256	782.19
360.483	753.19
360.709	753.19
360.936	783.19
361.163	744.19
361.39	788.19
361.616	777.19
361.843	747.19
362.07	786.19
362.296	763.19
362.523	765.19
362.749	744.19
362.976	764.19
363.203	771.19
363.429	750.19
363.656	786.19
363.882	783.19
364.109	741.19
364.335	772.19
364.562	756.19
364.788	744.19
365.015	777.19
365.241	770.19
365.468	724.19
365.694	764.19
365.92	750.19
366.147	753.19
366.373	749.19
366.599	769.19
366.826	740.19
367.052	741.19
367.278	738.19
367.505	763.19
367.731	768.19
367.957	747.19
368.184	775.19
368.41	762.19
368.636	768.19
368.862	770.19
369.089	785.19
369.315	800.19
369.541	773.19
369.767	787.19
369.993	800.19
370.219	773.19
370.445	791.19
370.672	803.19
370.898	825.19
371.124	818.19
371.35	815.19
371.576	797.19
371.802	833.19
372.028	805.19
372.254	821.19
372.48	821.19
372.706	826.19
372.932	855.19
373.158	854.19
373.384	858.19
373.61	825.19
373.835	807.19
374.061	825.19
374.287	821.19
374.513	831.19
374.739	880.19
374.965	907.19
375.191	942.19
375.416	925.19
375.642	880.19
375.868	898.19
376.094	857.19
376.319	846.19
376.545	834.19
376.771	828.19
376.997	803.19
377.222	813.19
377.448	810.19
377.674	832.19
377.899	818.19
378.125	829.19
378.35	819.19
378.576	803.19
378.802	806.19
379.027	805.19
379.253	798.19
379.478	805.19
379.704	815.19
379.929	805.19
380.155	777.19
380.38	813.19
380.606	817.19
380.831	798.19
381.057	843.19
381.282	801.19
381.507	835.19
381.733	823.19
381.958	811.19
382.184	808.19
382.409	831.19
382.634	862.19
382.86	866.19
383.085	893.19
383.31	901.19
383.535	898.19
383.761	887.19
383.986	933.19
384.211	952.19
384.436	969.19
384.662	985.19
384.887	972.19
385.112	996.19
385.337	1017.19
385.562	992.19
385.787	988.19
386.013	992.19
386.238	981.19
386.463	984.19
386.688	990.19
386.913	972.19
387.138	990.19
387.363	1001.19
387.588	990.19
387.813	963.19
388.038	963.19
388.263	966.19
388.488	978.19
388.713	957.19
388.938	965.19
389.163	959.19
389.387	915.19
389.612	935.19
389.837	945.19
390.062	958.19
390.287	954.19
390.512	943.19
390.736	926.19
390.961	962.19
391.186	995.19
391.411	1013.19
391.636	1015.19
391.86	1087.19
392.085	1098.19
392.31	1107.19
392.534	1095.19
392.759	1079.19
392.984	1022.19
393.208	1008.19
393.433	993.19
393.658	1045.19
393.882	1033.19
394.107	1035.19
394.331	1038.19
394.556	1050.19
394.78	1052.19
395.005	1039.19
395.229	1031.19
395.454	1038.19
395.678	1113.19
395.903	1111.19
396.127	1093.19
396.352	1014.19
396.576	995.19
396.801	1008.19
397.025	1021.19
397.249	1036.19
397.474	1092.19
397.698	1084.19
397.922	1088.19
398.147	1075.19
398.371	1103.19
398.595	1147.19
398.82	1168.19
399.044	1264.19
399.268	1366.19
399.492	1652.19
399.717	1937.19
399.941	1911.19
400.165	1664.19
400.389	1496.19
400.613	1349.19
400.837	1271.19
401.062	1212.19
401.286	1233.19
401.51	1189.19
401.734	1230.19
401.958	1244.19
402.182	1257.19
402.406	1250.19
402.63	1269.19
402.854	1316.19
403.078	1327.19
403.302	1407.19
403.526	1381.19
403.75	1401.19
403.974	1463.19
404.198	1439.19
404.422	1455.19
404.645	1432.19
404.869	1418.19
405.093	1416.19
405.317	1371.19
405.541	1409.19
405.765	1368.19
405.988	1360.19
406.212	1353.19
406.436	1333.19
406.66	1370.19
406.883	1381.19
407.107	1477.19
407.331	1561.19
407.555	1610.19
407.778	1627.19
408.002	1552.19
408.226	1469.19
408.449	1467.19
408.673	1459.19
408.896	1416.19
409.12	1407.19
409.344	1413.19
409.567	1359.19
409.791	1409.19
410.014	1407.19
410.238	1426.19
410.461	1382.19
410.685	1403.19
410.908	1355.19
411.132	1258.19
411.355	1271.19
411.578	1286.19
411.802	1259.19
412.025	1274.19
412.249	1295.19
412.472	1279.19
412.695	1226.19
412.919	1218.19
413.142	1228.19
413.365	1239.19
413.589	1264.19
413.812	1215.19
414.035	1235.19
414.258	1201.19
414.482	1235.19
414.705	1245.19
414.928	1265.19
415.151	1271.19
415.374	1272.19
415.597	1238.19
415.821	1218.19
416.044	1235.19
416.267	1185.19
416.49	1208.19
416.713	1175.19
416.936	1237.19
417.159	1210.19
417.382	1229.19
417.605	1207.19
417.828	1215.19
418.051	1234.19
418.274	1224.19
418.497	1234.19
418.72	1255.19
418.943	1261.19
419.166	1358.19
419.389	1428.19
419.611	1363.19
419.834	1319.19
420.057	1306.19
420.28	1225.19
420.503	1261.19
420.726	1183.19
420.948	1222.19
421.171	1214.19
421.394	1248.19
421.617	1256.19
421.839	1195.19
422.062	1252.19
422.285	1239.19
422.507	1289.19
422.73	1271.19
422.953	1269.19
423.175	1347.19
423.398	1322.19
423.621	1306.19
423.843	1370.19
424.066	1339.19
424.288	1341.19
424.511	1310.19
424.733	1286.19
424.956	1261.19
425.178	1285.19
425.401	1234.19
425.623	1253.19
425.846	1211.19
426.068	1193.19
426.291	1181.19
426.513	1145.19
426.735	1160.19
426.958	1188.19
427.18	1115.19
427.402	1118.19
427.625	1101.19
427.847	1102.19
428.069	1112.19
428.292	1111.19
428.514	1119.19
428.736	1114.19
428.958	1118.19
429.181	1110.19
429.403	1086.19
429.625	1073.19
429.847	1059.19
430.069	1083.19
430.292	1089.19
430.514	1069.19
430.736	1077.19
430.958	1035.19
431.18	1067.19
431.402	1075.19
431.624	1097.19
431.846	1129.19
432.068	1105.19
432.29	1145.19
432.512	1095.19
432.734	1142.19
432.956	1116.19
433.178	1155.19
433.4	1117.19
433.622	1114.19
433.844	1129.19
434.066	1143.19
434.287	1162.19
434.509	1153.19
434.731	1218.19
434.953	1266.19
435.175	1262.19
435.397	1259.19
435.618	1190.19
435.84	1159.19
436.062	1137.19
436.284	1135.19
436.505	1111.19
436.727	1133.19
436.949	1117.19
437.17	1119.19
437.392	1080.19
437.614	1069.19
437.835	1065.19
438.057	1068.19
438.278	1066.19
438.5	1059.19
438.721	1080.19
438.943	1087.19
439.165	1058.19
439.386	1107.19
439.608	1117.19
439.829	1109.19
440.05	1127.19
440.272	1125.19
440.493	1109.19
440.715	1170.19
440.936	1148.19
441.158	1210.19
441.379	1241.19
441.6	1274.19
441.822	1290.19
442.043	1295.19
442.264	1241.19
442.486	1199.19
442.707	1260.19
442.928	1217.19
443.149	1274.19
443.371	1296.19
443.592	1302.19
443.813	1295.19
444.034	1275.19
444.255	1315.19
444.476	1402.19
444.698	1498.19
444.919	1549.19
445.14	1616.19
445.361	1461.19
445.582	1299.19
445.803	1246.19
446.024	1224.19
446.245	1187.19
446.466	1169.19
446.687	1146.19
446.908	1163.19
447.129	1121.19
447.35	1089.19
447.571	1077.19
447.792	1058.19
448.013	1079.19
448.234	1060.19
448.455	1053.19
448.675	1060.19
448.896	1015.19
449.117	1026.19
449.338	1023.19
449.559	1008.19
449.779	1022.19
450	1003.19
450.221	1011.19
450.442	1025.19
450.662	1053.19
450.883	1084.19
451.104	1073.19
451.324	1068.19
451.545	1038.19
451.766	1076.19
451.986	1037.19
452.207	1045.19
452.428	1051.19
452.648	1036.19
452.869	1031.19
453.089	1013.19
453.31	1037.19
453.53	1028.19
453.751	1016.19
453.971	989.19
454.192	1029.19
454.412	973.19
454.633	966.19
454.853	994.19
455.073	987.19
455.294	1000.19
455.514	978.19
455.734	962.19
455.955	934.19
456.175	973.19
456.395	963.19
456.616	937.19
456.836	961.19
457.056	976.19
457.276	928.19
457.497	951.19
457.717	949.19
457.937	955.19
458.157	964.19
458.377	976.19
458.598	992.19
458.818	1030.19
459.038	1053.19
459.258	1105.19
459.478	1138.19
459.698	1164.19
459.918	1201.19
460.138	1247.19
460.358	1335.19
460.578	1352.19
460.798	1345.19
461.018	1371.19
461.238	1318.19
461.458	1325.19
461.678	1332.19
461.898	1355.19
462.118	1320.19
462.338	1450.19
462.558	1459.19
462.777	1504.19
462.997	1654.19
463.217	1850.19
463.437	1857.19
463.657	1683.19
463.876	1565.19
464.096	1559.19
464.316	1588.19
464.536	1594.19
464.755	1525.19
464.975	1482.19
465.195	1406.19
465.414	1315.19
465.634	1221.19
465.854	1165.19
466.073	1144.19
466.293	1154.19
466.512	1153.19
466.732	1106.19
466.951	1085.19
467.171	1099.19
467.391	1085.19
467.61	1084.19
467.829	1075.19
468.049	1054.19
468.268	1053.19
468.488	1037.19
468.707	1022.19
468.927	1017.19
469.146	1031.19
469.365	1061.19
469.585	1041.19
469.804	1075.19
470.023	1122.19
470.243	1096.19
470.462	1134.19
470.681	1159.19
470.901	1159.19
471.12	1101.19
471.339	1067.19
471.558	1082.19
471.777	1094.19
471.997	1040.19
472.216	1022.19
472.435	1030.19
472.654	1023.19
472.873	999.19
473.092	988.19
473.311	1006.19
473.53	994.19
473.749	1027.19
473.968	994.19
474.187	985.19
474.406	1013.19
474.625	1027.19
474.844	1010.19
475.063	1034.19
475.282	1020.19
475.501	1008.19
475.72	1063.19
475.939	1032.19
476.158	1026.19
476.377	1027.19
476.596	1033.19
476.814	1086.19
477.033	1063.19
477.252	1074.19
477.471	1083.19
477.69	1137.19
477.908	1155.19
478.127	1216.19
478.346	1245.19
478.564	1236.19
478.783	1247.19
479.002	1300.19
479.22	1327.19
479.439	1270.19
479.658	1222.19
479.876	1242.19
480.095	1265.19
480.313	1325.19
480.532	1409.19
480.751	1383.19
480.969	1325.19
481.188	1240.19
481.406	1194.19
481.624	1182.19
481.843	1163.19
482.061	1149.19
482.28	1180.19
482.498	1138.19
482.717	1112.19
482.935	1133.19
483.153	1141.19
483.372	1152.19
483.59	1178.19
483.808	1147.19
484.027	1170.19
484.245	1161.19
484.463	1167.19
484.681	1212.19
484.9	1181.19
485.118	1190.19
485.336	1189.19
485.554	1194.19
485.772	1258.19
485.99	1247.19
486.209	1247.19
486.427	1235.19
486.645	1233.19
486.863	1213.19
487.081	1244.19
487.299	1243.19
487.517	1234.19
487.735	1206.19
487.953	1227.19
488.171	1197.19
488.389	1214.19
488.607	1181.19
488.825	1157.19
489.043	1177.19
489.261	1221.19
489.479	1211.19
489.696	1209.19
489.914	1208.19
490.132	1205.19
490.35	1215.19
490.568	1222.19
490.786	1231.19
491.003	1236.19
491.221	1236.19
491.439	1234.19
491.657	1234.19
491.874	1242.19
492.092	1294.19
492.31	1262.19
492.527	1275.19
492.745	1280.19
492.963	1262.19
493.18	1260.19
493.398	1278.19
493.615	1256.19
493.833	1279.19
494.05	1333.19
494.268	1324.19
494.485	1316.19
494.703	1322.19
494.92	1288.19
495.138	1306.19
495.355	1289.19
