Data from Ni(NO3)2@0.5M.TitratingCurve.Agarose3%dH2O.NegLispCup.LampEnergy10.LIBS07252019_HRD10591_17-58-49-565.txt Node
Date: Thu Jul 25 17:58:49 EDT 2019
User: cochatt
Spectrometer: HR+D1059
Trigger mode: 1
Integration Time (sec): 1.000000E-1
Scans to average: 1
Electric dark correction enabled: true
Nonlinearity correction enabled: false
Boxcar width: 0
XAxis mode: Wavelengths
Number of Pixels in Spectrum: 2048
>>>>>Begin Spectral Data<<<<<
223.165	-6.5
223.4	-6.5
223.635	-6.5
223.869	-22.5
224.104	-26.5
224.338	-19.5
224.573	-6.5
224.808	-20.5
225.042	2.5
225.277	-5.5
225.511	9.5
225.746	14.5
225.98	11.5
226.215	2.5
226.449	14.5
226.683	14.5
226.918	14.5
227.152	23.5
227.387	33.5
227.621	30.5
227.856	51.5
228.09	43.5
228.324	48.5
228.559	54.5
228.793	69.5
229.027	113.5
229.262	123.5
229.496	130.5
229.73	138.5
229.964	162.5
230.199	205.5
230.433	185.5
230.667	188.5
230.901	176.5
231.136	141.5
231.37	169.5
231.604	181.5
231.838	183.5
232.072	213.5
232.306	187.5
232.541	181.5
232.775	159.5
233.009	153.5
233.243	155.5
233.477	164.5
233.711	169.5
233.945	171.5
234.179	165.5
234.413	146.5
234.647	168.5
234.881	154.5
235.115	166.5
235.349	147.5
235.583	156.5
235.817	161.5
236.051	150.5
236.285	154.5
236.519	150.5
236.753	151.5
236.987	144.5
237.221	139.5
237.455	149.5
237.689	137.5
237.922	167.5
238.156	164.5
238.39	149.5
238.624	164.5
238.858	166.5
239.091	167.5
239.325	159.5
239.559	175.5
239.793	205.5
240.027	202.5
240.26	176.5
240.494	182.5
240.728	170.5
240.961	186.5
241.195	179.5
241.429	179.5
241.662	183.5
241.896	210.5
242.13	213.5
242.363	191.5
242.597	183.5
242.83	186.5
243.064	189.5
243.298	192.5
243.531	185.5
243.765	188.5
243.998	191.5
244.232	201.5
244.465	214.5
244.699	195.5
244.932	207.5
245.166	199.5
245.399	202.5
245.633	201.5
245.866	197.5
246.099	202.5
246.333	204.5
246.566	206.5
246.8	204.5
247.033	199.5
247.266	218.5
247.5	219.5
247.733	213.5
247.966	211.5
248.2	223.5
248.433	212.5
248.666	209.5
248.899	224.5
249.133	233.5
249.366	231.5
249.599	215.5
249.832	224.5
250.066	234.5
250.299	200.5
250.532	220.5
250.765	245.5
250.998	234.5
251.231	250.5
251.465	277.5
251.698	252.5
251.931	255.5
252.164	241.5
252.397	248.5
252.63	240.5
252.863	265.5
253.096	251.5
253.329	257.5
253.562	250.5
253.795	258.5
254.028	245.5
254.261	247.5
254.494	262.5
254.727	251.5
254.96	259.5
255.193	270.5
255.426	267.5
255.659	274.5
255.892	275.5
256.124	270.5
256.357	271.5
256.59	252.5
256.823	270.5
257.056	273.5
257.289	267.5
257.521	272.5
257.754	275.5
257.987	273.5
258.22	277.5
258.452	274.5
258.685	289.5
258.918	274.5
259.151	280.5
259.383	293.5
259.616	283.5
259.849	282.5
260.081	317.5
260.314	293.5
260.547	294.5
260.779	297.5
261.012	323.5
261.244	328.5
261.477	299.5
261.71	299.5
261.942	298.5
262.175	297.5
262.407	310.5
262.64	301.5
262.872	309.5
263.105	317.5
263.337	316.5
263.57	323.5
263.802	323.5
264.035	326.5
264.267	314.5
264.499	311.5
264.732	334.5
264.964	326.5
265.197	315.5
265.429	331.5
265.661	317.5
265.894	326.5
266.126	321.5
266.358	347.5
266.591	346.5
266.823	326.5
267.055	340.5
267.287	345.5
267.52	361.5
267.752	347.5
267.984	335.5
268.216	342.5
268.448	353.5
268.681	351.5
268.913	352.5
269.145	358.5
269.377	351.5
269.609	355.5
269.841	357.5
270.073	350.5
270.306	370.5
270.538	356.5
270.77	358.5
271.002	339.5
271.234	346.5
271.466	370.5
271.698	362.5
271.93	353.5
272.162	358.5
272.394	389.5
272.626	382.5
272.858	363.5
273.09	381.5
273.322	353.5
273.553	362.5
273.785	355.5
274.017	381.5
274.249	371.5
274.481	373.5
274.713	368.5
274.945	361.5
275.176	383.5
275.408	389.5
275.64	391.5
275.872	385.5
276.104	397.5
276.335	391.5
276.567	384.5
276.799	381.5
277.031	411.5
277.262	380.5
277.494	402.5
277.726	409.5
277.957	385.5
278.189	414.5
278.421	413.5
278.652	405.5
278.884	410.5
279.115	400.5
279.347	425.5
279.579	430.5
279.81	409.5
280.042	424.5
280.273	418.5
280.505	425.5
280.736	421.5
280.968	427.5
281.199	445.5
281.431	438.5
281.662	433.5
281.894	427.5
282.125	399.5
282.356	437.5
282.588	422.5
282.819	403.5
283.051	426.5
283.282	424.5
283.513	424.5
283.745	437.5
283.976	445.5
284.207	454.5
284.439	453.5
284.67	443.5
284.901	451.5
285.132	459.5
285.364	438.5
285.595	447.5
285.826	440.5
286.057	470.5
286.288	466.5
286.52	476.5
286.751	441.5
286.982	455.5
287.213	452.5
287.444	459.5
287.675	450.5
287.906	446.5
288.138	469.5
288.369	459.5
288.6	471.5
288.831	465.5
289.062	475.5
289.293	460.5
289.524	474.5
289.755	472.5
289.986	467.5
290.217	459.5
290.448	478.5
290.679	484.5
290.91	476.5
291.141	486.5
291.371	481.5
291.602	489.5
291.833	482.5
292.064	469.5
292.295	473.5
292.526	472.5
292.757	486.5
292.987	475.5
293.218	465.5
293.449	464.5
293.68	466.5
293.91	465.5
294.141	479.5
294.372	463.5
294.603	492.5
294.833	480.5
295.064	474.5
295.295	471.5
295.525	500.5
295.756	503.5
295.987	489.5
296.217	500.5
296.448	470.5
296.679	479.5
296.909	501.5
297.14	486.5
297.37	491.5
297.601	497.5
297.831	484.5
298.062	522.5
298.292	503.5
298.523	508.5
298.753	523.5
298.984	491.5
299.214	529.5
299.445	531.5
299.675	494.5
299.905	545.5
300.136	554.5
300.366	554.5
300.597	573.5
300.827	562.5
301.057	534.5
301.288	566.5
301.518	547.5
301.748	533.5
301.979	548.5
302.209	531.5
302.439	519.5
302.669	531.5
302.9	535.5
303.13	536.5
303.36	548.5
303.59	549.5
303.82	556.5
304.051	585.5
304.281	558.5
304.511	547.5
304.741	570.5
304.971	562.5
305.201	567.5
305.431	599.5
305.661	581.5
305.891	581.5
306.121	550.5
306.352	567.5
306.582	547.5
306.812	532.5
307.042	546.5
307.272	545.5
307.502	547.5
307.731	538.5
307.961	562.5
308.191	554.5
308.421	556.5
308.651	540.5
308.881	563.5
309.111	552.5
309.341	553.5
309.571	548.5
309.8	565.5
310.03	600.5
310.26	599.5
310.49	583.5
310.72	591.5
310.949	589.5
311.179	573.5
311.409	567.5
311.639	576.5
311.868	576.5
312.098	581.5
312.328	591.5
312.557	597.5
312.787	594.5
313.017	575.5
313.246	596.5
313.476	625.5
313.706	603.5
313.935	607.5
314.165	582.5
314.394	615.5
314.624	596.5
314.853	607.5
315.083	617.5
315.312	598.5
315.542	577.5
315.771	609.5
316.001	608.5
316.23	591.5
316.46	588.5
316.689	630.5
316.919	611.5
317.148	603.5
317.377	613.5
317.607	588.5
317.836	603.5
318.065	622.5
318.295	628.5
318.524	614.5
318.753	631.5
318.983	609.5
319.212	597.5
319.441	613.5
319.67	621.5
319.9	641.5
320.129	609.5
320.358	634.5
320.587	625.5
320.816	634.5
321.046	641.5
321.275	665.5
321.504	643.5
321.733	618.5
321.962	655.5
322.191	653.5
322.42	650.5
322.649	633.5
322.878	654.5
323.108	641.5
323.337	667.5
323.566	658.5
323.795	668.5
324.024	645.5
324.253	650.5
324.482	679.5
324.71	656.5
324.939	669.5
325.168	676.5
325.397	680.5
325.626	674.5
325.855	669.5
326.084	675.5
326.313	678.5
326.542	681.5
326.77	666.5
326.999	686.5
327.228	687.5
327.457	682.5
327.686	693.5
327.914	681.5
328.143	677.5
328.372	685.5
328.6	716.5
328.829	695.5
329.058	701.5
329.287	712.5
329.515	678.5
329.744	723.5
329.972	737.5
330.201	700.5
330.43	707.5
330.658	711.5
330.887	706.5
331.115	727.5
331.344	735.5
331.572	722.5
331.801	755.5
332.03	762.5
332.258	740.5
332.486	737.5
332.715	748.5
332.943	762.5
333.172	781.5
333.4	745.5
333.629	780.5
333.857	787.5
334.085	782.5
334.314	790.5
334.542	801.5
334.771	815.5
334.999	775.5
335.227	794.5
335.455	780.5
335.684	791.5
335.912	813.5
336.14	823.5
336.369	793.5
336.597	829.5
336.825	836.5
337.053	827.5
337.281	829.5
337.51	791.5
337.738	823.5
337.966	800.5
338.194	797.5
338.422	794.5
338.65	768.5
338.878	772.5
339.106	779.5
339.334	817.5
339.562	797.5
339.79	739.5
340.018	759.5
340.246	775.5
340.474	737.5
340.702	776.5
340.93	744.5
341.158	785.5
341.386	784.5
341.614	808.5
341.842	807.5
342.07	757.5
342.298	749.5
342.526	746.5
342.754	759.5
342.981	761.5
343.209	783.5
343.437	765.5
343.665	811.5
343.893	814.5
344.12	803.5
344.348	798.5
344.576	822.5
344.804	795.5
345.031	748.5
345.259	773.5
345.487	778.5
345.714	803.5
345.942	793.5
346.17	803.5
346.397	795.5
346.625	786.5
346.853	741.5
347.08	719.5
347.308	739.5
347.535	737.5
347.763	714.5
347.99	732.5
348.218	733.5
348.445	718.5
348.673	726.5
348.9	717.5
349.128	761.5
349.355	759.5
349.583	780.5
349.81	742.5
350.037	726.5
350.265	695.5
350.492	729.5
350.72	718.5
350.947	713.5
351.174	760.5
351.402	742.5
351.629	765.5
351.856	791.5
352.083	751.5
352.311	773.5
352.538	787.5
352.765	789.5
352.992	746.5
353.22	715.5
353.447	717.5
353.674	702.5
353.901	713.5
354.128	695.5
354.355	702.5
354.583	697.5
354.81	701.5
355.037	697.5
355.264	707.5
355.491	702.5
355.718	707.5
355.945	701.5
356.172	680.5
356.399	691.5
356.626	706.5
356.853	755.5
357.08	720.5
357.307	715.5
357.534	735.5
357.761	701.5
357.988	712.5
358.215	717.5
358.441	712.5
358.668	712.5
358.895	705.5
359.122	734.5
359.349	700.5
359.576	721.5
359.802	721.5
360.029	703.5
360.256	699.5
360.483	723.5
360.709	696.5
360.936	738.5
361.163	745.5
361.39	720.5
361.616	763.5
361.843	763.5
362.07	788.5
362.296	771.5
362.523	730.5
362.749	742.5
362.976	725.5
363.203	715.5
363.429	695.5
363.656	690.5
363.882	682.5
364.109	716.5
364.335	706.5
364.562	723.5
364.788	714.5
365.015	717.5
365.241	716.5
365.468	732.5
365.694	717.5
365.92	701.5
366.147	702.5
366.373	732.5
366.599	704.5
366.826	719.5
367.052	719.5
367.278	724.5
367.505	737.5
367.731	722.5
367.957	703.5
368.184	747.5
368.41	744.5
368.636	727.5
368.862	719.5
369.089	743.5
369.315	758.5
369.541	718.5
369.767	750.5
369.993	741.5
370.219	765.5
370.445	739.5
370.672	750.5
370.898	767.5
371.124	748.5
371.35	759.5
371.576	764.5
371.802	767.5
372.028	766.5
372.254	788.5
372.48	735.5
372.706	793.5
372.932	796.5
373.158	741.5
373.384	782.5
373.61	780.5
373.835	744.5
374.061	771.5
374.287	784.5
374.513	777.5
374.739	779.5
374.965	800.5
375.191	771.5
375.416	787.5
375.642	759.5
375.868	770.5
376.094	791.5
376.319	777.5
376.545	773.5
376.771	773.5
376.997	755.5
377.222	759.5
377.448	764.5
377.674	776.5
377.899	756.5
378.125	762.5
378.35	795.5
378.576	743.5
378.802	738.5
379.027	758.5
379.253	755.5
379.478	754.5
379.704	763.5
379.929	749.5
380.155	754.5
380.38	762.5
380.606	772.5
380.831	774.5
381.057	752.5
381.282	755.5
381.507	738.5
381.733	761.5
381.958	769.5
382.184	772.5
382.409	772.5
382.634	778.5
382.86	777.5
383.085	781.5
383.31	778.5
383.535	790.5
383.761	795.5
383.986	809.5
384.211	823.5
384.436	801.5
384.662	818.5
384.887	837.5
385.112	844.5
385.337	829.5
385.562	839.5
385.787	835.5
386.013	897.5
386.238	872.5
386.463	827.5
386.688	838.5
386.913	838.5
387.138	820.5
387.363	863.5
387.588	857.5
387.813	853.5
388.038	856.5
388.263	827.5
388.488	851.5
388.713	862.5
388.938	855.5
389.163	866.5
389.387	848.5
389.612	849.5
389.837	883.5
390.062	854.5
390.287	881.5
390.512	861.5
390.736	866.5
390.961	926.5
391.186	891.5
391.411	893.5
391.636	892.5
391.86	918.5
392.085	905.5
392.31	892.5
392.534	863.5
392.759	897.5
392.984	870.5
393.208	884.5
393.433	915.5
393.658	912.5
393.882	903.5
394.107	894.5
394.331	898.5
394.556	889.5
394.78	873.5
395.005	866.5
395.229	887.5
395.454	899.5
395.678	901.5
395.903	915.5
396.127	917.5
396.352	906.5
396.576	913.5
396.801	901.5
397.025	939.5
397.249	933.5
397.474	923.5
397.698	926.5
397.922	932.5
398.147	967.5
398.371	968.5
398.595	946.5
398.82	998.5
399.044	1039.5
399.268	1042.5
399.492	1117.5
399.717	1153.5
399.941	1185.5
400.165	1151.5
400.389	1120.5
400.613	1057.5
400.837	1032.5
401.062	1024.5
401.286	1010.5
401.51	1036.5
401.734	1000.5
401.958	973.5
402.182	983.5
402.406	1020.5
402.63	1017.5
402.854	1002.5
403.078	990.5
403.302	987.5
403.526	1026.5
403.75	1004.5
403.974	1007.5
404.198	1045.5
404.422	1041.5
404.645	997.5
404.869	1013.5
405.093	1043.5
405.317	1014.5
405.541	1077.5
405.765	1043.5
405.988	1038.5
406.212	1045.5
406.436	1077.5
406.66	1055.5
406.883	1099.5
407.107	1102.5
407.331	1113.5
407.555	1140.5
407.778	1113.5
408.002	1137.5
408.226	1119.5
408.449	1167.5
408.673	1121.5
408.896	1111.5
409.12	1081.5
409.344	1112.5
409.567	1088.5
409.791	1066.5
410.014	1099.5
410.238	1091.5
410.461	1058.5
410.685	1090.5
410.908	1064.5
411.132	1058.5
411.355	1037.5
411.578	1053.5
411.802	1019.5
412.025	1043.5
412.249	1061.5
412.472	1055.5
412.695	1028.5
412.919	1025.5
413.142	1032.5
413.365	1017.5
413.589	1030.5
413.812	1013.5
414.035	1023.5
414.258	1018.5
414.482	988.5
414.705	1035.5
414.928	989.5
415.151	998.5
415.374	993.5
415.597	1028.5
415.821	1004.5
416.044	969.5
416.267	945.5
416.49	989.5
416.713	972.5
416.936	973.5
417.159	953.5
417.382	976.5
417.605	968.5
417.828	984.5
418.051	980.5
418.274	986.5
418.497	981.5
418.72	991.5
418.943	965.5
419.166	1029.5
419.389	1086.5
419.611	1015.5
419.834	1038.5
420.057	1005.5
420.28	980.5
420.503	947.5
420.726	968.5
420.948	960.5
421.171	949.5
421.394	957.5
421.617	965.5
421.839	960.5
422.062	992.5
422.285	962.5
422.507	966.5
422.73	977.5
422.953	966.5
423.175	962.5
423.398	965.5
423.621	965.5
423.843	964.5
424.066	964.5
424.288	949.5
424.511	969.5
424.733	962.5
424.956	953.5
425.178	941.5
425.401	953.5
425.623	940.5
425.846	949.5
426.068	946.5
426.291	947.5
426.513	967.5
426.735	956.5
426.958	956.5
427.18	950.5
427.402	949.5
427.625	919.5
427.847	922.5
428.069	916.5
428.292	953.5
428.514	917.5
428.736	924.5
428.958	929.5
429.181	903.5
429.403	919.5
429.625	917.5
429.847	897.5
430.069	916.5
430.292	937.5
430.514	901.5
430.736	911.5
430.958	919.5
431.18	945.5
431.402	929.5
431.624	911.5
431.846	924.5
432.068	923.5
432.29	949.5
432.512	907.5
432.734	923.5
432.956	952.5
433.178	978.5
433.4	986.5
433.622	1019.5
433.844	968.5
434.066	990.5
434.287	966.5
434.509	942.5
434.731	986.5
434.953	961.5
435.175	1054.5
435.397	1051.5
435.618	1001.5
435.84	954.5
436.062	924.5
436.284	945.5
436.505	977.5
436.727	918.5
436.949	956.5
437.17	977.5
437.392	955.5
437.614	924.5
437.835	911.5
438.057	903.5
438.278	892.5
438.5	916.5
438.721	888.5
438.943	914.5
439.165	905.5
439.386	877.5
439.608	905.5
439.829	911.5
440.05	923.5
440.272	947.5
440.493	937.5
440.715	965.5
440.936	949.5
441.158	947.5
441.379	1009.5
441.6	1000.5
441.822	991.5
442.043	993.5
442.264	983.5
442.486	970.5
442.707	980.5
442.928	951.5
443.149	974.5
443.371	988.5
443.592	1064.5
443.813	1047.5
444.034	999.5
444.255	1016.5
444.476	1037.5
444.698	1055.5
444.919	1066.5
445.14	1167.5
445.361	1117.5
445.582	1023.5
445.803	983.5
446.024	920.5
446.245	945.5
446.466	931.5
446.687	897.5
446.908	926.5
447.129	916.5
447.35	885.5
447.571	916.5
447.792	874.5
448.013	888.5
448.234	890.5
448.455	889.5
448.675	863.5
448.896	868.5
449.117	846.5
449.338	833.5
449.559	854.5
449.779	860.5
450	841.5
450.221	835.5
450.442	896.5
450.662	866.5
450.883	848.5
451.104	893.5
451.324	883.5
451.545	870.5
451.766	858.5
451.986	845.5
452.207	870.5
452.428	839.5
452.648	826.5
452.869	831.5
453.089	836.5
453.31	865.5
453.53	847.5
453.751	837.5
453.971	832.5
454.192	865.5
454.412	852.5
454.633	847.5
454.853	843.5
455.073	842.5
455.294	837.5
455.514	847.5
455.734	853.5
455.955	865.5
456.175	860.5
456.395	839.5
456.616	823.5
456.836	822.5
457.056	820.5
457.276	828.5
457.497	852.5
457.717	845.5
457.937	861.5
458.157	865.5
458.377	837.5
458.598	859.5
458.818	886.5
459.038	885.5
459.258	930.5
459.478	969.5
459.698	1077.5
459.918	1053.5
460.138	1027.5
460.358	1021.5
460.578	1025.5
460.798	1079.5
461.018	1062.5
461.238	1004.5
461.458	976.5
461.678	995.5
461.898	1000.5
462.118	1039.5
462.338	1051.5
462.558	1074.5
462.777	1156.5
462.997	1162.5
463.217	1191.5
463.437	1237.5
463.657	1190.5
463.876	1134.5
464.096	1086.5
464.316	1105.5
464.536	1130.5
464.755	1059.5
464.975	1026.5
465.195	1022.5
465.414	1004.5
465.634	953.5
465.854	937.5
466.073	930.5
466.293	913.5
466.512	899.5
466.732	892.5
466.951	912.5
467.171	926.5
467.391	918.5
467.61	926.5
467.829	895.5
468.049	891.5
468.268	923.5
468.488	914.5
468.707	914.5
468.927	915.5
469.146	929.5
469.365	936.5
469.585	905.5
469.804	909.5
470.023	898.5
470.243	906.5
470.462	923.5
470.681	901.5
470.901	897.5
471.12	916.5
471.339	908.5
471.558	911.5
471.777	903.5
471.997	892.5
472.216	895.5
472.435	898.5
472.654	869.5
472.873	860.5
473.092	894.5
473.311	892.5
473.53	900.5
473.749	895.5
473.968	879.5
474.187	906.5
474.406	871.5
474.625	903.5
474.844	899.5
475.063	918.5
475.282	927.5
475.501	922.5
475.72	909.5
475.939	945.5
476.158	955.5
476.377	902.5
476.596	940.5
476.814	935.5
477.033	953.5
477.252	915.5
477.471	963.5
477.69	997.5
477.908	1019.5
478.127	1012.5
478.346	995.5
478.564	1020.5
478.783	1021.5
479.002	1110.5
479.22	1125.5
479.439	1086.5
479.658	1079.5
479.876	1045.5
480.095	1043.5
480.313	1054.5
480.532	1070.5
480.751	1059.5
480.969	1075.5
481.188	1051.5
481.406	1078.5
481.624	1031.5
481.843	1044.5
482.061	1032.5
482.28	1025.5
482.498	1037.5
482.717	1038.5
482.935	1061.5
483.153	1101.5
483.372	1149.5
483.59	1132.5
483.808	1090.5
484.027	1089.5
484.245	1059.5
484.463	1078.5
484.681	1085.5
484.9	1048.5
485.118	1095.5
485.336	1079.5
485.554	1070.5
485.772	1105.5
485.99	1086.5
486.209	1083.5
486.427	1091.5
486.645	1120.5
486.863	1093.5
487.081	1113.5
487.299	1091.5
487.517	1069.5
487.735	1099.5
487.953	1124.5
488.171	1115.5
488.389	1079.5
488.607	1127.5
488.825	1089.5
489.043	1071.5
489.261	1097.5
489.479	1109.5
489.696	1077.5
489.914	1103.5
490.132	1081.5
490.35	1111.5
490.568	1103.5
490.786	1111.5
491.003	1104.5
491.221	1097.5
491.439	1121.5
491.657	1097.5
491.874	1126.5
492.092	1123.5
492.31	1145.5
492.527	1094.5
492.745	1107.5
492.963	1140.5
493.18	1147.5
493.398	1175.5
493.615	1147.5
493.833	1143.5
494.05	1125.5
494.268	1153.5
494.485	1149.5
494.703	1154.5
494.92	1159.5
495.138	1160.5
495.355	1143.5
495.573	1162.5
495.79	1182.5
496.008	1146.5
496.225	1137.5
496.442	1178.5
496.66	1213.5
496.877	1194.5
497.094	1199.5
497.312	1228.5
497.529	1265.5
497.746	1270.5
497.963	1287.5
498.181	1318.5
498.398	1337.5
498.615	1363.5
498.832	1444.5
499.049	1467.5
499.267	1527.5
499.484	1572.5
499.701	1643.5
499.918	1692.5
500.135	1785.5
500.352	1870.5
500.569	1893.5
500.786	1845.5
501.003	1839.5
501.22	1766.5
501.437	1692.5
501.654	1608.5
501.871	1565.5
502.088	1506.5
502.305	1506.5
502.522	1437.5
502.739	1389.5
502.956	1316.5
503.172	1345.5
503.389	1288.5
503.606	1239.5
503.823	1251.5
504.04	1220.5
504.256	1206.5
504.473	1181.5
504.69	1186.5
504.907	1168.5
505.123	1157.5
505.34	1115.5
505.557	1120.5
505.773	1093.5
505.99	1075.5
506.207	1059.5
506.423	1041.5
506.64	1017.5
506.856	1021.5
507.073	994.5
507.289	1017.5
507.506	994.5
507.722	1003.5
507.939	994.5
508.155	1012.5
508.372	980.5
508.588	983.5
508.805	968.5
509.021	972.5
509.238	936.5
509.454	941.5
509.67	952.5
509.887	947.5
510.103	923.5
510.319	900.5
510.536	898.5
510.752	928.5
510.968	883.5
511.184	909.5
511.401	912.5
511.617	919.5
511.833	884.5
512.049	891.5
512.265	887.5
512.481	905.5
512.698	900.5
512.914	898.5
513.13	919.5
513.346	918.5
513.562	903.5
513.778	914.5
513.994	902.5
514.21	912.5
514.426	901.5
514.642	908.5
514.858	956.5
515.074	937.5
515.29	907.5
515.506	930.5
515.721	933.5
515.937	955.5
