Data from Ni(NO3)2@0.25M.TitratingCurve.Agarose3%dH2O.NegLispCup.LampEnergy10.LIBS07252019_HRD10591_18-05-31-566.txt Node
Date: Thu Jul 25 18:05:31 EDT 2019
User: cochatt
Spectrometer: HR+D1059
Trigger mode: 1
Integration Time (sec): 1.000000E-1
Scans to average: 1
Electric dark correction enabled: true
Nonlinearity correction enabled: false
Boxcar width: 0
XAxis mode: Wavelengths
Number of Pixels in Spectrum: 2048
>>>>>Begin Spectral Data<<<<<
223.165	-15.38
223.4	-15.38
223.635	-15.38
223.869	-20.38
224.104	-28.38
224.338	-8.38
224.573	-18.38
224.808	-1.38
225.042	-7.38
225.277	20.62
225.511	-3.38
225.746	1.62
225.98	2.62
226.215	4.62
226.449	2.62
226.683	10.62
226.918	24.62
227.152	35.62
227.387	18.62
227.621	29.62
227.856	40.62
228.09	54.62
228.324	38.62
228.559	58.62
228.793	56.62
229.027	88.62
229.262	87.62
229.496	97.62
229.73	92.62
229.964	118.62
230.199	112.62
230.433	115.62
230.667	108.62
230.901	102.62
231.136	112.62
231.37	120.62
231.604	130.62
231.838	119.62
232.072	111.62
232.306	126.62
232.541	114.62
232.775	124.62
233.009	120.62
233.243	117.62
233.477	119.62
233.711	124.62
233.945	118.62
234.179	114.62
234.413	124.62
234.647	119.62
234.881	122.62
235.115	115.62
235.349	122.62
235.583	122.62
235.817	118.62
236.051	126.62
236.285	134.62
236.519	119.62
236.753	130.62
236.987	120.62
237.221	113.62
237.455	121.62
237.689	123.62
237.922	143.62
238.156	139.62
238.39	120.62
238.624	124.62
238.858	119.62
239.091	121.62
239.325	121.62
239.559	147.62
239.793	146.62
240.027	148.62
240.26	120.62
240.494	134.62
240.728	130.62
240.961	155.62
241.195	150.62
241.429	151.62
241.662	144.62
241.896	141.62
242.13	133.62
242.363	161.62
242.597	146.62
242.83	141.62
243.064	142.62
243.298	139.62
243.531	150.62
243.765	152.62
243.998	144.62
244.232	151.62
244.465	144.62
244.699	157.62
244.932	158.62
245.166	154.62
245.399	162.62
245.633	163.62
245.866	152.62
246.099	149.62
246.333	167.62
246.566	171.62
246.8	163.62
247.033	180.62
247.266	174.62
247.5	186.62
247.733	171.62
247.966	173.62
248.2	174.62
248.433	190.62
248.666	182.62
248.899	166.62
249.133	187.62
249.366	184.62
249.599	180.62
249.832	190.62
250.066	196.62
250.299	194.62
250.532	188.62
250.765	190.62
250.998	180.62
251.231	190.62
251.465	185.62
251.698	178.62
251.931	193.62
252.164	201.62
252.397	220.62
252.63	211.62
252.863	214.62
253.096	212.62
253.329	186.62
253.562	191.62
253.795	205.62
254.028	229.62
254.261	216.62
254.494	214.62
254.727	205.62
254.96	206.62
255.193	220.62
255.426	225.62
255.659	215.62
255.892	211.62
256.124	221.62
256.357	230.62
256.59	234.62
256.823	235.62
257.056	227.62
257.289	238.62
257.521	232.62
257.754	227.62
257.987	232.62
258.22	234.62
258.452	243.62
258.685	251.62
258.918	235.62
259.151	225.62
259.383	221.62
259.616	236.62
259.849	261.62
260.081	254.62
260.314	230.62
260.547	237.62
260.779	239.62
261.012	261.62
261.244	259.62
261.477	274.62
261.71	244.62
261.942	244.62
262.175	235.62
262.407	245.62
262.64	243.62
262.872	252.62
263.105	261.62
263.337	260.62
263.57	263.62
263.802	263.62
264.035	258.62
264.267	256.62
264.499	268.62
264.732	268.62
264.964	262.62
265.197	279.62
265.429	266.62
265.661	246.62
265.894	287.62
266.126	261.62
266.358	259.62
266.591	262.62
266.823	281.62
267.055	262.62
267.287	260.62
267.52	275.62
267.752	273.62
267.984	265.62
268.216	279.62
268.448	286.62
268.681	284.62
268.913	286.62
269.145	267.62
269.377	283.62
269.609	292.62
269.841	274.62
270.073	290.62
270.306	296.62
270.538	284.62
270.77	299.62
271.002	299.62
271.234	292.62
271.466	301.62
271.698	302.62
271.93	318.62
272.162	285.62
272.394	308.62
272.626	296.62
272.858	272.62
273.09	307.62
273.322	306.62
273.553	307.62
273.785	294.62
274.017	305.62
274.249	321.62
274.481	299.62
274.713	300.62
274.945	311.62
275.176	310.62
275.408	312.62
275.64	292.62
275.872	306.62
276.104	320.62
276.335	332.62
276.567	313.62
276.799	309.62
277.031	331.62
277.262	322.62
277.494	315.62
277.726	310.62
277.957	300.62
278.189	302.62
278.421	315.62
278.652	311.62
278.884	324.62
279.115	323.62
279.347	329.62
279.579	311.62
279.81	325.62
280.042	332.62
280.273	333.62
280.505	344.62
280.736	328.62
280.968	336.62
281.199	343.62
281.431	337.62
281.662	357.62
281.894	314.62
282.125	359.62
282.356	350.62
282.588	357.62
282.819	354.62
283.051	353.62
283.282	355.62
283.513	343.62
283.745	364.62
283.976	344.62
284.207	342.62
284.439	342.62
284.67	352.62
284.901	345.62
285.132	342.62
285.364	339.62
285.595	353.62
285.826	369.62
286.057	363.62
286.288	368.62
286.52	348.62
286.751	378.62
286.982	366.62
287.213	363.62
287.444	363.62
287.675	352.62
287.906	371.62
288.138	342.62
288.369	358.62
288.6	369.62
288.831	370.62
289.062	390.62
289.293	367.62
289.524	391.62
289.755	387.62
289.986	384.62
290.217	374.62
290.448	383.62
290.679	370.62
290.91	390.62
291.141	380.62
291.371	363.62
291.602	402.62
291.833	377.62
292.064	366.62
292.295	372.62
292.526	391.62
292.757	368.62
292.987	396.62
293.218	402.62
293.449	371.62
293.68	372.62
293.91	375.62
294.141	391.62
294.372	394.62
294.603	389.62
294.833	397.62
295.064	372.62
295.295	402.62
295.525	379.62
295.756	388.62
295.987	391.62
296.217	386.62
296.448	382.62
296.679	387.62
296.909	385.62
297.14	404.62
297.37	405.62
297.601	382.62
297.831	386.62
298.062	421.62
298.292	399.62
298.523	420.62
298.753	433.62
298.984	418.62
299.214	408.62
299.445	398.62
299.675	410.62
299.905	422.62
300.136	386.62
300.366	418.62
300.597	424.62
300.827	418.62
301.057	424.62
301.288	421.62
301.518	436.62
301.748	437.62
301.979	446.62
302.209	433.62
302.439	427.62
302.669	430.62
302.9	437.62
303.13	433.62
303.36	422.62
303.59	434.62
303.82	449.62
304.051	425.62
304.281	432.62
304.511	426.62
304.741	415.62
304.971	434.62
305.201	449.62
305.431	431.62
305.661	448.62
305.891	434.62
306.121	416.62
306.352	446.62
306.582	447.62
306.812	446.62
307.042	423.62
307.272	438.62
307.502	431.62
307.731	446.62
307.961	420.62
308.191	418.62
308.421	428.62
308.651	433.62
308.881	413.62
309.111	412.62
309.341	433.62
309.571	414.62
309.8	443.62
310.03	457.62
310.26	428.62
310.49	437.62
310.72	424.62
310.949	415.62
311.179	437.62
311.409	442.62
311.639	422.62
311.868	437.62
312.098	454.62
312.328	436.62
312.557	418.62
312.787	440.62
313.017	449.62
313.246	442.62
313.476	446.62
313.706	474.62
313.935	466.62
314.165	465.62
314.394	460.62
314.624	456.62
314.853	474.62
315.083	471.62
315.312	470.62
315.542	484.62
315.771	471.62
316.001	457.62
316.23	471.62
316.46	475.62
316.689	453.62
316.919	461.62
317.148	435.62
317.377	467.62
317.607	483.62
317.836	454.62
318.065	450.62
318.295	470.62
318.524	466.62
318.753	467.62
318.983	434.62
319.212	469.62
319.441	484.62
319.67	483.62
319.9	456.62
320.129	473.62
320.358	470.62
320.587	467.62
320.816	466.62
321.046	464.62
321.275	472.62
321.504	452.62
321.733	465.62
321.962	480.62
322.191	480.62
322.42	498.62
322.649	478.62
322.878	492.62
323.108	486.62
323.337	491.62
323.566	471.62
323.795	467.62
324.024	486.62
324.253	489.62
324.482	511.62
324.71	515.62
324.939	490.62
325.168	498.62
325.397	492.62
325.626	524.62
325.855	519.62
326.084	523.62
326.313	522.62
326.542	529.62
326.77	552.62
326.999	538.62
327.228	518.62
327.457	498.62
327.686	521.62
327.914	520.62
328.143	543.62
328.372	544.62
328.6	536.62
328.829	530.62
329.058	536.62
329.287	549.62
329.515	538.62
329.744	559.62
329.972	538.62
330.201	575.62
330.43	539.62
330.658	546.62
330.887	560.62
331.115	561.62
331.344	560.62
331.572	549.62
331.801	588.62
332.03	594.62
332.258	617.62
332.486	615.62
332.715	626.62
332.943	664.62
333.172	674.62
333.4	687.62
333.629	716.62
333.857	730.62
334.085	731.62
334.314	720.62
334.542	707.62
334.771	689.62
334.999	704.62
335.227	700.62
335.455	688.62
335.684	672.62
335.912	675.62
336.14	651.62
336.369	673.62
336.597	647.62
336.825	657.62
337.053	676.62
337.281	644.62
337.51	627.62
337.738	630.62
337.966	615.62
338.194	627.62
338.422	591.62
338.65	626.62
338.878	593.62
339.106	606.62
339.334	617.62
339.562	593.62
339.79	576.62
340.018	572.62
340.246	576.62
340.474	571.62
340.702	589.62
340.93	594.62
341.158	571.62
341.386	570.62
341.614	595.62
341.842	562.62
342.07	570.62
342.298	564.62
342.526	580.62
342.754	589.62
342.981	587.62
343.209	601.62
343.437	627.62
343.665	658.62
343.893	683.62
344.12	712.62
344.348	661.62
344.576	656.62
344.804	647.62
345.031	606.62
345.259	585.62
345.487	606.62
345.714	577.62
345.942	588.62
346.17	606.62
346.397	591.62
346.625	575.62
346.853	573.62
347.08	562.62
347.308	553.62
347.535	569.62
347.763	546.62
347.99	570.62
348.218	566.62
348.445	575.62
348.673	571.62
348.9	566.62
349.128	556.62
349.355	575.62
349.583	570.62
349.81	520.62
350.037	542.62
350.265	551.62
350.492	563.62
350.72	542.62
350.947	539.62
351.174	527.62
351.402	549.62
351.629	574.62
351.856	562.62
352.083	538.62
352.311	566.62
352.538	563.62
352.765	559.62
352.992	536.62
353.22	513.62
353.447	539.62
353.674	531.62
353.901	536.62
354.128	531.62
354.355	540.62
354.583	523.62
354.81	544.62
355.037	539.62
355.264	548.62
355.491	552.62
355.718	529.62
355.945	523.62
356.172	523.62
356.399	545.62
356.626	544.62
356.853	571.62
357.08	585.62
357.307	547.62
357.534	530.62
357.761	558.62
357.988	543.62
358.215	543.62
358.441	547.62
358.668	533.62
358.895	526.62
359.122	529.62
359.349	522.62
359.576	520.62
359.802	558.62
360.029	526.62
360.256	530.62
360.483	552.62
360.709	535.62
360.936	516.62
361.163	530.62
361.39	554.62
361.616	552.62
361.843	532.62
362.07	540.62
362.296	544.62
362.523	526.62
362.749	541.62
362.976	528.62
363.203	555.62
363.429	550.62
363.656	533.62
363.882	518.62
364.109	535.62
364.335	546.62
364.562	538.62
364.788	525.62
365.015	532.62
365.241	553.62
365.468	546.62
365.694	515.62
365.92	533.62
366.147	519.62
366.373	535.62
366.599	549.62
366.826	513.62
367.052	538.62
367.278	531.62
367.505	542.62
367.731	537.62
367.957	534.62
368.184	558.62
368.41	547.62
368.636	564.62
368.862	547.62
369.089	555.62
369.315	532.62
369.541	544.62
369.767	568.62
369.993	553.62
370.219	552.62
370.445	560.62
370.672	572.62
370.898	551.62
371.124	574.62
371.35	566.62
371.576	577.62
371.802	578.62
372.028	568.62
372.254	573.62
372.48	562.62
372.706	594.62
372.932	599.62
373.158	596.62
373.384	595.62
373.61	582.62
373.835	584.62
374.061	585.62
374.287	615.62
374.513	592.62
374.739	610.62
374.965	617.62
375.191	624.62
375.416	632.62
375.642	619.62
375.868	599.62
376.094	602.62
376.319	592.62
376.545	589.62
376.771	598.62
376.997	573.62
377.222	592.62
377.448	570.62
377.674	582.62
377.899	569.62
378.125	550.62
378.35	554.62
378.576	547.62
378.802	560.62
379.027	552.62
379.253	594.62
379.478	561.62
379.704	554.62
379.929	574.62
380.155	564.62
380.38	576.62
380.606	564.62
380.831	594.62
381.057	592.62
381.282	570.62
381.507	590.62
381.733	577.62
381.958	571.62
382.184	583.62
382.409	580.62
382.634	586.62
382.86	616.62
383.085	592.62
383.31	622.62
383.535	599.62
383.761	640.62
383.986	634.62
384.211	649.62
384.436	674.62
384.662	662.62
384.887	660.62
385.112	649.62
385.337	654.62
385.562	682.62
385.787	662.62
386.013	699.62
386.238	678.62
386.463	696.62
386.688	688.62
386.913	694.62
387.138	681.62
387.363	664.62
387.588	687.62
387.813	657.62
388.038	670.62
388.263	680.62
388.488	669.62
388.713	666.62
388.938	674.62
389.163	654.62
389.387	650.62
389.612	658.62
389.837	675.62
390.062	666.62
390.287	670.62
390.512	691.62
390.736	677.62
390.961	696.62
391.186	683.62
391.411	697.62
391.636	720.62
391.86	730.62
392.085	738.62
392.31	761.62
392.534	741.62
392.759	720.62
392.984	729.62
393.208	711.62
393.433	736.62
393.658	727.62
393.882	725.62
394.107	714.62
394.331	732.62
394.556	738.62
394.78	728.62
395.005	742.62
395.229	734.62
395.454	760.62
395.678	755.62
395.903	773.62
396.127	770.62
396.352	746.62
396.576	705.62
396.801	713.62
397.025	724.62
397.249	758.62
397.474	769.62
397.698	749.62
397.922	786.62
398.147	781.62
398.371	780.62
398.595	796.62
398.82	824.62
399.044	908.62
399.268	1024.62
399.492	1122.62
399.717	1211.62
399.941	1231.62
400.165	1146.62
400.389	1039.62
400.613	963.62
400.837	920.62
401.062	882.62
401.286	889.62
401.51	867.62
401.734	848.62
401.958	842.62
402.182	904.62
402.406	860.62
402.63	866.62
402.854	882.62
403.078	916.62
403.302	936.62
403.526	931.62
403.75	939.62
403.974	983.62
404.198	993.62
404.422	990.62
404.645	979.62
404.869	960.62
405.093	948.62
405.317	931.62
405.541	955.62
405.765	950.62
405.988	923.62
406.212	934.62
406.436	920.62
406.66	989.62
406.883	993.62
407.107	1016.62
407.331	1068.62
407.555	1080.62
407.778	1099.62
408.002	1074.62
408.226	1040.62
408.449	1018.62
408.673	1010.62
408.896	993.62
409.12	991.62
409.344	979.62
409.567	932.62
409.791	979.62
410.014	946.62
410.238	977.62
410.461	958.62
410.685	944.62
410.908	920.62
411.132	910.62
411.355	902.62
411.578	873.62
411.802	895.62
412.025	894.62
412.249	907.62
412.472	899.62
412.695	917.62
412.919	858.62
413.142	864.62
413.365	868.62
413.589	863.62
413.812	879.62
414.035	866.62
414.258	856.62
414.482	895.62
414.705	901.62
414.928	869.62
415.151	878.62
415.374	902.62
415.597	851.62
415.821	882.62
416.044	857.62
416.267	843.62
416.49	826.62
416.713	847.62
416.936	839.62
417.159	837.62
417.382	850.62
417.605	829.62
417.828	858.62
418.051	870.62
418.274	839.62
418.497	855.62
418.72	870.62
418.943	906.62
419.166	948.62
419.389	999.62
419.611	980.62
419.834	945.62
420.057	895.62
420.28	883.62
420.503	874.62
420.726	859.62
420.948	874.62
421.171	850.62
421.394	871.62
421.617	852.62
421.839	858.62
422.062	879.62
422.285	843.62
422.507	864.62
422.73	871.62
422.953	880.62
423.175	890.62
423.398	891.62
423.621	879.62
423.843	916.62
424.066	906.62
424.288	917.62
424.511	891.62
424.733	918.62
424.956	862.62
425.178	855.62
425.401	898.62
425.623	898.62
425.846	859.62
426.068	836.62
426.291	824.62
426.513	820.62
426.735	853.62
426.958	819.62
427.18	812.62
427.402	830.62
427.625	794.62
427.847	820.62
428.069	774.62
428.292	780.62
428.514	783.62
428.736	796.62
428.958	781.62
429.181	790.62
429.403	792.62
429.625	742.62
429.847	752.62
430.069	784.62
430.292	780.62
430.514	746.62
430.736	776.62
430.958	782.62
431.18	766.62
431.402	777.62
431.624	784.62
431.846	802.62
432.068	779.62
432.29	771.62
432.512	769.62
432.734	775.62
432.956	795.62
433.178	768.62
433.4	809.62
433.622	810.62
433.844	824.62
434.066	824.62
434.287	792.62
434.509	809.62
434.731	850.62
434.953	866.62
435.175	891.62
435.397	892.62
435.618	838.62
435.84	807.62
436.062	812.62
436.284	789.62
436.505	796.62
436.727	766.62
436.949	800.62
437.17	797.62
437.392	792.62
437.614	785.62
437.835	755.62
438.057	779.62
438.278	762.62
438.5	758.62
438.721	781.62
438.943	764.62
439.165	775.62
439.386	790.62
439.608	794.62
439.829	818.62
440.05	812.62
440.272	842.62
440.493	821.62
440.715	810.62
440.936	829.62
441.158	840.62
441.379	854.62
441.6	890.62
441.822	886.62
442.043	928.62
442.264	875.62
442.486	848.62
442.707	872.62
442.928	859.62
443.149	897.62
443.371	887.62
443.592	880.62
443.813	906.62
444.034	916.62
444.255	913.62
444.476	945.62
444.698	998.62
444.919	1027.62
445.14	1136.62
445.361	993.62
445.582	947.62
445.803	933.62
446.024	868.62
446.245	898.62
446.466	840.62
446.687	815.62
446.908	802.62
447.129	818.62
447.35	811.62
447.571	768.62
447.792	791.62
448.013	770.62
448.234	752.62
448.455	739.62
448.675	747.62
448.896	767.62
449.117	728.62
449.338	752.62
449.559	738.62
449.779	731.62
450	715.62
450.221	746.62
450.442	733.62
450.662	753.62
450.883	766.62
451.104	769.62
451.324	743.62
451.545	774.62
451.766	733.62
451.986	732.62
452.207	742.62
452.428	722.62
452.648	739.62
452.869	722.62
453.089	698.62
453.31	698.62
453.53	695.62
453.751	702.62
453.971	698.62
454.192	667.62
454.412	690.62
454.633	704.62
454.853	714.62
455.073	691.62
455.294	667.62
455.514	705.62
455.734	708.62
455.955	686.62
456.175	665.62
456.395	665.62
456.616	652.62
456.836	684.62
457.056	677.62
457.276	669.62
457.497	665.62
457.717	650.62
457.937	701.62
458.157	706.62
458.377	707.62
458.598	716.62
458.818	723.62
459.038	766.62
459.258	774.62
459.478	827.62
459.698	825.62
459.918	844.62
460.138	893.62
460.358	914.62
460.578	920.62
460.798	934.62
461.018	972.62
461.238	927.62
461.458	967.62
461.678	912.62
461.898	927.62
462.118	958.62
462.338	1006.62
462.558	1038.62
462.777	1079.62
462.997	1174.62
463.217	1216.62
463.437	1213.62
463.657	1145.62
463.876	1098.62
464.096	1106.62
464.316	1090.62
464.536	1107.62
464.755	1046.62
464.975	1009.62
465.195	962.62
465.414	924.62
465.634	859.62
465.854	832.62
466.073	843.62
466.293	833.62
466.512	778.62
466.732	780.62
466.951	760.62
467.171	755.62
467.391	768.62
467.61	788.62
467.829	764.62
468.049	770.62
468.268	735.62
468.488	730.62
468.707	726.62
468.927	745.62
469.146	753.62
469.365	731.62
469.585	769.62
469.804	771.62
470.023	767.62
470.243	752.62
470.462	803.62
470.681	798.62
470.901	811.62
471.12	774.62
471.339	790.62
471.558	745.62
471.777	776.62
471.997	739.62
472.216	748.62
472.435	739.62
472.654	711.62
472.873	709.62
473.092	694.62
473.311	722.62
473.53	725.62
473.749	698.62
473.968	720.62
474.187	714.62
474.406	688.62
474.625	708.62
474.844	700.62
475.063	706.62
475.282	739.62
475.501	728.62
475.72	731.62
475.939	738.62
476.158	730.62
476.377	763.62
476.596	746.62
476.814	748.62
477.033	756.62
477.252	786.62
477.471	785.62
477.69	808.62
477.908	821.62
478.127	848.62
478.346	850.62
478.564	873.62
478.783	879.62
479.002	875.62
479.22	901.62
479.439	900.62
479.658	882.62
479.876	894.62
480.095	902.62
480.313	898.62
480.532	948.62
480.751	928.62
480.969	916.62
481.188	873.62
481.406	850.62
481.624	846.62
481.843	809.62
482.061	806.62
482.28	807.62
482.498	799.62
482.717	811.62
482.935	818.62
483.153	822.62
483.372	814.62
483.59	809.62
483.808	832.62
484.027	811.62
484.245	834.62
484.463	822.62
484.681	826.62
484.9	823.62
485.118	841.62
485.336	842.62
485.554	825.62
485.772	849.62
485.99	849.62
486.209	859.62
486.427	861.62
486.645	845.62
486.863	875.62
487.081	858.62
487.299	837.62
487.517	848.62
487.735	863.62
487.953	878.62
488.171	834.62
488.389	855.62
488.607	879.62
488.825	829.62
489.043	826.62
489.261	840.62
489.479	845.62
489.696	855.62
489.914	838.62
490.132	850.62
490.35	855.62
490.568	890.62
490.786	857.62
491.003	867.62
491.221	893.62
491.439	882.62
491.657	895.62
491.874	891.62
492.092	890.62
492.31	923.62
492.527	903.62
492.745	879.62
492.963	869.62
493.18	889.62
493.398	906.62
493.615	898.62
493.833	908.62
494.05	878.62
494.268	904.62
494.485	915.62
494.703	934.62
494.92	917.62
495.138	930.62
495.355	920.62
495.573	928.62
495.79	900.62
496.008	937.62
496.225	934.62
496.442	983.62
496.66	963.62
496.877	972.62
497.094	985.62
497.312	1020.62
497.529	1028.62
497.746	1081.62
497.963	1105.62
498.181	1109.62
498.398	1170.62
498.615	1222.62
498.832	1319.62
499.049	1392.62
499.267	1510.62
499.484	1682.62
499.701	1838.62
499.918	2038.62
500.135	2245.62
500.352	2502.62
500.569	2557.62
500.786	2610.62
501.003	2409.62
