Data from Ni(NO3)2@0.125M.TitratingCurve.Agarose3%dH2O.NegLispCup.LampEnergy10.LIBS07252019_HRD10591_18-09-05-567.txt Node
Date: Thu Jul 25 18:09:05 EDT 2019
User: cochatt
Spectrometer: HR+D1059
Trigger mode: 1
Integration Time (sec): 1.000000E-1
Scans to average: 1
Electric dark correction enabled: true
Nonlinearity correction enabled: false
Boxcar width: 0
XAxis mode: Wavelengths
Number of Pixels in Spectrum: 2048
>>>>>Begin Spectral Data<<<<<
223.165	-12.38
223.4	-12.38
223.635	-12.38
223.869	-22.38
224.104	-24.38
224.338	-23.38
224.573	-28.38
224.808	-9.38
225.042	0.62
225.277	-10.38
225.511	-3.38
225.746	5.62
225.98	9.62
226.215	10.62
226.449	20.62
226.683	23.62
226.918	30.62
227.152	32.62
227.387	29.62
227.621	40.62
227.856	46.62
228.09	54.62
228.324	40.62
228.559	48.62
228.793	62.62
229.027	81.62
229.262	89.62
229.496	106.62
229.73	108.62
229.964	104.62
230.199	98.62
230.433	103.62
230.667	109.62
230.901	105.62
231.136	111.62
231.37	122.62
231.604	135.62
231.838	108.62
232.072	111.62
232.306	114.62
232.541	130.62
232.775	123.62
233.009	124.62
233.243	127.62
233.477	120.62
233.711	126.62
233.945	123.62
234.179	114.62
234.413	140.62
234.647	130.62
234.881	118.62
235.115	131.62
235.349	122.62
235.583	127.62
235.817	125.62
236.051	134.62
236.285	124.62
236.519	150.62
236.753	142.62
236.987	139.62
237.221	128.62
237.455	129.62
237.689	124.62
237.922	125.62
238.156	125.62
238.39	128.62
238.624	134.62
238.858	155.62
239.091	147.62
239.325	139.62
239.559	139.62
239.793	152.62
240.027	152.62
240.26	149.62
240.494	141.62
240.728	156.62
240.961	142.62
241.195	136.62
241.429	138.62
241.662	157.62
241.896	154.62
242.13	146.62
242.363	143.62
242.597	162.62
242.83	159.62
243.064	146.62
243.298	151.62
243.531	156.62
243.765	166.62
243.998	165.62
244.232	181.62
244.465	175.62
244.699	167.62
244.932	169.62
245.166	166.62
245.399	142.62
245.633	170.62
245.866	167.62
246.099	179.62
246.333	177.62
246.566	193.62
246.8	161.62
247.033	176.62
247.266	169.62
247.5	192.62
247.733	187.62
247.966	183.62
248.2	184.62
248.433	189.62
248.666	214.62
248.899	201.62
249.133	194.62
249.366	207.62
249.599	214.62
249.832	206.62
250.066	206.62
250.299	190.62
250.532	208.62
250.765	215.62
250.998	202.62
251.231	210.62
251.465	204.62
251.698	198.62
251.931	220.62
252.164	208.62
252.397	215.62
252.63	219.62
252.863	214.62
253.096	213.62
253.329	223.62
253.562	220.62
253.795	226.62
254.028	201.62
254.261	231.62
254.494	234.62
254.727	211.62
254.96	230.62
255.193	228.62
255.426	211.62
255.659	217.62
255.892	245.62
256.124	230.62
256.357	241.62
256.59	235.62
256.823	230.62
257.056	258.62
257.289	240.62
257.521	223.62
257.754	250.62
257.987	236.62
258.22	251.62
258.452	245.62
258.685	249.62
258.918	240.62
259.151	245.62
259.383	238.62
259.616	257.62
259.849	248.62
260.081	259.62
260.314	249.62
260.547	243.62
260.779	254.62
261.012	263.62
261.244	253.62
261.477	270.62
261.71	274.62
261.942	261.62
262.175	253.62
262.407	263.62
262.64	260.62
262.872	264.62
263.105	254.62
263.337	255.62
263.57	273.62
263.802	282.62
264.035	264.62
264.267	266.62
264.499	272.62
264.732	281.62
264.964	274.62
265.197	266.62
265.429	268.62
265.661	286.62
265.894	281.62
266.126	296.62
266.358	287.62
266.591	291.62
266.823	293.62
267.055	284.62
267.287	289.62
267.52	292.62
267.752	292.62
267.984	287.62
268.216	276.62
268.448	310.62
268.681	300.62
268.913	307.62
269.145	290.62
269.377	295.62
269.609	316.62
269.841	313.62
270.073	311.62
270.306	292.62
270.538	291.62
270.77	313.62
271.002	310.62
271.234	286.62
271.466	308.62
271.698	277.62
271.93	300.62
272.162	299.62
272.394	306.62
272.626	290.62
272.858	328.62
273.09	324.62
273.322	318.62
273.553	315.62
273.785	315.62
274.017	330.62
274.249	314.62
274.481	323.62
274.713	323.62
274.945	329.62
275.176	325.62
275.408	319.62
275.64	324.62
275.872	324.62
276.104	337.62
276.335	316.62
276.567	323.62
276.799	340.62
277.031	334.62
277.262	342.62
277.494	348.62
277.726	343.62
277.957	324.62
278.189	338.62
278.421	328.62
278.652	324.62
278.884	349.62
279.115	350.62
279.347	344.62
279.579	340.62
279.81	340.62
280.042	342.62
280.273	354.62
280.505	359.62
280.736	364.62
280.968	362.62
281.199	350.62
281.431	352.62
281.662	389.62
281.894	356.62
282.125	355.62
282.356	384.62
282.588	354.62
282.819	374.62
283.051	377.62
283.282	371.62
283.513	343.62
283.745	364.62
283.976	376.62
284.207	383.62
284.439	374.62
284.67	368.62
284.901	364.62
285.132	398.62
285.364	376.62
285.595	388.62
285.826	370.62
286.057	365.62
286.288	392.62
286.52	403.62
286.751	400.62
286.982	382.62
287.213	384.62
287.444	394.62
287.675	396.62
287.906	395.62
288.138	393.62
288.369	398.62
288.6	390.62
288.831	397.62
289.062	388.62
289.293	402.62
289.524	415.62
289.755	404.62
289.986	394.62
290.217	413.62
290.448	410.62
290.679	418.62
290.91	411.62
291.141	405.62
291.371	414.62
291.602	389.62
291.833	419.62
292.064	408.62
292.295	413.62
292.526	406.62
292.757	403.62
292.987	412.62
293.218	394.62
293.449	432.62
293.68	409.62
293.91	405.62
294.141	414.62
294.372	405.62
294.603	407.62
294.833	418.62
295.064	412.62
295.295	414.62
295.525	405.62
295.756	412.62
295.987	430.62
296.217	421.62
296.448	432.62
296.679	432.62
296.909	419.62
297.14	438.62
297.37	434.62
297.601	430.62
297.831	454.62
298.062	426.62
298.292	461.62
298.523	446.62
298.753	456.62
298.984	440.62
299.214	429.62
299.445	455.62
299.675	442.62
299.905	454.62
300.136	449.62
300.366	441.62
300.597	454.62
300.827	469.62
301.057	453.62
301.288	448.62
301.518	473.62
301.748	464.62
301.979	472.62
302.209	475.62
302.439	454.62
302.669	456.62
302.9	473.62
303.13	450.62
303.36	449.62
303.59	457.62
303.82	467.62
304.051	453.62
304.281	461.62
304.511	463.62
304.741	467.62
304.971	453.62
305.201	435.62
305.431	454.62
305.661	485.62
305.891	436.62
306.121	453.62
306.352	463.62
306.582	430.62
306.812	452.62
307.042	441.62
307.272	455.62
307.502	456.62
307.731	445.62
307.961	438.62
308.191	448.62
308.421	452.62
308.651	451.62
308.881	454.62
309.111	454.62
309.341	442.62
309.571	462.62
309.8	465.62
310.03	453.62
310.26	480.62
310.49	471.62
310.72	460.62
310.949	452.62
311.179	463.62
311.409	451.62
311.639	449.62
311.868	462.62
312.098	482.62
312.328	489.62
312.557	489.62
312.787	478.62
313.017	466.62
313.246	468.62
313.476	479.62
313.706	493.62
313.935	477.62
314.165	480.62
314.394	481.62
314.624	485.62
314.853	498.62
315.083	494.62
315.312	486.62
315.542	484.62
315.771	477.62
316.001	494.62
316.23	465.62
316.46	474.62
316.689	482.62
316.919	456.62
317.148	477.62
317.377	454.62
317.607	464.62
317.836	452.62
318.065	463.62
318.295	479.62
318.524	497.62
318.753	497.62
318.983	480.62
319.212	476.62
319.441	474.62
319.67	482.62
319.9	476.62
320.129	488.62
320.358	477.62
320.587	481.62
320.816	488.62
321.046	519.62
321.275	501.62
321.504	475.62
321.733	502.62
321.962	483.62
322.191	483.62
322.42	496.62
322.649	487.62
322.878	479.62
323.108	500.62
323.337	500.62
323.566	498.62
323.795	512.62
324.024	509.62
324.253	509.62
324.482	502.62
324.71	511.62
324.939	496.62
325.168	510.62
325.397	516.62
325.626	498.62
325.855	526.62
326.084	568.62
326.313	553.62
326.542	548.62
326.77	561.62
326.999	546.62
327.228	538.62
327.457	540.62
327.686	557.62
327.914	544.62
328.143	541.62
328.372	541.62
328.6	548.62
328.829	556.62
329.058	538.62
329.287	532.62
329.515	560.62
329.744	549.62
329.972	568.62
330.201	558.62
330.43	556.62
330.658	570.62
330.887	563.62
331.115	580.62
331.344	567.62
331.572	580.62
331.801	607.62
332.03	618.62
332.258	612.62
332.486	643.62
332.715	645.62
332.943	689.62
333.172	738.62
333.4	754.62
333.629	766.62
333.857	738.62
334.085	756.62
334.314	709.62
334.542	715.62
334.771	724.62
334.999	703.62
335.227	686.62
335.455	700.62
335.684	668.62
335.912	675.62
336.14	665.62
336.369	651.62
336.597	705.62
336.825	663.62
337.053	646.62
337.281	622.62
337.51	644.62
337.738	613.62
337.966	636.62
338.194	596.62
338.422	606.62
338.65	602.62
338.878	618.62
339.106	592.62
339.334	591.62
339.562	577.62
339.79	554.62
340.018	593.62
340.246	582.62
340.474	581.62
340.702	583.62
340.93	569.62
341.158	565.62
341.386	582.62
341.614	592.62
341.842	573.62
342.07	570.62
342.298	583.62
342.526	572.62
342.754	594.62
342.981	590.62
343.209	584.62
343.437	633.62
343.665	660.62
343.893	682.62
344.12	739.62
344.348	705.62
344.576	660.62
344.804	624.62
345.031	597.62
345.259	604.62
345.487	578.62
345.714	581.62
345.942	596.62
346.17	578.62
346.397	542.62
346.625	566.62
346.853	572.62
347.08	550.62
347.308	567.62
347.535	588.62
347.763	602.62
347.99	573.62
348.218	607.62
348.445	572.62
348.673	566.62
348.9	536.62
349.128	536.62
349.355	582.62
349.583	565.62
349.81	566.62
350.037	535.62
350.265	529.62
350.492	540.62
350.72	541.62
350.947	543.62
351.174	558.62
351.402	545.62
351.629	553.62
351.856	557.62
352.083	542.62
352.311	535.62
352.538	529.62
352.765	559.62
352.992	529.62
353.22	561.62
353.447	525.62
353.674	494.62
353.901	538.62
354.128	535.62
354.355	527.62
354.583	535.62
354.81	540.62
355.037	552.62
355.264	562.62
355.491	528.62
355.718	548.62
355.945	545.62
356.172	545.62
356.399	535.62
356.626	556.62
356.853	546.62
357.08	554.62
357.307	569.62
357.534	547.62
357.761	537.62
357.988	531.62
358.215	522.62
358.441	545.62
358.668	529.62
358.895	530.62
359.122	535.62
359.349	547.62
359.576	541.62
359.802	545.62
360.029	528.62
360.256	526.62
360.483	534.62
360.709	548.62
360.936	535.62
361.163	551.62
361.39	542.62
361.616	544.62
361.843	543.62
362.07	557.62
362.296	533.62
362.523	522.62
362.749	545.62
362.976	539.62
363.203	547.62
363.429	534.62
363.656	542.62
363.882	553.62
364.109	531.62
364.335	534.62
364.562	534.62
364.788	526.62
365.015	524.62
365.241	537.62
365.468	552.62
365.694	533.62
365.92	547.62
366.147	540.62
366.373	548.62
366.599	534.62
366.826	542.62
367.052	560.62
367.278	529.62
367.505	530.62
367.731	534.62
367.957	541.62
368.184	557.62
368.41	537.62
368.636	553.62
368.862	551.62
369.089	562.62
369.315	572.62
369.541	566.62
369.767	566.62
369.993	559.62
370.219	544.62
370.445	556.62
370.672	576.62
370.898	569.62
371.124	569.62
371.35	586.62
371.576	572.62
371.802	578.62
372.028	562.62
372.254	594.62
372.48	592.62
372.706	605.62
372.932	596.62
373.158	598.62
373.384	609.62
373.61	586.62
373.835	580.62
374.061	572.62
374.287	590.62
374.513	604.62
374.739	614.62
374.965	661.62
375.191	638.62
375.416	649.62
375.642	614.62
375.868	636.62
376.094	604.62
376.319	585.62
376.545	592.62
376.771	579.62
376.997	574.62
377.222	599.62
377.448	587.62
377.674	597.62
377.899	573.62
378.125	581.62
378.35	573.62
378.576	560.62
378.802	565.62
379.027	543.62
379.253	566.62
379.478	567.62
379.704	576.62
379.929	583.62
380.155	586.62
380.38	574.62
380.606	590.62
380.831	571.62
381.057	597.62
381.282	595.62
381.507	572.62
381.733	607.62
381.958	599.62
382.184	596.62
382.409	597.62
382.634	606.62
382.86	593.62
383.085	600.62
383.31	630.62
383.535	625.62
383.761	632.62
383.986	671.62
384.211	660.62
384.436	658.62
384.662	674.62
384.887	693.62
385.112	702.62
385.337	713.62
385.562	699.62
385.787	717.62
386.013	703.62
386.238	705.62
386.463	696.62
386.688	700.62
386.913	690.62
387.138	706.62
387.363	696.62
387.588	690.62
387.813	672.62
388.038	674.62
388.263	684.62
388.488	695.62
388.713	672.62
388.938	656.62
389.163	688.62
389.387	658.62
389.612	641.62
389.837	698.62
390.062	710.62
390.287	666.62
390.512	666.62
390.736	672.62
390.961	686.62
391.186	701.62
391.411	725.62
391.636	753.62
391.86	776.62
392.085	783.62
392.31	744.62
392.534	757.62
392.759	762.62
392.984	746.62
393.208	724.62
393.433	710.62
393.658	718.62
393.882	738.62
394.107	752.62
394.331	742.62
394.556	718.62
394.78	763.62
395.005	744.62
395.229	731.62
395.454	782.62
395.678	786.62
395.903	753.62
396.127	753.62
396.352	708.62
396.576	723.62
396.801	724.62
397.025	715.62
397.249	752.62
397.474	739.62
397.698	782.62
397.922	762.62
398.147	767.62
398.371	764.62
398.595	798.62
398.82	813.62
399.044	906.62
399.268	992.62
399.492	1168.62
399.717	1352.62
399.941	1312.62
400.165	1143.62
400.389	1057.62
400.613	954.62
400.837	883.62
401.062	860.62
401.286	871.62
401.51	873.62
401.734	851.62
401.958	876.62
402.182	883.62
402.406	870.62
402.63	914.62
402.854	916.62
403.078	956.62
403.302	981.62
403.526	980.62
403.75	1021.62
403.974	1022.62
404.198	1029.62
404.422	1031.62
404.645	1029.62
404.869	985.62
405.093	976.62
405.317	975.62
405.541	968.62
405.765	937.62
405.988	923.62
406.212	971.62
406.436	970.62
406.66	957.62
406.883	988.62
407.107	1027.62
407.331	1105.62
407.555	1148.62
407.778	1104.62
408.002	1117.62
408.226	1081.62
408.449	1031.62
408.673	997.62
408.896	972.62
409.12	970.62
409.344	984.62
409.567	1013.62
409.791	1029.62
410.014	999.62
410.238	965.62
410.461	1001.62
410.685	995.62
410.908	940.62
411.132	920.62
411.355	905.62
411.578	912.62
411.802	935.62
412.025	926.62
412.249	938.62
412.472	933.62
412.695	885.62
412.919	867.62
413.142	854.62
413.365	864.62
413.589	898.62
413.812	870.62
414.035	869.62
414.258	864.62
414.482	891.62
414.705	892.62
414.928	903.62
415.151	891.62
415.374	868.62
415.597	882.62
415.821	876.62
416.044	880.62
416.267	845.62
416.49	857.62
416.713	856.62
416.936	869.62
417.159	845.62
417.382	868.62
417.605	869.62
417.828	888.62
418.051	884.62
418.274	876.62
418.497	857.62
418.72	876.62
418.943	903.62
419.166	957.62
419.389	1033.62
419.611	1013.62
419.834	937.62
420.057	890.62
420.28	885.62
420.503	870.62
420.726	867.62
420.948	899.62
421.171	886.62
421.394	871.62
421.617	883.62
421.839	881.62
422.062	903.62
422.285	865.62
422.507	865.62
422.73	900.62
422.953	920.62
423.175	912.62
423.398	915.62
423.621	913.62
423.843	946.62
424.066	957.62
424.288	956.62
424.511	907.62
424.733	930.62
424.956	899.62
425.178	892.62
425.401	884.62
425.623	886.62
425.846	876.62
426.068	836.62
426.291	824.62
426.513	823.62
426.735	833.62
426.958	832.62
427.18	794.62
427.402	792.62
427.625	799.62
427.847	764.62
428.069	791.62
428.292	806.62
428.514	779.62
428.736	776.62
428.958	780.62
429.181	784.62
429.403	776.62
429.625	785.62
429.847	759.62
430.069	751.62
430.292	786.62
430.514	775.62
430.736	736.62
430.958	757.62
431.18	770.62
431.402	782.62
431.624	790.62
431.846	810.62
432.068	779.62
432.29	809.62
432.512	782.62
432.734	792.62
432.956	797.62
433.178	822.62
433.4	788.62
433.622	784.62
433.844	804.62
434.066	804.62
434.287	806.62
434.509	820.62
434.731	846.62
434.953	884.62
435.175	918.62
435.397	874.62
435.618	836.62
435.84	833.62
436.062	799.62
436.284	792.62
436.505	793.62
436.727	788.62
436.949	800.62
437.17	781.62
437.392	793.62
437.614	777.62
437.835	721.62
438.057	746.62
438.278	727.62
438.5	754.62
438.721	770.62
438.943	761.62
439.165	776.62
439.386	762.62
439.608	814.62
439.829	800.62
440.05	788.62
440.272	816.62
440.493	802.62
440.715	835.62
440.936	836.62
441.158	834.62
441.379	871.62
441.6	921.62
441.822	930.62
442.043	887.62
442.264	871.62
442.486	866.62
442.707	887.62
442.928	876.62
443.149	894.62
443.371	892.62
443.592	920.62
443.813	868.62
444.034	908.62
444.255	959.62
444.476	1004.62
444.698	1058.62
444.919	1068.62
445.14	1191.62
445.361	1015.62
445.582	945.62
445.803	860.62
446.024	816.62
446.245	848.62
446.466	830.62
446.687	815.62
446.908	806.62
447.129	795.62
447.35	770.62
447.571	767.62
447.792	748.62
448.013	749.62
448.234	745.62
448.455	734.62
448.675	730.62
448.896	753.62
449.117	737.62
449.338	754.62
449.559	724.62
449.779	738.62
450	731.62
450.221	742.62
450.442	757.62
450.662	767.62
450.883	739.62
451.104	739.62
451.324	775.62
451.545	757.62
451.766	751.62
451.986	737.62
452.207	768.62
452.428	760.62
452.648	745.62
452.869	719.62
453.089	720.62
453.31	748.62
453.53	701.62
453.751	720.62
453.971	686.62
454.192	725.62
454.412	672.62
454.633	692.62
454.853	714.62
455.073	698.62
455.294	691.62
455.514	685.62
455.734	671.62
455.955	685.62
456.175	646.62
456.395	678.62
456.616	686.62
456.836	667.62
457.056	668.62
457.276	664.62
457.497	682.62
457.717	711.62
457.937	669.62
458.157	701.62
458.377	716.62
458.598	728.62
458.818	751.62
459.038	754.62
459.258	798.62
459.478	808.62
459.698	823.62
459.918	842.62
460.138	903.62
460.358	942.62
460.578	953.62
460.798	914.62
461.018	962.62
461.238	974.62
461.458	920.62
461.678	949.62
461.898	916.62
462.118	935.62
462.338	1011.62
462.558	1033.62
462.777	1058.62
462.997	1158.62
463.217	1286.62
463.437	1292.62
463.657	1162.62
463.876	1116.62
464.096	1084.62
464.316	1084.62
464.536	1112.62
464.755	1098.62
464.975	1029.62
465.195	968.62
465.414	896.62
465.634	879.62
465.854	822.62
466.073	810.62
466.293	805.62
466.512	788.62
466.732	778.62
466.951	775.62
467.171	775.62
467.391	774.62
467.61	749.62
467.829	778.62
468.049	773.62
468.268	729.62
468.488	749.62
468.707	753.62
468.927	725.62
469.146	758.62
469.365	753.62
469.585	772.62
469.804	756.62
470.023	799.62
470.243	780.62
470.462	814.62
470.681	834.62
470.901	805.62
471.12	792.62
471.339	764.62
471.558	715.62
471.777	752.62
471.997	760.62
472.216	737.62
472.435	726.62
472.654	710.62
472.873	704.62
473.092	687.62
473.311	723.62
473.53	714.62
473.749	716.62
473.968	731.62
474.187	704.62
474.406	694.62
474.625	705.62
474.844	697.62
475.063	708.62
475.282	720.62
475.501	709.62
475.72	717.62
475.939	720.62
476.158	710.62
476.377	743.62
476.596	728.62
476.814	751.62
477.033	742.62
477.252	730.62
477.471	753.62
477.69	771.62
477.908	820.62
478.127	846.62
478.346	874.62
478.564	856.62
478.783	860.62
479.002	885.62
479.22	896.62
479.439	908.62
479.658	862.62
479.876	907.62
480.095	887.62
480.313	927.62
480.532	964.62
480.751	977.62
480.969	906.62
481.188	868.62
481.406	851.62
481.624	814.62
481.843	798.62
482.061	830.62
482.28	812.62
482.498	817.62
482.717	781.62
482.935	792.62
483.153	809.62
483.372	799.62
483.59	822.62
483.808	798.62
484.027	812.62
484.245	824.62
484.463	813.62
484.681	836.62
484.9	858.62
485.118	855.62
485.336	852.62
485.554	848.62
485.772	877.62
485.99	865.62
486.209	866.62
486.427	868.62
486.645	862.62
486.863	862.62
487.081	882.62
487.299	866.62
487.517	882.62
487.735	890.62
487.953	877.62
488.171	865.62
488.389	865.62
488.607	826.62
488.825	821.62
489.043	813.62
489.261	844.62
489.479	842.62
489.696	852.62
489.914	869.62
490.132	869.62
490.35	844.62
490.568	852.62
490.786	853.62
491.003	872.62
491.221	901.62
491.439	880.62
491.657	873.62
491.874	869.62
492.092	885.62
492.31	883.62
492.527	913.62
492.745	872.62
492.963	893.62
493.18	856.62
493.398	899.62
493.615	882.62
493.833	922.62
494.05	920.62
494.268	899.62
494.485	918.62
494.703	905.62
494.92	926.62
495.138	918.62
495.355	942.62
495.573	945.62
495.79	936.62
496.008	922.62
496.225	935.62
496.442	947.62
496.66	970.62
496.877	965.62
497.094	967.62
497.312	975.62
497.529	993.62
497.746	1004.62
497.963	1038.62
498.181	1076.62
498.398	1116.62
498.615	1174.62
498.832	1262.62
499.049	1352.62
499.267	1473.62
499.484	1653.62
499.701	1830.62
499.918	2035.62
500.135	2359.62
500.352	2736.62
500.569	2868.62
500.786	2802.62
