Data from Ni(NO3)2@0.125M.TitratingCurve.Agarose3%dH2O.NegLispCup.LampEnergy10.LIBS07252019_HRD10591_18-10-29-568.txt Node
Date: Thu Jul 25 18:10:29 EDT 2019
User: cochatt
Spectrometer: HR+D1059
Trigger mode: 1
Integration Time (sec): 1.000000E-1
Scans to average: 1
Electric dark correction enabled: true
Nonlinearity correction enabled: false
Boxcar width: 0
XAxis mode: Wavelengths
Number of Pixels in Spectrum: 2048
>>>>>Begin Spectral Data<<<<<
223.165	-18.81
223.4	-18.81
223.635	-18.81
223.869	-19.81
224.104	-11.81
224.338	-20.81
224.573	-12.81
224.808	-11.81
225.042	9.19
225.277	0.19
225.511	-2.81
225.746	5.19
225.98	9.19
226.215	17.19
226.449	9.19
226.683	9.19
226.918	8.19
227.152	31.19
227.387	30.19
227.621	29.19
227.856	40.19
228.09	44.19
228.324	50.19
228.559	60.19
228.793	71.19
229.027	82.19
229.262	90.19
229.496	89.19
229.73	95.19
229.964	105.19
230.199	109.19
230.433	104.19
230.667	115.19
230.901	94.19
231.136	105.19
231.37	113.19
231.604	120.19
231.838	120.19
232.072	119.19
232.306	117.19
232.541	121.19
232.775	128.19
233.009	118.19
233.243	118.19
233.477	110.19
233.711	119.19
233.945	115.19
234.179	116.19
234.413	124.19
234.647	135.19
234.881	111.19
235.115	116.19
235.349	131.19
235.583	117.19
235.817	127.19
236.051	121.19
236.285	116.19
236.519	123.19
236.753	115.19
236.987	118.19
237.221	129.19
237.455	127.19
237.689	115.19
237.922	113.19
238.156	129.19
238.39	144.19
238.624	127.19
238.858	131.19
239.091	139.19
239.325	128.19
239.559	112.19
239.793	140.19
240.027	127.19
240.26	131.19
240.494	134.19
240.728	122.19
240.961	118.19
241.195	146.19
241.429	144.19
241.662	128.19
241.896	143.19
242.13	158.19
242.363	145.19
242.597	151.19
242.83	146.19
243.064	141.19
243.298	138.19
243.531	128.19
243.765	132.19
243.998	146.19
244.232	140.19
244.465	147.19
244.699	144.19
244.932	161.19
245.166	156.19
245.399	176.19
245.633	156.19
245.866	153.19
246.099	163.19
246.333	163.19
246.566	150.19
246.8	142.19
247.033	168.19
247.266	172.19
247.5	172.19
247.733	149.19
247.966	165.19
248.2	174.19
248.433	172.19
248.666	156.19
248.899	168.19
249.133	166.19
249.366	153.19
249.599	179.19
249.832	179.19
250.066	174.19
250.299	168.19
250.532	178.19
250.765	181.19
250.998	181.19
251.231	176.19
251.465	182.19
251.698	193.19
251.931	200.19
252.164	193.19
252.397	181.19
252.63	183.19
252.863	192.19
253.096	191.19
253.329	201.19
253.562	199.19
253.795	192.19
254.028	203.19
254.261	183.19
254.494	193.19
254.727	188.19
254.96	185.19
255.193	190.19
255.426	189.19
255.659	190.19
255.892	203.19
256.124	205.19
256.357	205.19
256.59	205.19
256.823	202.19
257.056	196.19
257.289	200.19
257.521	202.19
257.754	203.19
257.987	198.19
258.22	217.19
258.452	204.19
258.685	198.19
258.918	219.19
259.151	226.19
259.383	197.19
259.616	204.19
259.849	238.19
260.081	220.19
260.314	202.19
260.547	215.19
260.779	225.19
261.012	216.19
261.244	220.19
261.477	223.19
261.71	209.19
261.942	231.19
262.175	216.19
262.407	237.19
262.64	224.19
262.872	224.19
263.105	235.19
263.337	225.19
263.57	219.19
263.802	233.19
264.035	223.19
264.267	234.19
264.499	227.19
264.732	246.19
264.964	233.19
265.197	235.19
265.429	226.19
265.661	243.19
265.894	248.19
266.126	247.19
266.358	234.19
266.591	255.19
266.823	239.19
267.055	231.19
267.287	254.19
267.52	248.19
267.752	242.19
267.984	253.19
268.216	244.19
268.448	239.19
268.681	257.19
268.913	258.19
269.145	262.19
269.377	258.19
269.609	240.19
269.841	267.19
270.073	254.19
270.306	261.19
270.538	233.19
270.77	245.19
271.002	248.19
271.234	262.19
271.466	265.19
271.698	245.19
271.93	259.19
272.162	244.19
272.394	254.19
272.626	261.19
272.858	244.19
273.09	273.19
273.322	278.19
273.553	268.19
273.785	257.19
274.017	253.19
274.249	259.19
274.481	255.19
274.713	263.19
274.945	251.19
275.176	260.19
275.408	266.19
275.64	281.19
275.872	275.19
276.104	267.19
276.335	267.19
276.567	263.19
276.799	278.19
277.031	274.19
277.262	256.19
277.494	293.19
277.726	279.19
277.957	281.19
278.189	256.19
278.421	277.19
278.652	293.19
278.884	296.19
279.115	272.19
279.347	279.19
279.579	291.19
279.81	271.19
280.042	297.19
280.273	287.19
280.505	290.19
280.736	288.19
280.968	309.19
281.199	305.19
281.431	290.19
281.662	287.19
281.894	297.19
282.125	295.19
282.356	312.19
282.588	288.19
282.819	305.19
283.051	296.19
283.282	299.19
283.513	313.19
283.745	302.19
283.976	317.19
284.207	309.19
284.439	294.19
284.67	295.19
284.901	321.19
285.132	325.19
285.364	307.19
285.595	315.19
285.826	327.19
286.057	322.19
286.288	310.19
286.52	291.19
286.751	309.19
286.982	327.19
287.213	304.19
287.444	314.19
287.675	327.19
287.906	328.19
288.138	322.19
288.369	319.19
288.6	321.19
288.831	345.19
289.062	324.19
289.293	308.19
289.524	325.19
289.755	333.19
289.986	332.19
290.217	348.19
290.448	319.19
290.679	336.19
290.91	320.19
291.141	333.19
291.371	333.19
291.602	342.19
291.833	327.19
292.064	355.19
292.295	339.19
292.526	349.19
292.757	350.19
292.987	340.19
293.218	324.19
293.449	340.19
293.68	347.19
293.91	324.19
294.141	333.19
294.372	336.19
294.603	345.19
294.833	343.19
295.064	351.19
295.295	348.19
295.525	324.19
295.756	367.19
295.987	334.19
296.217	361.19
296.448	357.19
296.679	355.19
296.909	328.19
297.14	349.19
297.37	372.19
297.601	373.19
297.831	351.19
298.062	379.19
298.292	383.19
298.523	368.19
298.753	367.19
298.984	376.19
299.214	371.19
299.445	351.19
299.675	360.19
299.905	393.19
300.136	359.19
300.366	375.19
300.597	385.19
300.827	366.19
301.057	362.19
301.288	375.19
301.518	367.19
301.748	377.19
301.979	378.19
302.209	397.19
302.439	384.19
302.669	382.19
302.9	374.19
303.13	363.19
303.36	387.19
303.59	376.19
303.82	363.19
304.051	353.19
304.281	378.19
304.511	377.19
304.741	379.19
304.971	379.19
305.201	367.19
305.431	388.19
305.661	369.19
305.891	372.19
306.121	367.19
306.352	371.19
306.582	355.19
306.812	346.19
307.042	376.19
307.272	351.19
307.502	373.19
307.731	373.19
307.961	361.19
308.191	366.19
308.421	375.19
308.651	381.19
308.881	377.19
309.111	383.19
309.341	351.19
309.571	352.19
309.8	368.19
310.03	363.19
310.26	361.19
310.49	383.19
310.72	381.19
310.949	376.19
311.179	386.19
311.409	375.19
311.639	369.19
311.868	371.19
312.098	368.19
312.328	389.19
312.557	397.19
312.787	387.19
313.017	379.19
313.246	394.19
313.476	384.19
313.706	399.19
313.935	394.19
314.165	381.19
314.394	384.19
314.624	397.19
314.853	392.19
315.083	409.19
315.312	400.19
315.542	389.19
315.771	391.19
316.001	370.19
316.23	399.19
316.46	381.19
316.689	391.19
316.919	399.19
317.148	385.19
317.377	392.19
317.607	376.19
317.836	363.19
318.065	373.19
318.295	383.19
318.524	384.19
318.753	389.19
318.983	381.19
319.212	395.19
319.441	383.19
319.67	372.19
319.9	393.19
320.129	388.19
320.358	400.19
320.587	416.19
320.816	378.19
321.046	376.19
321.275	386.19
321.504	395.19
321.733	395.19
321.962	389.19
322.191	395.19
322.42	406.19
322.649	403.19
322.878	399.19
323.108	389.19
323.337	391.19
323.566	392.19
323.795	406.19
324.024	397.19
324.253	394.19
324.482	393.19
324.71	392.19
324.939	412.19
325.168	406.19
325.397	410.19
325.626	428.19
325.855	424.19
326.084	422.19
326.313	429.19
326.542	430.19
326.77	426.19
326.999	429.19
327.228	432.19
327.457	420.19
327.686	409.19
327.914	423.19
328.143	429.19
328.372	439.19
328.6	415.19
328.829	430.19
329.058	423.19
329.287	438.19
329.515	440.19
329.744	435.19
329.972	443.19
330.201	427.19
330.43	440.19
330.658	445.19
330.887	441.19
331.115	457.19
331.344	446.19
331.572	459.19
331.801	468.19
332.03	479.19
332.258	494.19
332.486	495.19
332.715	510.19
332.943	540.19
333.172	580.19
333.4	579.19
333.629	591.19
333.857	578.19
334.085	568.19
334.314	560.19
334.542	543.19
334.771	549.19
334.999	544.19
335.227	525.19
335.455	500.19
335.684	530.19
335.912	522.19
336.14	523.19
336.369	502.19
336.597	504.19
336.825	536.19
337.053	515.19
337.281	480.19
337.51	497.19
337.738	505.19
337.966	493.19
338.194	483.19
338.422	456.19
338.65	458.19
338.878	474.19
339.106	471.19
339.334	485.19
339.562	459.19
339.79	438.19
340.018	463.19
340.246	452.19
340.474	451.19
340.702	436.19
340.93	459.19
341.158	476.19
341.386	457.19
341.614	456.19
341.842	440.19
342.07	434.19
342.298	436.19
342.526	465.19
342.754	444.19
342.981	446.19
343.209	473.19
343.437	480.19
343.665	534.19
343.893	537.19
344.12	550.19
344.348	539.19
344.576	499.19
344.804	476.19
345.031	485.19
345.259	462.19
345.487	437.19
345.714	451.19
345.942	461.19
346.17	457.19
346.397	454.19
346.625	446.19
346.853	454.19
347.08	440.19
347.308	458.19
347.535	453.19
347.763	454.19
347.99	460.19
348.218	440.19
348.445	453.19
348.673	451.19
348.9	437.19
349.128	445.19
349.355	428.19
349.583	411.19
349.81	442.19
350.037	436.19
350.265	444.19
350.492	421.19
350.72	420.19
350.947	417.19
351.174	423.19
351.402	425.19
351.629	397.19
351.856	437.19
352.083	416.19
352.311	421.19
352.538	418.19
352.765	422.19
352.992	416.19
353.22	431.19
353.447	435.19
353.674	421.19
353.901	426.19
354.128	439.19
354.355	432.19
354.583	429.19
354.81	415.19
355.037	439.19
355.264	415.19
355.491	434.19
355.718	437.19
355.945	423.19
356.172	438.19
356.399	431.19
356.626	423.19
356.853	434.19
357.08	423.19
357.307	422.19
357.534	438.19
357.761	421.19
357.988	424.19
358.215	425.19
358.441	422.19
358.668	403.19
358.895	436.19
359.122	421.19
359.349	410.19
359.576	423.19
359.802	419.19
360.029	429.19
360.256	429.19
360.483	430.19
360.709	435.19
360.936	433.19
361.163	434.19
361.39	428.19
361.616	425.19
361.843	452.19
362.07	422.19
362.296	424.19
362.523	418.19
362.749	432.19
362.976	417.19
363.203	433.19
363.429	415.19
363.656	420.19
363.882	418.19
364.109	426.19
364.335	416.19
364.562	399.19
364.788	422.19
365.015	437.19
365.241	409.19
365.468	420.19
365.694	398.19
365.92	416.19
366.147	420.19
366.373	411.19
366.599	430.19
366.826	419.19
367.052	413.19
367.278	418.19
367.505	417.19
367.731	437.19
367.957	416.19
368.184	420.19
368.41	434.19
368.636	432.19
368.862	422.19
369.089	437.19
369.315	430.19
369.541	452.19
369.767	435.19
369.993	449.19
370.219	429.19
370.445	449.19
370.672	445.19
370.898	441.19
371.124	457.19
371.35	464.19
371.576	476.19
371.802	465.19
372.028	456.19
372.254	444.19
372.48	471.19
372.706	470.19
372.932	469.19
373.158	462.19
373.384	452.19
373.61	467.19
373.835	464.19
374.061	455.19
374.287	492.19
374.513	452.19
374.739	487.19
374.965	513.19
375.191	510.19
375.416	523.19
375.642	482.19
375.868	480.19
376.094	466.19
376.319	439.19
376.545	471.19
376.771	461.19
376.997	460.19
377.222	452.19
377.448	475.19
377.674	462.19
377.899	441.19
378.125	449.19
378.35	454.19
378.576	459.19
378.802	435.19
379.027	446.19
379.253	452.19
379.478	454.19
379.704	457.19
379.929	464.19
380.155	471.19
380.38	471.19
380.606	461.19
380.831	457.19
381.057	473.19
381.282	466.19
381.507	463.19
381.733	455.19
381.958	475.19
382.184	457.19
382.409	489.19
382.634	452.19
382.86	464.19
383.085	465.19
383.31	487.19
383.535	500.19
383.761	491.19
383.986	522.19
384.211	553.19
384.436	535.19
384.662	548.19
384.887	547.19
385.112	531.19
385.337	546.19
385.562	552.19
385.787	566.19
386.013	547.19
386.238	551.19
386.463	523.19
386.688	563.19
386.913	525.19
387.138	524.19
387.363	543.19
387.588	522.19
387.813	535.19
388.038	524.19
388.263	534.19
388.488	537.19
388.713	520.19
388.938	552.19
389.163	520.19
389.387	533.19
389.612	542.19
389.837	535.19
390.062	540.19
390.287	538.19
390.512	540.19
390.736	533.19
390.961	551.19
391.186	557.19
391.411	574.19
391.636	559.19
391.86	617.19
392.085	604.19
392.31	628.19
392.534	601.19
392.759	579.19
392.984	588.19
393.208	559.19
393.433	568.19
393.658	592.19
393.882	570.19
394.107	561.19
394.331	615.19
394.556	584.19
394.78	608.19
395.005	602.19
395.229	589.19
395.454	621.19
395.678	620.19
395.903	615.19
396.127	592.19
396.352	580.19
396.576	573.19
396.801	560.19
397.025	584.19
397.249	588.19
397.474	586.19
397.698	628.19
397.922	607.19
398.147	626.19
398.371	615.19
398.595	628.19
398.82	640.19
399.044	707.19
399.268	789.19
399.492	921.19
399.717	1000.19
399.941	1041.19
400.165	870.19
400.389	799.19
400.613	746.19
400.837	699.19
401.062	656.19
401.286	673.19
401.51	674.19
401.734	663.19
401.958	668.19
402.182	667.19
402.406	700.19
402.63	742.19
402.854	727.19
403.078	718.19
403.302	756.19
403.526	765.19
403.75	798.19
403.974	820.19
404.198	811.19
404.422	806.19
404.645	784.19
404.869	784.19
405.093	776.19
405.317	766.19
405.541	745.19
405.765	738.19
405.988	725.19
406.212	749.19
406.436	736.19
406.66	750.19
406.883	778.19
407.107	825.19
407.331	877.19
407.555	911.19
407.778	871.19
408.002	878.19
408.226	838.19
408.449	812.19
408.673	778.19
408.896	762.19
409.12	783.19
409.344	808.19
409.567	794.19
409.791	792.19
410.014	815.19
410.238	791.19
410.461	777.19
410.685	741.19
410.908	735.19
411.132	748.19
411.355	730.19
411.578	728.19
411.802	691.19
412.025	725.19
412.249	721.19
412.472	729.19
412.695	694.19
412.919	705.19
413.142	674.19
413.365	699.19
413.589	714.19
413.812	672.19
414.035	699.19
414.258	685.19
414.482	703.19
414.705	703.19
414.928	698.19
415.151	675.19
415.374	702.19
415.597	704.19
415.821	688.19
416.044	653.19
416.267	657.19
416.49	661.19
416.713	667.19
416.936	671.19
417.159	669.19
417.382	685.19
417.605	665.19
417.828	685.19
418.051	676.19
418.274	705.19
418.497	686.19
418.72	704.19
418.943	712.19
419.166	748.19
419.389	781.19
419.611	765.19
419.834	728.19
420.057	722.19
420.28	701.19
420.503	697.19
420.726	669.19
420.948	669.19
421.171	676.19
421.394	687.19
421.617	680.19
421.839	658.19
422.062	685.19
422.285	669.19
422.507	698.19
422.73	712.19
422.953	702.19
423.175	711.19
423.398	757.19
423.621	713.19
423.843	752.19
424.066	733.19
424.288	743.19
424.511	718.19
424.733	714.19
424.956	726.19
425.178	707.19
425.401	693.19
425.623	688.19
425.846	662.19
426.068	659.19
426.291	662.19
426.513	644.19
426.735	644.19
426.958	622.19
427.18	629.19
427.402	624.19
427.625	627.19
427.847	593.19
428.069	614.19
428.292	623.19
428.514	609.19
428.736	602.19
428.958	601.19
429.181	595.19
429.403	605.19
429.625	577.19
429.847	601.19
430.069	582.19
430.292	590.19
430.514	583.19
430.736	594.19
430.958	609.19
431.18	596.19
431.402	590.19
431.624	597.19
431.846	627.19
432.068	635.19
432.29	610.19
432.512	616.19
432.734	629.19
432.956	599.19
433.178	621.19
433.4	608.19
433.622	616.19
433.844	633.19
434.066	601.19
434.287	641.19
434.509	652.19
434.731	685.19
434.953	688.19
435.175	702.19
435.397	696.19
435.618	668.19
435.84	643.19
436.062	627.19
436.284	601.19
436.505	610.19
436.727	633.19
436.949	632.19
437.17	635.19
437.392	608.19
437.614	606.19
437.835	591.19
438.057	595.19
438.278	597.19
438.5	600.19
438.721	585.19
438.943	627.19
439.165	630.19
439.386	635.19
439.608	620.19
439.829	643.19
440.05	643.19
440.272	656.19
440.493	644.19
440.715	624.19
440.936	663.19
441.158	667.19
441.379	692.19
441.6	719.19
441.822	706.19
442.043	750.19
442.264	716.19
442.486	677.19
442.707	677.19
442.928	707.19
443.149	719.19
443.371	668.19
443.592	694.19
443.813	681.19
444.034	693.19
444.255	743.19
444.476	759.19
444.698	806.19
444.919	860.19
445.14	919.19
445.361	801.19
445.582	712.19
445.803	671.19
446.024	655.19
446.245	638.19
446.466	653.19
446.687	630.19
446.908	629.19
447.129	641.19
447.35	619.19
447.571	631.19
447.792	612.19
448.013	592.19
448.234	611.19
448.455	568.19
448.675	611.19
448.896	574.19
449.117	598.19
449.338	586.19
449.559	588.19
449.779	563.19
450	582.19
450.221	606.19
450.442	599.19
450.662	587.19
450.883	585.19
451.104	612.19
451.324	633.19
451.545	624.19
451.766	593.19
451.986	611.19
452.207	594.19
452.428	594.19
452.648	584.19
452.869	579.19
453.089	567.19
453.31	603.19
453.53	579.19
453.751	568.19
453.971	569.19
454.192	576.19
454.412	558.19
454.633	555.19
454.853	548.19
455.073	539.19
455.294	552.19
455.514	541.19
455.734	574.19
455.955	537.19
456.175	532.19
456.395	536.19
456.616	542.19
456.836	550.19
457.056	529.19
457.276	520.19
457.497	531.19
457.717	531.19
457.937	548.19
458.157	555.19
458.377	556.19
458.598	549.19
458.818	565.19
459.038	589.19
459.258	623.19
459.478	634.19
459.698	643.19
459.918	632.19
460.138	686.19
460.358	743.19
460.578	757.19
460.798	762.19
461.018	754.19
461.238	744.19
461.458	744.19
461.678	734.19
461.898	751.19
462.118	733.19
462.338	766.19
462.558	804.19
462.777	861.19
462.997	909.19
463.217	1009.19
463.437	996.19
463.657	881.19
463.876	849.19
464.096	870.19
464.316	860.19
464.536	860.19
464.755	842.19
464.975	803.19
465.195	756.19
465.414	723.19
465.634	681.19
465.854	653.19
466.073	656.19
466.293	647.19
466.512	616.19
466.732	620.19
466.951	604.19
467.171	594.19
467.391	605.19
467.61	597.19
467.829	609.19
468.049	600.19
468.268	601.19
468.488	567.19
468.707	570.19
468.927	575.19
469.146	597.19
469.365	571.19
469.585	596.19
469.804	603.19
470.023	604.19
470.243	630.19
470.462	637.19
470.681	624.19
470.901	629.19
471.12	627.19
471.339	604.19
471.558	592.19
471.777	587.19
471.997	600.19
472.216	578.19
472.435	567.19
472.654	552.19
472.873	539.19
473.092	558.19
473.311	540.19
473.53	573.19
473.749	567.19
473.968	544.19
474.187	554.19
474.406	564.19
474.625	574.19
474.844	595.19
475.063	550.19
475.282	572.19
475.501	563.19
475.72	565.19
475.939	568.19
476.158	562.19
476.377	598.19
476.596	587.19
476.814	591.19
477.033	581.19
477.252	600.19
477.471	628.19
477.69	634.19
477.908	646.19
478.127	687.19
478.346	685.19
478.564	678.19
478.783	688.19
479.002	683.19
479.22	712.19
479.439	687.19
479.658	705.19
479.876	680.19
480.095	720.19
480.313	764.19
480.532	750.19
480.751	737.19
480.969	728.19
481.188	674.19
481.406	663.19
481.624	647.19
481.843	627.19
482.061	635.19
482.28	625.19
482.498	612.19
482.717	634.19
482.935	618.19
483.153	621.19
483.372	644.19
483.59	643.19
483.808	632.19
484.027	653.19
484.245	647.19
484.463	641.19
484.681	639.19
484.9	662.19
485.118	647.19
485.336	651.19
485.554	669.19
485.772	667.19
485.99	678.19
486.209	686.19
486.427	691.19
486.645	711.19
486.863	679.19
487.081	678.19
487.299	683.19
487.517	679.19
487.735	683.19
487.953	699.19
488.171	671.19
488.389	673.19
488.607	677.19
488.825	644.19
489.043	655.19
489.261	670.19
489.479	665.19
489.696	662.19
489.914	682.19
490.132	674.19
490.35	672.19
490.568	667.19
490.786	675.19
491.003	658.19
491.221	669.19
491.439	688.19
491.657	670.19
491.874	676.19
492.092	692.19
492.31	678.19
492.527	705.19
492.745	666.19
492.963	683.19
493.18	701.19
493.398	680.19
493.615	701.19
493.833	709.19
494.05	714.19
494.268	687.19
494.485	713.19
494.703	691.19
494.92	713.19
495.138	681.19
495.355	704.19
495.573	705.19
495.79	704.19
496.008	711.19
496.225	740.19
496.442	746.19
496.66	728.19
496.877	725.19
497.094	746.19
497.312	755.19
497.529	771.19
497.746	792.19
497.963	791.19
498.181	828.19
498.398	849.19
498.615	919.19
498.832	985.19
499.049	1051.19
499.267	1148.19
499.484	1284.19
499.701	1421.19
499.918	1533.19
500.135	1806.19
500.352	2148.19
500.569	2222.19
500.786	2190.19
501.003	2032.19
501.22	1748.19
501.437	1537.19
