Data from Ni(NO3)2@0.25M.TitratingCurve.Agarose3%dH2O.NegLispCup.LampEnergy10.LIBS07252019_HRD10591_18-04-33-565.txt Node
Date: Thu Jul 25 18:04:33 EDT 2019
User: cochatt
Spectrometer: HR+D1059
Trigger mode: 1
Integration Time (sec): 1.000000E-1
Scans to average: 1
Electric dark correction enabled: true
Nonlinearity correction enabled: false
Boxcar width: 0
XAxis mode: Wavelengths
Number of Pixels in Spectrum: 2048
>>>>>Begin Spectral Data<<<<<
223.165	-19.31
223.4	-19.31
223.635	-19.31
223.869	-13.31
224.104	-15.31
224.338	-11.31
224.573	-21.31
224.808	-6.31
225.042	-1.31
225.277	0.69
225.511	-2.31
225.746	1.69
225.98	-3.31
226.215	8.69
226.449	11.69
226.683	11.69
226.918	18.69
227.152	40.69
227.387	39.69
227.621	38.69
227.856	48.69
228.09	60.69
228.324	63.69
228.559	64.69
228.793	76.69
229.027	115.69
229.262	119.69
229.496	135.69
229.73	128.69
229.964	146.69
230.199	151.69
230.433	151.69
230.667	158.69
230.901	144.69
231.136	147.69
231.37	163.69
231.604	152.69
231.838	174.69
232.072	162.69
232.306	168.69
232.541	154.69
232.775	168.69
233.009	162.69
233.243	160.69
233.477	155.69
233.711	179.69
233.945	175.69
234.179	167.69
234.413	172.69
234.647	185.69
234.881	164.69
235.115	179.69
235.349	167.69
235.583	154.69
235.817	156.69
236.051	161.69
236.285	160.69
236.519	168.69
236.753	180.69
236.987	167.69
237.221	174.69
237.455	184.69
237.689	181.69
237.922	176.69
238.156	167.69
238.39	178.69
238.624	178.69
238.858	189.69
239.091	191.69
239.325	201.69
239.559	198.69
239.793	208.69
240.027	201.69
240.26	206.69
240.494	192.69
240.728	197.69
240.961	201.69
241.195	193.69
241.429	194.69
241.662	204.69
241.896	204.69
242.13	218.69
242.363	212.69
242.597	214.69
242.83	219.69
243.064	203.69
243.298	215.69
243.531	231.69
243.765	242.69
243.998	212.69
244.232	239.69
244.465	224.69
244.699	248.69
244.932	221.69
245.166	231.69
245.399	249.69
245.633	232.69
245.866	234.69
246.099	242.69
246.333	236.69
246.566	255.69
246.8	247.69
247.033	251.69
247.266	242.69
247.5	242.69
247.733	242.69
247.966	274.69
248.2	269.69
248.433	269.69
248.666	257.69
248.899	278.69
249.133	265.69
249.366	291.69
249.599	293.69
249.832	300.69
250.066	272.69
250.299	286.69
250.532	282.69
250.765	280.69
250.998	287.69
251.231	299.69
251.465	311.69
251.698	278.69
251.931	313.69
252.164	304.69
252.397	325.69
252.63	311.69
252.863	315.69
253.096	299.69
253.329	309.69
253.562	317.69
253.795	312.69
254.028	322.69
254.261	335.69
254.494	327.69
254.727	349.69
254.96	344.69
255.193	347.69
255.426	327.69
255.659	357.69
255.892	357.69
256.124	345.69
256.357	355.69
256.59	357.69
256.823	385.69
257.056	368.69
257.289	380.69
257.521	382.69
257.754	368.69
257.987	372.69
258.22	377.69
258.452	383.69
258.685	368.69
258.918	388.69
259.151	365.69
259.383	399.69
259.616	387.69
259.849	391.69
260.081	402.69
260.314	409.69
260.547	387.69
260.779	385.69
261.012	407.69
261.244	404.69
261.477	396.69
261.71	410.69
261.942	428.69
262.175	420.69
262.407	429.69
262.64	406.69
262.872	409.69
263.105	416.69
263.337	436.69
263.57	436.69
263.802	418.69
264.035	415.69
264.267	435.69
264.499	429.69
264.732	434.69
264.964	428.69
265.197	439.69
265.429	445.69
265.661	445.69
265.894	451.69
266.126	448.69
266.358	450.69
266.591	450.69
266.823	443.69
267.055	434.69
267.287	459.69
267.52	461.69
267.752	443.69
267.984	455.69
268.216	474.69
268.448	461.69
268.681	453.69
268.913	465.69
269.145	471.69
269.377	476.69
269.609	458.69
269.841	461.69
270.073	472.69
270.306	480.69
270.538	498.69
270.77	469.69
271.002	506.69
271.234	463.69
271.466	475.69
271.698	483.69
271.93	477.69
272.162	500.69
272.394	505.69
272.626	496.69
272.858	513.69
273.09	493.69
273.322	505.69
273.553	498.69
273.785	507.69
274.017	522.69
274.249	509.69
274.481	506.69
274.713	494.69
274.945	533.69
275.176	521.69
275.408	518.69
275.64	514.69
275.872	508.69
276.104	520.69
276.335	532.69
276.567	535.69
276.799	524.69
277.031	530.69
277.262	541.69
277.494	534.69
277.726	531.69
277.957	544.69
278.189	533.69
278.421	525.69
278.652	542.69
278.884	551.69
279.115	569.69
279.347	567.69
279.579	556.69
279.81	539.69
280.042	538.69
280.273	562.69
280.505	549.69
280.736	576.69
280.968	574.69
281.199	556.69
281.431	578.69
281.662	595.69
281.894	582.69
282.125	571.69
282.356	594.69
282.588	571.69
282.819	576.69
283.051	568.69
283.282	543.69
283.513	570.69
283.745	577.69
283.976	592.69
284.207	592.69
284.439	593.69
284.67	589.69
284.901	620.69
285.132	584.69
285.364	595.69
285.595	569.69
285.826	582.69
286.057	591.69
286.288	618.69
286.52	619.69
286.751	613.69
286.982	604.69
287.213	610.69
287.444	622.69
287.675	610.69
287.906	610.69
288.138	628.69
288.369	607.69
288.6	603.69
288.831	620.69
289.062	633.69
289.293	627.69
289.524	617.69
289.755	625.69
289.986	624.69
290.217	645.69
290.448	628.69
290.679	637.69
290.91	615.69
291.141	610.69
291.371	624.69
291.602	633.69
291.833	641.69
292.064	637.69
292.295	628.69
292.526	626.69
292.757	624.69
292.987	631.69
293.218	627.69
293.449	638.69
293.68	637.69
293.91	633.69
294.141	634.69
294.372	627.69
294.603	641.69
294.833	650.69
295.064	633.69
295.295	618.69
295.525	612.69
295.756	627.69
295.987	644.69
296.217	654.69
296.448	655.69
296.679	648.69
296.909	605.69
297.14	635.69
297.37	655.69
297.601	671.69
297.831	673.69
298.062	651.69
298.292	687.69
298.523	688.69
298.753	671.69
298.984	688.69
299.214	657.69
299.445	695.69
299.675	659.69
299.905	698.69
300.136	684.69
300.366	700.69
300.597	687.69
300.827	687.69
301.057	692.69
301.288	684.69
301.518	692.69
301.748	722.69
301.979	717.69
302.209	743.69
302.439	732.69
302.669	699.69
302.9	720.69
303.13	708.69
303.36	704.69
303.59	711.69
303.82	734.69
304.051	742.69
304.281	720.69
304.511	714.69
304.741	737.69
304.971	732.69
305.201	745.69
305.431	741.69
305.661	756.69
305.891	740.69
306.121	726.69
306.352	750.69
306.582	683.69
306.812	736.69
307.042	725.69
307.272	732.69
307.502	709.69
307.731	714.69
307.961	709.69
308.191	719.69
308.421	720.69
308.651	719.69
308.881	713.69
309.111	734.69
309.341	697.69
309.571	744.69
309.8	730.69
310.03	746.69
310.26	762.69
310.49	753.69
310.72	733.69
310.949	740.69
311.179	737.69
311.409	740.69
311.639	731.69
311.868	735.69
312.098	747.69
312.328	752.69
312.557	778.69
312.787	766.69
313.017	785.69
313.246	768.69
313.476	801.69
313.706	792.69
313.935	780.69
314.165	789.69
314.394	777.69
314.624	791.69
314.853	773.69
315.083	783.69
315.312	817.69
315.542	813.69
315.771	800.69
316.001	775.69
316.23	777.69
316.46	794.69
316.689	823.69
316.919	809.69
317.148	811.69
317.377	816.69
317.607	795.69
317.836	792.69
318.065	799.69
318.295	830.69
318.524	836.69
318.753	805.69
318.983	823.69
319.212	823.69
319.441	840.69
319.67	807.69
319.9	816.69
320.129	820.69
320.358	850.69
320.587	823.69
320.816	801.69
321.046	832.69
321.275	836.69
321.504	822.69
321.733	841.69
321.962	859.69
322.191	837.69
322.42	858.69
322.649	871.69
322.878	858.69
323.108	852.69
323.337	867.69
323.566	866.69
323.795	903.69
324.024	887.69
324.253	900.69
324.482	898.69
324.71	900.69
324.939	871.69
325.168	907.69
325.397	879.69
325.626	880.69
325.855	906.69
326.084	917.69
326.313	923.69
326.542	927.69
326.77	974.69
326.999	940.69
327.228	924.69
327.457	940.69
327.686	938.69
327.914	944.69
328.143	967.69
328.372	951.69
328.6	949.69
328.829	975.69
329.058	963.69
329.287	979.69
329.515	1001.69
329.744	935.69
329.972	995.69
330.201	972.69
330.43	1006.69
330.658	980.69
330.887	999.69
331.115	1022.69
331.344	1049.69
331.572	1030.69
331.801	1031.69
332.03	1052.69
332.258	1079.69
332.486	1070.69
332.715	1091.69
332.943	1131.69
333.172	1135.69
333.4	1151.69
333.629	1194.69
333.857	1232.69
334.085	1235.69
334.314	1229.69
334.542	1204.69
334.771	1247.69
334.999	1214.69
335.227	1232.69
335.455	1241.69
335.684	1207.69
335.912	1220.69
336.14	1198.69
336.369	1203.69
336.597	1220.69
336.825	1211.69
337.053	1199.69
337.281	1201.69
337.51	1184.69
337.738	1173.69
337.966	1147.69
338.194	1121.69
338.422	1143.69
338.65	1091.69
338.878	1107.69
339.106	1099.69
339.334	1130.69
339.562	1100.69
339.79	1071.69
340.018	1074.69
340.246	1050.69
340.474	1077.69
340.702	1041.69
340.93	1079.69
341.158	1096.69
341.386	1084.69
341.614	1114.69
341.842	1075.69
342.07	1040.69
342.298	1063.69
342.526	1031.69
342.754	1084.69
342.981	1099.69
343.209	1090.69
343.437	1108.69
343.665	1157.69
343.893	1211.69
344.12	1224.69
344.348	1203.69
344.576	1167.69
344.804	1161.69
345.031	1140.69
345.259	1111.69
345.487	1089.69
345.714	1089.69
345.942	1100.69
346.17	1090.69
346.397	1107.69
346.625	1044.69
346.853	1029.69
347.08	1024.69
347.308	1023.69
347.535	1037.69
347.763	1031.69
347.99	1035.69
348.218	1031.69
348.445	1044.69
348.673	998.69
348.9	1004.69
349.128	1055.69
349.355	1046.69
349.583	1045.69
349.81	1003.69
350.037	1009.69
350.265	996.69
350.492	993.69
350.72	1043.69
350.947	998.69
351.174	1007.69
351.402	1022.69
351.629	1075.69
351.856	1032.69
352.083	1001.69
352.311	1012.69
352.538	1022.69
352.765	1035.69
352.992	1013.69
353.22	993.69
353.447	959.69
353.674	967.69
353.901	945.69
354.128	979.69
354.355	978.69
354.583	997.69
354.81	982.69
355.037	963.69
355.264	991.69
355.491	996.69
355.718	1002.69
355.945	987.69
356.172	999.69
356.399	984.69
356.626	986.69
356.853	1018.69
357.08	983.69
357.307	1020.69
357.534	971.69
357.761	979.69
357.988	983.69
358.215	963.69
358.441	973.69
358.668	974.69
358.895	1002.69
359.122	1012.69
359.349	1014.69
359.576	993.69
359.802	1007.69
360.029	1020.69
360.256	971.69
360.483	1006.69
360.709	968.69
360.936	992.69
361.163	983.69
361.39	994.69
361.616	1006.69
361.843	1010.69
362.07	1057.69
362.296	1025.69
362.523	985.69
362.749	980.69
362.976	989.69
363.203	979.69
363.429	985.69
363.656	995.69
363.882	976.69
364.109	1003.69
364.335	993.69
364.562	969.69
364.788	975.69
365.015	983.69
365.241	964.69
365.468	986.69
365.694	961.69
365.92	966.69
366.147	968.69
366.373	991.69
366.599	975.69
366.826	988.69
367.052	979.69
367.278	979.69
367.505	1015.69
367.731	964.69
367.957	1002.69
368.184	985.69
368.41	999.69
368.636	993.69
368.862	1021.69
369.089	1008.69
369.315	995.69
369.541	969.69
369.767	1035.69
369.993	1001.69
370.219	1008.69
370.445	1017.69
370.672	1028.69
370.898	1041.69
371.124	997.69
371.35	1026.69
371.576	1041.69
371.802	1055.69
372.028	1041.69
372.254	1046.69
372.48	1083.69
372.706	1063.69
372.932	1081.69
373.158	1102.69
373.384	1070.69
373.61	1033.69
373.835	1013.69
374.061	1058.69
374.287	1057.69
374.513	1046.69
374.739	1082.69
374.965	1099.69
375.191	1104.69
375.416	1131.69
375.642	1095.69
375.868	1057.69
376.094	1093.69
376.319	1061.69
376.545	1049.69
376.771	1049.69
376.997	1059.69
377.222	1008.69
377.448	1045.69
377.674	1044.69
377.899	1036.69
378.125	986.69
378.35	1029.69
378.576	1013.69
378.802	979.69
379.027	1009.69
379.253	1009.69
379.478	1008.69
379.704	1025.69
379.929	1009.69
380.155	1010.69
380.38	1027.69
380.606	1045.69
380.831	1035.69
381.057	1041.69
381.282	1033.69
381.507	1012.69
381.733	1069.69
381.958	1059.69
382.184	1068.69
382.409	1052.69
382.634	1020.69
382.86	1062.69
383.085	1051.69
383.31	1060.69
383.535	1084.69
383.761	1087.69
383.986	1111.69
384.211	1116.69
384.436	1122.69
384.662	1151.69
384.887	1155.69
385.112	1138.69
385.337	1145.69
385.562	1181.69
385.787	1181.69
386.013	1195.69
386.238	1194.69
386.463	1210.69
386.688	1177.69
386.913	1177.69
387.138	1176.69
387.363	1197.69
387.588	1218.69
387.813	1200.69
388.038	1216.69
388.263	1201.69
388.488	1196.69
388.713	1224.69
388.938	1201.69
389.163	1207.69
389.387	1227.69
389.612	1216.69
389.837	1216.69
390.062	1196.69
390.287	1183.69
390.512	1213.69
390.736	1243.69
390.961	1240.69
391.186	1257.69
391.411	1247.69
391.636	1276.69
391.86	1316.69
392.085	1322.69
392.31	1327.69
392.534	1312.69
392.759	1324.69
392.984	1278.69
393.208	1303.69
393.433	1301.69
393.658	1291.69
393.882	1263.69
394.107	1295.69
394.331	1275.69
394.556	1265.69
394.78	1283.69
395.005	1315.69
395.229	1308.69
395.454	1323.69
395.678	1292.69
395.903	1348.69
396.127	1349.69
396.352	1307.69
396.576	1298.69
396.801	1308.69
397.025	1343.69
397.249	1343.69
397.474	1362.69
397.698	1370.69
397.922	1411.69
398.147	1411.69
398.371	1434.69
398.595	1475.69
398.82	1509.69
399.044	1596.69
399.268	1678.69
399.492	1825.69
399.717	1881.69
399.941	1900.69
400.165	1894.69
400.389	1771.69
400.613	1714.69
400.837	1647.69
401.062	1601.69
401.286	1550.69
401.51	1551.69
401.734	1540.69
401.958	1554.69
402.182	1518.69
402.406	1517.69
402.63	1572.69
402.854	1532.69
403.078	1510.69
403.302	1519.69
403.526	1587.69
403.75	1550.69
403.974	1574.69
404.198	1587.69
404.422	1548.69
404.645	1603.69
404.869	1575.69
405.093	1621.69
405.317	1602.69
405.541	1630.69
405.765	1636.69
405.988	1578.69
406.212	1608.69
406.436	1615.69
406.66	1688.69
406.883	1663.69
407.107	1779.69
407.331	1799.69
407.555	1822.69
407.778	1851.69
408.002	1791.69
408.226	1762.69
408.449	1775.69
408.673	1746.69
408.896	1742.69
409.12	1728.69
409.344	1708.69
409.567	1686.69
409.791	1675.69
410.014	1675.69
410.238	1633.69
410.461	1648.69
410.685	1600.69
410.908	1607.69
411.132	1624.69
411.355	1583.69
411.578	1613.69
411.802	1601.69
412.025	1551.69
412.249	1641.69
412.472	1604.69
412.695	1543.69
412.919	1526.69
413.142	1555.69
413.365	1556.69
413.589	1572.69
413.812	1532.69
414.035	1562.69
414.258	1551.69
414.482	1547.69
414.705	1551.69
414.928	1564.69
415.151	1535.69
415.374	1564.69
415.597	1503.69
415.821	1501.69
416.044	1453.69
416.267	1507.69
416.49	1477.69
416.713	1498.69
416.936	1509.69
417.159	1486.69
417.382	1496.69
417.605	1481.69
417.828	1468.69
418.051	1494.69
418.274	1531.69
418.497	1475.69
418.72	1513.69
418.943	1504.69
419.166	1589.69
419.389	1705.69
419.611	1655.69
419.834	1600.69
420.057	1539.69
420.28	1543.69
420.503	1514.69
420.726	1498.69
420.948	1480.69
421.171	1521.69
421.394	1508.69
421.617	1479.69
421.839	1534.69
422.062	1512.69
422.285	1492.69
422.507	1502.69
422.73	1506.69
422.953	1523.69
423.175	1512.69
423.398	1532.69
423.621	1531.69
423.843	1523.69
424.066	1539.69
424.288	1534.69
424.511	1497.69
424.733	1509.69
424.956	1483.69
425.178	1482.69
425.401	1502.69
425.623	1524.69
425.846	1463.69
426.068	1449.69
426.291	1471.69
426.513	1471.69
426.735	1464.69
426.958	1460.69
427.18	1405.69
427.402	1417.69
427.625	1426.69
427.847	1406.69
428.069	1420.69
428.292	1418.69
428.514	1417.69
428.736	1404.69
428.958	1423.69
429.181	1412.69
429.403	1386.69
429.625	1410.69
429.847	1415.69
430.069	1373.69
430.292	1423.69
430.514	1377.69
430.736	1418.69
430.958	1393.69
431.18	1375.69
431.402	1412.69
431.624	1385.69
431.846	1377.69
432.068	1388.69
432.29	1430.69
432.512	1417.69
432.734	1423.69
432.956	1421.69
433.178	1420.69
433.4	1402.69
433.622	1432.69
433.844	1435.69
434.066	1417.69
434.287	1449.69
434.509	1473.69
434.731	1472.69
434.953	1508.69
435.175	1491.69
435.397	1518.69
435.618	1493.69
435.84	1449.69
436.062	1444.69
436.284	1425.69
436.505	1432.69
436.727	1429.69
436.949	1473.69
437.17	1441.69
437.392	1380.69
437.614	1402.69
437.835	1381.69
438.057	1359.69
438.278	1333.69
438.5	1364.69
438.721	1358.69
438.943	1373.69
439.165	1399.69
439.386	1387.69
439.608	1387.69
439.829	1406.69
440.05	1417.69
440.272	1389.69
440.493	1397.69
440.715	1448.69
440.936	1441.69
441.158	1473.69
441.379	1487.69
441.6	1531.69
441.822	1520.69
442.043	1527.69
442.264	1494.69
442.486	1457.69
442.707	1540.69
442.928	1474.69
443.149	1531.69
443.371	1468.69
443.592	1492.69
443.813	1541.69
444.034	1551.69
444.255	1572.69
444.476	1597.69
444.698	1663.69
444.919	1687.69
445.14	1775.69
445.361	1682.69
445.582	1625.69
445.803	1527.69
446.024	1495.69
446.245	1498.69
446.466	1496.69
446.687	1449.69
446.908	1472.69
447.129	1437.69
447.35	1409.69
447.571	1391.69
447.792	1335.69
448.013	1353.69
448.234	1357.69
448.455	1328.69
448.675	1317.69
448.896	1335.69
449.117	1309.69
449.338	1323.69
449.559	1318.69
449.779	1275.69
450	1279.69
450.221	1278.69
450.442	1297.69
450.662	1283.69
450.883	1284.69
451.104	1358.69
451.324	1291.69
451.545	1311.69
451.766	1308.69
451.986	1283.69
452.207	1282.69
452.428	1278.69
452.648	1252.69
452.869	1261.69
453.089	1225.69
453.31	1280.69
453.53	1217.69
453.751	1222.69
453.971	1234.69
454.192	1279.69
454.412	1226.69
454.633	1214.69
454.853	1227.69
455.073	1216.69
455.294	1204.69
455.514	1180.69
455.734	1216.69
455.955	1195.69
456.175	1217.69
456.395	1201.69
456.616	1234.69
456.836	1200.69
457.056	1226.69
457.276	1221.69
457.497	1216.69
457.717	1252.69
457.937	1233.69
458.157	1240.69
458.377	1297.69
458.598	1306.69
458.818	1335.69
459.038	1341.69
459.258	1383.69
459.478	1439.69
459.698	1475.69
459.918	1483.69
460.138	1505.69
460.358	1543.69
460.578	1565.69
460.798	1580.69
461.018	1611.69
461.238	1595.69
461.458	1618.69
461.678	1590.69
461.898	1643.69
462.118	1625.69
462.338	1672.69
462.558	1709.69
462.777	1823.69
462.997	1867.69
463.217	1922.69
463.437	1947.69
463.657	1909.69
463.876	1869.69
464.096	1827.69
464.316	1763.69
464.536	1778.69
464.755	1752.69
464.975	1689.69
465.195	1627.69
465.414	1612.69
465.634	1516.69
465.854	1500.69
466.073	1458.69
466.293	1447.69
466.512	1403.69
466.732	1349.69
466.951	1403.69
467.171	1369.69
467.391	1373.69
467.61	1375.69
467.829	1320.69
468.049	1348.69
468.268	1303.69
468.488	1304.69
468.707	1333.69
468.927	1357.69
469.146	1300.69
469.365	1349.69
469.585	1302.69
469.804	1335.69
470.023	1392.69
470.243	1372.69
470.462	1393.69
470.681	1394.69
470.901	1390.69
471.12	1351.69
471.339	1394.69
471.558	1415.69
471.777	1380.69
471.997	1327.69
472.216	1309.69
472.435	1303.69
472.654	1268.69
472.873	1301.69
473.092	1315.69
473.311	1305.69
473.53	1306.69
473.749	1300.69
473.968	1293.69
474.187	1296.69
474.406	1311.69
474.625	1337.69
474.844	1323.69
475.063	1336.69
475.282	1328.69
475.501	1351.69
475.72	1327.69
475.939	1379.69
476.158	1354.69
476.377	1380.69
476.596	1348.69
476.814	1369.69
477.033	1367.69
477.252	1401.69
477.471	1431.69
477.69	1447.69
477.908	1483.69
478.127	1515.69
478.346	1506.69
478.564	1540.69
478.783	1541.69
479.002	1584.69
479.22	1598.69
479.439	1586.69
479.658	1593.69
479.876	1615.69
480.095	1598.69
480.313	1629.69
480.532	1613.69
480.751	1651.69
480.969	1614.69
481.188	1598.69
481.406	1560.69
481.624	1573.69
481.843	1512.69
482.061	1519.69
482.28	1528.69
482.498	1550.69
482.717	1504.69
482.935	1481.69
483.153	1497.69
483.372	1532.69
483.59	1539.69
483.808	1567.69
484.027	1531.69
484.245	1479.69
484.463	1539.69
484.681	1563.69
484.9	1547.69
485.118	1550.69
485.336	1532.69
485.554	1550.69
485.772	1537.69
485.99	1541.69
486.209	1523.69
486.427	1525.69
486.645	1534.69
486.863	1567.69
487.081	1569.69
487.299	1582.69
487.517	1543.69
487.735	1575.69
487.953	1570.69
488.171	1616.69
488.389	1542.69
488.607	1545.69
488.825	1568.69
489.043	1528.69
489.261	1513.69
489.479	1553.69
489.696	1530.69
489.914	1542.69
490.132	1558.69
490.35	1583.69
490.568	1586.69
490.786	1591.69
491.003	1591.69
491.221	1645.69
491.439	1622.69
491.657	1644.69
491.874	1603.69
492.092	1665.69
492.31	1677.69
492.527	1617.69
