Data from Ni(NO3)2@0.0625M.TitratingCurve.Agarose3%dH2O.NegLispCup.LampEnergy10.LIBS07252019_HRD10591_18-14-43-571.txt Node
Date: Thu Jul 25 18:14:43 EDT 2019
User: cochatt
Spectrometer: HR+D1059
Trigger mode: 1
Integration Time (sec): 1.000000E-1
Scans to average: 1
Electric dark correction enabled: true
Nonlinearity correction enabled: false
Boxcar width: 0
XAxis mode: Wavelengths
Number of Pixels in Spectrum: 2048
>>>>>Begin Spectral Data<<<<<
223.165	-17.56
223.4	-17.56
223.635	-17.56
223.869	-24.56
224.104	-18.56
224.338	-14.56
224.573	-10.56
224.808	-4.56
225.042	-22.56
225.277	-6.56
225.511	-2.56
225.746	5.44
225.98	0.44
226.215	8.44
226.449	23.44
226.683	21.44
226.918	25.44
227.152	37.44
227.387	31.44
227.621	33.44
227.856	35.44
228.09	40.44
228.324	45.44
228.559	57.44
228.793	73.44
229.027	84.44
229.262	118.44
229.496	101.44
229.73	107.44
229.964	109.44
230.199	129.44
230.433	118.44
230.667	123.44
230.901	116.44
231.136	131.44
231.37	126.44
231.604	132.44
231.838	130.44
232.072	143.44
232.306	156.44
232.541	128.44
232.775	138.44
233.009	129.44
233.243	131.44
233.477	133.44
233.711	133.44
233.945	126.44
234.179	155.44
234.413	141.44
234.647	140.44
234.881	145.44
235.115	141.44
235.349	151.44
235.583	132.44
235.817	147.44
236.051	151.44
236.285	134.44
236.519	147.44
236.753	139.44
236.987	144.44
237.221	145.44
237.455	147.44
237.689	142.44
237.922	133.44
238.156	124.44
238.39	137.44
238.624	129.44
238.858	164.44
239.091	145.44
239.325	152.44
239.559	151.44
239.793	161.44
240.027	154.44
240.26	165.44
240.494	158.44
240.728	171.44
240.961	160.44
241.195	157.44
241.429	173.44
241.662	168.44
241.896	166.44
242.13	186.44
242.363	173.44
242.597	166.44
242.83	185.44
243.064	177.44
243.298	173.44
243.531	172.44
243.765	175.44
243.998	165.44
244.232	165.44
244.465	173.44
244.699	164.44
244.932	185.44
245.166	188.44
245.399	198.44
245.633	198.44
245.866	194.44
246.099	191.44
246.333	179.44
246.566	158.44
246.8	197.44
247.033	213.44
247.266	171.44
247.5	193.44
247.733	203.44
247.966	201.44
248.2	208.44
248.433	198.44
248.666	205.44
248.899	200.44
249.133	193.44
249.366	206.44
249.599	210.44
249.832	206.44
250.066	203.44
250.299	212.44
250.532	199.44
250.765	214.44
250.998	216.44
251.231	209.44
251.465	227.44
251.698	225.44
251.931	210.44
252.164	229.44
252.397	228.44
252.63	235.44
252.863	225.44
253.096	235.44
253.329	239.44
253.562	216.44
253.795	241.44
254.028	238.44
254.261	223.44
254.494	231.44
254.727	230.44
254.96	224.44
255.193	236.44
255.426	238.44
255.659	212.44
255.892	257.44
256.124	241.44
256.357	253.44
256.59	256.44
256.823	227.44
257.056	235.44
257.289	256.44
257.521	261.44
257.754	248.44
257.987	256.44
258.22	248.44
258.452	262.44
258.685	222.44
258.918	238.44
259.151	238.44
259.383	235.44
259.616	256.44
259.849	268.44
260.081	257.44
260.314	267.44
260.547	243.44
260.779	252.44
261.012	252.44
261.244	261.44
261.477	269.44
261.71	262.44
261.942	271.44
262.175	266.44
262.407	265.44
262.64	271.44
262.872	261.44
263.105	282.44
263.337	262.44
263.57	271.44
263.802	276.44
264.035	257.44
264.267	300.44
264.499	265.44
264.732	278.44
264.964	283.44
265.197	287.44
265.429	285.44
265.661	285.44
265.894	291.44
266.126	317.44
266.358	297.44
266.591	304.44
266.823	287.44
267.055	290.44
267.287	291.44
267.52	289.44
267.752	303.44
267.984	295.44
268.216	299.44
268.448	306.44
268.681	313.44
268.913	287.44
269.145	296.44
269.377	295.44
269.609	298.44
269.841	291.44
270.073	318.44
270.306	311.44
270.538	322.44
270.77	294.44
271.002	297.44
271.234	317.44
271.466	307.44
271.698	299.44
271.93	312.44
272.162	306.44
272.394	323.44
272.626	322.44
272.858	306.44
273.09	330.44
273.322	307.44
273.553	315.44
273.785	334.44
274.017	329.44
274.249	340.44
274.481	337.44
274.713	320.44
274.945	339.44
275.176	323.44
275.408	340.44
275.64	327.44
275.872	328.44
276.104	351.44
276.335	347.44
276.567	347.44
276.799	366.44
277.031	345.44
277.262	350.44
277.494	338.44
277.726	334.44
277.957	343.44
278.189	347.44
278.421	338.44
278.652	355.44
278.884	371.44
279.115	343.44
279.347	345.44
279.579	362.44
279.81	357.44
280.042	346.44
280.273	364.44
280.505	362.44
280.736	359.44
280.968	347.44
281.199	360.44
281.431	383.44
281.662	379.44
281.894	380.44
282.125	372.44
282.356	380.44
282.588	384.44
282.819	385.44
283.051	381.44
283.282	365.44
283.513	369.44
283.745	380.44
283.976	383.44
284.207	400.44
284.439	395.44
284.67	384.44
284.901	399.44
285.132	409.44
285.364	399.44
285.595	382.44
285.826	397.44
286.057	397.44
286.288	392.44
286.52	398.44
286.751	412.44
286.982	396.44
287.213	398.44
287.444	410.44
287.675	422.44
287.906	400.44
288.138	413.44
288.369	422.44
288.6	406.44
288.831	412.44
289.062	421.44
289.293	405.44
289.524	398.44
289.755	418.44
289.986	405.44
290.217	417.44
290.448	419.44
290.679	414.44
290.91	425.44
291.141	415.44
291.371	397.44
291.602	404.44
291.833	435.44
292.064	425.44
292.295	425.44
292.526	432.44
292.757	432.44
292.987	420.44
293.218	453.44
293.449	396.44
293.68	429.44
293.91	422.44
294.141	425.44
294.372	429.44
294.603	430.44
294.833	427.44
295.064	421.44
295.295	427.44
295.525	446.44
295.756	429.44
295.987	419.44
296.217	458.44
296.448	451.44
296.679	440.44
296.909	426.44
297.14	441.44
297.37	445.44
297.601	454.44
297.831	454.44
298.062	459.44
298.292	467.44
298.523	471.44
298.753	485.44
298.984	474.44
299.214	469.44
299.445	462.44
299.675	449.44
299.905	442.44
300.136	456.44
300.366	488.44
300.597	484.44
300.827	478.44
301.057	487.44
301.288	503.44
301.518	474.44
301.748	493.44
301.979	484.44
302.209	481.44
302.439	473.44
302.669	494.44
302.9	477.44
303.13	476.44
303.36	476.44
303.59	457.44
303.82	481.44
304.051	472.44
304.281	481.44
304.511	448.44
304.741	489.44
304.971	493.44
305.201	495.44
305.431	497.44
305.661	477.44
305.891	469.44
306.121	457.44
306.352	467.44
306.582	469.44
306.812	455.44
307.042	467.44
307.272	469.44
307.502	463.44
307.731	479.44
307.961	469.44
308.191	439.44
308.421	466.44
308.651	470.44
308.881	461.44
309.111	454.44
309.341	454.44
309.571	483.44
309.8	471.44
310.03	469.44
310.26	457.44
310.49	467.44
310.72	457.44
310.949	479.44
311.179	471.44
311.409	473.44
311.639	484.44
311.868	451.44
312.098	468.44
312.328	472.44
312.557	488.44
312.787	494.44
313.017	491.44
313.246	513.44
313.476	531.44
313.706	497.44
313.935	492.44
314.165	486.44
314.394	528.44
314.624	499.44
314.853	487.44
315.083	508.44
315.312	507.44
315.542	506.44
315.771	525.44
316.001	473.44
316.23	493.44
316.46	472.44
316.689	497.44
316.919	482.44
317.148	493.44
317.377	503.44
317.607	504.44
317.836	479.44
318.065	474.44
318.295	473.44
318.524	474.44
318.753	472.44
318.983	499.44
319.212	499.44
319.441	483.44
319.67	499.44
319.9	486.44
320.129	475.44
320.358	476.44
320.587	493.44
320.816	488.44
321.046	489.44
321.275	505.44
321.504	515.44
321.733	495.44
321.962	495.44
322.191	486.44
322.42	495.44
322.649	479.44
322.878	494.44
323.108	508.44
323.337	484.44
323.566	521.44
323.795	528.44
324.024	517.44
324.253	513.44
324.482	508.44
324.71	502.44
324.939	502.44
325.168	514.44
325.397	502.44
325.626	523.44
325.855	511.44
326.084	536.44
326.313	553.44
326.542	545.44
326.77	534.44
326.999	541.44
327.228	554.44
327.457	515.44
327.686	526.44
327.914	553.44
328.143	552.44
328.372	565.44
328.6	540.44
328.829	544.44
329.058	539.44
329.287	531.44
329.515	536.44
329.744	542.44
329.972	548.44
330.201	543.44
330.43	528.44
330.658	553.44
330.887	547.44
331.115	547.44
331.344	577.44
331.572	575.44
331.801	577.44
332.03	589.44
332.258	582.44
332.486	615.44
332.715	632.44
332.943	659.44
333.172	698.44
333.4	713.44
333.629	720.44
333.857	725.44
334.085	708.44
334.314	693.44
334.542	673.44
334.771	687.44
334.999	670.44
335.227	677.44
335.455	661.44
335.684	651.44
335.912	653.44
336.14	652.44
336.369	659.44
336.597	665.44
336.825	674.44
337.053	655.44
337.281	618.44
337.51	607.44
337.738	626.44
337.966	628.44
338.194	590.44
338.422	580.44
338.65	580.44
338.878	578.44
339.106	588.44
339.334	592.44
339.562	560.44
339.79	569.44
340.018	552.44
340.246	549.44
340.474	545.44
340.702	568.44
340.93	585.44
341.158	558.44
341.386	551.44
341.614	573.44
341.842	548.44
342.07	581.44
342.298	543.44
342.526	556.44
342.754	541.44
342.981	566.44
343.209	560.44
343.437	590.44
343.665	633.44
343.893	671.44
344.12	703.44
344.348	669.44
344.576	634.44
344.804	617.44
345.031	613.44
345.259	586.44
345.487	587.44
345.714	562.44
345.942	574.44
346.17	573.44
346.397	564.44
346.625	569.44
346.853	546.44
347.08	552.44
347.308	572.44
347.535	559.44
347.763	583.44
347.99	568.44
348.218	568.44
348.445	583.44
348.673	558.44
348.9	558.44
349.128	555.44
349.355	544.44
349.583	532.44
349.81	556.44
350.037	555.44
350.265	519.44
350.492	550.44
350.72	538.44
350.947	526.44
351.174	531.44
351.402	545.44
351.629	532.44
351.856	525.44
352.083	514.44
352.311	563.44
352.538	524.44
352.765	541.44
352.992	527.44
353.22	516.44
353.447	525.44
353.674	513.44
353.901	534.44
354.128	531.44
354.355	538.44
354.583	528.44
354.81	535.44
355.037	525.44
355.264	529.44
355.491	533.44
355.718	516.44
355.945	513.44
356.172	512.44
356.399	537.44
356.626	551.44
356.853	549.44
357.08	533.44
357.307	548.44
357.534	552.44
357.761	521.44
357.988	543.44
358.215	536.44
358.441	508.44
358.668	518.44
358.895	533.44
359.122	533.44
359.349	525.44
359.576	550.44
359.802	530.44
360.029	555.44
360.256	549.44
360.483	541.44
360.709	516.44
360.936	537.44
361.163	543.44
361.39	523.44
361.616	525.44
361.843	534.44
362.07	522.44
362.296	525.44
362.523	540.44
362.749	530.44
362.976	509.44
363.203	526.44
363.429	527.44
363.656	515.44
363.882	514.44
364.109	550.44
364.335	524.44
364.562	531.44
364.788	515.44
365.015	531.44
365.241	511.44
365.468	530.44
365.694	521.44
365.92	533.44
366.147	515.44
366.373	515.44
366.599	522.44
366.826	521.44
367.052	531.44
367.278	536.44
367.505	556.44
367.731	535.44
367.957	539.44
368.184	523.44
368.41	547.44
368.636	519.44
368.862	523.44
369.089	550.44
369.315	535.44
369.541	559.44
369.767	550.44
369.993	542.44
370.219	561.44
370.445	564.44
370.672	569.44
370.898	554.44
371.124	554.44
371.35	577.44
371.576	600.44
371.802	600.44
372.028	599.44
372.254	573.44
372.48	602.44
372.706	584.44
372.932	577.44
373.158	609.44
373.384	604.44
373.61	572.44
373.835	582.44
374.061	549.44
374.287	580.44
374.513	601.44
374.739	602.44
374.965	626.44
375.191	658.44
375.416	641.44
375.642	614.44
375.868	618.44
376.094	609.44
376.319	598.44
376.545	611.44
376.771	586.44
376.997	586.44
377.222	587.44
377.448	602.44
377.674	593.44
377.899	592.44
378.125	563.44
378.35	570.44
378.576	576.44
378.802	547.44
379.027	589.44
379.253	573.44
379.478	574.44
379.704	586.44
379.929	566.44
380.155	559.44
380.38	583.44
380.606	557.44
380.831	556.44
381.057	592.44
381.282	572.44
381.507	550.44
381.733	597.44
381.958	589.44
382.184	594.44
382.409	611.44
382.634	603.44
382.86	606.44
383.085	612.44
383.31	622.44
383.535	635.44
383.761	639.44
383.986	639.44
384.211	679.44
384.436	673.44
384.662	674.44
384.887	674.44
385.112	690.44
385.337	719.44
385.562	680.44
385.787	689.44
386.013	722.44
386.238	681.44
386.463	681.44
386.688	684.44
386.913	664.44
387.138	673.44
387.363	670.44
387.588	655.44
387.813	685.44
388.038	646.44
388.263	681.44
388.488	697.44
388.713	679.44
388.938	671.44
389.163	664.44
389.387	661.44
389.612	680.44
389.837	663.44
390.062	687.44
390.287	677.44
390.512	651.44
390.736	696.44
390.961	683.44
391.186	685.44
391.411	703.44
391.636	734.44
391.86	748.44
392.085	777.44
392.31	782.44
392.534	753.44
392.759	732.44
392.984	732.44
393.208	715.44
393.433	730.44
393.658	735.44
393.882	708.44
394.107	723.44
394.331	733.44
394.556	731.44
394.78	728.44
395.005	726.44
395.229	706.44
395.454	742.44
395.678	773.44
395.903	747.44
396.127	740.44
396.352	713.44
396.576	733.44
396.801	715.44
397.025	754.44
397.249	742.44
397.474	751.44
397.698	762.44
397.922	777.44
398.147	735.44
398.371	785.44
398.595	819.44
398.82	820.44
399.044	881.44
399.268	959.44
399.492	1137.44
399.717	1314.44
399.941	1312.44
400.165	1173.44
400.389	985.44
400.613	942.44
400.837	870.44
401.062	878.44
401.286	843.44
401.51	841.44
401.734	856.44
401.958	854.44
402.182	843.44
402.406	854.44
402.63	891.44
402.854	901.44
403.078	900.44
403.302	931.44
403.526	985.44
403.75	1000.44
403.974	1023.44
404.198	1022.44
404.422	1016.44
404.645	976.44
404.869	955.44
405.093	985.44
405.317	949.44
405.541	949.44
405.765	929.44
405.988	918.44
406.212	923.44
406.436	905.44
406.66	970.44
406.883	965.44
407.107	1034.44
407.331	1097.44
407.555	1110.44
407.778	1100.44
408.002	1059.44
408.226	1067.44
408.449	1030.44
408.673	1010.44
408.896	950.44
409.12	973.44
409.344	983.44
409.567	946.44
409.791	1011.44
410.014	1000.44
410.238	1014.44
410.461	956.44
410.685	955.44
410.908	932.44
411.132	877.44
411.355	892.44
411.578	868.44
411.802	909.44
412.025	884.44
412.249	875.44
412.472	903.44
412.695	865.44
412.919	849.44
413.142	824.44
413.365	842.44
413.589	859.44
413.812	868.44
414.035	844.44
414.258	837.44
414.482	858.44
414.705	851.44
414.928	877.44
415.151	899.44
415.374	845.44
415.597	883.44
415.821	854.44
416.044	861.44
416.267	833.44
416.49	869.44
416.713	833.44
416.936	839.44
417.159	806.44
417.382	856.44
417.605	846.44
417.828	855.44
418.051	854.44
418.274	857.44
418.497	839.44
418.72	852.44
418.943	870.44
419.166	938.44
419.389	979.44
419.611	953.44
419.834	923.44
420.057	889.44
420.28	855.44
420.503	859.44
420.726	863.44
420.948	829.44
421.171	845.44
421.394	815.44
421.617	800.44
421.839	866.44
422.062	853.44
422.285	837.44
422.507	855.44
422.73	871.44
422.953	879.44
423.175	870.44
423.398	912.44
423.621	921.44
423.843	908.44
424.066	917.44
424.288	908.44
424.511	921.44
424.733	893.44
424.956	877.44
425.178	869.44
425.401	854.44
425.623	846.44
425.846	847.44
426.068	841.44
426.291	795.44
426.513	797.44
426.735	793.44
426.958	783.44
427.18	786.44
427.402	771.44
427.625	756.44
427.847	734.44
428.069	771.44
428.292	789.44
428.514	745.44
428.736	748.44
428.958	800.44
429.181	731.44
429.403	749.44
429.625	751.44
429.847	731.44
430.069	742.44
430.292	749.44
430.514	731.44
430.736	723.44
430.958	740.44
431.18	746.44
431.402	755.44
431.624	748.44
431.846	779.44
432.068	761.44
432.29	769.44
432.512	779.44
432.734	758.44
432.956	760.44
433.178	740.44
433.4	761.44
433.622	767.44
433.844	790.44
434.066	789.44
434.287	799.44
434.509	810.44
434.731	846.44
434.953	874.44
435.175	902.44
435.397	838.44
435.618	821.44
435.84	800.44
436.062	789.44
436.284	766.44
436.505	774.44
436.727	760.44
436.949	789.44
437.17	785.44
437.392	783.44
437.614	760.44
437.835	716.44
438.057	743.44
438.278	739.44
438.5	742.44
438.721	735.44
438.943	739.44
439.165	707.44
439.386	747.44
439.608	779.44
439.829	765.44
440.05	740.44
440.272	766.44
440.493	767.44
440.715	794.44
440.936	782.44
441.158	831.44
441.379	829.44
441.6	882.44
441.822	878.44
442.043	876.44
442.264	843.44
442.486	849.44
442.707	844.44
442.928	860.44
443.149	859.44
443.371	852.44
443.592	859.44
443.813	883.44
444.034	869.44
444.255	903.44
444.476	914.44
444.698	1001.44
444.919	1036.44
445.14	1116.44
445.361	989.44
445.582	868.44
445.803	846.44
446.024	831.44
446.245	810.44
446.466	783.44
446.687	783.44
446.908	787.44
447.129	756.44
447.35	770.44
447.571	757.44
447.792	748.44
448.013	736.44
448.234	705.44
448.455	699.44
448.675	695.44
448.896	694.44
449.117	701.44
449.338	698.44
449.559	697.44
449.779	694.44
450	707.44
450.221	711.44
450.442	708.44
450.662	705.44
450.883	732.44
451.104	761.44
451.324	747.44
451.545	748.44
451.766	735.44
451.986	725.44
452.207	721.44
452.428	680.44
452.648	712.44
452.869	693.44
453.089	713.44
453.31	728.44
453.53	707.44
453.751	675.44
453.971	703.44
454.192	697.44
454.412	684.44
454.633	670.44
454.853	670.44
455.073	677.44
455.294	669.44
455.514	663.44
455.734	674.44
455.955	655.44
456.175	671.44
456.395	657.44
456.616	652.44
456.836	639.44
457.056	636.44
457.276	689.44
457.497	673.44
457.717	679.44
457.937	674.44
458.157	669.44
458.377	682.44
458.598	679.44
458.818	699.44
459.038	729.44
459.258	755.44
459.478	755.44
459.698	805.44
459.918	812.44
460.138	870.44
460.358	883.44
460.578	911.44
460.798	911.44
461.018	951.44
461.238	894.44
461.458	921.44
461.678	917.44
461.898	911.44
462.118	909.44
462.338	941.44
462.558	995.44
462.777	1029.44
462.997	1133.44
463.217	1233.44
463.437	1254.44
463.657	1167.44
463.876	1087.44
464.096	1059.44
464.316	1075.44
464.536	1121.44
464.755	1029.44
464.975	1010.44
465.195	970.44
465.414	893.44
465.634	841.44
465.854	805.44
466.073	806.44
466.293	795.44
466.512	757.44
466.732	735.44
466.951	769.44
467.171	748.44
467.391	734.44
467.61	774.44
467.829	723.44
468.049	738.44
468.268	734.44
468.488	716.44
468.707	703.44
468.927	712.44
469.146	709.44
469.365	732.44
469.585	715.44
469.804	749.44
470.023	768.44
470.243	767.44
470.462	782.44
470.681	778.44
470.901	790.44
471.12	728.44
471.339	730.44
471.558	727.44
471.777	731.44
471.997	730.44
472.216	714.44
472.435	715.44
472.654	712.44
472.873	687.44
473.092	699.44
473.311	693.44
473.53	716.44
473.749	712.44
473.968	695.44
474.187	718.44
474.406	705.44
474.625	703.44
474.844	711.44
475.063	699.44
475.282	689.44
475.501	692.44
475.72	723.44
475.939	715.44
476.158	745.44
476.377	744.44
476.596	727.44
476.814	747.44
477.033	759.44
477.252	748.44
477.471	780.44
477.69	779.44
477.908	787.44
478.127	805.44
478.346	833.44
478.564	843.44
478.783	836.44
479.002	902.44
479.22	893.44
479.439	845.44
479.658	870.44
479.876	872.44
480.095	870.44
480.313	922.44
480.532	956.44
480.751	923.44
480.969	901.44
481.188	869.44
481.406	840.44
481.624	831.44
481.843	815.44
482.061	812.44
482.28	803.44
482.498	826.44
482.717	798.44
482.935	780.44
483.153	793.44
483.372	801.44
483.59	812.44
483.808	810.44
484.027	791.44
484.245	806.44
484.463	822.44
484.681	827.44
484.9	860.44
485.118	837.44
485.336	837.44
485.554	851.44
485.772	849.44
485.99	847.44
486.209	895.44
486.427	862.44
486.645	850.44
486.863	855.44
487.081	855.44
487.299	862.44
487.517	845.44
487.735	846.44
487.953	847.44
488.171	862.44
488.389	858.44
488.607	837.44
488.825	816.44
489.043	803.44
489.261	824.44
489.479	822.44
489.696	823.44
489.914	814.44
490.132	857.44
490.35	825.44
490.568	823.44
490.786	835.44
491.003	861.44
491.221	826.44
491.439	846.44
491.657	837.44
491.874	860.44
492.092	829.44
492.31	838.44
492.527	857.44
492.745	845.44
492.963	872.44
493.18	873.44
493.398	859.44
493.615	888.44
493.833	892.44
494.05	865.44
494.268	884.44
494.485	895.44
494.703	884.44
494.92	891.44
495.138	855.44
495.355	888.44
495.573	893.44
495.79	882.44
496.008	887.44
496.225	876.44
496.442	901.44
496.66	911.44
496.877	925.44
497.094	935.44
497.312	923.44
497.529	941.44
497.746	996.44
497.963	1011.44
498.181	1036.44
498.398	1082.44
498.615	1129.44
498.832	1178.44
499.049	1320.44
499.267	1378.44
499.484	1546.44
499.701	1719.44
499.918	1911.44
500.135	2177.44
500.352	2558.44
500.569	2711.44
500.786	2685.44
501.003	2453.44
