Data from Ni(NO3)2@0.25M.TitratingCurve.Agarose3%dH2O.NegLispCup.LampEnergy10.LIBS07252019_HRD10591_18-04-46-566.txt Node
Date: Thu Jul 25 18:04:46 EDT 2019
User: cochatt
Spectrometer: HR+D1059
Trigger mode: 1
Integration Time (sec): 1.000000E-1
Scans to average: 1
Electric dark correction enabled: true
Nonlinearity correction enabled: false
Boxcar width: 0
XAxis mode: Wavelengths
Number of Pixels in Spectrum: 2048
>>>>>Begin Spectral Data<<<<<
223.165	-14.25
223.4	-14.25
223.635	-14.25
223.869	-9.25
224.104	-10.25
224.338	5.75
224.573	-7.25
224.808	-20.25
225.042	-9.25
225.277	-22.25
225.511	-6.25
225.746	-1.25
225.98	3.75
226.215	9.75
226.449	14.75
226.683	5.75
226.918	28.75
227.152	31.75
227.387	41.75
227.621	35.75
227.856	47.75
228.09	45.75
228.324	52.75
228.559	44.75
228.793	75.75
229.027	123.75
229.262	124.75
229.496	133.75
229.73	152.75
229.964	148.75
230.199	155.75
230.433	153.75
230.667	169.75
230.901	161.75
231.136	155.75
231.37	154.75
231.604	168.75
231.838	164.75
232.072	176.75
232.306	170.75
232.541	186.75
232.775	177.75
233.009	160.75
233.243	157.75
233.477	187.75
233.711	181.75
233.945	181.75
234.179	184.75
234.413	186.75
234.647	172.75
234.881	183.75
235.115	196.75
235.349	168.75
235.583	178.75
235.817	176.75
236.051	189.75
236.285	183.75
236.519	186.75
236.753	193.75
236.987	193.75
237.221	178.75
237.455	190.75
237.689	195.75
237.922	206.75
238.156	212.75
238.39	189.75
238.624	205.75
238.858	210.75
239.091	203.75
239.325	204.75
239.559	222.75
239.793	237.75
240.027	232.75
240.26	223.75
240.494	207.75
240.728	215.75
240.961	222.75
241.195	231.75
241.429	229.75
241.662	245.75
241.896	243.75
242.13	240.75
242.363	264.75
242.597	232.75
242.83	251.75
243.064	240.75
243.298	258.75
243.531	264.75
243.765	251.75
243.998	261.75
244.232	284.75
244.465	253.75
244.699	267.75
244.932	281.75
245.166	272.75
245.399	282.75
245.633	281.75
245.866	281.75
246.099	299.75
246.333	284.75
246.566	283.75
246.8	293.75
247.033	265.75
247.266	292.75
247.5	296.75
247.733	290.75
247.966	297.75
248.2	305.75
248.433	318.75
248.666	318.75
248.899	311.75
249.133	340.75
249.366	331.75
249.599	315.75
249.832	320.75
250.066	340.75
250.299	314.75
250.532	334.75
250.765	351.75
250.998	365.75
251.231	363.75
251.465	379.75
251.698	346.75
251.931	357.75
252.164	376.75
252.397	375.75
252.63	375.75
252.863	380.75
253.096	382.75
253.329	398.75
253.562	391.75
253.795	392.75
254.028	397.75
254.261	409.75
254.494	390.75
254.727	383.75
254.96	400.75
255.193	406.75
255.426	418.75
255.659	411.75
255.892	417.75
256.124	418.75
256.357	421.75
256.59	434.75
256.823	440.75
257.056	422.75
257.289	450.75
257.521	449.75
257.754	444.75
257.987	448.75
258.22	459.75
258.452	439.75
258.685	460.75
258.918	463.75
259.151	474.75
259.383	461.75
259.616	482.75
259.849	485.75
260.081	470.75
260.314	459.75
260.547	473.75
260.779	486.75
261.012	491.75
261.244	493.75
261.477	501.75
261.71	497.75
261.942	499.75
262.175	504.75
262.407	493.75
262.64	485.75
262.872	494.75
263.105	510.75
263.337	499.75
263.57	516.75
263.802	535.75
264.035	525.75
264.267	532.75
264.499	540.75
264.732	533.75
264.964	546.75
265.197	542.75
265.429	546.75
265.661	545.75
265.894	554.75
266.126	546.75
266.358	545.75
266.591	554.75
266.823	534.75
267.055	551.75
267.287	557.75
267.52	560.75
267.752	548.75
267.984	546.75
268.216	570.75
268.448	580.75
268.681	572.75
268.913	571.75
269.145	586.75
269.377	570.75
269.609	579.75
269.841	592.75
270.073	603.75
270.306	603.75
270.538	582.75
270.77	598.75
271.002	591.75
271.234	603.75
271.466	593.75
271.698	599.75
271.93	600.75
272.162	599.75
272.394	628.75
272.626	600.75
272.858	612.75
273.09	622.75
273.322	610.75
273.553	613.75
273.785	597.75
274.017	620.75
274.249	608.75
274.481	624.75
274.713	611.75
274.945	638.75
275.176	646.75
275.408	649.75
275.64	644.75
275.872	650.75
276.104	658.75
276.335	637.75
276.567	646.75
276.799	644.75
277.031	654.75
277.262	652.75
277.494	666.75
277.726	656.75
277.957	666.75
278.189	682.75
278.421	654.75
278.652	648.75
278.884	657.75
279.115	674.75
279.347	674.75
279.579	680.75
279.81	687.75
280.042	696.75
280.273	710.75
280.505	700.75
280.736	684.75
280.968	666.75
281.199	678.75
281.431	690.75
281.662	724.75
281.894	705.75
282.125	690.75
282.356	701.75
282.588	716.75
282.819	692.75
283.051	702.75
283.282	709.75
283.513	716.75
283.745	709.75
283.976	731.75
284.207	733.75
284.439	724.75
284.67	700.75
284.901	717.75
285.132	715.75
285.364	741.75
285.595	713.75
285.826	730.75
286.057	737.75
286.288	739.75
286.52	745.75
286.751	718.75
286.982	720.75
287.213	733.75
287.444	741.75
287.675	746.75
287.906	722.75
288.138	759.75
288.369	742.75
288.6	770.75
288.831	768.75
289.062	745.75
289.293	742.75
289.524	766.75
289.755	747.75
289.986	767.75
290.217	756.75
290.448	751.75
290.679	794.75
290.91	755.75
291.141	770.75
291.371	752.75
291.602	766.75
291.833	783.75
292.064	783.75
292.295	771.75
292.526	742.75
292.757	765.75
292.987	768.75
293.218	760.75
293.449	776.75
293.68	784.75
293.91	762.75
294.141	768.75
294.372	780.75
294.603	775.75
294.833	758.75
295.064	760.75
295.295	768.75
295.525	762.75
295.756	780.75
295.987	778.75
296.217	788.75
296.448	810.75
296.679	788.75
296.909	802.75
297.14	806.75
297.37	804.75
297.601	826.75
297.831	812.75
298.062	788.75
298.292	818.75
298.523	831.75
298.753	821.75
298.984	836.75
299.214	827.75
299.445	837.75
299.675	833.75
299.905	813.75
300.136	842.75
300.366	830.75
300.597	859.75
300.827	840.75
301.057	854.75
301.288	873.75
301.518	861.75
301.748	849.75
301.979	893.75
302.209	858.75
302.439	860.75
302.669	869.75
302.9	882.75
303.13	870.75
303.36	861.75
303.59	904.75
303.82	859.75
304.051	885.75
304.281	848.75
304.511	888.75
304.741	851.75
304.971	864.75
305.201	896.75
305.431	895.75
305.661	895.75
305.891	893.75
306.121	906.75
306.352	896.75
306.582	890.75
306.812	866.75
307.042	869.75
307.272	877.75
307.502	888.75
307.731	902.75
307.961	881.75
308.191	900.75
308.421	889.75
308.651	885.75
308.881	896.75
309.111	874.75
309.341	892.75
309.571	877.75
309.8	900.75
310.03	894.75
310.26	916.75
310.49	922.75
310.72	887.75
310.949	893.75
311.179	915.75
311.409	926.75
311.639	909.75
311.868	936.75
312.098	918.75
312.328	958.75
312.557	943.75
312.787	957.75
313.017	927.75
313.246	942.75
313.476	949.75
313.706	946.75
313.935	966.75
314.165	963.75
314.394	970.75
314.624	966.75
314.853	975.75
315.083	948.75
315.312	984.75
315.542	968.75
315.771	974.75
316.001	960.75
316.23	957.75
316.46	1006.75
316.689	1020.75
316.919	972.75
317.148	986.75
317.377	992.75
317.607	981.75
317.836	997.75
318.065	1010.75
318.295	996.75
318.524	978.75
318.753	989.75
318.983	1015.75
319.212	984.75
319.441	1010.75
319.67	1033.75
319.9	992.75
320.129	996.75
320.358	1020.75
320.587	1030.75
320.816	1012.75
321.046	1049.75
321.275	1044.75
321.504	1034.75
321.733	1054.75
321.962	1030.75
322.191	1051.75
322.42	1057.75
322.649	1050.75
322.878	1085.75
323.108	1035.75
323.337	1074.75
323.566	1081.75
323.795	1066.75
324.024	1106.75
324.253	1122.75
324.482	1101.75
324.71	1121.75
324.939	1124.75
325.168	1107.75
325.397	1133.75
325.626	1105.75
325.855	1118.75
326.084	1165.75
326.313	1139.75
326.542	1177.75
326.77	1189.75
326.999	1144.75
327.228	1164.75
327.457	1159.75
327.686	1174.75
327.914	1168.75
328.143	1176.75
328.372	1150.75
328.6	1164.75
328.829	1168.75
329.058	1172.75
329.287	1193.75
329.515	1173.75
329.744	1192.75
329.972	1180.75
330.201	1204.75
330.43	1211.75
330.658	1183.75
330.887	1189.75
331.115	1200.75
331.344	1231.75
331.572	1257.75
331.801	1284.75
332.03	1302.75
332.258	1293.75
332.486	1326.75
332.715	1326.75
332.943	1393.75
333.172	1352.75
333.4	1382.75
333.629	1404.75
333.857	1470.75
334.085	1459.75
334.314	1487.75
334.542	1510.75
334.771	1456.75
334.999	1501.75
335.227	1483.75
335.455	1473.75
335.684	1476.75
335.912	1460.75
336.14	1505.75
336.369	1496.75
336.597	1481.75
336.825	1460.75
337.053	1462.75
337.281	1457.75
337.51	1412.75
337.738	1448.75
337.966	1412.75
338.194	1401.75
338.422	1401.75
338.65	1368.75
338.878	1353.75
339.106	1336.75
339.334	1387.75
339.562	1381.75
339.79	1337.75
340.018	1326.75
340.246	1312.75
340.474	1364.75
340.702	1278.75
340.93	1317.75
341.158	1323.75
341.386	1353.75
341.614	1346.75
341.842	1334.75
342.07	1313.75
342.298	1284.75
342.526	1296.75
342.754	1257.75
342.981	1322.75
343.209	1328.75
343.437	1375.75
343.665	1384.75
343.893	1431.75
344.12	1474.75
344.348	1453.75
344.576	1423.75
344.804	1462.75
345.031	1390.75
345.259	1374.75
345.487	1383.75
345.714	1341.75
345.942	1370.75
346.17	1336.75
346.397	1305.75
346.625	1266.75
346.853	1267.75
347.08	1242.75
347.308	1242.75
347.535	1266.75
347.763	1289.75
347.99	1267.75
348.218	1241.75
348.445	1258.75
348.673	1212.75
348.9	1253.75
349.128	1250.75
349.355	1280.75
349.583	1296.75
349.81	1264.75
350.037	1236.75
350.265	1253.75
350.492	1272.75
350.72	1194.75
350.947	1241.75
351.174	1220.75
351.402	1273.75
351.629	1280.75
351.856	1246.75
352.083	1235.75
352.311	1232.75
352.538	1244.75
352.765	1266.75
352.992	1206.75
353.22	1194.75
353.447	1205.75
353.674	1206.75
353.901	1194.75
354.128	1221.75
354.355	1199.75
354.583	1202.75
354.81	1184.75
355.037	1180.75
355.264	1235.75
355.491	1209.75
355.718	1192.75
355.945	1198.75
356.172	1188.75
356.399	1227.75
356.626	1226.75
356.853	1242.75
357.08	1218.75
357.307	1203.75
357.534	1226.75
357.761	1190.75
357.988	1180.75
358.215	1193.75
358.441	1193.75
358.668	1198.75
358.895	1203.75
359.122	1200.75
359.349	1220.75
359.576	1187.75
359.802	1219.75
360.029	1231.75
360.256	1216.75
360.483	1224.75
360.709	1180.75
360.936	1206.75
361.163	1217.75
361.39	1229.75
361.616	1209.75
361.843	1241.75
362.07	1284.75
362.296	1242.75
362.523	1202.75
362.749	1201.75
362.976	1222.75
363.203	1204.75
363.429	1205.75
363.656	1229.75
363.882	1212.75
364.109	1223.75
364.335	1185.75
364.562	1197.75
364.788	1204.75
365.015	1212.75
365.241	1189.75
365.468	1189.75
365.694	1190.75
365.92	1227.75
366.147	1211.75
366.373	1200.75
366.599	1197.75
366.826	1197.75
367.052	1181.75
367.278	1192.75
367.505	1193.75
367.731	1203.75
367.957	1216.75
368.184	1208.75
368.41	1200.75
368.636	1243.75
368.862	1235.75
369.089	1254.75
369.315	1261.75
369.541	1245.75
369.767	1229.75
369.993	1220.75
370.219	1225.75
370.445	1259.75
370.672	1300.75
370.898	1250.75
371.124	1290.75
371.35	1313.75
371.576	1257.75
371.802	1289.75
372.028	1274.75
372.254	1301.75
372.48	1295.75
372.706	1300.75
372.932	1267.75
373.158	1287.75
373.384	1334.75
373.61	1268.75
373.835	1313.75
374.061	1291.75
374.287	1297.75
374.513	1288.75
374.739	1333.75
374.965	1332.75
375.191	1352.75
375.416	1341.75
375.642	1338.75
375.868	1309.75
376.094	1332.75
376.319	1294.75
376.545	1252.75
376.771	1288.75
376.997	1245.75
377.222	1238.75
377.448	1262.75
377.674	1286.75
377.899	1237.75
378.125	1237.75
378.35	1259.75
378.576	1252.75
378.802	1211.75
379.027	1260.75
379.253	1257.75
379.478	1241.75
379.704	1232.75
379.929	1214.75
380.155	1234.75
380.38	1232.75
380.606	1259.75
380.831	1264.75
381.057	1238.75
381.282	1269.75
381.507	1229.75
381.733	1253.75
381.958	1276.75
382.184	1298.75
382.409	1297.75
382.634	1289.75
382.86	1269.75
383.085	1300.75
383.31	1277.75
383.535	1315.75
383.761	1350.75
383.986	1341.75
384.211	1359.75
384.436	1367.75
384.662	1362.75
384.887	1394.75
385.112	1418.75
385.337	1421.75
385.562	1405.75
385.787	1422.75
386.013	1463.75
386.238	1456.75
386.463	1425.75
386.688	1446.75
386.913	1413.75
387.138	1432.75
387.363	1467.75
387.588	1451.75
387.813	1469.75
388.038	1477.75
388.263	1488.75
388.488	1476.75
388.713	1453.75
388.938	1456.75
389.163	1430.75
389.387	1480.75
389.612	1405.75
389.837	1451.75
390.062	1456.75
390.287	1461.75
390.512	1462.75
390.736	1459.75
390.961	1461.75
391.186	1484.75
391.411	1548.75
391.636	1553.75
391.86	1602.75
392.085	1584.75
392.31	1563.75
392.534	1580.75
392.759	1575.75
392.984	1545.75
393.208	1560.75
393.433	1552.75
393.658	1535.75
393.882	1504.75
394.107	1544.75
394.331	1540.75
394.556	1524.75
394.78	1564.75
395.005	1560.75
395.229	1552.75
395.454	1577.75
395.678	1564.75
395.903	1620.75
396.127	1616.75
396.352	1603.75
396.576	1594.75
396.801	1599.75
397.025	1611.75
397.249	1574.75
397.474	1622.75
397.698	1648.75
397.922	1677.75
398.147	1670.75
398.371	1719.75
398.595	1755.75
398.82	1798.75
399.044	1919.75
399.268	1940.75
399.492	2081.75
399.717	2155.75
399.941	2222.75
400.165	2138.75
400.389	2070.75
400.613	2012.75
400.837	1950.75
401.062	1877.75
401.286	1886.75
401.51	1873.75
401.734	1821.75
401.958	1833.75
402.182	1806.75
402.406	1832.75
402.63	1782.75
402.854	1810.75
403.078	1825.75
403.302	1788.75
403.526	1837.75
403.75	1832.75
403.974	1831.75
404.198	1849.75
404.422	1864.75
404.645	1874.75
404.869	1846.75
405.093	1901.75
405.317	1873.75
405.541	1897.75
405.765	1901.75
405.988	1890.75
406.212	1934.75
406.436	1970.75
406.66	1979.75
406.883	2014.75
407.107	2016.75
407.331	2067.75
407.555	2133.75
407.778	2133.75
408.002	2099.75
408.226	2129.75
408.449	2065.75
408.673	2043.75
408.896	2005.75
409.12	2012.75
409.344	1988.75
409.567	1968.75
409.791	1976.75
410.014	1954.75
410.238	1976.75
410.461	1944.75
410.685	1912.75
410.908	1899.75
411.132	1870.75
411.355	1821.75
411.578	1878.75
411.802	1902.75
412.025	1866.75
412.249	1873.75
412.472	1915.75
412.695	1848.75
412.919	1862.75
413.142	1886.75
413.365	1856.75
413.589	1828.75
413.812	1834.75
414.035	1845.75
414.258	1808.75
414.482	1801.75
414.705	1805.75
414.928	1789.75
415.151	1850.75
415.374	1818.75
415.597	1853.75
415.821	1776.75
416.044	1750.75
416.267	1773.75
416.49	1765.75
416.713	1753.75
416.936	1763.75
417.159	1756.75
417.382	1748.75
417.605	1755.75
417.828	1733.75
418.051	1769.75
418.274	1776.75
418.497	1699.75
418.72	1806.75
418.943	1740.75
419.166	1893.75
419.389	1984.75
419.611	1976.75
419.834	1906.75
420.057	1844.75
420.28	1832.75
420.503	1760.75
420.726	1749.75
420.948	1757.75
421.171	1794.75
421.394	1785.75
421.617	1781.75
421.839	1769.75
422.062	1777.75
422.285	1731.75
422.507	1754.75
422.73	1764.75
422.953	1780.75
423.175	1810.75
423.398	1788.75
423.621	1743.75
423.843	1805.75
424.066	1784.75
424.288	1755.75
424.511	1783.75
424.733	1756.75
424.956	1764.75
425.178	1800.75
425.401	1811.75
425.623	1779.75
425.846	1738.75
426.068	1775.75
426.291	1736.75
426.513	1758.75
426.735	1754.75
426.958	1737.75
427.18	1708.75
427.402	1690.75
427.625	1713.75
427.847	1682.75
428.069	1673.75
428.292	1686.75
428.514	1674.75
428.736	1693.75
428.958	1676.75
429.181	1668.75
429.403	1664.75
429.625	1636.75
429.847	1649.75
430.069	1644.75
430.292	1639.75
430.514	1641.75
430.736	1664.75
430.958	1708.75
431.18	1667.75
431.402	1651.75
431.624	1641.75
431.846	1656.75
432.068	1709.75
432.29	1688.75
432.512	1655.75
432.734	1709.75
432.956	1675.75
433.178	1693.75
433.4	1715.75
433.622	1667.75
433.844	1710.75
434.066	1692.75
434.287	1708.75
434.509	1785.75
434.731	1785.75
434.953	1725.75
435.175	1811.75
435.397	1824.75
435.618	1761.75
435.84	1747.75
436.062	1704.75
436.284	1703.75
436.505	1693.75
436.727	1699.75
436.949	1697.75
437.17	1698.75
437.392	1647.75
437.614	1668.75
437.835	1637.75
438.057	1624.75
438.278	1563.75
438.5	1606.75
438.721	1615.75
438.943	1636.75
439.165	1630.75
439.386	1610.75
439.608	1656.75
439.829	1663.75
440.05	1675.75
440.272	1641.75
440.493	1701.75
440.715	1673.75
440.936	1722.75
441.158	1739.75
441.379	1738.75
441.6	1786.75
441.822	1774.75
442.043	1812.75
442.264	1776.75
442.486	1702.75
442.707	1773.75
442.928	1795.75
443.149	1780.75
443.371	1783.75
443.592	1817.75
443.813	1813.75
444.034	1831.75
444.255	1847.75
444.476	1859.75
444.698	1926.75
444.919	1954.75
445.14	2016.75
445.361	1924.75
445.582	1895.75
445.803	1804.75
446.024	1757.75
446.245	1776.75
446.466	1812.75
446.687	1701.75
446.908	1707.75
447.129	1648.75
447.35	1620.75
447.571	1624.75
447.792	1613.75
448.013	1596.75
448.234	1573.75
448.455	1568.75
448.675	1579.75
448.896	1569.75
449.117	1548.75
449.338	1567.75
449.559	1536.75
449.779	1517.75
450	1525.75
450.221	1560.75
450.442	1537.75
450.662	1526.75
450.883	1576.75
451.104	1559.75
451.324	1555.75
451.545	1550.75
451.766	1554.75
451.986	1554.75
452.207	1474.75
452.428	1493.75
452.648	1507.75
452.869	1452.75
453.089	1487.75
453.31	1500.75
453.53	1512.75
453.751	1474.75
453.971	1476.75
454.192	1462.75
454.412	1475.75
454.633	1458.75
454.853	1437.75
455.073	1418.75
455.294	1427.75
455.514	1441.75
455.734	1461.75
455.955	1431.75
456.175	1415.75
456.395	1440.75
456.616	1431.75
456.836	1434.75
457.056	1427.75
457.276	1454.75
457.497	1473.75
457.717	1448.75
457.937	1498.75
458.157	1542.75
458.377	1495.75
458.598	1565.75
458.818	1560.75
459.038	1558.75
459.258	1637.75
459.478	1710.75
459.698	1703.75
459.918	1753.75
460.138	1748.75
460.358	1805.75
460.578	1858.75
460.798	1878.75
461.018	1873.75
461.238	1849.75
461.458	1864.75
461.678	1867.75
461.898	1933.75
462.118	1919.75
462.338	2010.75
462.558	2000.75
462.777	2096.75
462.997	2102.75
463.217	2172.75
463.437	2173.75
463.657	2176.75
463.876	2128.75
464.096	2152.75
464.316	2065.75
464.536	2059.75
464.755	2027.75
464.975	2003.75
465.195	1888.75
465.414	1849.75
465.634	1774.75
465.854	1710.75
466.073	1720.75
466.293	1674.75
466.512	1665.75
466.732	1623.75
466.951	1641.75
467.171	1612.75
467.391	1583.75
467.61	1608.75
467.829	1581.75
468.049	1606.75
468.268	1571.75
468.488	1556.75
468.707	1550.75
468.927	1580.75
469.146	1572.75
469.365	1590.75
469.585	1551.75
469.804	1621.75
470.023	1647.75
470.243	1605.75
470.462	1651.75
470.681	1641.75
470.901	1663.75
471.12	1661.75
471.339	1636.75
471.558	1630.75
471.777	1627.75
471.997	1610.75
472.216	1590.75
472.435	1500.75
472.654	1589.75
472.873	1548.75
473.092	1530.75
473.311	1548.75
473.53	1568.75
473.749	1549.75
473.968	1558.75
474.187	1553.75
474.406	1590.75
474.625	1550.75
474.844	1538.75
475.063	1573.75
475.282	1581.75
475.501	1614.75
475.72	1588.75
475.939	1626.75
476.158	1598.75
476.377	1649.75
476.596	1629.75
476.814	1663.75
477.033	1670.75
477.252	1695.75
477.471	1759.75
477.69	1692.75
477.908	1729.75
478.127	1771.75
478.346	1788.75
478.564	1840.75
478.783	1865.75
479.002	1875.75
479.22	1877.75
479.439	1902.75
479.658	1873.75
479.876	1906.75
480.095	1897.75
480.313	1939.75
480.532	1946.75
480.751	1933.75
480.969	1914.75
481.188	1896.75
481.406	1860.75
481.624	1861.75
481.843	1825.75
482.061	1857.75
482.28	1831.75
482.498	1816.75
482.717	1779.75
482.935	1853.75
483.153	1822.75
483.372	1849.75
483.59	1829.75
483.808	1813.75
484.027	1812.75
484.245	1808.75
484.463	1871.75
484.681	1863.75
484.9	1857.75
485.118	1873.75
485.336	1853.75
485.554	1870.75
485.772	1868.75
485.99	1882.75
486.209	1885.75
486.427	1889.75
486.645	1868.75
486.863	1895.75
487.081	1884.75
487.299	1880.75
487.517	1894.75
487.735	1892.75
487.953	1905.75
488.171	1938.75
488.389	1881.75
488.607	1894.75
488.825	1877.75
489.043	1883.75
489.261	1840.75
489.479	1867.75
489.696	1893.75
489.914	1899.75
490.132	1905.75
490.35	1932.75
490.568	1892.75
490.786	1913.75
491.003	1917.75
