Data from Ni(NO3)2@0.25M.TitratingCurve.Agarose3%dH2O.NegLispCup.LampEnergy10.LIBS07252019_HRD10591_18-02-36-566.txt Node
Date: Thu Jul 25 18:02:36 EDT 2019
User: cochatt
Spectrometer: HR+D1059
Trigger mode: 1
Integration Time (sec): 1.000000E-1
Scans to average: 1
Electric dark correction enabled: true
Nonlinearity correction enabled: false
Boxcar width: 0
XAxis mode: Wavelengths
Number of Pixels in Spectrum: 2048
>>>>>Begin Spectral Data<<<<<
223.165	-30.31
223.4	-30.31
223.635	-30.31
223.869	-15.31
224.104	-12.31
224.338	-6.31
224.573	6.69
224.808	-9.31
225.042	-12.31
225.277	-11.31
225.511	4.69
225.746	-9.31
225.98	3.69
226.215	8.69
226.449	13.69
226.683	17.69
226.918	24.69
227.152	26.69
227.387	36.69
227.621	49.69
227.856	42.69
228.09	42.69
228.324	43.69
228.559	62.69
228.793	60.69
229.027	78.69
229.262	91.69
229.496	90.69
229.73	97.69
229.964	109.69
230.199	95.69
230.433	113.69
230.667	119.69
230.901	116.69
231.136	115.69
231.37	106.69
231.604	126.69
231.838	119.69
232.072	113.69
232.306	111.69
232.541	111.69
232.775	113.69
233.009	123.69
233.243	113.69
233.477	119.69
233.711	118.69
233.945	114.69
234.179	118.69
234.413	126.69
234.647	117.69
234.881	135.69
235.115	120.69
235.349	130.69
235.583	125.69
235.817	108.69
236.051	104.69
236.285	113.69
236.519	127.69
236.753	125.69
236.987	122.69
237.221	122.69
237.455	118.69
237.689	117.69
237.922	127.69
238.156	125.69
238.39	124.69
238.624	118.69
238.858	115.69
239.091	114.69
239.325	124.69
239.559	137.69
239.793	124.69
240.027	132.69
240.26	119.69
240.494	129.69
240.728	124.69
240.961	129.69
241.195	136.69
241.429	130.69
241.662	138.69
241.896	148.69
242.13	145.69
242.363	124.69
242.597	144.69
242.83	143.69
243.064	138.69
243.298	156.69
243.531	141.69
243.765	141.69
243.998	149.69
244.232	160.69
244.465	150.69
244.699	147.69
244.932	133.69
245.166	160.69
245.399	151.69
245.633	155.69
245.866	165.69
246.099	160.69
246.333	149.69
246.566	158.69
246.8	153.69
247.033	163.69
247.266	166.69
247.5	158.69
247.733	163.69
247.966	160.69
248.2	169.69
248.433	168.69
248.666	178.69
248.899	181.69
249.133	188.69
249.366	184.69
249.599	181.69
249.832	165.69
250.066	174.69
250.299	171.69
250.532	195.69
250.765	185.69
250.998	194.69
251.231	198.69
251.465	196.69
251.698	188.69
251.931	190.69
252.164	195.69
252.397	194.69
252.63	201.69
252.863	226.69
253.096	194.69
253.329	213.69
253.562	203.69
253.795	223.69
254.028	228.69
254.261	201.69
254.494	208.69
254.727	209.69
254.96	216.69
255.193	225.69
255.426	201.69
255.659	210.69
255.892	229.69
256.124	213.69
256.357	224.69
256.59	224.69
256.823	228.69
257.056	230.69
257.289	221.69
257.521	229.69
257.754	246.69
257.987	247.69
258.22	245.69
258.452	244.69
258.685	253.69
258.918	243.69
259.151	246.69
259.383	243.69
259.616	252.69
259.849	244.69
260.081	251.69
260.314	274.69
260.547	258.69
260.779	247.69
261.012	264.69
261.244	269.69
261.477	266.69
261.71	264.69
261.942	260.69
262.175	265.69
262.407	270.69
262.64	271.69
262.872	273.69
263.105	262.69
263.337	284.69
263.57	280.69
263.802	262.69
264.035	249.69
264.267	264.69
264.499	278.69
264.732	275.69
264.964	288.69
265.197	269.69
265.429	277.69
265.661	275.69
265.894	287.69
266.126	289.69
266.358	294.69
266.591	283.69
266.823	290.69
267.055	294.69
267.287	280.69
267.52	297.69
267.752	287.69
267.984	282.69
268.216	292.69
268.448	281.69
268.681	284.69
268.913	299.69
269.145	301.69
269.377	283.69
269.609	287.69
269.841	305.69
270.073	297.69
270.306	282.69
270.538	296.69
270.77	311.69
271.002	300.69
271.234	292.69
271.466	319.69
271.698	295.69
271.93	317.69
272.162	323.69
272.394	319.69
272.626	304.69
272.858	299.69
273.09	317.69
273.322	308.69
273.553	299.69
273.785	287.69
274.017	308.69
274.249	309.69
274.481	300.69
274.713	327.69
274.945	324.69
275.176	316.69
275.408	321.69
275.64	329.69
275.872	319.69
276.104	316.69
276.335	332.69
276.567	322.69
276.799	335.69
277.031	327.69
277.262	343.69
277.494	321.69
277.726	330.69
277.957	327.69
278.189	337.69
278.421	328.69
278.652	342.69
278.884	339.69
279.115	347.69
279.347	338.69
279.579	352.69
279.81	342.69
280.042	358.69
280.273	333.69
280.505	344.69
280.736	357.69
280.968	355.69
281.199	354.69
281.431	342.69
281.662	345.69
281.894	349.69
282.125	326.69
282.356	344.69
282.588	350.69
282.819	354.69
283.051	341.69
283.282	348.69
283.513	344.69
283.745	347.69
283.976	352.69
284.207	342.69
284.439	341.69
284.67	358.69
284.901	377.69
285.132	356.69
285.364	360.69
285.595	359.69
285.826	371.69
286.057	355.69
286.288	357.69
286.52	380.69
286.751	372.69
286.982	364.69
287.213	356.69
287.444	371.69
287.675	357.69
287.906	346.69
288.138	359.69
288.369	398.69
288.6	385.69
288.831	358.69
289.062	371.69
289.293	383.69
289.524	361.69
289.755	367.69
289.986	371.69
290.217	371.69
290.448	377.69
290.679	375.69
290.91	368.69
291.141	367.69
291.371	369.69
291.602	377.69
291.833	379.69
292.064	380.69
292.295	371.69
292.526	386.69
292.757	371.69
292.987	375.69
293.218	354.69
293.449	375.69
293.68	387.69
293.91	363.69
294.141	377.69
294.372	371.69
294.603	387.69
294.833	404.69
295.064	379.69
295.295	373.69
295.525	370.69
295.756	389.69
295.987	397.69
296.217	388.69
296.448	393.69
296.679	385.69
296.909	389.69
297.14	403.69
297.37	385.69
297.601	400.69
297.831	399.69
298.062	368.69
298.292	399.69
298.523	372.69
298.753	396.69
298.984	401.69
299.214	400.69
299.445	383.69
299.675	390.69
299.905	420.69
300.136	394.69
300.366	424.69
300.597	436.69
300.827	413.69
301.057	416.69
301.288	433.69
301.518	419.69
301.748	411.69
301.979	410.69
302.209	416.69
302.439	419.69
302.669	421.69
302.9	412.69
303.13	407.69
303.36	411.69
303.59	419.69
303.82	422.69
304.051	445.69
304.281	426.69
304.511	415.69
304.741	432.69
304.971	433.69
305.201	454.69
305.431	456.69
305.661	426.69
305.891	425.69
306.121	418.69
306.352	434.69
306.582	433.69
306.812	427.69
307.042	441.69
307.272	423.69
307.502	418.69
307.731	437.69
307.961	436.69
308.191	426.69
308.421	419.69
308.651	440.69
308.881	441.69
309.111	432.69
309.341	428.69
309.571	443.69
309.8	459.69
310.03	453.69
310.26	435.69
310.49	445.69
310.72	436.69
310.949	447.69
311.179	445.69
311.409	452.69
311.639	464.69
311.868	468.69
312.098	461.69
312.328	457.69
312.557	459.69
312.787	457.69
313.017	471.69
313.246	491.69
313.476	468.69
313.706	479.69
313.935	465.69
314.165	461.69
314.394	482.69
314.624	495.69
314.853	461.69
315.083	468.69
315.312	480.69
315.542	477.69
315.771	490.69
316.001	490.69
316.23	479.69
316.46	491.69
316.689	497.69
316.919	489.69
317.148	485.69
317.377	502.69
317.607	535.69
317.836	511.69
318.065	502.69
318.295	504.69
318.524	515.69
318.753	501.69
318.983	501.69
319.212	520.69
319.441	515.69
319.67	521.69
319.9	530.69
320.129	509.69
320.358	518.69
320.587	541.69
320.816	528.69
321.046	519.69
321.275	522.69
321.504	524.69
321.733	534.69
321.962	543.69
322.191	554.69
322.42	542.69
322.649	544.69
322.878	549.69
323.108	532.69
323.337	548.69
323.566	575.69
323.795	539.69
324.024	552.69
324.253	559.69
324.482	552.69
324.71	585.69
324.939	576.69
325.168	588.69
325.397	575.69
325.626	573.69
325.855	588.69
326.084	583.69
326.313	603.69
326.542	597.69
326.77	595.69
326.999	600.69
327.228	571.69
327.457	592.69
327.686	599.69
327.914	627.69
328.143	593.69
328.372	617.69
328.6	618.69
328.829	615.69
329.058	625.69
329.287	611.69
329.515	605.69
329.744	641.69
329.972	631.69
330.201	595.69
330.43	625.69
330.658	616.69
330.887	635.69
331.115	632.69
331.344	618.69
331.572	655.69
331.801	669.69
332.03	654.69
332.258	676.69
332.486	678.69
332.715	683.69
332.943	678.69
333.172	683.69
333.4	687.69
333.629	726.69
333.857	731.69
334.085	725.69
334.314	715.69
334.542	705.69
334.771	721.69
334.999	727.69
335.227	732.69
335.455	731.69
335.684	736.69
335.912	743.69
336.14	708.69
336.369	696.69
336.597	735.69
336.825	717.69
337.053	722.69
337.281	710.69
337.51	727.69
337.738	712.69
337.966	741.69
338.194	709.69
338.422	714.69
338.65	688.69
338.878	690.69
339.106	676.69
339.334	709.69
339.562	690.69
339.79	687.69
340.018	688.69
340.246	693.69
340.474	681.69
340.702	659.69
340.93	659.69
341.158	690.69
341.386	709.69
341.614	714.69
341.842	706.69
342.07	680.69
342.298	665.69
342.526	681.69
342.754	688.69
342.981	675.69
343.209	696.69
343.437	727.69
343.665	728.69
343.893	743.69
344.12	727.69
344.348	727.69
344.576	728.69
344.804	704.69
345.031	713.69
345.259	700.69
345.487	693.69
345.714	698.69
345.942	683.69
346.17	681.69
346.397	661.69
346.625	667.69
346.853	685.69
347.08	665.69
347.308	677.69
347.535	671.69
347.763	653.69
347.99	669.69
348.218	655.69
348.445	689.69
348.673	674.69
348.9	658.69
349.128	635.69
349.355	657.69
349.583	679.69
349.81	657.69
350.037	677.69
350.265	642.69
350.492	643.69
350.72	666.69
350.947	678.69
351.174	658.69
351.402	650.69
351.629	657.69
351.856	675.69
352.083	653.69
352.311	657.69
352.538	668.69
352.765	668.69
352.992	652.69
353.22	645.69
353.447	630.69
353.674	645.69
353.901	661.69
354.128	653.69
354.355	655.69
354.583	669.69
354.81	650.69
355.037	678.69
355.264	645.69
355.491	657.69
355.718	651.69
355.945	659.69
356.172	665.69
356.399	673.69
356.626	661.69
356.853	647.69
357.08	649.69
357.307	654.69
357.534	658.69
357.761	649.69
357.988	664.69
358.215	639.69
358.441	639.69
358.668	643.69
358.895	613.69
359.122	631.69
359.349	643.69
359.576	646.69
359.802	653.69
360.029	626.69
360.256	627.69
360.483	648.69
360.709	671.69
360.936	649.69
361.163	653.69
361.39	660.69
361.616	653.69
361.843	661.69
362.07	649.69
362.296	655.69
362.523	646.69
362.749	653.69
362.976	657.69
363.203	644.69
363.429	634.69
363.656	661.69
363.882	629.69
364.109	642.69
364.335	636.69
364.562	653.69
364.788	644.69
365.015	643.69
365.241	646.69
365.468	634.69
365.694	638.69
365.92	640.69
366.147	670.69
366.373	636.69
366.599	645.69
366.826	648.69
367.052	632.69
367.278	639.69
367.505	659.69
367.731	651.69
367.957	660.69
368.184	632.69
368.41	634.69
368.636	638.69
368.862	648.69
369.089	664.69
369.315	681.69
369.541	649.69
369.767	662.69
369.993	647.69
370.219	669.69
370.445	657.69
370.672	675.69
370.898	663.69
371.124	684.69
371.35	665.69
371.576	672.69
371.802	673.69
372.028	651.69
372.254	693.69
372.48	688.69
372.706	688.69
372.932	671.69
373.158	683.69
373.384	687.69
373.61	661.69
373.835	656.69
374.061	674.69
374.287	681.69
374.513	661.69
374.739	662.69
374.965	694.69
375.191	733.69
375.416	685.69
375.642	698.69
375.868	667.69
376.094	667.69
376.319	667.69
376.545	641.69
376.771	651.69
376.997	635.69
377.222	640.69
377.448	652.69
377.674	662.69
377.899	632.69
378.125	637.69
378.35	649.69
378.576	653.69
378.802	644.69
379.027	653.69
379.253	639.69
379.478	643.69
379.704	636.69
379.929	618.69
380.155	658.69
380.38	630.69
380.606	648.69
380.831	668.69
381.057	648.69
381.282	631.69
381.507	641.69
381.733	655.69
381.958	648.69
382.184	654.69
382.409	665.69
382.634	675.69
382.86	671.69
383.085	664.69
383.31	663.69
383.535	693.69
383.761	685.69
383.986	665.69
384.211	685.69
384.436	690.69
384.662	702.69
384.887	707.69
385.112	713.69
385.337	712.69
385.562	706.69
385.787	719.69
386.013	735.69
386.238	721.69
386.463	721.69
386.688	731.69
386.913	682.69
387.138	715.69
387.363	714.69
387.588	718.69
387.813	732.69
388.038	735.69
388.263	718.69
388.488	712.69
388.713	735.69
388.938	703.69
389.163	729.69
389.387	730.69
389.612	713.69
389.837	720.69
390.062	703.69
390.287	705.69
390.512	736.69
390.736	724.69
390.961	732.69
391.186	717.69
391.411	759.69
391.636	753.69
391.86	779.69
392.085	752.69
392.31	735.69
392.534	762.69
392.759	747.69
392.984	748.69
393.208	724.69
393.433	752.69
393.658	737.69
393.882	777.69
394.107	754.69
394.331	754.69
394.556	739.69
394.78	787.69
395.005	753.69
395.229	751.69
395.454	762.69
395.678	771.69
395.903	779.69
396.127	765.69
396.352	773.69
396.576	751.69
396.801	768.69
397.025	760.69
397.249	764.69
397.474	794.69
397.698	804.69
397.922	805.69
398.147	787.69
398.371	820.69
398.595	829.69
398.82	844.69
399.044	867.69
399.268	913.69
399.492	1004.69
399.717	1007.69
399.941	960.69
400.165	978.69
400.389	921.69
400.613	918.69
400.837	904.69
401.062	874.69
401.286	885.69
401.51	895.69
401.734	862.69
401.958	870.69
402.182	856.69
402.406	851.69
402.63	848.69
402.854	875.69
403.078	868.69
403.302	876.69
403.526	893.69
403.75	897.69
403.974	890.69
404.198	900.69
404.422	896.69
404.645	908.69
404.869	916.69
405.093	897.69
405.317	888.69
405.541	903.69
405.765	912.69
405.988	908.69
406.212	915.69
406.436	905.69
406.66	920.69
406.883	948.69
407.107	953.69
407.331	943.69
407.555	962.69
407.778	965.69
408.002	956.69
408.226	987.69
408.449	951.69
408.673	922.69
408.896	939.69
409.12	953.69
409.344	962.69
409.567	911.69
409.791	948.69
410.014	919.69
410.238	904.69
410.461	935.69
410.685	913.69
410.908	896.69
411.132	914.69
411.355	906.69
411.578	888.69
411.802	912.69
412.025	891.69
412.249	894.69
412.472	917.69
412.695	892.69
412.919	884.69
413.142	898.69
413.365	893.69
413.589	879.69
413.812	905.69
414.035	875.69
414.258	871.69
414.482	871.69
414.705	865.69
414.928	866.69
415.151	912.69
415.374	873.69
415.597	885.69
415.821	861.69
416.044	855.69
416.267	875.69
416.49	867.69
416.713	836.69
416.936	860.69
417.159	881.69
417.382	843.69
417.605	854.69
417.828	861.69
418.051	890.69
418.274	884.69
418.497	884.69
418.72	891.69
418.943	882.69
419.166	893.69
419.389	972.69
419.611	945.69
419.834	922.69
420.057	910.69
420.28	884.69
420.503	857.69
420.726	874.69
420.948	856.69
421.171	842.69
421.394	865.69
421.617	866.69
421.839	850.69
422.062	889.69
422.285	845.69
422.507	873.69
422.73	863.69
422.953	853.69
423.175	878.69
423.398	888.69
423.621	892.69
423.843	889.69
424.066	888.69
424.288	890.69
424.511	892.69
424.733	937.69
424.956	852.69
425.178	866.69
425.401	869.69
425.623	871.69
425.846	854.69
426.068	861.69
426.291	867.69
426.513	849.69
426.735	851.69
426.958	865.69
427.18	849.69
427.402	848.69
427.625	869.69
427.847	859.69
428.069	840.69
428.292	864.69
428.514	844.69
428.736	829.69
428.958	844.69
429.181	849.69
429.403	830.69
429.625	844.69
429.847	824.69
430.069	823.69
430.292	837.69
430.514	842.69
430.736	841.69
430.958	850.69
431.18	854.69
431.402	848.69
431.624	838.69
431.846	820.69
432.068	820.69
432.29	872.69
432.512	851.69
432.734	867.69
432.956	843.69
433.178	835.69
433.4	879.69
433.622	877.69
433.844	860.69
434.066	856.69
434.287	885.69
434.509	845.69
434.731	871.69
434.953	873.69
435.175	880.69
435.397	917.69
435.618	854.69
435.84	857.69
436.062	834.69
436.284	856.69
436.505	852.69
436.727	861.69
436.949	869.69
437.17	851.69
437.392	860.69
437.614	858.69
437.835	794.69
438.057	804.69
438.278	807.69
438.5	828.69
438.721	839.69
438.943	855.69
439.165	825.69
439.386	861.69
439.608	849.69
439.829	880.69
440.05	874.69
440.272	843.69
440.493	846.69
440.715	859.69
440.936	879.69
441.158	886.69
441.379	905.69
441.6	912.69
441.822	896.69
442.043	914.69
442.264	924.69
442.486	897.69
442.707	904.69
442.928	900.69
443.149	906.69
443.371	908.69
443.592	912.69
443.813	920.69
444.034	931.69
444.255	907.69
444.476	947.69
444.698	971.69
444.919	965.69
445.14	1115.69
445.361	993.69
445.582	903.69
445.803	908.69
446.024	922.69
446.245	884.69
446.466	880.69
446.687	873.69
446.908	883.69
447.129	841.69
447.35	828.69
447.571	840.69
447.792	836.69
448.013	837.69
448.234	841.69
448.455	784.69
448.675	805.69
448.896	803.69
449.117	776.69
449.338	815.69
449.559	796.69
449.779	800.69
450	782.69
450.221	803.69
450.442	813.69
450.662	770.69
450.883	783.69
451.104	808.69
451.324	805.69
451.545	803.69
451.766	792.69
451.986	778.69
452.207	789.69
452.428	780.69
452.648	805.69
452.869	780.69
453.089	774.69
453.31	751.69
453.53	740.69
453.751	733.69
453.971	764.69
454.192	756.69
454.412	749.69
454.633	766.69
454.853	749.69
455.073	752.69
455.294	763.69
455.514	753.69
455.734	796.69
455.955	754.69
456.175	741.69
456.395	777.69
456.616	734.69
456.836	738.69
457.056	759.69
457.276	744.69
457.497	778.69
457.717	763.69
457.937	745.69
458.157	769.69
458.377	772.69
458.598	768.69
458.818	783.69
459.038	794.69
459.258	793.69
459.478	831.69
459.698	872.69
459.918	862.69
460.138	876.69
460.358	869.69
460.578	885.69
460.798	931.69
461.018	912.69
461.238	917.69
461.458	917.69
461.678	900.69
461.898	918.69
462.118	892.69
462.338	961.69
462.558	990.69
462.777	987.69
462.997	1030.69
463.217	1031.69
463.437	1047.69
463.657	1009.69
463.876	1004.69
464.096	994.69
464.316	1002.69
464.536	988.69
464.755	976.69
464.975	963.69
465.195	945.69
465.414	927.69
465.634	886.69
465.854	855.69
466.073	870.69
466.293	863.69
466.512	839.69
466.732	824.69
466.951	860.69
467.171	859.69
467.391	857.69
467.61	816.69
467.829	824.69
468.049	800.69
468.268	793.69
468.488	836.69
468.707	815.69
468.927	819.69
469.146	826.69
469.365	820.69
469.585	817.69
469.804	837.69
470.023	863.69
470.243	860.69
470.462	815.69
470.681	839.69
470.901	849.69
471.12	827.69
471.339	833.69
471.558	824.69
471.777	868.69
471.997	845.69
472.216	824.69
472.435	800.69
472.654	807.69
472.873	823.69
473.092	799.69
473.311	812.69
473.53	820.69
473.749	796.69
473.968	807.69
474.187	808.69
474.406	803.69
474.625	818.69
474.844	829.69
475.063	838.69
475.282	821.69
475.501	823.69
475.72	806.69
475.939	829.69
476.158	844.69
476.377	852.69
476.596	851.69
476.814	841.69
477.033	866.69
477.252	856.69
477.471	849.69
477.69	888.69
477.908	895.69
478.127	919.69
478.346	911.69
478.564	906.69
478.783	952.69
479.002	958.69
479.22	938.69
479.439	980.69
479.658	963.69
479.876	949.69
480.095	925.69
480.313	978.69
480.532	983.69
480.751	965.69
480.969	965.69
481.188	951.69
481.406	934.69
481.624	915.69
481.843	936.69
482.061	937.69
482.28	904.69
482.498	897.69
482.717	941.69
482.935	953.69
483.153	939.69
483.372	947.69
483.59	925.69
483.808	946.69
484.027	956.69
484.245	941.69
484.463	960.69
484.681	991.69
484.9	980.69
485.118	945.69
485.336	938.69
485.554	948.69
485.772	970.69
485.99	945.69
486.209	956.69
486.427	955.69
486.645	933.69
486.863	965.69
487.081	956.69
487.299	949.69
487.517	980.69
487.735	978.69
487.953	998.69
488.171	1023.69
488.389	982.69
488.607	988.69
488.825	962.69
489.043	963.69
489.261	977.69
489.479	974.69
489.696	959.69
489.914	979.69
490.132	984.69
490.35	969.69
490.568	1004.69
490.786	1018.69
491.003	1065.69
491.221	1019.69
491.439	1024.69
491.657	1049.69
491.874	1003.69
492.092	1094.69
492.31	1064.69
492.527	1090.69
492.745	1041.69
492.963	1063.69
493.18	1041.69
493.398	1055.69
493.615	1007.69
493.833	1073.69
494.05	1050.69
494.268	1077.69
494.485	1036.69
494.703	1067.69
494.92	1079.69
495.138	1042.69
495.355	1082.69
495.573	1065.69
495.79	1082.69
496.008	1095.69
496.225	1078.69
496.442	1092.69
496.66	1149.69
496.877	1120.69
497.094	1119.69
497.312	1127.69
497.529	1152.69
497.746	1139.69
497.963	1172.69
498.181	1199.69
498.398	1217.69
498.615	1240.69
498.832	1321.69
499.049	1375.69
499.267	1404.69
499.484	1485.69
499.701	1552.69
499.918	1608.69
500.135	1776.69
500.352	1823.69
500.569	1855.69
500.786	1859.69
