Data from Ni(NO3)2@0.5M.TitratingCurve.Agarose3%dH2O.NegLispCup.LampEnergy10.LIBS07252019_HRD10591_17-57-38-564.txt Node
Date: Thu Jul 25 17:57:38 EDT 2019
User: cochatt
Spectrometer: HR+D1059
Trigger mode: 1
Integration Time (sec): 1.000000E-1
Scans to average: 1
Electric dark correction enabled: true
Nonlinearity correction enabled: false
Boxcar width: 0
XAxis mode: Wavelengths
Number of Pixels in Spectrum: 2048
>>>>>Begin Spectral Data<<<<<
223.165	-25.38
223.4	-25.38
223.635	-25.38
223.869	-22.38
224.104	-25.38
224.338	-22.38
224.573	-9.38
224.808	-4.38
225.042	2.62
225.277	0.62
225.511	1.62
225.746	7.62
225.98	7.62
226.215	9.62
226.449	21.62
226.683	16.62
226.918	17.62
227.152	23.62
227.387	40.62
227.621	24.62
227.856	25.62
228.09	49.62
228.324	55.62
228.559	44.62
228.793	66.62
229.027	94.62
229.262	101.62
229.496	113.62
229.73	125.62
229.964	123.62
230.199	119.62
230.433	135.62
230.667	125.62
230.901	143.62
231.136	121.62
231.37	141.62
231.604	149.62
231.838	120.62
232.072	160.62
232.306	150.62
232.541	145.62
232.775	132.62
233.009	140.62
233.243	135.62
233.477	127.62
233.711	144.62
233.945	143.62
234.179	145.62
234.413	154.62
234.647	134.62
234.881	144.62
235.115	153.62
235.349	144.62
235.583	154.62
235.817	151.62
236.051	145.62
236.285	124.62
236.519	149.62
236.753	143.62
236.987	140.62
237.221	168.62
237.455	167.62
237.689	139.62
237.922	163.62
238.156	154.62
238.39	161.62
238.624	161.62
238.858	161.62
239.091	155.62
239.325	166.62
239.559	170.62
239.793	185.62
240.027	183.62
240.26	181.62
240.494	188.62
240.728	170.62
240.961	185.62
241.195	200.62
241.429	178.62
241.662	172.62
241.896	197.62
242.13	194.62
242.363	181.62
242.597	173.62
242.83	181.62
243.064	173.62
243.298	193.62
243.531	199.62
243.765	199.62
243.998	194.62
244.232	194.62
244.465	189.62
244.699	200.62
244.932	202.62
245.166	200.62
245.399	198.62
245.633	184.62
245.866	217.62
246.099	217.62
246.333	219.62
246.566	211.62
246.8	195.62
247.033	221.62
247.266	227.62
247.5	231.62
247.733	217.62
247.966	209.62
248.2	211.62
248.433	229.62
248.666	241.62
248.899	221.62
249.133	227.62
249.366	251.62
249.599	248.62
249.832	234.62
250.066	256.62
250.299	243.62
250.532	257.62
250.765	274.62
250.998	251.62
251.231	269.62
251.465	261.62
251.698	270.62
251.931	273.62
252.164	266.62
252.397	272.62
252.63	267.62
252.863	292.62
253.096	260.62
253.329	286.62
253.562	277.62
253.795	269.62
254.028	288.62
254.261	275.62
254.494	285.62
254.727	278.62
254.96	267.62
255.193	303.62
255.426	314.62
255.659	320.62
255.892	304.62
256.124	282.62
256.357	317.62
256.59	309.62
256.823	296.62
257.056	315.62
257.289	308.62
257.521	291.62
257.754	318.62
257.987	313.62
258.22	318.62
258.452	337.62
258.685	337.62
258.918	341.62
259.151	339.62
259.383	327.62
259.616	355.62
259.849	368.62
260.081	356.62
260.314	338.62
260.547	344.62
260.779	353.62
261.012	356.62
261.244	343.62
261.477	356.62
261.71	368.62
261.942	343.62
262.175	365.62
262.407	357.62
262.64	369.62
262.872	373.62
263.105	376.62
263.337	370.62
263.57	371.62
263.802	380.62
264.035	399.62
264.267	374.62
264.499	375.62
264.732	400.62
264.964	400.62
265.197	398.62
265.429	383.62
265.661	377.62
265.894	390.62
266.126	386.62
266.358	403.62
266.591	400.62
266.823	416.62
267.055	403.62
267.287	408.62
267.52	419.62
267.752	407.62
267.984	404.62
268.216	419.62
268.448	422.62
268.681	398.62
268.913	410.62
269.145	414.62
269.377	438.62
269.609	410.62
269.841	407.62
270.073	407.62
270.306	423.62
270.538	413.62
270.77	416.62
271.002	436.62
271.234	434.62
271.466	415.62
271.698	436.62
271.93	442.62
272.162	442.62
272.394	427.62
272.626	440.62
272.858	422.62
273.09	427.62
273.322	455.62
273.553	446.62
273.785	457.62
274.017	445.62
274.249	454.62
274.481	427.62
274.713	434.62
274.945	454.62
275.176	462.62
275.408	445.62
275.64	443.62
275.872	441.62
276.104	431.62
276.335	446.62
276.567	466.62
276.799	476.62
277.031	473.62
277.262	472.62
277.494	467.62
277.726	459.62
277.957	471.62
278.189	451.62
278.421	467.62
278.652	464.62
278.884	500.62
279.115	474.62
279.347	468.62
279.579	488.62
279.81	470.62
280.042	487.62
280.273	477.62
280.505	446.62
280.736	474.62
280.968	479.62
281.199	486.62
281.431	486.62
281.662	485.62
281.894	475.62
282.125	501.62
282.356	489.62
282.588	491.62
282.819	499.62
283.051	501.62
283.282	480.62
283.513	488.62
283.745	501.62
283.976	498.62
284.207	478.62
284.439	503.62
284.67	497.62
284.901	537.62
285.132	532.62
285.364	488.62
285.595	515.62
285.826	505.62
286.057	513.62
286.288	510.62
286.52	527.62
286.751	516.62
286.982	523.62
287.213	553.62
287.444	515.62
287.675	554.62
287.906	551.62
288.138	512.62
288.369	514.62
288.6	544.62
288.831	536.62
289.062	539.62
289.293	524.62
289.524	541.62
289.755	538.62
289.986	533.62
290.217	558.62
290.448	540.62
290.679	521.62
290.91	539.62
291.141	524.62
291.371	550.62
291.602	549.62
291.833	517.62
292.064	541.62
292.295	531.62
292.526	545.62
292.757	536.62
292.987	529.62
293.218	526.62
293.449	542.62
293.68	532.62
293.91	536.62
294.141	539.62
294.372	500.62
294.603	545.62
294.833	541.62
295.064	566.62
295.295	541.62
295.525	544.62
295.756	550.62
295.987	569.62
296.217	565.62
296.448	555.62
296.679	543.62
296.909	559.62
297.14	549.62
297.37	571.62
297.601	564.62
297.831	575.62
298.062	584.62
298.292	583.62
298.523	578.62
298.753	575.62
298.984	576.62
299.214	599.62
299.445	573.62
299.675	585.62
299.905	587.62
300.136	606.62
300.366	611.62
300.597	605.62
300.827	587.62
301.057	609.62
301.288	591.62
301.518	598.62
301.748	583.62
301.979	586.62
302.209	604.62
302.439	600.62
302.669	609.62
302.9	611.62
303.13	606.62
303.36	601.62
303.59	591.62
303.82	637.62
304.051	636.62
304.281	614.62
304.511	617.62
304.741	627.62
304.971	643.62
305.201	646.62
305.431	639.62
305.661	643.62
305.891	632.62
306.121	646.62
306.352	626.62
306.582	638.62
306.812	634.62
307.042	644.62
307.272	623.62
307.502	631.62
307.731	644.62
307.961	631.62
308.191	635.62
308.421	637.62
308.651	641.62
308.881	621.62
309.111	635.62
309.341	637.62
309.571	647.62
309.8	657.62
310.03	660.62
310.26	660.62
310.49	672.62
310.72	671.62
310.949	664.62
311.179	657.62
311.409	647.62
311.639	675.62
311.868	663.62
312.098	680.62
312.328	673.62
312.557	685.62
312.787	687.62
313.017	675.62
313.246	704.62
313.476	705.62
313.706	694.62
313.935	698.62
314.165	702.62
314.394	701.62
314.624	686.62
314.853	709.62
315.083	710.62
315.312	698.62
315.542	703.62
315.771	689.62
316.001	706.62
316.23	700.62
316.46	719.62
316.689	713.62
316.919	720.62
317.148	725.62
317.377	729.62
317.607	732.62
317.836	711.62
318.065	731.62
318.295	756.62
318.524	746.62
318.753	706.62
318.983	743.62
319.212	738.62
319.441	754.62
319.67	745.62
319.9	722.62
320.129	746.62
320.358	757.62
320.587	744.62
320.816	754.62
321.046	788.62
321.275	762.62
321.504	762.62
321.733	786.62
321.962	775.62
322.191	767.62
322.42	777.62
322.649	767.62
322.878	785.62
323.108	796.62
323.337	791.62
323.566	826.62
323.795	805.62
324.024	789.62
324.253	817.62
324.482	777.62
324.71	818.62
324.939	797.62
325.168	818.62
325.397	785.62
325.626	823.62
325.855	813.62
326.084	845.62
326.313	841.62
326.542	848.62
326.77	867.62
326.999	816.62
327.228	834.62
327.457	815.62
327.686	828.62
327.914	874.62
328.143	875.62
328.372	833.62
328.6	839.62
328.829	864.62
329.058	860.62
329.287	862.62
329.515	868.62
329.744	846.62
329.972	831.62
330.201	855.62
330.43	903.62
330.658	880.62
330.887	863.62
331.115	881.62
331.344	866.62
331.572	893.62
331.801	875.62
332.03	908.62
332.258	905.62
332.486	915.62
332.715	870.62
332.943	895.62
333.172	893.62
333.4	927.62
333.629	918.62
333.857	919.62
334.085	919.62
334.314	941.62
334.542	958.62
334.771	975.62
334.999	953.62
335.227	941.62
335.455	951.62
335.684	954.62
335.912	968.62
336.14	941.62
336.369	942.62
336.597	955.62
336.825	943.62
337.053	973.62
337.281	969.62
337.51	949.62
337.738	962.62
337.966	934.62
338.194	926.62
338.422	953.62
338.65	928.62
338.878	976.62
339.106	943.62
339.334	949.62
339.562	966.62
339.79	960.62
340.018	949.62
340.246	927.62
340.474	929.62
340.702	932.62
340.93	917.62
341.158	914.62
341.386	976.62
341.614	990.62
341.842	964.62
342.07	929.62
342.298	924.62
342.526	922.62
342.754	924.62
342.981	941.62
343.209	920.62
343.437	933.62
343.665	954.62
343.893	965.62
344.12	930.62
344.348	960.62
344.576	979.62
344.804	995.62
345.031	945.62
345.259	936.62
345.487	933.62
345.714	939.62
345.942	974.62
346.17	965.62
346.397	950.62
346.625	897.62
346.853	897.62
347.08	881.62
347.308	922.62
347.535	925.62
347.763	909.62
347.99	906.62
348.218	893.62
348.445	918.62
348.673	911.62
348.9	913.62
349.128	922.62
349.355	923.62
349.583	903.62
349.81	921.62
350.037	881.62
350.265	910.62
350.492	898.62
350.72	888.62
350.947	923.62
351.174	925.62
351.402	935.62
351.629	945.62
351.856	930.62
352.083	917.62
352.311	922.62
352.538	919.62
352.765	919.62
352.992	893.62
353.22	901.62
353.447	857.62
353.674	881.62
353.901	866.62
354.128	893.62
354.355	864.62
354.583	888.62
354.81	863.62
355.037	888.62
355.264	885.62
355.491	892.62
355.718	884.62
355.945	885.62
356.172	883.62
356.399	897.62
356.626	919.62
356.853	898.62
357.08	896.62
357.307	886.62
357.534	901.62
357.761	864.62
357.988	864.62
358.215	896.62
358.441	882.62
358.668	880.62
358.895	887.62
359.122	884.62
359.349	877.62
359.576	886.62
359.802	907.62
360.029	870.62
360.256	884.62
360.483	879.62
360.709	858.62
360.936	921.62
361.163	892.62
361.39	873.62
361.616	898.62
361.843	901.62
362.07	900.62
362.296	955.62
362.523	899.62
362.749	871.62
362.976	877.62
363.203	911.62
363.429	908.62
363.656	891.62
363.882	879.62
364.109	895.62
364.335	882.62
364.562	893.62
364.788	873.62
365.015	898.62
365.241	869.62
365.468	897.62
365.694	900.62
365.92	894.62
366.147	902.62
366.373	890.62
366.599	885.62
366.826	898.62
367.052	900.62
367.278	904.62
367.505	907.62
367.731	913.62
367.957	904.62
368.184	914.62
368.41	875.62
368.636	896.62
368.862	926.62
369.089	903.62
369.315	942.62
369.541	905.62
369.767	881.62
369.993	912.62
370.219	897.62
370.445	935.62
370.672	931.62
370.898	912.62
371.124	914.62
371.35	945.62
371.576	901.62
371.802	898.62
372.028	919.62
372.254	925.62
372.48	951.62
372.706	905.62
372.932	939.62
373.158	916.62
373.384	919.62
373.61	939.62
373.835	950.62
374.061	923.62
374.287	939.62
374.513	927.62
374.739	954.62
374.965	969.62
375.191	916.62
375.416	911.62
375.642	923.62
375.868	899.62
376.094	915.62
376.319	925.62
376.545	892.62
376.771	923.62
376.997	879.62
377.222	908.62
377.448	915.62
377.674	894.62
377.899	902.62
378.125	908.62
378.35	905.62
378.576	911.62
378.802	905.62
379.027	900.62
379.253	911.62
379.478	888.62
379.704	888.62
379.929	878.62
380.155	894.62
380.38	907.62
380.606	902.62
380.831	884.62
381.057	921.62
381.282	911.62
381.507	894.62
381.733	895.62
381.958	904.62
382.184	893.62
382.409	917.62
382.634	894.62
382.86	899.62
383.085	929.62
383.31	895.62
383.535	918.62
383.761	914.62
383.986	904.62
384.211	952.62
384.436	900.62
384.662	921.62
384.887	927.62
385.112	939.62
385.337	968.62
385.562	939.62
385.787	978.62
386.013	959.62
386.238	964.62
386.463	944.62
386.688	978.62
386.913	933.62
387.138	951.62
387.363	969.62
387.588	962.62
387.813	971.62
388.038	967.62
388.263	996.62
388.488	980.62
388.713	963.62
388.938	975.62
389.163	957.62
389.387	954.62
389.612	978.62
389.837	964.62
390.062	952.62
390.287	1028.62
390.512	975.62
390.736	981.62
390.961	986.62
391.186	975.62
391.411	982.62
391.636	967.62
391.86	986.62
392.085	1007.62
392.31	996.62
392.534	974.62
392.759	980.62
392.984	977.62
393.208	993.62
393.433	984.62
393.658	1011.62
393.882	1007.62
394.107	943.62
394.331	982.62
394.556	999.62
394.78	995.62
395.005	985.62
395.229	996.62
395.454	1004.62
395.678	1000.62
395.903	1003.62
396.127	1002.62
396.352	1011.62
396.576	1009.62
396.801	1018.62
397.025	993.62
397.249	1025.62
397.474	1016.62
397.698	1024.62
397.922	1049.62
398.147	1067.62
398.371	1040.62
398.595	1063.62
398.82	1067.62
399.044	1110.62
399.268	1110.62
399.492	1133.62
399.717	1137.62
399.941	1148.62
400.165	1137.62
400.389	1129.62
400.613	1114.62
400.837	1095.62
401.062	1095.62
401.286	1083.62
401.51	1087.62
401.734	1035.62
401.958	1074.62
402.182	1077.62
402.406	1078.62
402.63	1095.62
402.854	1073.62
403.078	1076.62
403.302	1105.62
403.526	1080.62
403.75	1081.62
403.974	1099.62
404.198	1081.62
404.422	1093.62
404.645	1105.62
404.869	1082.62
405.093	1117.62
405.317	1069.62
405.541	1094.62
405.765	1133.62
405.988	1143.62
406.212	1125.62
406.436	1094.62
406.66	1126.62
406.883	1137.62
407.107	1181.62
407.331	1173.62
407.555	1171.62
407.778	1187.62
408.002	1191.62
408.226	1162.62
408.449	1186.62
408.673	1170.62
408.896	1163.62
409.12	1151.62
409.344	1192.62
409.567	1117.62
409.791	1149.62
410.014	1150.62
410.238	1143.62
410.461	1149.62
410.685	1147.62
410.908	1111.62
411.132	1131.62
411.355	1126.62
411.578	1120.62
411.802	1107.62
412.025	1117.62
412.249	1121.62
412.472	1142.62
412.695	1125.62
412.919	1101.62
413.142	1094.62
413.365	1121.62
413.589	1108.62
413.812	1077.62
414.035	1068.62
414.258	1121.62
414.482	1088.62
414.705	1065.62
414.928	1071.62
415.151	1079.62
415.374	1085.62
415.597	1087.62
415.821	1064.62
416.044	1067.62
416.267	1071.62
416.49	1072.62
416.713	1053.62
416.936	1094.62
417.159	1056.62
417.382	1057.62
417.605	1065.62
417.828	1046.62
418.051	1056.62
418.274	1061.62
418.497	1051.62
418.72	1079.62
418.943	1069.62
419.166	1079.62
419.389	1129.62
419.611	1117.62
419.834	1075.62
420.057	1091.62
420.28	1066.62
420.503	1040.62
420.726	1046.62
420.948	1026.62
421.171	1074.62
421.394	1060.62
421.617	1033.62
421.839	1050.62
422.062	1090.62
422.285	1002.62
422.507	1056.62
422.73	1048.62
422.953	1035.62
423.175	1044.62
423.398	1066.62
423.621	1071.62
423.843	1079.62
424.066	1075.62
424.288	1054.62
424.511	1061.62
424.733	1073.62
424.956	1033.62
425.178	1089.62
425.401	1042.62
425.623	1073.62
425.846	1027.62
426.068	1042.62
426.291	1032.62
426.513	1052.62
426.735	1071.62
426.958	1076.62
427.18	1035.62
427.402	1046.62
427.625	1042.62
427.847	1072.62
428.069	1041.62
428.292	1038.62
428.514	1030.62
428.736	1041.62
428.958	1060.62
429.181	1029.62
429.403	1007.62
429.625	1072.62
429.847	1035.62
430.069	1037.62
430.292	1024.62
430.514	995.62
430.736	1043.62
430.958	1050.62
431.18	1047.62
431.402	1051.62
431.624	1007.62
431.846	1039.62
432.068	997.62
432.29	1045.62
432.512	1037.62
432.734	1042.62
432.956	1066.62
433.178	1064.62
433.4	1089.62
433.622	1055.62
433.844	1080.62
434.066	1050.62
434.287	1053.62
434.509	1055.62
434.731	1031.62
434.953	1072.62
435.175	1079.62
435.397	1086.62
435.618	1055.62
435.84	1074.62
436.062	1031.62
436.284	1078.62
436.505	1032.62
436.727	1039.62
436.949	1049.62
437.17	1056.62
437.392	1042.62
437.614	1033.62
437.835	1033.62
438.057	1011.62
438.278	1027.62
438.5	1014.62
438.721	1040.62
438.943	1002.62
439.165	1040.62
439.386	1021.62
439.608	1074.62
439.829	1051.62
440.05	1027.62
440.272	1051.62
440.493	1066.62
440.715	1050.62
440.936	1069.62
441.158	1046.62
441.379	1051.62
441.6	1056.62
441.822	1062.62
442.043	1045.62
442.264	1056.62
442.486	1059.62
442.707	1048.62
442.928	1034.62
443.149	1071.62
443.371	1062.62
443.592	1116.62
443.813	1085.62
444.034	1103.62
444.255	1083.62
444.476	1091.62
444.698	1088.62
444.919	1077.62
445.14	1233.62
445.361	1157.62
445.582	1107.62
445.803	1047.62
446.024	1041.62
446.245	1074.62
446.466	1050.62
446.687	1023.62
446.908	1019.62
447.129	1019.62
447.35	991.62
447.571	981.62
447.792	989.62
448.013	995.62
448.234	987.62
448.455	976.62
448.675	994.62
448.896	987.62
449.117	959.62
449.338	997.62
449.559	970.62
449.779	981.62
450	949.62
450.221	985.62
450.442	968.62
450.662	975.62
450.883	984.62
451.104	995.62
451.324	972.62
451.545	981.62
451.766	947.62
451.986	953.62
452.207	963.62
452.428	999.62
452.648	954.62
452.869	950.62
453.089	922.62
453.31	959.62
453.53	912.62
453.751	950.62
453.971	937.62
454.192	923.62
454.412	924.62
454.633	931.62
454.853	929.62
455.073	912.62
455.294	921.62
455.514	950.62
455.734	949.62
455.955	958.62
456.175	933.62
456.395	921.62
456.616	890.62
456.836	898.62
457.056	954.62
457.276	905.62
457.497	941.62
457.717	945.62
457.937	952.62
458.157	958.62
458.377	923.62
458.598	991.62
458.818	955.62
459.038	952.62
459.258	995.62
459.478	1009.62
459.698	1025.62
459.918	1036.62
460.138	1043.62
460.358	1033.62
460.578	1051.62
460.798	1081.62
461.018	1075.62
461.238	1058.62
461.458	1073.62
461.678	1085.62
461.898	1078.62
462.118	1052.62
462.338	1112.62
462.558	1128.62
462.777	1078.62
462.997	1132.62
463.217	1155.62
463.437	1145.62
463.657	1141.62
463.876	1153.62
464.096	1125.62
464.316	1103.62
464.536	1130.62
464.755	1097.62
464.975	1090.62
465.195	1054.62
465.414	1045.62
465.634	1028.62
465.854	1058.62
466.073	1050.62
466.293	1026.62
466.512	997.62
466.732	985.62
466.951	999.62
467.171	1035.62
467.391	1019.62
467.61	982.62
467.829	974.62
468.049	1016.62
468.268	977.62
468.488	987.62
468.707	991.62
468.927	1021.62
469.146	968.62
469.365	1020.62
469.585	1010.62
469.804	1021.62
470.023	1022.62
470.243	1000.62
470.462	1025.62
470.681	1047.62
470.901	1023.62
471.12	1021.62
471.339	1024.62
471.558	1022.62
471.777	1029.62
471.997	1009.62
472.216	1015.62
472.435	1010.62
472.654	1031.62
472.873	1025.62
473.092	1027.62
473.311	1014.62
473.53	1013.62
473.749	1034.62
473.968	1014.62
474.187	1010.62
474.406	1004.62
474.625	1022.62
474.844	1059.62
475.063	1043.62
475.282	1072.62
475.501	1039.62
475.72	1077.62
475.939	1026.62
476.158	1065.62
476.377	1029.62
476.596	1065.62
476.814	1087.62
477.033	1091.62
477.252	1095.62
477.471	1111.62
477.69	1110.62
477.908	1109.62
478.127	1157.62
478.346	1142.62
478.564	1114.62
478.783	1157.62
479.002	1185.62
479.22	1220.62
479.439	1191.62
479.658	1191.62
479.876	1174.62
480.095	1174.62
480.313	1195.62
480.532	1171.62
480.751	1205.62
480.969	1177.62
481.188	1182.62
481.406	1194.62
481.624	1154.62
481.843	1171.62
482.061	1185.62
482.28	1193.62
482.498	1174.62
482.717	1166.62
482.935	1185.62
483.153	1212.62
483.372	1218.62
483.59	1263.62
483.808	1230.62
484.027	1203.62
484.245	1200.62
484.463	1221.62
484.681	1238.62
484.9	1249.62
485.118	1229.62
485.336	1223.62
485.554	1235.62
485.772	1253.62
485.99	1204.62
486.209	1218.62
486.427	1191.62
486.645	1221.62
486.863	1267.62
487.081	1267.62
487.299	1259.62
487.517	1280.62
487.735	1269.62
487.953	1261.62
488.171	1288.62
488.389	1286.62
488.607	1254.62
488.825	1263.62
489.043	1229.62
489.261	1258.62
489.479	1235.62
489.696	1228.62
489.914	1240.62
490.132	1241.62
490.35	1248.62
490.568	1264.62
490.786	1269.62
491.003	1278.62
491.221	1269.62
491.439	1292.62
491.657	1269.62
491.874	1311.62
492.092	1290.62
492.31	1310.62
492.527	1330.62
492.745	1304.62
492.963	1281.62
493.18	1270.62
493.398	1265.62
493.615	1269.62
493.833	1315.62
494.05	1274.62
494.268	1329.62
494.485	1306.62
494.703	1283.62
494.92	1321.62
495.138	1297.62
495.355	1314.62
495.573	1333.62
495.79	1321.62
496.008	1340.62
496.225	1331.62
