Data from Ni(NO3)2Standard.Agarose3%.GreenCap.LampEnergy5.5.E.O_HRD10591_14-41-23-188.txt Node
Date: Mon Jul 22 14:41:23 EDT 2019
User: cochatt
Spectrometer: HR+D1059
Trigger mode: 1
Integration Time (sec): 1.000000E-1
Scans to average: 1
Electric dark correction enabled: true
Nonlinearity correction enabled: false
Boxcar width: 0
XAxis mode: Wavelengths
Number of Pixels in Spectrum: 2048
>>>>>Begin Spectral Data<<<<<
223.165	-26.25
223.4	-26.25
223.635	-26.25
223.869	-19.25
224.104	-14.25
224.338	-24.25
224.573	-21.25
224.808	-19.25
225.042	0.75
225.277	-4.25
225.511	2.75
225.746	8.75
225.98	3.75
226.215	17.75
226.449	12.75
226.683	24.75
226.918	28.75
227.152	28.75
227.387	21.75
227.621	31.75
227.856	44.75
228.09	46.75
228.324	51.75
228.559	45.75
228.793	46.75
229.027	51.75
229.262	62.75
229.496	55.75
229.73	49.75
229.964	81.75
230.199	72.75
230.433	70.75
230.667	88.75
230.901	89.75
231.136	84.75
231.37	76.75
231.604	64.75
231.838	83.75
232.072	80.75
232.306	75.75
232.541	78.75
232.775	75.75
233.009	86.75
233.243	88.75
233.477	69.75
233.711	70.75
233.945	85.75
234.179	93.75
234.413	85.75
234.647	81.75
234.881	63.75
235.115	66.75
235.349	77.75
235.583	78.75
235.817	77.75
236.051	78.75
236.285	70.75
236.519	80.75
236.753	81.75
236.987	62.75
237.221	77.75
237.455	81.75
237.689	79.75
237.922	78.75
238.156	66.75
238.39	68.75
238.624	70.75
238.858	81.75
239.091	67.75
239.325	60.75
239.559	78.75
239.793	72.75
240.027	81.75
240.26	76.75
240.494	74.75
240.728	81.75
240.961	69.75
241.195	74.75
241.429	70.75
241.662	89.75
241.896	78.75
242.13	77.75
242.363	78.75
242.597	76.75
242.83	62.75
243.064	69.75
243.298	78.75
243.531	77.75
243.765	73.75
243.998	77.75
244.232	74.75
244.465	78.75
244.699	72.75
244.932	78.75
245.166	75.75
245.399	89.75
245.633	68.75
245.866	74.75
246.099	68.75
246.333	73.75
246.566	69.75
246.8	76.75
247.033	77.75
247.266	72.75
247.5	83.75
247.733	74.75
247.966	73.75
248.2	96.75
248.433	78.75
248.666	75.75
248.899	65.75
249.133	74.75
249.366	76.75
249.599	85.75
249.832	77.75
250.066	92.75
250.299	74.75
250.532	86.75
250.765	78.75
250.998	70.75
251.231	75.75
251.465	87.75
251.698	74.75
251.931	65.75
252.164	80.75
252.397	88.75
252.63	77.75
252.863	83.75
253.096	73.75
253.329	66.75
253.562	73.75
253.795	81.75
254.028	65.75
254.261	78.75
254.494	77.75
254.727	80.75
254.96	73.75
255.193	73.75
255.426	63.75
255.659	76.75
255.892	88.75
256.124	77.75
256.357	72.75
256.59	74.75
256.823	68.75
257.056	65.75
257.289	72.75
257.521	78.75
257.754	78.75
257.987	88.75
258.22	81.75
258.452	87.75
258.685	87.75
258.918	63.75
259.151	82.75
259.383	94.75
259.616	88.75
259.849	80.75
260.081	84.75
260.314	81.75
260.547	81.75
260.779	67.75
261.012	74.75
261.244	68.75
261.477	79.75
261.71	74.75
261.942	85.75
262.175	87.75
262.407	88.75
262.64	94.75
262.872	73.75
263.105	67.75
263.337	93.75
263.57	72.75
263.802	80.75
264.035	75.75
264.267	66.75
264.499	80.75
264.732	86.75
264.964	88.75
265.197	67.75
265.429	70.75
265.661	91.75
265.894	76.75
266.126	82.75
266.358	87.75
266.591	74.75
266.823	81.75
267.055	81.75
267.287	80.75
267.52	73.75
267.752	82.75
267.984	89.75
268.216	79.75
268.448	74.75
268.681	76.75
268.913	71.75
269.145	78.75
269.377	76.75
269.609	70.75
269.841	68.75
270.073	87.75
270.306	89.75
270.538	78.75
270.77	83.75
271.002	98.75
271.234	82.75
271.466	69.75
271.698	72.75
271.93	79.75
272.162	80.75
272.394	96.75
272.626	93.75
272.858	75.75
273.09	86.75
273.322	74.75
273.553	91.75
273.785	85.75
274.017	83.75
274.249	68.75
274.481	90.75
274.713	91.75
274.945	95.75
275.176	86.75
275.408	92.75
275.64	63.75
275.872	63.75
276.104	73.75
276.335	74.75
276.567	79.75
276.799	89.75
277.031	87.75
277.262	76.75
277.494	85.75
277.726	88.75
277.957	74.75
278.189	79.75
278.421	59.75
278.652	76.75
278.884	77.75
279.115	86.75
279.347	83.75
279.579	76.75
279.81	73.75
280.042	82.75
280.273	74.75
280.505	84.75
280.736	82.75
280.968	82.75
281.199	80.75
281.431	78.75
281.662	89.75
281.894	86.75
282.125	67.75
282.356	84.75
282.588	84.75
282.819	71.75
283.051	81.75
283.282	88.75
283.513	84.75
283.745	89.75
283.976	87.75
284.207	81.75
284.439	66.75
284.67	73.75
284.901	77.75
285.132	77.75
285.364	78.75
285.595	94.75
285.826	87.75
286.057	78.75
286.288	74.75
286.52	75.75
286.751	86.75
286.982	85.75
287.213	85.75
287.444	84.75
287.675	77.75
287.906	86.75
288.138	80.75
288.369	86.75
288.6	80.75
288.831	69.75
289.062	78.75
289.293	82.75
289.524	82.75
289.755	78.75
289.986	80.75
290.217	72.75
290.448	82.75
290.679	89.75
290.91	86.75
291.141	73.75
291.371	88.75
291.602	86.75
291.833	86.75
292.064	88.75
292.295	80.75
292.526	68.75
292.757	82.75
292.987	82.75
293.218	72.75
293.449	75.75
293.68	85.75
293.91	79.75
294.141	97.75
294.372	89.75
294.603	79.75
294.833	75.75
295.064	77.75
295.295	77.75
295.525	77.75
295.756	80.75
295.987	72.75
296.217	80.75
296.448	84.75
296.679	86.75
296.909	85.75
297.14	85.75
297.37	91.75
297.601	91.75
297.831	83.75
298.062	80.75
298.292	69.75
298.523	78.75
298.753	82.75
298.984	84.75
299.214	79.75
299.445	82.75
299.675	80.75
299.905	83.75
300.136	93.75
300.366	70.75
300.597	75.75
300.827	91.75
301.057	87.75
301.288	86.75
301.518	80.75
301.748	81.75
301.979	83.75
302.209	73.75
302.439	73.75
302.669	62.75
302.9	87.75
303.13	82.75
303.36	91.75
303.59	78.75
303.82	93.75
304.051	82.75
304.281	78.75
304.511	92.75
304.741	83.75
304.971	81.75
305.201	76.75
305.431	84.75
305.661	85.75
305.891	82.75
306.121	83.75
306.352	74.75
306.582	86.75
306.812	82.75
307.042	84.75
307.272	97.75
307.502	85.75
307.731	84.75
307.961	93.75
308.191	88.75
308.421	82.75
308.651	102.75
308.881	91.75
309.111	82.75
309.341	85.75
309.571	95.75
309.8	81.75
310.03	81.75
310.26	81.75
310.49	66.75
310.72	80.75
310.949	86.75
311.179	72.75
311.409	78.75
311.639	70.75
311.868	78.75
312.098	99.75
312.328	89.75
312.557	93.75
312.787	86.75
313.017	89.75
313.246	82.75
313.476	87.75
313.706	91.75
313.935	93.75
314.165	95.75
314.394	89.75
314.624	70.75
314.853	78.75
315.083	67.75
315.312	88.75
315.542	96.75
315.771	79.75
316.001	69.75
316.23	78.75
316.46	88.75
316.689	82.75
316.919	94.75
317.148	103.75
317.377	75.75
317.607	72.75
317.836	79.75
318.065	89.75
318.295	81.75
318.524	81.75
318.753	74.75
318.983	81.75
319.212	86.75
319.441	81.75
319.67	81.75
319.9	73.75
320.129	67.75
320.358	95.75
320.587	92.75
320.816	74.75
321.046	78.75
321.275	85.75
321.504	72.75
321.733	78.75
321.962	81.75
322.191	80.75
322.42	73.75
322.649	78.75
322.878	87.75
323.108	80.75
323.337	83.75
323.566	87.75
323.795	82.75
324.024	89.75
324.253	80.75
324.482	73.75
324.71	90.75
324.939	91.75
325.168	86.75
325.397	80.75
325.626	76.75
325.855	75.75
326.084	73.75
326.313	76.75
326.542	76.75
326.77	73.75
326.999	89.75
327.228	87.75
327.457	70.75
327.686	84.75
327.914	92.75
328.143	95.75
328.372	81.75
328.6	74.75
328.829	92.75
329.058	78.75
329.287	87.75
329.515	85.75
329.744	75.75
329.972	74.75
330.201	76.75
330.43	82.75
330.658	70.75
330.887	81.75
331.115	83.75
331.344	80.75
331.572	83.75
331.801	86.75
332.03	88.75
332.258	72.75
332.486	81.75
332.715	89.75
332.943	77.75
333.172	89.75
333.4	84.75
333.629	69.75
333.857	98.75
334.085	73.75
334.314	80.75
334.542	92.75
334.771	91.75
334.999	68.75
335.227	92.75
335.455	82.75
335.684	102.75
335.912	78.75
336.14	79.75
336.369	79.75
336.597	78.75
336.825	70.75
337.053	84.75
337.281	79.75
337.51	93.75
337.738	92.75
337.966	86.75
338.194	89.75
338.422	92.75
338.65	91.75
338.878	89.75
339.106	74.75
339.334	83.75
339.562	84.75
339.79	88.75
340.018	87.75
340.246	86.75
340.474	85.75
340.702	97.75
340.93	81.75
341.158	92.75
341.386	79.75
341.614	78.75
341.842	86.75
342.07	90.75
342.298	77.75
342.526	80.75
342.754	77.75
342.981	84.75
343.209	87.75
343.437	77.75
343.665	84.75
343.893	99.75
344.12	86.75
344.348	90.75
344.576	75.75
344.804	82.75
345.031	83.75
345.259	82.75
345.487	75.75
345.714	92.75
345.942	78.75
346.17	72.75
346.397	80.75
346.625	76.75
346.853	75.75
347.08	86.75
347.308	79.75
347.535	85.75
347.763	81.75
347.99	83.75
348.218	81.75
348.445	86.75
348.673	67.75
348.9	80.75
349.128	62.75
349.355	85.75
349.583	90.75
349.81	84.75
350.037	87.75
350.265	68.75
350.492	85.75
350.72	75.75
350.947	76.75
351.174	81.75
351.402	74.75
351.629	79.75
351.856	75.75
352.083	74.75
352.311	71.75
352.538	79.75
352.765	74.75
352.992	74.75
353.22	81.75
353.447	75.75
353.674	88.75
353.901	92.75
354.128	94.75
354.355	70.75
354.583	93.75
354.81	93.75
355.037	84.75
355.264	88.75
355.491	82.75
355.718	80.75
355.945	83.75
356.172	72.75
356.399	94.75
356.626	82.75
356.853	93.75
357.08	96.75
357.307	79.75
357.534	78.75
357.761	84.75
357.988	82.75
358.215	79.75
358.441	85.75
358.668	97.75
358.895	83.75
359.122	73.75
359.349	72.75
359.576	88.75
359.802	73.75
360.029	86.75
360.256	77.75
360.483	69.75
360.709	87.75
360.936	70.75
361.163	62.75
361.39	93.75
361.616	94.75
361.843	81.75
362.07	78.75
362.296	89.75
362.523	80.75
362.749	65.75
362.976	82.75
363.203	72.75
363.429	79.75
363.656	88.75
363.882	76.75
364.109	79.75
364.335	72.75
364.562	79.75
364.788	81.75
365.015	73.75
365.241	74.75
365.468	78.75
365.694	85.75
365.92	88.75
366.147	75.75
366.373	82.75
366.599	81.75
366.826	80.75
367.052	77.75
367.278	80.75
367.505	82.75
367.731	83.75
367.957	78.75
368.184	88.75
368.41	82.75
368.636	87.75
368.862	80.75
369.089	86.75
369.315	85.75
369.541	72.75
369.767	80.75
369.993	83.75
370.219	88.75
370.445	97.75
370.672	66.75
370.898	88.75
371.124	77.75
371.35	70.75
371.576	89.75
371.802	88.75
372.028	86.75
372.254	82.75
372.48	67.75
372.706	84.75
372.932	82.75
373.158	80.75
373.384	87.75
373.61	69.75
373.835	71.75
374.061	82.75
374.287	88.75
374.513	70.75
374.739	84.75
374.965	79.75
375.191	81.75
375.416	79.75
375.642	80.75
375.868	85.75
376.094	84.75
376.319	74.75
376.545	84.75
376.771	76.75
376.997	87.75
377.222	83.75
377.448	95.75
377.674	81.75
377.899	94.75
378.125	94.75
378.35	87.75
378.576	81.75
378.802	91.75
379.027	87.75
379.253	93.75
379.478	85.75
379.704	80.75
379.929	85.75
380.155	71.75
380.38	86.75
380.606	87.75
380.831	76.75
381.057	96.75
381.282	72.75
381.507	75.75
381.733	80.75
381.958	88.75
382.184	93.75
382.409	72.75
382.634	75.75
382.86	86.75
383.085	74.75
383.31	82.75
383.535	73.75
383.761	73.75
383.986	72.75
384.211	92.75
384.436	79.75
384.662	74.75
384.887	76.75
385.112	70.75
385.337	77.75
385.562	81.75
385.787	77.75
386.013	95.75
386.238	89.75
386.463	73.75
386.688	82.75
386.913	72.75
387.138	85.75
387.363	80.75
387.588	83.75
387.813	95.75
388.038	74.75
388.263	88.75
388.488	80.75
388.713	77.75
388.938	81.75
389.163	64.75
389.387	70.75
389.612	76.75
389.837	81.75
390.062	89.75
390.287	75.75
390.512	94.75
390.736	75.75
390.961	97.75
391.186	85.75
391.411	62.75
391.636	84.75
391.86	89.75
392.085	82.75
392.31	82.75
392.534	80.75
392.759	76.75
392.984	94.75
393.208	75.75
393.433	70.75
393.658	81.75
393.882	81.75
394.107	82.75
394.331	92.75
394.556	79.75
394.78	82.75
395.005	71.75
395.229	71.75
395.454	93.75
395.678	75.75
395.903	72.75
396.127	81.75
396.352	89.75
396.576	69.75
396.801	71.75
397.025	87.75
397.249	85.75
397.474	76.75
397.698	73.75
397.922	87.75
398.147	80.75
398.371	86.75
398.595	78.75
398.82	82.75
399.044	91.75
399.268	84.75
399.492	80.75
399.717	77.75
399.941	74.75
400.165	82.75
400.389	76.75
400.613	88.75
400.837	70.75
401.062	77.75
401.286	72.75
401.51	79.75
401.734	82.75
401.958	77.75
402.182	88.75
402.406	77.75
402.63	82.75
402.854	72.75
403.078	73.75
403.302	72.75
403.526	81.75
403.75	93.75
403.974	68.75
404.198	68.75
404.422	81.75
404.645	87.75
404.869	91.75
405.093	88.75
405.317	75.75
405.541	84.75
405.765	80.75
405.988	85.75
406.212	87.75
406.436	80.75
406.66	101.75
406.883	86.75
407.107	76.75
407.331	88.75
407.555	78.75
407.778	81.75
408.002	85.75
408.226	83.75
408.449	78.75
408.673	86.75
408.896	76.75
409.12	83.75
409.344	78.75
409.567	77.75
409.791	72.75
410.014	80.75
410.238	69.75
410.461	78.75
410.685	82.75
410.908	75.75
411.132	80.75
411.355	69.75
411.578	83.75
411.802	68.75
412.025	80.75
412.249	86.75
412.472	79.75
412.695	76.75
412.919	81.75
413.142	81.75
413.365	69.75
413.589	86.75
413.812	72.75
414.035	93.75
414.258	97.75
414.482	83.75
414.705	81.75
414.928	80.75
415.151	76.75
415.374	71.75
415.597	79.75
415.821	80.75
416.044	85.75
416.267	73.75
416.49	78.75
416.713	91.75
416.936	69.75
417.159	69.75
417.382	82.75
417.605	90.75
417.828	87.75
418.051	82.75
418.274	84.75
418.497	61.75
418.72	80.75
418.943	79.75
419.166	89.75
419.389	92.75
419.611	72.75
419.834	82.75
420.057	78.75
420.28	83.75
420.503	83.75
420.726	86.75
420.948	87.75
421.171	67.75
421.394	95.75
421.617	83.75
421.839	75.75
422.062	80.75
422.285	87.75
422.507	80.75
422.73	86.75
422.953	83.75
423.175	68.75
423.398	78.75
423.621	83.75
423.843	79.75
424.066	69.75
424.288	81.75
424.511	72.75
424.733	77.75
424.956	81.75
425.178	77.75
425.401	85.75
425.623	62.75
425.846	80.75
426.068	89.75
426.291	77.75
426.513	91.75
426.735	93.75
426.958	79.75
427.18	84.75
427.402	94.75
427.625	92.75
427.847	88.75
428.069	89.75
428.292	72.75
428.514	82.75
428.736	85.75
428.958	84.75
429.181	79.75
429.403	68.75
429.625	83.75
429.847	85.75
430.069	73.75
430.292	84.75
430.514	73.75
430.736	74.75
430.958	73.75
431.18	81.75
431.402	93.75
431.624	68.75
431.846	77.75
432.068	73.75
432.29	86.75
432.512	77.75
432.734	92.75
432.956	80.75
433.178	86.75
433.4	87.75
433.622	84.75
433.844	79.75
434.066	73.75
434.287	76.75
434.509	74.75
434.731	82.75
434.953	85.75
435.175	91.75
435.397	90.75
435.618	87.75
435.84	92.75
436.062	75.75
436.284	70.75
436.505	76.75
436.727	80.75
436.949	87.75
437.17	81.75
437.392	68.75
437.614	76.75
437.835	74.75
438.057	76.75
438.278	82.75
438.5	80.75
438.721	74.75
438.943	78.75
439.165	84.75
439.386	75.75
439.608	84.75
439.829	79.75
440.05	78.75
440.272	86.75
440.493	85.75
440.715	75.75
440.936	66.75
441.158	81.75
441.379	89.75
441.6	85.75
441.822	82.75
442.043	89.75
442.264	77.75
442.486	81.75
442.707	73.75
442.928	88.75
443.149	75.75
443.371	79.75
443.592	85.75
443.813	74.75
444.034	82.75
444.255	89.75
444.476	82.75
444.698	73.75
444.919	71.75
445.14	175.75
445.361	128.75
445.582	90.75
445.803	83.75
446.024	89.75
446.245	84.75
446.466	80.75
446.687	72.75
446.908	87.75
447.129	89.75
447.35	99.75
447.571	75.75
447.792	75.75
448.013	77.75
448.234	79.75
448.455	90.75
448.675	85.75
448.896	92.75
449.117	90.75
449.338	89.75
449.559	89.75
449.779	82.75
450	78.75
450.221	82.75
450.442	79.75
450.662	79.75
450.883	69.75
451.104	84.75
451.324	78.75
451.545	85.75
451.766	89.75
451.986	82.75
452.207	89.75
452.428	82.75
452.648	66.75
452.869	89.75
453.089	81.75
453.31	93.75
453.53	84.75
453.751	96.75
453.971	75.75
454.192	96.75
454.412	84.75
454.633	70.75
454.853	80.75
455.073	85.75
455.294	66.75
455.514	65.75
455.734	94.75
455.955	77.75
456.175	69.75
456.395	89.75
456.616	90.75
456.836	90.75
457.056	82.75
457.276	61.75
457.497	76.75
457.717	80.75
457.937	83.75
458.157	76.75
458.377	71.75
458.598	84.75
458.818	79.75
459.038	90.75
459.258	90.75
459.478	81.75
459.698	80.75
459.918	79.75
460.138	72.75
460.358	101.75
460.578	87.75
460.798	86.75
461.018	87.75
461.238	78.75
461.458	83.75
461.678	84.75
461.898	92.75
462.118	71.75
462.338	87.75
462.558	83.75
462.777	85.75
462.997	92.75
463.217	70.75
463.437	80.75
463.657	86.75
463.876	69.75
464.096	85.75
464.316	85.75
464.536	90.75
464.755	92.75
464.975	85.75
465.195	69.75
465.414	85.75
465.634	77.75
465.854	89.75
466.073	71.75
466.293	90.75
466.512	73.75
466.732	72.75
466.951	86.75
467.171	86.75
467.391	83.75
467.61	72.75
467.829	88.75
468.049	80.75
468.268	78.75
468.488	78.75
468.707	83.75
468.927	80.75
469.146	86.75
469.365	94.75
469.585	90.75
469.804	85.75
470.023	70.75
470.243	87.75
470.462	73.75
470.681	94.75
470.901	79.75
471.12	87.75
471.339	82.75
471.558	86.75
471.777	97.75
471.997	73.75
472.216	87.75
472.435	73.75
472.654	101.75
472.873	90.75
473.092	72.75
473.311	81.75
473.53	74.75
473.749	88.75
473.968	71.75
474.187	83.75
474.406	74.75
474.625	86.75
474.844	74.75
475.063	74.75
475.282	87.75
475.501	93.75
475.72	85.75
475.939	81.75
476.158	80.75
476.377	75.75
476.596	89.75
476.814	84.75
477.033	79.75
477.252	86.75
477.471	75.75
477.69	80.75
477.908	80.75
478.127	82.75
478.346	95.75
478.564	80.75
478.783	85.75
479.002	101.75
479.22	95.75
479.439	85.75
479.658	103.75
479.876	100.75
480.095	90.75
480.313	86.75
480.532	89.75
480.751	98.75
480.969	80.75
481.188	79.75
481.406	82.75
481.624	82.75
481.843	73.75
482.061	85.75
482.28	88.75
482.498	81.75
482.717	88.75
482.935	93.75
483.153	85.75
483.372	85.75
483.59	93.75
483.808	89.75
484.027	85.75
484.245	75.75
484.463	93.75
484.681	93.75
484.9	83.75
485.118	89.75
485.336	83.75
485.554	83.75
485.772	91.75
485.99	78.75
486.209	79.75
486.427	80.75
486.645	92.75
486.863	74.75
487.081	99.75
487.299	84.75
487.517	96.75
487.735	89.75
487.953	101.75
488.171	95.75
488.389	89.75
488.607	78.75
488.825	75.75
489.043	97.75
489.261	98.75
489.479	93.75
489.696	94.75
489.914	84.75
490.132	83.75
490.35	108.75
490.568	92.75
490.786	83.75
491.003	85.75
491.221	89.75
491.439	99.75
491.657	89.75
491.874	97.75
492.092	96.75
492.31	110.75
492.527	97.75
492.745	87.75
492.963	80.75
493.18	98.75
493.398	100.75
493.615	88.75
493.833	84.75
494.05	97.75
494.268	91.75
494.485	87.75
494.703	92.75
494.92	98.75
495.138	72.75
495.355	88.75
495.573	87.75
495.79	99.75
496.008	102.75
496.225	84.75
496.442	90.75
496.66	94.75
496.877	94.75
497.094	90.75
497.312	97.75
497.529	87.75
497.746	89.75
497.963	80.75
498.181	86.75
498.398	81.75
498.615	103.75
498.832	113.75
499.049	97.75
499.267	99.75
499.484	81.75
499.701	91.75
499.918	108.75
500.135	97.75
500.352	112.75
500.569	114.75
500.786	120.75
501.003	101.75
501.22	114.75
501.437	96.75
501.654	97.75
501.871	108.75
502.088	93.75
502.305	97.75
502.522	81.75
502.739	108.75
502.956	96.75
503.172	80.75
503.389	95.75
503.606	74.75
503.823	78.75
504.04	95.75
504.256	93.75
504.473	102.75
504.69	95.75
504.907	81.75
505.123	81.75
505.34	87.75
505.557	84.75
505.773	88.75
505.99	92.75
506.207	92.75
506.423	89.75
506.64	70.75
506.856	80.75
507.073	87.75
507.289	101.75
507.506	86.75
507.722	81.75
507.939	94.75
508.155	98.75
508.372	108.75
508.588	87.75
508.805	81.75
509.021	92.75
509.238	89.75
509.454	90.75
509.67	81.75
509.887	79.75
510.103	84.75
510.319	77.75
510.536	82.75
510.752	87.75
510.968	82.75
511.184	73.75
511.401	78.75
511.617	89.75
511.833	87.75
512.049	90.75
512.265	77.75
512.481	88.75
512.698	85.75
512.914	90.75
513.13	102.75
513.346	84.75
513.562	88.75
513.778	96.75
513.994	70.75
514.21	81.75
514.426	90.75
514.642	96.75
514.858	78.75
515.074	87.75
515.29	85.75
515.506	92.75
515.721	92.75
515.937	94.75
516.153	81.75
516.369	99.75
516.585	95.75
516.801	92.75
517.016	72.75
517.232	90.75
517.448	78.75
517.664	81.75
517.879	86.75
518.095	76.75
518.311	106.75
518.527	99.75
518.742	104.75
518.958	96.75
