Data from Ni(NO3)2@0.25M.TitratingCurve.Agarose3%dH2O.NegLispCup.LampEnergy10.LIBS07252019_HRD10591_18-03-22-566.txt Node
Date: Thu Jul 25 18:03:22 EDT 2019
User: cochatt
Spectrometer: HR+D1059
Trigger mode: 1
Integration Time (sec): 1.000000E-1
Scans to average: 1
Electric dark correction enabled: true
Nonlinearity correction enabled: false
Boxcar width: 0
XAxis mode: Wavelengths
Number of Pixels in Spectrum: 2048
>>>>>Begin Spectral Data<<<<<
223.165	-10
223.4	-10
223.635	-10
223.869	-11
224.104	-14
224.338	-2
224.573	-14
224.808	-19
225.042	-20
225.277	-16
225.511	2
225.746	-4
225.98	3
226.215	8
226.449	26
226.683	23
226.918	20
227.152	28
227.387	23
227.621	27
227.856	34
228.09	45
228.324	56
228.559	61
228.793	60
229.027	79
229.262	66
229.496	85
229.73	79
229.964	72
230.199	82
230.433	95
230.667	89
230.901	97
231.136	94
231.37	98
231.604	87
231.838	85
232.072	98
232.306	106
232.541	98
232.775	94
233.009	99
233.243	92
233.477	87
233.711	78
233.945	99
234.179	93
234.413	92
234.647	105
234.881	96
235.115	86
235.349	95
235.583	92
235.817	88
236.051	80
236.285	97
236.519	107
236.753	90
236.987	99
237.221	98
237.455	91
237.689	70
237.922	91
238.156	78
238.39	92
238.624	79
238.858	90
239.091	85
239.325	90
239.559	89
239.793	100
240.027	96
240.26	100
240.494	88
240.728	92
240.961	95
241.195	95
241.429	84
241.662	81
241.896	86
242.13	98
242.363	96
242.597	90
242.83	110
243.064	97
243.298	90
243.531	97
243.765	105
243.998	100
244.232	111
244.465	101
244.699	108
244.932	93
245.166	106
245.399	103
245.633	99
245.866	120
246.099	110
246.333	105
246.566	116
246.8	136
247.033	111
247.266	120
247.5	122
247.733	124
247.966	107
248.2	128
248.433	137
248.666	133
248.899	140
249.133	132
249.366	144
249.599	123
249.832	161
250.066	156
250.299	151
250.532	153
250.765	153
250.998	153
251.231	180
251.465	190
251.698	181
251.931	172
252.164	178
252.397	161
252.63	182
252.863	175
253.096	174
253.329	183
253.562	207
253.795	209
254.028	223
254.261	217
254.494	213
254.727	210
254.96	222
255.193	238
255.426	236
255.659	248
255.892	217
256.124	229
256.357	246
256.59	239
256.823	238
257.056	238
257.289	262
257.521	266
257.754	269
257.987	274
258.22	264
258.452	261
258.685	259
258.918	265
259.151	265
259.383	297
259.616	278
259.849	293
260.081	278
260.314	288
260.547	293
260.779	275
261.012	288
261.244	288
261.477	290
261.71	295
261.942	290
262.175	320
262.407	308
262.64	301
262.872	292
263.105	330
263.337	326
263.57	323
263.802	317
264.035	317
264.267	328
264.499	316
264.732	312
264.964	327
265.197	321
265.429	321
265.661	319
265.894	308
266.126	327
266.358	320
266.591	312
266.823	327
267.055	309
267.287	325
267.52	317
267.752	326
267.984	333
268.216	313
268.448	334
268.681	318
268.913	342
269.145	328
269.377	326
269.609	322
269.841	325
270.073	336
270.306	328
270.538	326
270.77	343
271.002	318
271.234	325
271.466	345
271.698	335
271.93	324
272.162	349
272.394	328
272.626	341
272.858	333
273.09	352
273.322	341
273.553	326
273.785	337
274.017	322
274.249	350
274.481	358
274.713	337
274.945	328
275.176	338
275.408	336
275.64	336
275.872	324
276.104	342
276.335	342
276.567	340
276.799	351
277.031	341
277.262	340
277.494	338
277.726	348
277.957	349
278.189	348
278.421	349
278.652	351
278.884	340
279.115	344
279.347	338
279.579	343
279.81	340
280.042	324
280.273	340
280.505	338
280.736	349
280.968	339
281.199	341
281.431	347
281.662	343
281.894	328
282.125	326
282.356	336
282.588	345
282.819	336
283.051	332
283.282	331
283.513	350
283.745	325
283.976	321
284.207	336
284.439	326
284.67	336
284.901	318
285.132	320
285.364	322
285.595	322
285.826	317
286.057	325
286.288	337
286.52	327
286.751	336
286.982	322
287.213	334
287.444	322
287.675	319
287.906	307
288.138	327
288.369	286
288.6	333
288.831	326
289.062	328
289.293	334
289.524	318
289.755	322
289.986	320
290.217	319
290.448	335
290.679	337
290.91	324
291.141	314
291.371	326
291.602	313
291.833	311
292.064	323
292.295	323
292.526	297
292.757	311
292.987	342
293.218	309
293.449	322
293.68	314
293.91	321
294.141	308
294.372	302
294.603	324
294.833	320
295.064	309
295.295	304
295.525	316
295.756	315
295.987	320
296.217	329
296.448	318
296.679	300
296.909	308
297.14	325
297.37	316
297.601	302
297.831	330
298.062	328
298.292	330
298.523	317
298.753	313
298.984	336
299.214	319
299.445	316
299.675	332
299.905	321
300.136	334
300.366	340
300.597	331
300.827	348
301.057	335
301.288	329
301.518	330
301.748	334
301.979	341
302.209	337
302.439	343
302.669	345
302.9	357
303.13	333
303.36	341
303.59	330
303.82	351
304.051	348
304.281	351
304.511	345
304.741	349
304.971	344
305.201	346
305.431	368
305.661	356
305.891	368
306.121	376
306.352	356
306.582	367
306.812	352
307.042	364
307.272	368
307.502	359
307.731	367
307.961	362
308.191	343
308.421	364
308.651	371
308.881	376
309.111	387
309.341	374
309.571	380
309.8	386
310.03	389
310.26	371
310.49	402
310.72	405
310.949	420
311.179	417
311.409	409
311.639	412
311.868	421
312.098	424
312.328	418
312.557	419
312.787	426
313.017	430
313.246	441
313.476	447
313.706	457
313.935	442
314.165	461
314.394	448
314.624	455
314.853	456
315.083	495
315.312	474
315.542	487
315.771	478
316.001	508
316.23	483
316.46	479
316.689	532
316.919	510
317.148	510
317.377	526
317.607	530
317.836	522
318.065	556
318.295	532
318.524	546
318.753	558
318.983	561
319.212	553
319.441	565
319.67	545
319.9	567
320.129	581
320.358	573
320.587	581
320.816	582
321.046	620
321.275	606
321.504	622
321.733	613
321.962	618
322.191	626
322.42	632
322.649	652
322.878	635
323.108	644
323.337	676
323.566	659
323.795	690
324.024	687
324.253	688
324.482	692
324.71	678
324.939	709
325.168	740
325.397	708
325.626	710
325.855	732
326.084	735
326.313	768
326.542	759
326.77	775
326.999	741
327.228	711
327.457	775
327.686	773
327.914	770
328.143	781
328.372	770
328.6	796
328.829	798
329.058	813
329.287	776
329.515	816
329.744	831
329.972	837
330.201	804
330.43	857
330.658	826
330.887	838
331.115	833
331.344	840
331.572	864
331.801	865
332.03	870
332.258	890
332.486	857
332.715	886
332.943	894
333.172	900
333.4	926
333.629	901
333.857	928
334.085	918
334.314	966
334.542	975
334.771	956
334.999	930
335.227	970
335.455	946
335.684	947
335.912	969
336.14	968
336.369	930
336.597	970
336.825	977
337.053	973
337.281	949
337.51	970
337.738	964
337.966	988
338.194	973
338.422	952
338.65	957
338.878	925
339.106	949
339.334	956
339.562	944
339.79	922
340.018	937
340.246	940
340.474	944
340.702	984
340.93	959
341.158	919
341.386	942
341.614	978
341.842	934
342.07	973
342.298	933
342.526	962
342.754	925
342.981	946
343.209	968
343.437	997
343.665	985
343.893	961
344.12	989
344.348	964
344.576	960
344.804	986
345.031	986
345.259	980
345.487	960
345.714	982
345.942	950
346.17	957
346.397	965
346.625	959
346.853	979
347.08	950
347.308	930
347.535	960
347.763	941
347.99	936
348.218	951
348.445	914
348.673	917
348.9	940
349.128	936
349.355	938
349.583	924
349.81	892
350.037	912
350.265	906
350.492	914
350.72	922
350.947	918
351.174	920
351.402	940
351.629	917
351.856	904
352.083	919
352.311	869
352.538	914
352.765	893
352.992	908
353.22	912
353.447	897
353.674	889
353.901	917
354.128	923
354.355	934
354.583	901
354.81	925
355.037	922
355.264	917
355.491	896
355.718	924
355.945	917
356.172	905
356.399	897
356.626	921
356.853	906
357.08	895
357.307	889
357.534	885
357.761	896
357.988	902
358.215	924
358.441	881
358.668	915
358.895	914
359.122	896
359.349	928
359.576	884
359.802	912
360.029	878
360.256	904
360.483	903
360.709	900
360.936	897
361.163	866
361.39	865
361.616	885
361.843	887
362.07	875
362.296	881
362.523	886
362.749	893
362.976	872
363.203	909
363.429	864
363.656	871
363.882	873
364.109	865
364.335	866
364.562	881
364.788	912
365.015	890
365.241	881
365.468	893
365.694	886
365.92	878
366.147	889
366.373	901
366.599	893
366.826	882
367.052	863
367.278	878
367.505	865
367.731	883
367.957	902
368.184	876
368.41	880
368.636	877
368.862	879
369.089	901
369.315	884
369.541	866
369.767	861
369.993	864
370.219	855
370.445	888
370.672	878
370.898	854
371.124	848
371.35	857
371.576	872
371.802	860
372.028	862
372.254	840
372.48	844
372.706	868
372.932	862
373.158	871
373.384	858
373.61	861
373.835	854
374.061	821
374.287	841
374.513	856
374.739	873
374.965	877
375.191	841
375.416	853
375.642	848
375.868	854
376.094	847
376.319	847
376.545	839
376.771	834
376.997	810
377.222	826
377.448	801
377.674	821
377.899	806
378.125	806
378.35	803
378.576	792
378.802	803
379.027	825
379.253	814
379.478	800
379.704	797
379.929	772
380.155	798
380.38	786
380.606	790
380.831	825
381.057	802
381.282	786
381.507	794
381.733	825
381.958	782
382.184	790
382.409	790
382.634	806
382.86	801
383.085	801
383.31	790
383.535	820
383.761	777
383.986	776
384.211	805
384.436	799
384.662	800
384.887	804
385.112	830
385.337	818
385.562	814
385.787	822
386.013	839
386.238	832
386.463	824
386.688	817
386.913	814
387.138	825
387.363	826
387.588	823
387.813	836
388.038	841
388.263	807
388.488	817
388.713	816
388.938	827
389.163	792
389.387	829
389.612	838
389.837	836
390.062	821
390.287	820
390.512	849
390.736	847
390.961	849
391.186	822
391.411	832
391.636	840
391.86	853
392.085	834
392.31	865
392.534	838
392.759	844
392.984	824
393.208	845
393.433	851
393.658	844
393.882	847
394.107	826
394.331	848
394.556	848
394.78	848
395.005	863
395.229	862
395.454	846
395.678	857
395.903	865
396.127	855
396.352	865
396.576	858
396.801	848
397.025	872
397.249	863
397.474	866
397.698	889
397.922	900
398.147	869
398.371	890
398.595	906
398.82	924
399.044	921
399.268	939
399.492	1004
399.717	1040
399.941	1041
400.165	980
400.389	987
400.613	940
400.837	952
401.062	963
401.286	977
401.51	959
401.734	954
401.958	946
402.182	940
402.406	920
402.63	953
402.854	956
403.078	950
403.302	949
403.526	973
403.75	962
403.974	976
404.198	928
404.422	975
404.645	964
404.869	984
405.093	991
405.317	981
405.541	984
405.765	974
405.988	1022
406.212	1030
406.436	988
406.66	1022
406.883	1014
407.107	1048
407.331	1065
407.555	1065
407.778	1053
408.002	1068
408.226	1038
408.449	1050
408.673	1034
408.896	1056
409.12	1042
409.344	1062
409.567	1026
409.791	1030
410.014	1051
410.238	1047
410.461	1056
410.685	1045
410.908	1000
411.132	1024
411.355	1001
411.578	1044
411.802	1009
412.025	1056
412.249	1009
412.472	1028
412.695	1034
412.919	1003
413.142	1049
413.365	1030
413.589	1033
413.812	1004
414.035	1022
414.258	995
414.482	978
414.705	1039
414.928	1055
415.151	1008
415.374	1036
415.597	1050
415.821	1015
416.044	1033
416.267	988
416.49	1007
416.713	1024
416.936	1008
417.159	1030
417.382	1025
417.605	1009
417.828	1007
418.051	1032
418.274	1010
418.497	989
418.72	1001
418.943	1031
419.166	1049
419.389	1161
419.611	1125
419.834	1080
420.057	1061
420.28	1045
420.503	1011
420.726	1034
420.948	1012
421.171	1041
421.394	1080
421.617	1013
421.839	1005
422.062	1001
422.285	1034
422.507	1070
422.73	1030
422.953	1068
423.175	1071
423.398	1071
423.621	1069
423.843	1048
424.066	1093
424.288	1074
424.511	1089
424.733	1063
424.956	1072
425.178	1046
425.401	1042
425.623	1076
425.846	1069
426.068	1060
426.291	1085
426.513	1067
426.735	1045
426.958	1065
427.18	1056
427.402	1058
427.625	1051
427.847	1052
428.069	1042
428.292	1069
428.514	1058
428.736	1070
428.958	1129
429.181	1064
429.403	1051
429.625	1088
429.847	1053
430.069	1070
430.292	1063
430.514	1072
430.736	1080
430.958	1074
431.18	1072
431.402	1102
431.624	1096
431.846	1053
432.068	1057
432.29	1106
432.512	1065
432.734	1111
432.956	1103
433.178	1110
433.4	1079
433.622	1113
433.844	1120
434.066	1117
434.287	1100
434.509	1122
434.731	1131
434.953	1130
435.175	1114
435.397	1113
435.618	1141
435.84	1109
436.062	1099
436.284	1080
436.505	1104
436.727	1108
436.949	1109
437.17	1097
437.392	1100
437.614	1109
437.835	1073
438.057	1079
438.278	1048
438.5	1104
438.721	1077
438.943	1092
439.165	1102
439.386	1127
439.608	1090
439.829	1108
440.05	1093
440.272	1131
440.493	1092
440.715	1065
440.936	1136
441.158	1100
441.379	1140
441.6	1127
441.822	1116
442.043	1137
442.264	1141
442.486	1119
442.707	1148
442.928	1150
443.149	1139
443.371	1120
443.592	1139
443.813	1124
444.034	1103
444.255	1136
444.476	1138
444.698	1142
444.919	1171
445.14	1262
445.361	1150
445.582	1150
445.803	1142
446.024	1094
446.245	1127
446.466	1133
446.687	1093
446.908	1138
447.129	1096
447.35	1069
447.571	1105
447.792	1065
448.013	1079
448.234	1073
448.455	1060
448.675	1103
448.896	1061
449.117	1040
449.338	1036
449.559	1045
449.779	1046
450	1044
450.221	1060
450.442	1045
450.662	1055
450.883	1038
451.104	1043
451.324	1039
451.545	1065
451.766	1025
451.986	1011
452.207	1028
452.428	1030
452.648	1020
452.869	1024
453.089	1010
453.31	1009
453.53	995
453.751	994
453.971	1025
454.192	1015
454.412	995
454.633	1036
454.853	1015
455.073	987
455.294	1020
455.514	1000
455.734	988
455.955	984
456.175	977
456.395	999
456.616	985
456.836	1018
457.056	1020
457.276	1015
457.497	991
457.717	1007
457.937	1009
458.157	1014
458.377	993
458.598	1017
458.818	1027
459.038	1007
459.258	1042
459.478	1052
459.698	1075
459.918	1072
460.138	1095
460.358	1119
460.578	1070
460.798	1112
461.018	1134
461.238	1127
461.458	1146
461.678	1102
461.898	1141
462.118	1111
462.338	1133
462.558	1148
462.777	1168
462.997	1192
463.217	1232
463.437	1233
463.657	1231
463.876	1182
464.096	1199
464.316	1175
464.536	1200
464.755	1174
464.975	1146
465.195	1172
465.414	1136
465.634	1105
465.854	1129
466.073	1111
466.293	1090
466.512	1093
466.732	1079
466.951	1096
467.171	1071
467.391	1091
467.61	1086
467.829	1054
468.049	1077
468.268	1090
468.488	1089
468.707	1088
468.927	1082
469.146	1061
469.365	1071
469.585	1073
469.804	1070
470.023	1097
470.243	1084
470.462	1080
470.681	1106
470.901	1111
471.12	1074
471.339	1103
471.558	1124
471.777	1134
471.997	1100
472.216	1094
472.435	1099
472.654	1101
472.873	1102
473.092	1101
473.311	1107
473.53	1107
473.749	1106
473.968	1118
474.187	1116
474.406	1114
474.625	1143
474.844	1122
475.063	1135
475.282	1105
475.501	1122
475.72	1145
475.939	1162
476.158	1176
476.377	1163
476.596	1157
476.814	1197
477.033	1136
477.252	1161
477.471	1173
477.69	1185
477.908	1262
478.127	1233
478.346	1228
478.564	1249
478.783	1273
479.002	1261
479.22	1276
479.439	1260
479.658	1250
479.876	1285
480.095	1253
480.313	1306
480.532	1305
480.751	1298
480.969	1305
481.188	1296
481.406	1299
481.624	1291
481.843	1288
482.061	1282
482.28	1304
482.498	1281
482.717	1298
482.935	1298
483.153	1348
483.372	1368
483.59	1365
483.808	1316
484.027	1329
484.245	1340
484.463	1331
484.681	1342
484.9	1347
485.118	1322
485.336	1339
485.554	1345
485.772	1334
485.99	1341
486.209	1372
486.427	1353
486.645	1350
486.863	1379
487.081	1347
487.299	1365
487.517	1357
487.735	1365
487.953	1413
488.171	1381
488.389	1394
488.607	1375
488.825	1383
489.043	1374
489.261	1345
489.479	1350
489.696	1374
489.914	1361
490.132	1353
490.35	1418
490.568	1418
490.786	1415
491.003	1395
491.221	1416
491.439	1429
491.657	1436
491.874	1438
492.092	1468
492.31	1455
492.527	1463
492.745	1446
492.963	1486
493.18	1443
493.398	1422
493.615	1458
493.833	1469
494.05	1445
494.268	1442
494.485	1425
494.703	1487
494.92	1477
495.138	1494
495.355	1507
495.573	1519
495.79	1456
496.008	1503
496.225	1531
496.442	1501
496.66	1515
496.877	1513
497.094	1514
497.312	1542
497.529	1571
497.746	1583
497.963	1604
498.181	1570
498.398	1572
498.615	1627
498.832	1652
499.049	1713
499.267	1721
499.484	1784
499.701	1810
499.918	1861
500.135	1943
500.352	1980
500.569	1985
500.786	1977
501.003	1950
501.22	1897
501.437	1862
501.654	1769
501.871	1738
502.088	1742
502.305	1681
502.522	1664
502.739	1646
502.956	1618
503.172	1599
503.389	1571
503.606	1554
503.823	1537
504.04	1524
504.256	1510
504.473	1500
504.69	1465
504.907	1466
505.123	1496
505.34	1417
505.557	1451
505.773	1415
505.99	1422
506.207	1371
506.423	1368
506.64	1372
506.856	1334
507.073	1337
507.289	1363
507.506	1359
507.722	1344
507.939	1349
508.155	1305
508.372	1296
508.588	1311
508.805	1324
509.021	1265
509.238	1261
509.454	1277
509.67	1265
509.887	1290
510.103	1244
510.319	1273
510.536	1256
510.752	1253
510.968	1274
511.184	1266
511.401	1253
511.617	1196
511.833	1266
512.049	1222
512.265	1202
512.481	1214
512.698	1232
512.914	1239
513.13	1251
513.346	1213
513.562	1217
513.778	1214
513.994	1234
514.21	1217
514.426	1270
514.642	1230
514.858	1235
515.074	1242
515.29	1210
515.506	1218
515.721	1273
515.937	1263
516.153	1237
516.369	1255
516.585	1237
516.801	1260
517.016	1288
517.232	1290
517.448	1285
517.664	1295
517.879	1288
518.095	1288
518.311	1289
518.527	1233
518.742	1265
518.958	1254
519.173	1241
519.389	1252
519.605	1221
519.82	1216
520.036	1222
520.251	1188
520.467	1197
520.682	1174
520.898	1145
521.113	1187
521.329	1198
521.544	1212
521.76	1172
521.975	1160
522.19	1165
522.406	1152
522.621	1172
522.836	1159
523.052	1137
523.267	1138
523.482	1163
523.698	1138
523.913	1137
524.128	1145
524.343	1110
524.559	1141
524.774	1159
524.989	1170
525.204	1154
525.419	1135
525.634	1121
525.849	1154
526.064	1102
526.28	1143
526.495	1107
526.71	1136
526.925	1113
527.14	1104
527.355	1092
527.57	1075
527.785	1081
527.999	1094
528.214	1099
528.429	1088
528.644	1105
528.859	1088
529.074	1112
529.289	1098
529.503	1121
529.718	1099
529.933	1084
530.148	1093
530.363	1071
530.577	1077
530.792	1063
531.007	1046
531.221	1094
531.436	1085
531.651	1066
531.865	1056
532.08	1066
532.295	1065
532.509	1060
532.724	1065
532.938	1074
533.153	1044
533.367	1065
533.582	1041
533.796	1092
534.011	1063
534.225	1059
534.44	1045
534.654	1042
534.868	1009
535.083	1003
535.297	1053
535.511	1028
535.726	1022
535.94	1035
536.154	1015
536.369	1008
536.583	1006
536.797	1033
537.011	1017
537.225	1046
537.44	978
537.654	1030
537.868	1018
538.082	1001
538.296	986
538.51	990
538.724	997
538.938	999
539.153	989
539.367	1004
539.581	995
539.795	982
540.009	969
540.222	983
540.436	991
540.65	964
540.864	989
541.078	974
541.292	990
541.506	1006
541.72	1015
541.934	988
542.147	1011
542.361	978
542.575	1012
542.789	966
543.002	958
543.216	1007
543.43	950
543.644	986
543.857	968
544.071	979
544.285	978
544.498	991
544.712	985
544.925	974
545.139	959
545.352	958
545.566	975
545.779	981
545.993	935
546.206	982
546.42	949
546.633	961
546.847	984
547.06	963
547.274	969
547.487	959
547.7	981
547.914	995
548.127	945
548.34	976
548.554	916
548.767	929
548.98	956
549.193	929
549.407	958
549.62	977
549.833	954
550.046	912
550.259	941
550.473	918
550.686	913
550.899	960
551.112	946
551.325	897
551.538	922
551.751	928
551.964	904
552.177	932
552.39	913
552.603	926
552.816	891
553.029	929
553.242	923
553.455	922
553.667	944
553.88	936
554.093	915
554.306	924
