Data from Ni(NO3)2@0.0625M.TitratingCurve.Agarose3%dH2O.NegLispCup.LampEnergy10.LIBS07252019_HRD10591_18-14-35-570.txt Node
Date: Thu Jul 25 18:14:35 EDT 2019
User: cochatt
Spectrometer: HR+D1059
Trigger mode: 1
Integration Time (sec): 1.000000E-1
Scans to average: 1
Electric dark correction enabled: true
Nonlinearity correction enabled: false
Boxcar width: 0
XAxis mode: Wavelengths
Number of Pixels in Spectrum: 2048
>>>>>Begin Spectral Data<<<<<
223.165	-14.69
223.4	-14.69
223.635	-14.69
223.869	-7.69
224.104	-16.69
224.338	-15.69
224.573	-11.69
224.808	-15.69
225.042	-13.69
225.277	-2.69
225.511	-8.69
225.746	11.31
225.98	7.31
226.215	3.31
226.449	15.31
226.683	31.31
226.918	20.31
227.152	18.31
227.387	33.31
227.621	31.31
227.856	33.31
228.09	36.31
228.324	36.31
228.559	65.31
228.793	76.31
229.027	96.31
229.262	94.31
229.496	110.31
229.73	103.31
229.964	120.31
230.199	126.31
230.433	119.31
230.667	128.31
230.901	125.31
231.136	115.31
231.37	129.31
231.604	125.31
231.838	141.31
232.072	126.31
232.306	140.31
232.541	151.31
232.775	138.31
233.009	134.31
233.243	127.31
233.477	133.31
233.711	136.31
233.945	123.31
234.179	146.31
234.413	145.31
234.647	153.31
234.881	122.31
235.115	148.31
235.349	119.31
235.583	150.31
235.817	137.31
236.051	128.31
236.285	141.31
236.519	157.31
236.753	146.31
236.987	155.31
237.221	138.31
237.455	162.31
237.689	149.31
237.922	137.31
238.156	147.31
238.39	159.31
238.624	168.31
238.858	156.31
239.091	162.31
239.325	171.31
239.559	162.31
239.793	139.31
240.027	161.31
240.26	172.31
240.494	161.31
240.728	179.31
240.961	155.31
241.195	178.31
241.429	162.31
241.662	177.31
241.896	161.31
242.13	169.31
242.363	164.31
242.597	172.31
242.83	175.31
243.064	167.31
243.298	181.31
243.531	181.31
243.765	172.31
243.998	173.31
244.232	182.31
244.465	191.31
244.699	191.31
244.932	184.31
245.166	196.31
245.399	199.31
245.633	198.31
245.866	184.31
246.099	188.31
246.333	196.31
246.566	190.31
246.8	205.31
247.033	205.31
247.266	195.31
247.5	200.31
247.733	204.31
247.966	206.31
248.2	203.31
248.433	204.31
248.666	201.31
248.899	212.31
249.133	224.31
249.366	227.31
249.599	218.31
249.832	210.31
250.066	219.31
250.299	243.31
250.532	235.31
250.765	225.31
250.998	223.31
251.231	235.31
251.465	238.31
251.698	240.31
251.931	224.31
252.164	239.31
252.397	223.31
252.63	251.31
252.863	235.31
253.096	250.31
253.329	255.31
253.562	239.31
253.795	232.31
254.028	237.31
254.261	260.31
254.494	244.31
254.727	248.31
254.96	242.31
255.193	242.31
255.426	254.31
255.659	250.31
255.892	261.31
256.124	233.31
256.357	241.31
256.59	231.31
256.823	250.31
257.056	240.31
257.289	244.31
257.521	235.31
257.754	251.31
257.987	278.31
258.22	261.31
258.452	261.31
258.685	260.31
258.918	290.31
259.151	274.31
259.383	269.31
259.616	276.31
259.849	287.31
260.081	273.31
260.314	275.31
260.547	269.31
260.779	268.31
261.012	291.31
261.244	288.31
261.477	284.31
261.71	278.31
261.942	280.31
262.175	294.31
262.407	289.31
262.64	299.31
262.872	284.31
263.105	293.31
263.337	296.31
263.57	297.31
263.802	297.31
264.035	295.31
264.267	278.31
264.499	284.31
264.732	291.31
264.964	287.31
265.197	304.31
265.429	286.31
265.661	296.31
265.894	294.31
266.126	324.31
266.358	323.31
266.591	300.31
266.823	311.31
267.055	321.31
267.287	330.31
267.52	319.31
267.752	309.31
267.984	320.31
268.216	314.31
268.448	317.31
268.681	315.31
268.913	315.31
269.145	321.31
269.377	335.31
269.609	324.31
269.841	324.31
270.073	317.31
270.306	336.31
270.538	341.31
270.77	312.31
271.002	305.31
271.234	319.31
271.466	344.31
271.698	325.31
271.93	317.31
272.162	311.31
272.394	331.31
272.626	355.31
272.858	334.31
273.09	331.31
273.322	331.31
273.553	336.31
273.785	348.31
274.017	324.31
274.249	340.31
274.481	362.31
274.713	349.31
274.945	336.31
275.176	353.31
275.408	353.31
275.64	362.31
275.872	355.31
276.104	362.31
276.335	353.31
276.567	347.31
276.799	344.31
277.031	340.31
277.262	375.31
277.494	353.31
277.726	367.31
277.957	378.31
278.189	373.31
278.421	360.31
278.652	377.31
278.884	379.31
279.115	364.31
279.347	349.31
279.579	379.31
279.81	374.31
280.042	376.31
280.273	385.31
280.505	396.31
280.736	395.31
280.968	387.31
281.199	385.31
281.431	401.31
281.662	397.31
281.894	379.31
282.125	392.31
282.356	391.31
282.588	395.31
282.819	395.31
283.051	419.31
283.282	391.31
283.513	409.31
283.745	399.31
283.976	398.31
284.207	408.31
284.439	398.31
284.67	397.31
284.901	405.31
285.132	402.31
285.364	401.31
285.595	403.31
285.826	407.31
286.057	428.31
286.288	418.31
286.52	416.31
286.751	446.31
286.982	420.31
287.213	421.31
287.444	404.31
287.675	447.31
287.906	421.31
288.138	419.31
288.369	428.31
288.6	432.31
288.831	414.31
289.062	435.31
289.293	422.31
289.524	433.31
289.755	452.31
289.986	461.31
290.217	431.31
290.448	435.31
290.679	439.31
290.91	464.31
291.141	452.31
291.371	462.31
291.602	429.31
291.833	443.31
292.064	460.31
292.295	451.31
292.526	452.31
292.757	454.31
292.987	431.31
293.218	445.31
293.449	463.31
293.68	437.31
293.91	436.31
294.141	440.31
294.372	456.31
294.603	445.31
294.833	479.31
295.064	459.31
295.295	456.31
295.525	449.31
295.756	469.31
295.987	473.31
296.217	453.31
296.448	460.31
296.679	468.31
296.909	482.31
297.14	460.31
297.37	478.31
297.601	497.31
297.831	489.31
298.062	477.31
298.292	498.31
298.523	545.31
298.753	541.31
298.984	514.31
299.214	500.31
299.445	488.31
299.675	484.31
299.905	488.31
300.136	476.31
300.366	496.31
300.597	523.31
300.827	489.31
301.057	508.31
301.288	540.31
301.518	513.31
301.748	519.31
301.979	523.31
302.209	510.31
302.439	537.31
302.669	514.31
302.9	507.31
303.13	511.31
303.36	515.31
303.59	477.31
303.82	520.31
304.051	511.31
304.281	511.31
304.511	495.31
304.741	514.31
304.971	526.31
305.201	493.31
305.431	509.31
305.661	508.31
305.891	487.31
306.121	481.31
306.352	499.31
306.582	501.31
306.812	471.31
307.042	517.31
307.272	491.31
307.502	491.31
307.731	487.31
307.961	482.31
308.191	504.31
308.421	479.31
308.651	482.31
308.881	470.31
309.111	487.31
309.341	512.31
309.571	497.31
309.8	484.31
310.03	488.31
310.26	497.31
310.49	497.31
310.72	497.31
310.949	509.31
311.179	511.31
311.409	497.31
311.639	504.31
311.868	514.31
312.098	492.31
312.328	488.31
312.557	522.31
312.787	528.31
313.017	512.31
313.246	536.31
313.476	529.31
313.706	521.31
313.935	552.31
314.165	560.31
314.394	515.31
314.624	541.31
314.853	515.31
315.083	525.31
315.312	520.31
315.542	525.31
315.771	526.31
316.001	497.31
316.23	499.31
316.46	513.31
316.689	520.31
316.919	512.31
317.148	510.31
317.377	507.31
317.607	510.31
317.836	501.31
318.065	506.31
318.295	514.31
318.524	518.31
318.753	492.31
318.983	513.31
319.212	513.31
319.441	514.31
319.67	497.31
319.9	533.31
320.129	514.31
320.358	515.31
320.587	502.31
320.816	521.31
321.046	510.31
321.275	509.31
321.504	505.31
321.733	501.31
321.962	531.31
322.191	514.31
322.42	516.31
322.649	536.31
322.878	524.31
323.108	520.31
323.337	540.31
323.566	542.31
323.795	524.31
324.024	521.31
324.253	532.31
324.482	531.31
324.71	529.31
324.939	536.31
325.168	537.31
325.397	545.31
325.626	540.31
325.855	552.31
326.084	570.31
326.313	586.31
326.542	571.31
326.77	567.31
326.999	569.31
327.228	563.31
327.457	577.31
327.686	564.31
327.914	572.31
328.143	555.31
328.372	563.31
328.6	562.31
328.829	560.31
329.058	586.31
329.287	575.31
329.515	556.31
329.744	544.31
329.972	578.31
330.201	579.31
330.43	581.31
330.658	555.31
330.887	592.31
331.115	598.31
331.344	596.31
331.572	601.31
331.801	617.31
332.03	609.31
332.258	650.31
332.486	647.31
332.715	676.31
332.943	675.31
333.172	739.31
333.4	758.31
333.629	776.31
333.857	787.31
334.085	744.31
334.314	770.31
334.542	716.31
334.771	728.31
334.999	698.31
335.227	697.31
335.455	708.31
335.684	714.31
335.912	689.31
336.14	699.31
336.369	668.31
336.597	686.31
336.825	673.31
337.053	680.31
337.281	694.31
337.51	659.31
337.738	652.31
337.966	620.31
338.194	623.31
338.422	591.31
338.65	619.31
338.878	615.31
339.106	636.31
339.334	603.31
339.562	595.31
339.79	600.31
340.018	577.31
340.246	594.31
340.474	585.31
340.702	586.31
340.93	581.31
341.158	609.31
341.386	595.31
341.614	600.31
341.842	584.31
342.07	588.31
342.298	578.31
342.526	564.31
342.754	589.31
342.981	586.31
343.209	589.31
343.437	626.31
343.665	674.31
343.893	721.31
344.12	769.31
344.348	695.31
344.576	653.31
344.804	634.31
345.031	618.31
345.259	630.31
345.487	602.31
345.714	575.31
345.942	603.31
346.17	591.31
346.397	599.31
346.625	588.31
346.853	575.31
347.08	587.31
347.308	581.31
347.535	624.31
347.763	602.31
347.99	602.31
348.218	605.31
348.445	580.31
348.673	588.31
348.9	587.31
349.128	585.31
349.355	567.31
349.583	569.31
349.81	557.31
350.037	575.31
350.265	569.31
350.492	563.31
350.72	566.31
350.947	552.31
351.174	559.31
351.402	548.31
351.629	551.31
351.856	522.31
352.083	540.31
352.311	561.31
352.538	553.31
352.765	593.31
352.992	547.31
353.22	524.31
353.447	537.31
353.674	561.31
353.901	566.31
354.128	543.31
354.355	539.31
354.583	550.31
354.81	552.31
355.037	572.31
355.264	559.31
355.491	552.31
355.718	551.31
355.945	532.31
356.172	577.31
356.399	565.31
356.626	564.31
356.853	566.31
357.08	559.31
357.307	573.31
357.534	561.31
357.761	556.31
357.988	560.31
358.215	521.31
358.441	544.31
358.668	565.31
358.895	584.31
359.122	546.31
359.349	561.31
359.576	587.31
359.802	571.31
360.029	553.31
360.256	541.31
360.483	555.31
360.709	561.31
360.936	569.31
361.163	572.31
361.39	549.31
361.616	553.31
361.843	573.31
362.07	568.31
362.296	564.31
362.523	548.31
362.749	550.31
362.976	557.31
363.203	565.31
363.429	524.31
363.656	559.31
363.882	561.31
364.109	549.31
364.335	554.31
364.562	559.31
364.788	549.31
365.015	543.31
365.241	553.31
365.468	537.31
365.694	545.31
365.92	567.31
366.147	545.31
366.373	539.31
366.599	567.31
366.826	561.31
367.052	532.31
367.278	549.31
367.505	573.31
367.731	548.31
367.957	569.31
368.184	524.31
368.41	526.31
368.636	551.31
368.862	568.31
369.089	565.31
369.315	573.31
369.541	585.31
369.767	568.31
369.993	597.31
370.219	566.31
370.445	567.31
370.672	578.31
370.898	581.31
371.124	588.31
371.35	608.31
371.576	625.31
371.802	597.31
372.028	620.31
372.254	613.31
372.48	582.31
372.706	611.31
372.932	652.31
373.158	640.31
373.384	605.31
373.61	595.31
373.835	589.31
374.061	610.31
374.287	604.31
374.513	622.31
374.739	637.31
374.965	663.31
375.191	688.31
375.416	691.31
375.642	661.31
375.868	654.31
376.094	625.31
376.319	631.31
376.545	626.31
376.771	624.31
376.997	605.31
377.222	613.31
377.448	618.31
377.674	613.31
377.899	597.31
378.125	617.31
378.35	583.31
378.576	595.31
378.802	598.31
379.027	618.31
379.253	602.31
379.478	613.31
379.704	607.31
379.929	589.31
380.155	611.31
380.38	596.31
380.606	604.31
380.831	577.31
381.057	607.31
381.282	588.31
381.507	581.31
381.733	616.31
381.958	617.31
382.184	634.31
382.409	635.31
382.634	616.31
382.86	629.31
383.085	642.31
383.31	672.31
383.535	672.31
383.761	669.31
383.986	707.31
384.211	713.31
384.436	712.31
384.662	732.31
384.887	738.31
385.112	717.31
385.337	735.31
385.562	746.31
385.787	732.31
386.013	763.31
386.238	763.31
386.463	718.31
386.688	728.31
386.913	713.31
387.138	739.31
387.363	715.31
387.588	721.31
387.813	719.31
388.038	711.31
388.263	729.31
388.488	715.31
388.713	707.31
388.938	692.31
389.163	705.31
389.387	704.31
389.612	734.31
389.837	714.31
390.062	679.31
390.287	695.31
390.512	693.31
390.736	709.31
390.961	708.31
391.186	728.31
391.411	756.31
391.636	793.31
391.86	823.31
392.085	847.31
392.31	823.31
392.534	809.31
392.759	767.31
392.984	736.31
393.208	751.31
393.433	785.31
393.658	768.31
393.882	774.31
394.107	779.31
394.331	785.31
394.556	773.31
394.78	784.31
395.005	789.31
395.229	772.31
395.454	809.31
395.678	819.31
395.903	803.31
396.127	820.31
396.352	803.31
396.576	741.31
396.801	738.31
397.025	761.31
397.249	775.31
397.474	803.31
397.698	809.31
397.922	821.31
398.147	791.31
398.371	816.31
398.595	835.31
398.82	891.31
399.044	922.31
399.268	1069.31
399.492	1212.31
399.717	1409.31
399.941	1425.31
400.165	1206.31
400.389	1084.31
400.613	996.31
400.837	970.31
401.062	916.31
401.286	890.31
401.51	901.31
401.734	905.31
401.958	927.31
402.182	948.31
402.406	902.31
402.63	950.31
402.854	985.31
403.078	1000.31
403.302	1020.31
403.526	1032.31
403.75	1037.31
403.974	1092.31
404.198	1101.31
404.422	1068.31
404.645	1092.31
404.869	1026.31
405.093	1047.31
405.317	1030.31
405.541	1035.31
405.765	1002.31
405.988	1011.31
406.212	970.31
406.436	997.31
406.66	983.31
406.883	1056.31
407.107	1117.31
407.331	1160.31
407.555	1207.31
407.778	1195.31
408.002	1157.31
408.226	1129.31
408.449	1082.31
408.673	1014.31
408.896	1031.31
409.12	1020.31
409.344	1055.31
409.567	1036.31
409.791	1050.31
410.014	1049.31
410.238	1046.31
410.461	1040.31
410.685	1043.31
410.908	1005.31
411.132	972.31
411.355	953.31
411.578	984.31
411.802	949.31
412.025	934.31
412.249	965.31
412.472	932.31
412.695	939.31
412.919	897.31
413.142	921.31
413.365	897.31
413.589	904.31
413.812	906.31
414.035	894.31
414.258	900.31
414.482	922.31
414.705	949.31
414.928	929.31
415.151	930.31
415.374	921.31
415.597	919.31
415.821	904.31
416.044	891.31
416.267	897.31
416.49	881.31
416.713	862.31
416.936	898.31
417.159	891.31
417.382	892.31
417.605	888.31
417.828	896.31
418.051	911.31
418.274	893.31
418.497	913.31
418.72	935.31
418.943	936.31
419.166	997.31
419.389	1058.31
419.611	1045.31
419.834	991.31
420.057	975.31
420.28	914.31
420.503	888.31
420.726	891.31
420.948	883.31
421.171	886.31
421.394	883.31
421.617	898.31
421.839	893.31
422.062	920.31
422.285	936.31
422.507	925.31
422.73	953.31
422.953	933.31
423.175	944.31
423.398	984.31
423.621	965.31
423.843	991.31
424.066	970.31
424.288	979.31
424.511	980.31
424.733	967.31
424.956	923.31
425.178	914.31
425.401	915.31
425.623	883.31
425.846	879.31
426.068	896.31
426.291	890.31
426.513	867.31
426.735	880.31
426.958	859.31
427.18	817.31
427.402	833.31
427.625	827.31
427.847	803.31
428.069	781.31
428.292	816.31
428.514	805.31
428.736	790.31
428.958	799.31
429.181	795.31
429.403	786.31
429.625	794.31
429.847	785.31
430.069	771.31
430.292	795.31
430.514	752.31
430.736	796.31
430.958	817.31
431.18	785.31
431.402	806.31
431.624	776.31
431.846	799.31
432.068	836.31
432.29	815.31
432.512	778.31
432.734	799.31
432.956	812.31
433.178	797.31
433.4	807.31
433.622	799.31
433.844	808.31
434.066	822.31
434.287	841.31
434.509	838.31
434.731	866.31
434.953	897.31
435.175	927.31
435.397	930.31
435.618	865.31
435.84	839.31
436.062	806.31
436.284	810.31
436.505	819.31
436.727	824.31
436.949	801.31
437.17	811.31
437.392	806.31
437.614	803.31
437.835	753.31
438.057	774.31
438.278	793.31
438.5	781.31
438.721	774.31
438.943	775.31
439.165	776.31
439.386	772.31
439.608	825.31
439.829	813.31
440.05	805.31
440.272	795.31
440.493	811.31
440.715	850.31
440.936	849.31
441.158	857.31
441.379	881.31
441.6	908.31
441.822	957.31
442.043	951.31
442.264	904.31
442.486	881.31
442.707	910.31
442.928	915.31
443.149	918.31
443.371	893.31
443.592	904.31
443.813	917.31
444.034	931.31
444.255	936.31
444.476	1013.31
444.698	1075.31
444.919	1117.31
445.14	1163.31
445.361	1034.31
445.582	954.31
445.803	879.31
446.024	859.31
446.245	864.31
446.466	846.31
446.687	806.31
446.908	828.31
447.129	820.31
447.35	806.31
447.571	772.31
447.792	777.31
448.013	756.31
448.234	766.31
448.455	731.31
448.675	740.31
448.896	746.31
449.117	758.31
449.338	753.31
449.559	755.31
449.779	747.31
450	728.31
450.221	749.31
450.442	743.31
450.662	760.31
450.883	771.31
451.104	810.31
451.324	788.31
451.545	784.31
451.766	794.31
451.986	770.31
452.207	776.31
452.428	756.31
452.648	758.31
452.869	757.31
453.089	747.31
453.31	791.31
453.53	738.31
453.751	775.31
453.971	729.31
454.192	744.31
454.412	746.31
454.633	728.31
454.853	747.31
455.073	699.31
455.294	726.31
455.514	709.31
455.734	728.31
455.955	691.31
456.175	693.31
456.395	689.31
456.616	688.31
456.836	688.31
457.056	693.31
457.276	680.31
457.497	706.31
457.717	702.31
457.937	721.31
458.157	695.31
458.377	727.31
458.598	755.31
458.818	742.31
459.038	763.31
459.258	800.31
459.478	839.31
459.698	883.31
459.918	861.31
460.138	899.31
460.358	962.31
460.578	986.31
460.798	981.31
461.018	983.31
461.238	962.31
461.458	988.31
461.678	937.31
461.898	956.31
462.118	976.31
462.338	1023.31
462.558	1031.31
462.777	1063.31
462.997	1161.31
463.217	1360.31
463.437	1367.31
463.657	1231.31
463.876	1149.31
464.096	1185.31
464.316	1188.31
464.536	1158.31
464.755	1118.31
464.975	1071.31
465.195	1033.31
465.414	936.31
465.634	899.31
465.854	841.31
466.073	863.31
466.293	825.31
466.512	793.31
466.732	790.31
466.951	794.31
467.171	817.31
467.391	799.31
467.61	787.31
467.829	774.31
468.049	794.31
468.268	777.31
468.488	743.31
468.707	721.31
468.927	744.31
469.146	757.31
469.365	785.31
469.585	775.31
469.804	802.31
470.023	794.31
470.243	806.31
470.462	837.31
470.681	793.31
470.901	821.31
471.12	820.31
471.339	790.31
471.558	769.31
471.777	775.31
471.997	764.31
472.216	728.31
472.435	730.31
472.654	743.31
472.873	730.31
473.092	720.31
473.311	723.31
473.53	728.31
473.749	725.31
473.968	726.31
474.187	737.31
474.406	706.31
474.625	744.31
474.844	748.31
475.063	737.31
475.282	742.31
475.501	731.31
475.72	737.31
475.939	765.31
476.158	760.31
476.377	756.31
476.596	775.31
476.814	780.31
477.033	778.31
477.252	806.31
477.471	811.31
477.69	808.31
477.908	830.31
478.127	867.31
478.346	863.31
478.564	871.31
478.783	859.31
479.002	905.31
479.22	929.31
479.439	924.31
479.658	922.31
479.876	913.31
480.095	924.31
480.313	945.31
480.532	1022.31
480.751	998.31
480.969	973.31
481.188	891.31
481.406	884.31
481.624	877.31
481.843	825.31
482.061	849.31
482.28	831.31
482.498	821.31
482.717	818.31
482.935	844.31
483.153	817.31
483.372	816.31
483.59	841.31
483.808	840.31
484.027	843.31
484.245	831.31
484.463	847.31
484.681	862.31
484.9	858.31
485.118	889.31
485.336	875.31
485.554	885.31
485.772	891.31
485.99	887.31
486.209	917.31
486.427	904.31
486.645	901.31
486.863	897.31
487.081	863.31
487.299	864.31
487.517	880.31
487.735	873.31
487.953	875.31
488.171	890.31
488.389	875.31
488.607	835.31
488.825	849.31
489.043	853.31
489.261	868.31
489.479	882.31
489.696	887.31
489.914	893.31
490.132	892.31
490.35	864.31
490.568	871.31
490.786	903.31
491.003	895.31
491.221	868.31
491.439	865.31
491.657	873.31
491.874	888.31
492.092	882.31
492.31	888.31
492.527	902.31
492.745	890.31
492.963	908.31
493.18	915.31
493.398	918.31
493.615	951.31
493.833	915.31
494.05	924.31
494.268	922.31
494.485	921.31
494.703	943.31
494.92	927.31
495.138	919.31
495.355	928.31
495.573	913.31
495.79	942.31
496.008	938.31
496.225	928.31
496.442	937.31
496.66	951.31
496.877	945.31
497.094	963.31
497.312	1005.31
497.529	1001.31
497.746	1026.31
497.963	1078.31
498.181	1079.31
498.398	1157.31
498.615	1206.31
498.832	1259.31
499.049	1413.31
499.267	1525.31
499.484	1669.31
499.701	1853.31
499.918	2105.31
500.135	2406.31
500.352	2857.31
500.569	3050.31
