Data from Ni(NO3)2Standard.Agarose3%.GreenCap.LampEnergy5.5.E.O_HRD10591_14-41-20-188.txt Node
Date: Mon Jul 22 14:41:20 EDT 2019
User: cochatt
Spectrometer: HR+D1059
Trigger mode: 1
Integration Time (sec): 1.000000E-1
Scans to average: 1
Electric dark correction enabled: true
Nonlinearity correction enabled: false
Boxcar width: 0
XAxis mode: Wavelengths
Number of Pixels in Spectrum: 2048
>>>>>Begin Spectral Data<<<<<
223.165	-15.62
223.4	-15.62
223.635	-15.62
223.869	-33.62
224.104	-24.62
224.338	-20.62
224.573	-10.62
224.808	-13.62
225.042	-17.62
225.277	1.38
225.511	6.38
225.746	6.38
225.98	4.38
226.215	16.38
226.449	23.38
226.683	20.38
226.918	27.38
227.152	30.38
227.387	32.38
227.621	33.38
227.856	47.38
228.09	39.38
228.324	44.38
228.559	61.38
228.793	51.38
229.027	62.38
229.262	61.38
229.496	66.38
229.73	79.38
229.964	75.38
230.199	71.38
230.433	88.38
230.667	83.38
230.901	77.38
231.136	89.38
231.37	97.38
231.604	80.38
231.838	78.38
232.072	81.38
232.306	76.38
232.541	86.38
232.775	75.38
233.009	60.38
233.243	100.38
233.477	86.38
233.711	72.38
233.945	78.38
234.179	81.38
234.413	79.38
234.647	74.38
234.881	88.38
235.115	69.38
235.349	72.38
235.583	67.38
235.817	89.38
236.051	76.38
236.285	77.38
236.519	66.38
236.753	83.38
236.987	83.38
237.221	82.38
237.455	74.38
237.689	80.38
237.922	76.38
238.156	68.38
238.39	71.38
238.624	76.38
238.858	83.38
239.091	90.38
239.325	78.38
239.559	84.38
239.793	66.38
240.027	73.38
240.26	81.38
240.494	84.38
240.728	74.38
240.961	74.38
241.195	69.38
241.429	77.38
241.662	72.38
241.896	77.38
242.13	73.38
242.363	68.38
242.597	92.38
242.83	91.38
243.064	78.38
243.298	75.38
243.531	82.38
243.765	75.38
243.998	77.38
244.232	72.38
244.465	87.38
244.699	73.38
244.932	84.38
245.166	83.38
245.399	76.38
245.633	74.38
245.866	73.38
246.099	88.38
246.333	65.38
246.566	69.38
246.8	73.38
247.033	71.38
247.266	85.38
247.5	83.38
247.733	81.38
247.966	75.38
248.2	91.38
248.433	76.38
248.666	71.38
248.899	83.38
249.133	85.38
249.366	72.38
249.599	80.38
249.832	82.38
250.066	91.38
250.299	82.38
250.532	71.38
250.765	83.38
250.998	71.38
251.231	77.38
251.465	81.38
251.698	87.38
251.931	86.38
252.164	89.38
252.397	88.38
252.63	85.38
252.863	74.38
253.096	77.38
253.329	87.38
253.562	88.38
253.795	78.38
254.028	90.38
254.261	75.38
254.494	66.38
254.727	84.38
254.96	76.38
255.193	75.38
255.426	86.38
255.659	76.38
255.892	75.38
256.124	84.38
256.357	85.38
256.59	80.38
256.823	82.38
257.056	81.38
257.289	80.38
257.521	85.38
257.754	96.38
257.987	88.38
258.22	90.38
258.452	82.38
258.685	72.38
258.918	74.38
259.151	74.38
259.383	84.38
259.616	87.38
259.849	88.38
260.081	88.38
260.314	85.38
260.547	80.38
260.779	67.38
261.012	74.38
261.244	77.38
261.477	90.38
261.71	82.38
261.942	84.38
262.175	99.38
262.407	72.38
262.64	89.38
262.872	77.38
263.105	82.38
263.337	85.38
263.57	77.38
263.802	96.38
264.035	82.38
264.267	87.38
264.499	87.38
264.732	81.38
264.964	70.38
265.197	77.38
265.429	82.38
265.661	84.38
265.894	83.38
266.126	96.38
266.358	69.38
266.591	81.38
266.823	94.38
267.055	81.38
267.287	84.38
267.52	73.38
267.752	97.38
267.984	95.38
268.216	91.38
268.448	97.38
268.681	88.38
268.913	84.38
269.145	80.38
269.377	88.38
269.609	90.38
269.841	87.38
270.073	86.38
270.306	87.38
270.538	72.38
270.77	86.38
271.002	83.38
271.234	89.38
271.466	88.38
271.698	90.38
271.93	81.38
272.162	90.38
272.394	97.38
272.626	89.38
272.858	87.38
273.09	97.38
273.322	79.38
273.553	90.38
273.785	87.38
274.017	91.38
274.249	77.38
274.481	90.38
274.713	81.38
274.945	80.38
275.176	77.38
275.408	97.38
275.64	89.38
275.872	82.38
276.104	85.38
276.335	85.38
276.567	93.38
276.799	74.38
277.031	85.38
277.262	87.38
277.494	96.38
277.726	82.38
277.957	84.38
278.189	84.38
278.421	89.38
278.652	89.38
278.884	85.38
279.115	82.38
279.347	88.38
279.579	80.38
279.81	85.38
280.042	74.38
280.273	86.38
280.505	82.38
280.736	91.38
280.968	90.38
281.199	81.38
281.431	80.38
281.662	91.38
281.894	100.38
282.125	91.38
282.356	77.38
282.588	94.38
282.819	91.38
283.051	98.38
283.282	93.38
283.513	84.38
283.745	83.38
283.976	87.38
284.207	81.38
284.439	89.38
284.67	79.38
284.901	99.38
285.132	84.38
285.364	73.38
285.595	75.38
285.826	79.38
286.057	78.38
286.288	84.38
286.52	99.38
286.751	91.38
286.982	82.38
287.213	86.38
287.444	96.38
287.675	80.38
287.906	77.38
288.138	91.38
288.369	83.38
288.6	92.38
288.831	98.38
289.062	96.38
289.293	77.38
289.524	83.38
289.755	76.38
289.986	84.38
290.217	94.38
290.448	83.38
290.679	96.38
290.91	87.38
291.141	82.38
291.371	77.38
291.602	98.38
291.833	87.38
292.064	91.38
292.295	97.38
292.526	89.38
292.757	92.38
292.987	103.38
293.218	93.38
293.449	85.38
293.68	78.38
293.91	106.38
294.141	77.38
294.372	87.38
294.603	92.38
294.833	79.38
295.064	96.38
295.295	77.38
295.525	76.38
295.756	97.38
295.987	91.38
296.217	77.38
296.448	75.38
296.679	89.38
296.909	85.38
297.14	91.38
297.37	79.38
297.601	90.38
297.831	83.38
298.062	101.38
298.292	78.38
298.523	84.38
298.753	90.38
298.984	100.38
299.214	91.38
299.445	92.38
299.675	83.38
299.905	78.38
300.136	83.38
300.366	86.38
300.597	82.38
300.827	85.38
301.057	76.38
301.288	94.38
301.518	92.38
301.748	86.38
301.979	86.38
302.209	86.38
302.439	88.38
302.669	82.38
302.9	96.38
303.13	93.38
303.36	96.38
303.59	85.38
303.82	84.38
304.051	88.38
304.281	100.38
304.511	81.38
304.741	97.38
304.971	89.38
305.201	91.38
305.431	93.38
305.661	98.38
305.891	79.38
306.121	88.38
306.352	82.38
306.582	84.38
306.812	98.38
307.042	90.38
307.272	73.38
307.502	98.38
307.731	100.38
307.961	79.38
308.191	96.38
308.421	95.38
308.651	92.38
308.881	84.38
309.111	84.38
309.341	86.38
309.571	106.38
309.8	103.38
310.03	89.38
310.26	92.38
310.49	96.38
310.72	81.38
310.949	94.38
311.179	104.38
311.409	92.38
311.639	85.38
311.868	89.38
312.098	77.38
312.328	93.38
312.557	96.38
312.787	85.38
313.017	84.38
313.246	77.38
313.476	75.38
313.706	81.38
313.935	86.38
314.165	94.38
314.394	90.38
314.624	88.38
314.853	89.38
315.083	85.38
315.312	88.38
315.542	89.38
315.771	84.38
316.001	86.38
316.23	88.38
316.46	79.38
316.689	86.38
316.919	77.38
317.148	82.38
317.377	94.38
317.607	91.38
317.836	90.38
318.065	92.38
318.295	92.38
318.524	91.38
318.753	76.38
318.983	73.38
319.212	93.38
319.441	87.38
319.67	77.38
319.9	80.38
320.129	85.38
320.358	89.38
320.587	84.38
320.816	84.38
321.046	78.38
321.275	74.38
321.504	78.38
321.733	88.38
321.962	84.38
322.191	96.38
322.42	79.38
322.649	89.38
322.878	86.38
323.108	97.38
323.337	76.38
323.566	77.38
323.795	99.38
324.024	99.38
324.253	78.38
324.482	88.38
324.71	96.38
324.939	87.38
325.168	86.38
325.397	74.38
325.626	73.38
325.855	79.38
326.084	82.38
326.313	71.38
326.542	82.38
326.77	77.38
326.999	81.38
327.228	96.38
327.457	76.38
327.686	91.38
327.914	80.38
328.143	100.38
328.372	83.38
328.6	70.38
328.829	68.38
329.058	78.38
329.287	88.38
329.515	93.38
329.744	91.38
329.972	83.38
330.201	96.38
330.43	101.38
330.658	93.38
330.887	95.38
331.115	87.38
331.344	78.38
331.572	78.38
331.801	89.38
332.03	84.38
332.258	88.38
332.486	86.38
332.715	92.38
332.943	88.38
333.172	89.38
333.4	88.38
333.629	90.38
333.857	89.38
334.085	96.38
334.314	79.38
334.542	93.38
334.771	106.38
334.999	98.38
335.227	97.38
335.455	83.38
335.684	82.38
335.912	101.38
336.14	86.38
336.369	82.38
336.597	77.38
336.825	95.38
337.053	78.38
337.281	94.38
337.51	84.38
337.738	82.38
337.966	86.38
338.194	82.38
338.422	93.38
338.65	93.38
338.878	90.38
339.106	84.38
339.334	98.38
339.562	96.38
339.79	83.38
340.018	90.38
340.246	102.38
340.474	101.38
340.702	78.38
340.93	77.38
341.158	78.38
341.386	74.38
341.614	77.38
341.842	91.38
342.07	86.38
342.298	92.38
342.526	94.38
342.754	98.38
342.981	94.38
343.209	90.38
343.437	100.38
343.665	72.38
343.893	84.38
344.12	86.38
344.348	85.38
344.576	72.38
344.804	78.38
345.031	98.38
345.259	98.38
345.487	99.38
345.714	100.38
345.942	100.38
346.17	85.38
346.397	86.38
346.625	82.38
346.853	82.38
347.08	66.38
347.308	85.38
347.535	80.38
347.763	79.38
347.99	90.38
348.218	83.38
348.445	96.38
348.673	84.38
348.9	97.38
349.128	86.38
349.355	79.38
349.583	92.38
349.81	90.38
350.037	87.38
350.265	100.38
350.492	86.38
350.72	89.38
350.947	72.38
351.174	81.38
351.402	78.38
351.629	92.38
351.856	81.38
352.083	77.38
352.311	86.38
352.538	89.38
352.765	79.38
352.992	80.38
353.22	88.38
353.447	104.38
353.674	92.38
353.901	89.38
354.128	77.38
354.355	83.38
354.583	97.38
354.81	89.38
355.037	70.38
355.264	88.38
355.491	98.38
355.718	89.38
355.945	96.38
356.172	74.38
356.399	80.38
356.626	77.38
356.853	80.38
357.08	88.38
357.307	90.38
357.534	75.38
357.761	78.38
357.988	94.38
358.215	81.38
358.441	92.38
358.668	87.38
358.895	84.38
359.122	89.38
359.349	91.38
359.576	83.38
359.802	79.38
360.029	81.38
360.256	98.38
360.483	77.38
360.709	100.38
360.936	85.38
361.163	89.38
361.39	83.38
361.616	79.38
361.843	85.38
362.07	74.38
362.296	88.38
362.523	96.38
362.749	84.38
362.976	86.38
363.203	70.38
363.429	96.38
363.656	102.38
363.882	75.38
364.109	101.38
364.335	86.38
364.562	94.38
364.788	97.38
365.015	86.38
365.241	80.38
365.468	90.38
365.694	95.38
365.92	79.38
366.147	93.38
366.373	86.38
366.599	91.38
366.826	84.38
367.052	85.38
367.278	88.38
367.505	85.38
367.731	90.38
367.957	66.38
368.184	94.38
368.41	98.38
368.636	82.38
368.862	97.38
369.089	79.38
369.315	90.38
369.541	77.38
369.767	75.38
369.993	78.38
370.219	87.38
370.445	93.38
370.672	101.38
370.898	88.38
371.124	100.38
371.35	68.38
371.576	92.38
371.802	82.38
372.028	91.38
372.254	84.38
372.48	85.38
372.706	88.38
372.932	75.38
373.158	83.38
373.384	89.38
373.61	87.38
373.835	78.38
374.061	87.38
374.287	76.38
374.513	86.38
374.739	82.38
374.965	94.38
375.191	107.38
375.416	90.38
375.642	96.38
375.868	86.38
376.094	80.38
376.319	83.38
376.545	82.38
376.771	96.38
376.997	75.38
377.222	78.38
377.448	91.38
377.674	81.38
377.899	106.38
378.125	92.38
378.35	89.38
378.576	84.38
378.802	87.38
379.027	83.38
379.253	96.38
379.478	85.38
379.704	91.38
379.929	80.38
380.155	83.38
380.38	92.38
380.606	79.38
380.831	89.38
381.057	95.38
381.282	85.38
381.507	85.38
381.733	89.38
381.958	85.38
382.184	82.38
382.409	74.38
382.634	82.38
382.86	77.38
383.085	69.38
383.31	88.38
383.535	89.38
383.761	79.38
383.986	87.38
384.211	89.38
384.436	90.38
384.662	85.38
384.887	87.38
385.112	83.38
385.337	92.38
385.562	78.38
385.787	83.38
386.013	90.38
386.238	79.38
386.463	89.38
386.688	79.38
386.913	85.38
387.138	87.38
387.363	88.38
387.588	80.38
387.813	96.38
388.038	81.38
388.263	88.38
388.488	93.38
388.713	92.38
388.938	98.38
389.163	89.38
389.387	76.38
389.612	81.38
389.837	90.38
390.062	86.38
390.287	79.38
390.512	72.38
390.736	82.38
390.961	95.38
391.186	86.38
391.411	78.38
391.636	95.38
391.86	83.38
392.085	93.38
392.31	83.38
392.534	85.38
392.759	98.38
392.984	94.38
393.208	93.38
393.433	100.38
393.658	81.38
393.882	98.38
394.107	82.38
394.331	96.38
394.556	75.38
394.78	105.38
395.005	88.38
395.229	86.38
395.454	91.38
395.678	94.38
395.903	88.38
396.127	90.38
396.352	92.38
396.576	89.38
396.801	100.38
397.025	81.38
397.249	77.38
397.474	92.38
397.698	93.38
397.922	81.38
398.147	85.38
398.371	84.38
398.595	88.38
398.82	96.38
399.044	81.38
399.268	86.38
399.492	96.38
399.717	88.38
399.941	78.38
400.165	96.38
400.389	93.38
400.613	97.38
400.837	82.38
401.062	85.38
401.286	78.38
401.51	85.38
401.734	81.38
401.958	84.38
402.182	94.38
402.406	83.38
402.63	74.38
402.854	86.38
403.078	94.38
403.302	84.38
403.526	95.38
403.75	78.38
403.974	98.38
404.198	101.38
404.422	92.38
404.645	80.38
404.869	82.38
405.093	84.38
405.317	65.38
405.541	92.38
405.765	82.38
405.988	83.38
406.212	79.38
406.436	81.38
406.66	80.38
406.883	76.38
407.107	84.38
407.331	87.38
407.555	91.38
407.778	93.38
408.002	84.38
408.226	82.38
408.449	73.38
408.673	82.38
408.896	84.38
409.12	75.38
409.344	84.38
409.567	67.38
409.791	83.38
410.014	91.38
410.238	84.38
410.461	85.38
410.685	80.38
410.908	88.38
411.132	100.38
411.355	96.38
411.578	89.38
411.802	96.38
412.025	83.38
412.249	81.38
412.472	72.38
412.695	80.38
412.919	83.38
413.142	83.38
413.365	84.38
413.589	82.38
413.812	86.38
414.035	87.38
414.258	113.38
414.482	83.38
414.705	83.38
414.928	90.38
415.151	84.38
415.374	75.38
415.597	79.38
415.821	86.38
416.044	82.38
416.267	88.38
416.49	84.38
416.713	83.38
416.936	70.38
417.159	93.38
417.382	82.38
417.605	86.38
417.828	91.38
418.051	86.38
418.274	99.38
418.497	90.38
418.72	91.38
418.943	92.38
419.166	92.38
419.389	89.38
419.611	91.38
419.834	81.38
420.057	86.38
420.28	86.38
420.503	89.38
420.726	71.38
420.948	103.38
421.171	83.38
421.394	81.38
421.617	88.38
421.839	84.38
422.062	76.38
422.285	89.38
422.507	105.38
422.73	97.38
422.953	85.38
423.175	84.38
423.398	92.38
423.621	83.38
423.843	87.38
424.066	76.38
424.288	85.38
424.511	93.38
424.733	84.38
424.956	80.38
425.178	91.38
425.401	92.38
425.623	84.38
425.846	85.38
426.068	91.38
426.291	118.38
426.513	97.38
426.735	73.38
426.958	84.38
427.18	90.38
427.402	85.38
427.625	94.38
427.847	84.38
428.069	79.38
428.292	83.38
428.514	87.38
428.736	97.38
428.958	72.38
429.181	84.38
429.403	106.38
429.625	79.38
429.847	100.38
430.069	93.38
430.292	98.38
430.514	89.38
430.736	78.38
430.958	78.38
431.18	85.38
431.402	79.38
431.624	83.38
431.846	85.38
432.068	82.38
432.29	76.38
432.512	73.38
432.734	90.38
432.956	84.38
433.178	80.38
433.4	88.38
433.622	84.38
433.844	103.38
434.066	85.38
434.287	85.38
434.509	93.38
434.731	90.38
434.953	77.38
435.175	86.38
435.397	87.38
435.618	72.38
435.84	80.38
436.062	71.38
436.284	80.38
436.505	75.38
436.727	87.38
436.949	70.38
437.17	98.38
437.392	83.38
437.614	88.38
437.835	89.38
438.057	89.38
438.278	83.38
438.5	73.38
438.721	82.38
438.943	83.38
439.165	79.38
439.386	89.38
439.608	94.38
439.829	85.38
440.05	93.38
440.272	68.38
440.493	93.38
440.715	73.38
440.936	80.38
441.158	88.38
441.379	77.38
441.6	78.38
441.822	76.38
442.043	76.38
442.264	97.38
442.486	90.38
442.707	83.38
442.928	89.38
443.149	98.38
443.371	89.38
443.592	81.38
443.813	90.38
444.034	102.38
444.255	88.38
444.476	91.38
444.698	85.38
444.919	89.38
445.14	198.38
445.361	124.38
445.582	97.38
445.803	82.38
446.024	78.38
446.245	84.38
446.466	85.38
446.687	92.38
446.908	90.38
447.129	84.38
447.35	94.38
447.571	90.38
447.792	86.38
448.013	86.38
448.234	82.38
448.455	81.38
448.675	83.38
448.896	67.38
449.117	76.38
449.338	91.38
449.559	90.38
449.779	78.38
450	102.38
450.221	105.38
450.442	94.38
450.662	80.38
450.883	67.38
451.104	87.38
451.324	86.38
451.545	98.38
451.766	89.38
451.986	82.38
452.207	77.38
452.428	74.38
452.648	101.38
452.869	80.38
453.089	95.38
453.31	78.38
453.53	89.38
453.751	80.38
453.971	87.38
454.192	79.38
454.412	90.38
454.633	86.38
454.853	97.38
455.073	74.38
455.294	94.38
455.514	85.38
455.734	82.38
455.955	97.38
456.175	74.38
456.395	71.38
456.616	81.38
456.836	86.38
457.056	78.38
457.276	90.38
457.497	70.38
457.717	82.38
457.937	86.38
458.157	82.38
458.377	86.38
458.598	80.38
458.818	83.38
459.038	84.38
459.258	82.38
459.478	88.38
459.698	81.38
459.918	87.38
460.138	92.38
460.358	84.38
460.578	75.38
460.798	80.38
461.018	88.38
461.238	104.38
461.458	90.38
461.678	85.38
461.898	91.38
462.118	91.38
462.338	89.38
462.558	101.38
462.777	94.38
462.997	86.38
463.217	96.38
463.437	98.38
463.657	82.38
463.876	77.38
464.096	82.38
464.316	88.38
464.536	88.38
464.755	82.38
464.975	91.38
465.195	86.38
465.414	80.38
465.634	92.38
465.854	83.38
466.073	101.38
466.293	91.38
466.512	95.38
466.732	97.38
466.951	81.38
467.171	93.38
467.391	84.38
467.61	95.38
467.829	88.38
468.049	85.38
468.268	61.38
468.488	72.38
468.707	89.38
468.927	86.38
469.146	91.38
469.365	93.38
469.585	100.38
469.804	71.38
470.023	83.38
470.243	96.38
470.462	84.38
470.681	89.38
470.901	87.38
471.12	95.38
471.339	86.38
471.558	85.38
471.777	89.38
471.997	86.38
472.216	71.38
472.435	82.38
472.654	81.38
472.873	87.38
473.092	81.38
473.311	85.38
473.53	80.38
473.749	94.38
473.968	94.38
474.187	85.38
474.406	87.38
474.625	77.38
474.844	77.38
475.063	76.38
475.282	87.38
475.501	102.38
475.72	88.38
475.939	88.38
476.158	78.38
476.377	88.38
476.596	78.38
476.814	91.38
477.033	83.38
477.252	99.38
477.471	85.38
477.69	92.38
477.908	89.38
478.127	100.38
478.346	86.38
478.564	92.38
478.783	86.38
479.002	100.38
479.22	88.38
479.439	95.38
479.658	86.38
479.876	72.38
480.095	91.38
480.313	69.38
480.532	93.38
480.751	74.38
480.969	104.38
481.188	78.38
481.406	77.38
481.624	81.38
481.843	87.38
482.061	89.38
482.28	92.38
482.498	77.38
482.717	87.38
482.935	85.38
483.153	91.38
483.372	93.38
483.59	88.38
483.808	95.38
484.027	87.38
484.245	91.38
484.463	99.38
484.681	106.38
484.9	90.38
485.118	100.38
485.336	78.38
485.554	84.38
485.772	87.38
485.99	93.38
486.209	96.38
486.427	101.38
486.645	93.38
486.863	90.38
487.081	90.38
487.299	99.38
487.517	79.38
487.735	84.38
487.953	87.38
488.171	82.38
488.389	102.38
488.607	90.38
488.825	77.38
489.043	87.38
489.261	104.38
489.479	96.38
489.696	93.38
489.914	103.38
490.132	93.38
490.35	92.38
490.568	83.38
490.786	106.38
491.003	90.38
491.221	96.38
491.439	90.38
491.657	97.38
491.874	94.38
492.092	81.38
492.31	91.38
492.527	100.38
492.745	103.38
492.963	93.38
493.18	93.38
493.398	83.38
493.615	89.38
493.833	84.38
494.05	81.38
494.268	94.38
494.485	112.38
494.703	106.38
494.92	86.38
495.138	101.38
495.355	99.38
495.573	105.38
495.79	81.38
496.008	98.38
496.225	97.38
496.442	113.38
496.66	96.38
496.877	97.38
497.094	96.38
497.312	85.38
497.529	87.38
497.746	104.38
497.963	97.38
498.181	84.38
498.398	69.38
498.615	85.38
498.832	93.38
499.049	87.38
499.267	95.38
499.484	105.38
499.701	102.38
499.918	101.38
500.135	115.38
500.352	100.38
500.569	120.38
500.786	106.38
501.003	102.38
501.22	98.38
501.437	118.38
501.654	103.38
501.871	96.38
502.088	95.38
502.305	93.38
502.522	100.38
502.739	87.38
502.956	85.38
503.172	87.38
503.389	90.38
503.606	91.38
503.823	99.38
504.04	82.38
504.256	90.38
504.473	95.38
504.69	91.38
504.907	88.38
505.123	82.38
505.34	90.38
505.557	92.38
505.773	100.38
505.99	87.38
506.207	105.38
506.423	87.38
506.64	84.38
506.856	95.38
507.073	91.38
507.289	91.38
507.506	98.38
507.722	94.38
507.939	79.38
508.155	93.38
508.372	95.38
508.588	91.38
508.805	85.38
509.021	95.38
509.238	97.38
509.454	85.38
509.67	84.38
509.887	94.38
510.103	87.38
510.319	78.38
510.536	91.38
510.752	76.38
510.968	86.38
511.184	98.38
511.401	83.38
511.617	87.38
511.833	90.38
512.049	94.38
512.265	91.38
512.481	89.38
512.698	107.38
512.914	91.38
513.13	78.38
513.346	107.38
513.562	92.38
513.778	99.38
513.994	94.38
514.21	97.38
514.426	98.38
514.642	90.38
514.858	87.38
515.074	95.38
515.29	83.38
515.506	74.38
515.721	87.38
515.937	102.38
516.153	90.38
516.369	97.38
516.585	80.38
516.801	96.38
517.016	78.38
517.232	97.38
517.448	87.38
517.664	90.38
517.879	84.38
518.095	78.38
518.311	82.38
