Data from Ni(NO3)2@0.25M.TitratingCurve.Agarose3%dH2O.NegLispCup.LampEnergy10.LIBS07252019_HRD10591_18-03-54-566.txt Node
Date: Thu Jul 25 18:03:54 EDT 2019
User: cochatt
Spectrometer: HR+D1059
Trigger mode: 1
Integration Time (sec): 1.000000E-1
Scans to average: 1
Electric dark correction enabled: true
Nonlinearity correction enabled: false
Boxcar width: 0
XAxis mode: Wavelengths
Number of Pixels in Spectrum: 2048
>>>>>Begin Spectral Data<<<<<
223.165	-6.25
223.4	-6.25
223.635	-6.25
223.869	-21.25
224.104	-29.25
224.338	-17.25
224.573	-11.25
224.808	-13.25
225.042	0.75
225.277	-4.25
225.511	-7.25
225.746	-4.25
225.98	10.75
226.215	5.75
226.449	22.75
226.683	20.75
226.918	21.75
227.152	31.75
227.387	29.75
227.621	34.75
227.856	62.75
228.09	47.75
228.324	56.75
228.559	61.75
228.793	80.75
229.027	87.75
229.262	106.75
229.496	102.75
229.73	103.75
229.964	120.75
230.199	120.75
230.433	105.75
230.667	123.75
230.901	108.75
231.136	108.75
231.37	123.75
231.604	124.75
231.838	123.75
232.072	132.75
232.306	124.75
232.541	143.75
232.775	126.75
233.009	131.75
233.243	136.75
233.477	118.75
233.711	145.75
233.945	139.75
234.179	136.75
234.413	130.75
234.647	135.75
234.881	123.75
235.115	138.75
235.349	141.75
235.583	140.75
235.817	135.75
236.051	132.75
236.285	154.75
236.519	138.75
236.753	129.75
236.987	127.75
237.221	131.75
237.455	140.75
237.689	137.75
237.922	145.75
238.156	138.75
238.39	157.75
238.624	145.75
238.858	139.75
239.091	150.75
239.325	134.75
239.559	161.75
239.793	158.75
240.027	139.75
240.26	156.75
240.494	145.75
240.728	147.75
240.961	142.75
241.195	154.75
241.429	151.75
241.662	146.75
241.896	162.75
242.13	164.75
242.363	153.75
242.597	159.75
242.83	158.75
243.064	165.75
243.298	179.75
243.531	156.75
243.765	174.75
243.998	190.75
244.232	183.75
244.465	181.75
244.699	148.75
244.932	179.75
245.166	167.75
245.399	165.75
245.633	178.75
245.866	167.75
246.099	168.75
246.333	188.75
246.566	175.75
246.8	187.75
247.033	194.75
247.266	180.75
247.5	182.75
247.733	197.75
247.966	201.75
248.2	185.75
248.433	207.75
248.666	201.75
248.899	204.75
249.133	211.75
249.366	203.75
249.599	208.75
249.832	194.75
250.066	211.75
250.299	210.75
250.532	218.75
250.765	232.75
250.998	239.75
251.231	238.75
251.465	234.75
251.698	236.75
251.931	227.75
252.164	228.75
252.397	236.75
252.63	255.75
252.863	234.75
253.096	253.75
253.329	254.75
253.562	280.75
253.795	278.75
254.028	255.75
254.261	260.75
254.494	270.75
254.727	267.75
254.96	245.75
255.193	267.75
255.426	268.75
255.659	274.75
255.892	291.75
256.124	290.75
256.357	291.75
256.59	291.75
256.823	287.75
257.056	289.75
257.289	278.75
257.521	299.75
257.754	276.75
257.987	296.75
258.22	322.75
258.452	307.75
258.685	312.75
258.918	308.75
259.151	318.75
259.383	310.75
259.616	279.75
259.849	327.75
260.081	326.75
260.314	329.75
260.547	312.75
260.779	335.75
261.012	351.75
261.244	346.75
261.477	310.75
261.71	327.75
261.942	316.75
262.175	344.75
262.407	325.75
262.64	342.75
262.872	341.75
263.105	340.75
263.337	344.75
263.57	323.75
263.802	318.75
264.035	358.75
264.267	358.75
264.499	344.75
264.732	332.75
264.964	354.75
265.197	347.75
265.429	332.75
265.661	330.75
265.894	366.75
266.126	355.75
266.358	344.75
266.591	382.75
266.823	364.75
267.055	353.75
267.287	386.75
267.52	366.75
267.752	357.75
267.984	345.75
268.216	358.75
268.448	383.75
268.681	378.75
268.913	368.75
269.145	374.75
269.377	380.75
269.609	366.75
269.841	355.75
270.073	371.75
270.306	378.75
270.538	374.75
270.77	385.75
271.002	397.75
271.234	385.75
271.466	390.75
271.698	379.75
271.93	370.75
272.162	390.75
272.394	399.75
272.626	391.75
272.858	390.75
273.09	386.75
273.322	407.75
273.553	410.75
273.785	411.75
274.017	404.75
274.249	407.75
274.481	408.75
274.713	392.75
274.945	375.75
275.176	400.75
275.408	405.75
275.64	417.75
275.872	420.75
276.104	388.75
276.335	395.75
276.567	424.75
276.799	400.75
277.031	419.75
277.262	436.75
277.494	417.75
277.726	405.75
277.957	419.75
278.189	392.75
278.421	412.75
278.652	428.75
278.884	410.75
279.115	414.75
279.347	426.75
279.579	416.75
279.81	420.75
280.042	419.75
280.273	418.75
280.505	429.75
280.736	431.75
280.968	409.75
281.199	407.75
281.431	424.75
281.662	442.75
281.894	431.75
282.125	415.75
282.356	440.75
282.588	429.75
282.819	458.75
283.051	436.75
283.282	435.75
283.513	441.75
283.745	420.75
283.976	440.75
284.207	429.75
284.439	446.75
284.67	451.75
284.901	448.75
285.132	433.75
285.364	413.75
285.595	461.75
285.826	448.75
286.057	453.75
286.288	435.75
286.52	440.75
286.751	441.75
286.982	455.75
287.213	444.75
287.444	448.75
287.675	453.75
287.906	444.75
288.138	446.75
288.369	444.75
288.6	460.75
288.831	454.75
289.062	462.75
289.293	457.75
289.524	455.75
289.755	447.75
289.986	456.75
290.217	455.75
290.448	460.75
290.679	444.75
290.91	431.75
291.141	469.75
291.371	461.75
291.602	468.75
291.833	450.75
292.064	459.75
292.295	434.75
292.526	466.75
292.757	444.75
292.987	457.75
293.218	461.75
293.449	480.75
293.68	459.75
293.91	455.75
294.141	450.75
294.372	450.75
294.603	470.75
294.833	469.75
295.064	446.75
295.295	464.75
295.525	453.75
295.756	476.75
295.987	452.75
296.217	459.75
296.448	475.75
296.679	486.75
296.909	472.75
297.14	457.75
297.37	476.75
297.601	495.75
297.831	477.75
298.062	483.75
298.292	471.75
298.523	502.75
298.753	506.75
298.984	482.75
299.214	496.75
299.445	468.75
299.675	472.75
299.905	510.75
300.136	494.75
300.366	516.75
300.597	500.75
300.827	501.75
301.057	498.75
301.288	524.75
301.518	532.75
301.748	520.75
301.979	516.75
302.209	522.75
302.439	525.75
302.669	506.75
302.9	497.75
303.13	507.75
303.36	516.75
303.59	494.75
303.82	514.75
304.051	557.75
304.281	522.75
304.511	525.75
304.741	533.75
304.971	521.75
305.201	543.75
305.431	527.75
305.661	537.75
305.891	544.75
306.121	527.75
306.352	510.75
306.582	520.75
306.812	527.75
307.042	509.75
307.272	555.75
307.502	518.75
307.731	497.75
307.961	541.75
308.191	530.75
308.421	512.75
308.651	508.75
308.881	514.75
309.111	522.75
309.341	512.75
309.571	540.75
309.8	548.75
310.03	537.75
310.26	547.75
310.49	554.75
310.72	538.75
310.949	550.75
311.179	541.75
311.409	553.75
311.639	574.75
311.868	556.75
312.098	566.75
312.328	585.75
312.557	570.75
312.787	574.75
313.017	557.75
313.246	578.75
313.476	596.75
313.706	590.75
313.935	585.75
314.165	607.75
314.394	584.75
314.624	571.75
314.853	588.75
315.083	602.75
315.312	597.75
315.542	602.75
315.771	596.75
316.001	626.75
316.23	618.75
316.46	619.75
316.689	605.75
316.919	616.75
317.148	616.75
317.377	633.75
317.607	589.75
317.836	584.75
318.065	628.75
318.295	619.75
318.524	616.75
318.753	610.75
318.983	629.75
319.212	621.75
319.441	634.75
319.67	636.75
319.9	620.75
320.129	634.75
320.358	634.75
320.587	635.75
320.816	665.75
321.046	680.75
321.275	667.75
321.504	680.75
321.733	682.75
321.962	660.75
322.191	675.75
322.42	686.75
322.649	677.75
322.878	672.75
323.108	693.75
323.337	694.75
323.566	696.75
323.795	713.75
324.024	704.75
324.253	689.75
324.482	732.75
324.71	716.75
324.939	710.75
325.168	727.75
325.397	725.75
325.626	730.75
325.855	746.75
326.084	776.75
326.313	780.75
326.542	746.75
326.77	763.75
326.999	758.75
327.228	759.75
327.457	760.75
327.686	740.75
327.914	786.75
328.143	754.75
328.372	779.75
328.6	772.75
328.829	779.75
329.058	808.75
329.287	784.75
329.515	814.75
329.744	813.75
329.972	792.75
330.201	827.75
330.43	807.75
330.658	841.75
330.887	815.75
331.115	820.75
331.344	865.75
331.572	854.75
331.801	861.75
332.03	886.75
332.258	900.75
332.486	886.75
332.715	900.75
332.943	932.75
333.172	927.75
333.4	980.75
333.629	957.75
333.857	1018.75
334.085	1001.75
334.314	990.75
334.542	1005.75
334.771	998.75
334.999	1022.75
335.227	999.75
335.455	1029.75
335.684	1013.75
335.912	1001.75
336.14	1024.75
336.369	992.75
336.597	1004.75
336.825	1007.75
337.053	1025.75
337.281	1019.75
337.51	962.75
337.738	948.75
337.966	975.75
338.194	972.75
338.422	942.75
338.65	925.75
338.878	920.75
339.106	955.75
339.334	952.75
339.562	903.75
339.79	916.75
340.018	921.75
340.246	879.75
340.474	883.75
340.702	908.75
340.93	894.75
341.158	906.75
341.386	941.75
341.614	960.75
341.842	919.75
342.07	900.75
342.298	890.75
342.526	917.75
342.754	882.75
342.981	913.75
343.209	925.75
343.437	950.75
343.665	980.75
343.893	1025.75
344.12	1004.75
344.348	1013.75
344.576	956.75
344.804	988.75
345.031	972.75
345.259	920.75
345.487	948.75
345.714	916.75
345.942	908.75
346.17	951.75
346.397	934.75
346.625	906.75
346.853	871.75
347.08	862.75
347.308	882.75
347.535	895.75
347.763	856.75
347.99	853.75
348.218	876.75
348.445	868.75
348.673	833.75
348.9	858.75
349.128	869.75
349.355	895.75
349.583	896.75
349.81	850.75
350.037	848.75
350.265	850.75
350.492	834.75
350.72	838.75
350.947	872.75
351.174	896.75
351.402	882.75
351.629	891.75
351.856	889.75
352.083	850.75
352.311	858.75
352.538	870.75
352.765	896.75
352.992	843.75
353.22	847.75
353.447	851.75
353.674	832.75
353.901	834.75
354.128	827.75
354.355	828.75
354.583	837.75
354.81	831.75
355.037	832.75
355.264	820.75
355.491	821.75
355.718	843.75
355.945	854.75
356.172	808.75
356.399	850.75
356.626	847.75
356.853	869.75
357.08	864.75
357.307	849.75
357.534	820.75
357.761	808.75
357.988	816.75
358.215	807.75
358.441	814.75
358.668	830.75
358.895	803.75
359.122	822.75
359.349	852.75
359.576	819.75
359.802	852.75
360.029	836.75
360.256	826.75
360.483	815.75
360.709	847.75
360.936	830.75
361.163	831.75
361.39	822.75
361.616	837.75
361.843	882.75
362.07	882.75
362.296	873.75
362.523	812.75
362.749	851.75
362.976	828.75
363.203	851.75
363.429	822.75
363.656	828.75
363.882	796.75
364.109	813.75
364.335	822.75
364.562	840.75
364.788	830.75
365.015	824.75
365.241	815.75
365.468	809.75
365.694	827.75
365.92	826.75
366.147	807.75
366.373	810.75
366.599	809.75
366.826	825.75
367.052	810.75
367.278	807.75
367.505	826.75
367.731	822.75
367.957	818.75
368.184	803.75
368.41	818.75
368.636	834.75
368.862	830.75
369.089	846.75
369.315	821.75
369.541	800.75
369.767	850.75
369.993	836.75
370.219	844.75
370.445	837.75
370.672	829.75
370.898	809.75
371.124	853.75
371.35	875.75
371.576	837.75
371.802	858.75
372.028	853.75
372.254	872.75
372.48	852.75
372.706	894.75
372.932	861.75
373.158	869.75
373.384	840.75
373.61	842.75
373.835	853.75
374.061	830.75
374.287	843.75
374.513	854.75
374.739	891.75
374.965	870.75
375.191	886.75
375.416	867.75
375.642	875.75
375.868	897.75
376.094	864.75
376.319	826.75
376.545	857.75
376.771	841.75
376.997	815.75
377.222	838.75
377.448	834.75
377.674	824.75
377.899	820.75
378.125	852.75
378.35	816.75
378.576	844.75
378.802	820.75
379.027	810.75
379.253	835.75
379.478	826.75
379.704	826.75
379.929	810.75
380.155	827.75
380.38	807.75
380.606	823.75
380.831	844.75
381.057	826.75
381.282	790.75
381.507	798.75
381.733	821.75
381.958	832.75
382.184	832.75
382.409	822.75
382.634	838.75
382.86	824.75
383.085	851.75
383.31	841.75
383.535	831.75
383.761	857.75
383.986	877.75
384.211	854.75
384.436	872.75
384.662	903.75
384.887	894.75
385.112	915.75
385.337	909.75
385.562	915.75
385.787	923.75
386.013	913.75
386.238	938.75
386.463	930.75
386.688	932.75
386.913	933.75
387.138	903.75
387.363	932.75
387.588	938.75
387.813	923.75
388.038	946.75
388.263	931.75
388.488	947.75
388.713	920.75
388.938	931.75
389.163	936.75
389.387	927.75
389.612	940.75
389.837	894.75
390.062	930.75
390.287	918.75
390.512	936.75
390.736	941.75
390.961	940.75
391.186	960.75
391.411	970.75
391.636	950.75
391.86	975.75
392.085	995.75
392.31	950.75
392.534	993.75
392.759	995.75
392.984	974.75
393.208	956.75
393.433	957.75
393.658	950.75
393.882	957.75
394.107	983.75
394.331	978.75
394.556	967.75
394.78	981.75
395.005	982.75
395.229	984.75
395.454	1004.75
395.678	998.75
395.903	1018.75
396.127	995.75
396.352	1014.75
396.576	1002.75
396.801	1007.75
397.025	1036.75
397.249	1005.75
397.474	1051.75
397.698	1036.75
397.922	1057.75
398.147	1060.75
398.371	1085.75
398.595	1112.75
398.82	1133.75
399.044	1190.75
399.268	1242.75
399.492	1374.75
399.717	1424.75
399.941	1456.75
400.165	1403.75
400.389	1334.75
400.613	1282.75
400.837	1231.75
401.062	1190.75
401.286	1160.75
401.51	1167.75
401.734	1150.75
401.958	1155.75
402.182	1178.75
402.406	1202.75
402.63	1144.75
402.854	1172.75
403.078	1159.75
403.302	1170.75
403.526	1149.75
403.75	1172.75
403.974	1228.75
404.198	1209.75
404.422	1207.75
404.645	1232.75
404.869	1231.75
405.093	1214.75
405.317	1229.75
405.541	1221.75
405.765	1230.75
405.988	1215.75
406.212	1255.75
406.436	1259.75
406.66	1283.75
406.883	1257.75
407.107	1296.75
407.331	1335.75
407.555	1374.75
407.778	1398.75
408.002	1347.75
408.226	1335.75
408.449	1335.75
408.673	1310.75
408.896	1273.75
409.12	1262.75
409.344	1301.75
409.567	1290.75
409.791	1272.75
410.014	1275.75
410.238	1256.75
410.461	1242.75
410.685	1226.75
410.908	1243.75
411.132	1196.75
411.355	1199.75
411.578	1200.75
411.802	1197.75
412.025	1231.75
412.249	1221.75
412.472	1206.75
412.695	1186.75
412.919	1205.75
413.142	1218.75
413.365	1206.75
413.589	1188.75
413.812	1174.75
414.035	1170.75
414.258	1178.75
414.482	1184.75
414.705	1205.75
414.928	1220.75
415.151	1182.75
415.374	1178.75
415.597	1164.75
415.821	1184.75
416.044	1168.75
416.267	1168.75
416.49	1170.75
416.713	1186.75
416.936	1176.75
417.159	1166.75
417.382	1162.75
417.605	1156.75
417.828	1189.75
418.051	1180.75
418.274	1186.75
418.497	1152.75
418.72	1202.75
418.943	1160.75
419.166	1223.75
419.389	1361.75
419.611	1333.75
419.834	1235.75
420.057	1208.75
420.28	1209.75
420.503	1144.75
420.726	1174.75
420.948	1163.75
421.171	1172.75
421.394	1201.75
421.617	1169.75
421.839	1154.75
422.062	1178.75
422.285	1145.75
422.507	1196.75
422.73	1197.75
422.953	1198.75
423.175	1172.75
423.398	1207.75
423.621	1212.75
423.843	1215.75
424.066	1199.75
424.288	1217.75
424.511	1233.75
424.733	1198.75
424.956	1198.75
425.178	1203.75
425.401	1211.75
425.623	1223.75
425.846	1190.75
426.068	1216.75
426.291	1181.75
426.513	1180.75
426.735	1140.75
426.958	1170.75
427.18	1150.75
427.402	1174.75
427.625	1143.75
427.847	1121.75
428.069	1126.75
428.292	1172.75
428.514	1147.75
428.736	1110.75
428.958	1133.75
429.181	1114.75
429.403	1112.75
429.625	1116.75
429.847	1115.75
430.069	1143.75
430.292	1124.75
430.514	1074.75
430.736	1129.75
430.958	1157.75
431.18	1115.75
431.402	1120.75
431.624	1121.75
431.846	1142.75
432.068	1143.75
432.29	1158.75
432.512	1147.75
432.734	1142.75
432.956	1120.75
433.178	1131.75
433.4	1161.75
433.622	1168.75
433.844	1181.75
434.066	1176.75
434.287	1165.75
434.509	1189.75
434.731	1195.75
434.953	1212.75
435.175	1234.75
435.397	1216.75
435.618	1203.75
435.84	1155.75
436.062	1158.75
436.284	1151.75
436.505	1146.75
436.727	1156.75
436.949	1143.75
437.17	1160.75
437.392	1126.75
437.614	1120.75
437.835	1128.75
438.057	1114.75
438.278	1110.75
438.5	1090.75
438.721	1131.75
438.943	1103.75
439.165	1094.75
439.386	1114.75
439.608	1134.75
439.829	1150.75
440.05	1127.75
440.272	1141.75
440.493	1134.75
440.715	1156.75
440.936	1202.75
441.158	1178.75
441.379	1176.75
441.6	1237.75
441.822	1256.75
442.043	1225.75
442.264	1243.75
442.486	1213.75
442.707	1231.75
442.928	1198.75
443.149	1228.75
443.371	1211.75
443.592	1285.75
443.813	1251.75
444.034	1231.75
444.255	1261.75
444.476	1300.75
444.698	1331.75
444.919	1355.75
445.14	1475.75
445.361	1355.75
445.582	1303.75
445.803	1238.75
446.024	1242.75
446.245	1221.75
446.466	1189.75
446.687	1139.75
446.908	1174.75
447.129	1116.75
447.35	1135.75
447.571	1145.75
447.792	1118.75
448.013	1119.75
448.234	1074.75
448.455	1115.75
448.675	1082.75
448.896	1052.75
449.117	1057.75
449.338	1090.75
449.559	1058.75
449.779	1072.75
450	1081.75
450.221	1064.75
450.442	1094.75
450.662	1070.75
450.883	1064.75
451.104	1067.75
451.324	1101.75
451.545	1050.75
451.766	1045.75
451.986	1055.75
452.207	1053.75
452.428	1055.75
452.648	1023.75
452.869	1014.75
453.089	1006.75
453.31	1028.75
453.53	1029.75
453.751	1017.75
453.971	1002.75
454.192	1008.75
454.412	995.75
454.633	1005.75
454.853	1011.75
455.073	973.75
455.294	1021.75
455.514	1000.75
455.734	1006.75
455.955	1010.75
456.175	987.75
456.395	991.75
456.616	985.75
456.836	1018.75
457.056	1026.75
457.276	984.75
457.497	1018.75
457.717	1017.75
457.937	1028.75
458.157	1053.75
458.377	1030.75
458.598	1067.75
458.818	1088.75
459.038	1086.75
459.258	1114.75
459.478	1149.75
459.698	1186.75
459.918	1167.75
460.138	1225.75
460.358	1270.75
460.578	1259.75
460.798	1292.75
461.018	1293.75
461.238	1288.75
461.458	1261.75
461.678	1308.75
461.898	1328.75
462.118	1327.75
462.338	1414.75
462.558	1410.75
462.777	1451.75
462.997	1499.75
463.217	1521.75
463.437	1552.75
463.657	1519.75
463.876	1475.75
464.096	1507.75
464.316	1444.75
464.536	1453.75
464.755	1387.75
464.975	1356.75
465.195	1333.75
465.414	1296.75
465.634	1228.75
465.854	1176.75
466.073	1195.75
466.293	1153.75
466.512	1149.75
466.732	1132.75
466.951	1126.75
467.171	1121.75
467.391	1126.75
467.61	1119.75
467.829	1104.75
468.049	1111.75
468.268	1047.75
468.488	1082.75
468.707	1064.75
468.927	1069.75
469.146	1058.75
469.365	1094.75
469.585	1082.75
469.804	1104.75
470.023	1161.75
470.243	1127.75
470.462	1097.75
470.681	1154.75
470.901	1128.75
471.12	1112.75
471.339	1148.75
471.558	1113.75
471.777	1100.75
471.997	1109.75
472.216	1082.75
472.435	1093.75
472.654	1081.75
472.873	1079.75
473.092	1079.75
473.311	1065.75
473.53	1095.75
473.749	1092.75
473.968	1090.75
474.187	1088.75
474.406	1093.75
474.625	1064.75
474.844	1068.75
475.063	1110.75
475.282	1095.75
475.501	1089.75
475.72	1091.75
475.939	1120.75
476.158	1106.75
476.377	1142.75
476.596	1117.75
476.814	1166.75
477.033	1128.75
477.252	1152.75
477.471	1169.75
477.69	1210.75
477.908	1194.75
478.127	1224.75
478.346	1262.75
478.564	1296.75
478.783	1286.75
479.002	1311.75
479.22	1292.75
479.439	1285.75
479.658	1290.75
479.876	1314.75
480.095	1318.75
480.313	1327.75
480.532	1346.75
480.751	1341.75
480.969	1322.75
481.188	1262.75
481.406	1275.75
481.624	1243.75
481.843	1233.75
482.061	1231.75
482.28	1218.75
482.498	1271.75
482.717	1213.75
482.935	1234.75
483.153	1251.75
483.372	1246.75
483.59	1251.75
483.808	1250.75
484.027	1243.75
484.245	1290.75
484.463	1246.75
484.681	1273.75
484.9	1234.75
485.118	1251.75
485.336	1281.75
485.554	1277.75
485.772	1288.75
485.99	1274.75
486.209	1295.75
486.427	1278.75
486.645	1284.75
486.863	1298.75
487.081	1279.75
487.299	1282.75
487.517	1314.75
487.735	1278.75
487.953	1328.75
488.171	1316.75
488.389	1287.75
488.607	1272.75
488.825	1298.75
489.043	1263.75
489.261	1282.75
489.479	1275.75
489.696	1260.75
489.914	1275.75
490.132	1281.75
490.35	1322.75
490.568	1316.75
490.786	1345.75
491.003	1300.75
491.221	1335.75
491.439	1343.75
491.657	1358.75
491.874	1339.75
492.092	1360.75
492.31	1352.75
492.527	1375.75
492.745	1341.75
492.963	1386.75
493.18	1385.75
493.398	1375.75
493.615	1366.75
493.833	1370.75
494.05	1362.75
494.268	1414.75
494.485	1401.75
494.703	1405.75
494.92	1400.75
495.138	1410.75
495.355	1420.75
