Data from Ni(NO3)2@0.0625M.TitratingCurve.Agarose3%dH2O.NegLispCup.LampEnergy10.LIBS07252019_HRD10591_18-15-56-570.txt Node
Date: Thu Jul 25 18:15:56 EDT 2019
User: cochatt
Spectrometer: HR+D1059
Trigger mode: 1
Integration Time (sec): 1.000000E-1
Scans to average: 1
Electric dark correction enabled: true
Nonlinearity correction enabled: false
Boxcar width: 0
XAxis mode: Wavelengths
Number of Pixels in Spectrum: 2048
>>>>>Begin Spectral Data<<<<<
223.165	-11.5
223.4	-11.5
223.635	-11.5
223.869	-5.5
224.104	-9.5
224.338	-20.5
224.573	-21.5
224.808	-9.5
225.042	1.5
225.277	-2.5
225.511	-15.5
225.746	-0.5
225.98	4.5
226.215	6.5
226.449	17.5
226.683	25.5
226.918	30.5
227.152	10.5
227.387	45.5
227.621	44.5
227.856	51.5
228.09	52.5
228.324	50.5
228.559	63.5
228.793	62.5
229.027	93.5
229.262	99.5
229.496	106.5
229.73	94.5
229.964	114.5
230.199	106.5
230.433	119.5
230.667	128.5
230.901	120.5
231.136	120.5
231.37	134.5
231.604	126.5
231.838	124.5
232.072	140.5
232.306	132.5
232.541	138.5
232.775	121.5
233.009	124.5
233.243	129.5
233.477	128.5
233.711	132.5
233.945	129.5
234.179	126.5
234.413	127.5
234.647	126.5
234.881	124.5
235.115	145.5
235.349	142.5
235.583	132.5
235.817	120.5
236.051	143.5
236.285	139.5
236.519	151.5
236.753	154.5
236.987	132.5
237.221	138.5
237.455	150.5
237.689	150.5
237.922	131.5
238.156	146.5
238.39	134.5
238.624	140.5
238.858	139.5
239.091	158.5
239.325	170.5
239.559	142.5
239.793	163.5
240.027	144.5
240.26	156.5
240.494	150.5
240.728	158.5
240.961	142.5
241.195	163.5
241.429	159.5
241.662	159.5
241.896	163.5
242.13	172.5
242.363	162.5
242.597	160.5
242.83	159.5
243.064	155.5
243.298	159.5
243.531	185.5
243.765	168.5
243.998	160.5
244.232	190.5
244.465	179.5
244.699	165.5
244.932	182.5
245.166	187.5
245.399	179.5
245.633	164.5
245.866	186.5
246.099	189.5
246.333	179.5
246.566	190.5
246.8	172.5
247.033	201.5
247.266	187.5
247.5	203.5
247.733	199.5
247.966	202.5
248.2	194.5
248.433	203.5
248.666	195.5
248.899	189.5
249.133	197.5
249.366	191.5
249.599	198.5
249.832	206.5
250.066	217.5
250.299	208.5
250.532	214.5
250.765	219.5
250.998	204.5
251.231	195.5
251.465	218.5
251.698	220.5
251.931	219.5
252.164	202.5
252.397	221.5
252.63	224.5
252.863	226.5
253.096	226.5
253.329	221.5
253.562	229.5
253.795	233.5
254.028	230.5
254.261	233.5
254.494	232.5
254.727	217.5
254.96	214.5
255.193	225.5
255.426	236.5
255.659	244.5
255.892	233.5
256.124	231.5
256.357	236.5
256.59	229.5
256.823	231.5
257.056	257.5
257.289	234.5
257.521	248.5
257.754	237.5
257.987	251.5
258.22	245.5
258.452	235.5
258.685	221.5
258.918	262.5
259.151	249.5
259.383	242.5
259.616	247.5
259.849	263.5
260.081	264.5
260.314	243.5
260.547	264.5
260.779	282.5
261.012	264.5
261.244	272.5
261.477	252.5
261.71	257.5
261.942	246.5
262.175	240.5
262.407	252.5
262.64	259.5
262.872	250.5
263.105	287.5
263.337	288.5
263.57	254.5
263.802	268.5
264.035	284.5
264.267	284.5
264.499	273.5
264.732	258.5
264.964	273.5
265.197	273.5
265.429	291.5
265.661	284.5
265.894	283.5
266.126	300.5
266.358	288.5
266.591	282.5
266.823	286.5
267.055	279.5
267.287	286.5
267.52	303.5
267.752	302.5
267.984	283.5
268.216	312.5
268.448	301.5
268.681	295.5
268.913	296.5
269.145	315.5
269.377	302.5
269.609	292.5
269.841	291.5
270.073	320.5
270.306	308.5
270.538	324.5
270.77	300.5
271.002	281.5
271.234	314.5
271.466	291.5
271.698	294.5
271.93	316.5
272.162	307.5
272.394	339.5
272.626	313.5
272.858	319.5
273.09	315.5
273.322	314.5
273.553	313.5
273.785	319.5
274.017	314.5
274.249	322.5
274.481	310.5
274.713	299.5
274.945	316.5
275.176	338.5
275.408	331.5
275.64	320.5
275.872	322.5
276.104	339.5
276.335	334.5
276.567	338.5
276.799	342.5
277.031	344.5
277.262	336.5
277.494	351.5
277.726	344.5
277.957	346.5
278.189	346.5
278.421	340.5
278.652	350.5
278.884	342.5
279.115	359.5
279.347	356.5
279.579	342.5
279.81	359.5
280.042	354.5
280.273	333.5
280.505	358.5
280.736	380.5
280.968	356.5
281.199	363.5
281.431	370.5
281.662	367.5
281.894	359.5
282.125	364.5
282.356	344.5
282.588	367.5
282.819	378.5
283.051	388.5
283.282	355.5
283.513	365.5
283.745	359.5
283.976	381.5
284.207	399.5
284.439	385.5
284.67	386.5
284.901	389.5
285.132	406.5
285.364	379.5
285.595	369.5
285.826	399.5
286.057	391.5
286.288	387.5
286.52	406.5
286.751	382.5
286.982	397.5
287.213	395.5
287.444	365.5
287.675	422.5
287.906	407.5
288.138	419.5
288.369	396.5
288.6	406.5
288.831	396.5
289.062	404.5
289.293	393.5
289.524	414.5
289.755	416.5
289.986	405.5
290.217	415.5
290.448	405.5
290.679	422.5
290.91	423.5
291.141	418.5
291.371	421.5
291.602	408.5
291.833	416.5
292.064	444.5
292.295	431.5
292.526	424.5
292.757	422.5
292.987	413.5
293.218	424.5
293.449	446.5
293.68	439.5
293.91	440.5
294.141	429.5
294.372	437.5
294.603	429.5
294.833	434.5
295.064	431.5
295.295	437.5
295.525	410.5
295.756	428.5
295.987	428.5
296.217	436.5
296.448	441.5
296.679	438.5
296.909	412.5
297.14	438.5
297.37	442.5
297.601	455.5
297.831	452.5
298.062	454.5
298.292	458.5
298.523	490.5
298.753	470.5
298.984	464.5
299.214	472.5
299.445	464.5
299.675	454.5
299.905	470.5
300.136	455.5
300.366	468.5
300.597	470.5
300.827	469.5
301.057	479.5
301.288	510.5
301.518	489.5
301.748	486.5
301.979	476.5
302.209	478.5
302.439	482.5
302.669	471.5
302.9	476.5
303.13	469.5
303.36	476.5
303.59	481.5
303.82	468.5
304.051	456.5
304.281	485.5
304.511	453.5
304.741	479.5
304.971	502.5
305.201	478.5
305.431	477.5
305.661	470.5
305.891	481.5
306.121	463.5
306.352	478.5
306.582	478.5
306.812	468.5
307.042	451.5
307.272	455.5
307.502	462.5
307.731	445.5
307.961	469.5
308.191	464.5
308.421	445.5
308.651	453.5
308.881	473.5
309.111	464.5
309.341	448.5
309.571	455.5
309.8	463.5
310.03	459.5
310.26	462.5
310.49	460.5
310.72	474.5
310.949	469.5
311.179	472.5
311.409	473.5
311.639	466.5
311.868	463.5
312.098	468.5
312.328	488.5
312.557	483.5
312.787	491.5
313.017	481.5
313.246	482.5
313.476	471.5
313.706	528.5
313.935	483.5
314.165	523.5
314.394	505.5
314.624	493.5
314.853	505.5
315.083	510.5
315.312	473.5
315.542	472.5
315.771	477.5
316.001	481.5
316.23	475.5
316.46	500.5
316.689	464.5
316.919	464.5
317.148	472.5
317.377	485.5
317.607	485.5
317.836	478.5
318.065	472.5
318.295	479.5
318.524	492.5
318.753	471.5
318.983	472.5
319.212	486.5
319.441	470.5
319.67	476.5
319.9	480.5
320.129	478.5
320.358	495.5
320.587	469.5
320.816	506.5
321.046	482.5
321.275	509.5
321.504	501.5
321.733	492.5
321.962	474.5
322.191	474.5
322.42	487.5
322.649	478.5
322.878	486.5
323.108	486.5
323.337	484.5
323.566	484.5
323.795	496.5
324.024	501.5
324.253	490.5
324.482	512.5
324.71	496.5
324.939	519.5
325.168	502.5
325.397	500.5
325.626	502.5
325.855	505.5
326.084	535.5
326.313	528.5
326.542	542.5
326.77	538.5
326.999	521.5
327.228	533.5
327.457	530.5
327.686	522.5
327.914	526.5
328.143	523.5
328.372	532.5
328.6	534.5
328.829	536.5
329.058	528.5
329.287	534.5
329.515	530.5
329.744	526.5
329.972	534.5
330.201	543.5
330.43	533.5
330.658	541.5
330.887	531.5
331.115	552.5
331.344	566.5
331.572	577.5
331.801	573.5
332.03	594.5
332.258	620.5
332.486	603.5
332.715	638.5
332.943	652.5
333.172	686.5
333.4	691.5
333.629	745.5
333.857	731.5
334.085	705.5
334.314	711.5
334.542	698.5
334.771	685.5
334.999	662.5
335.227	662.5
335.455	664.5
335.684	659.5
335.912	663.5
336.14	652.5
336.369	640.5
336.597	634.5
336.825	639.5
337.053	653.5
337.281	631.5
337.51	638.5
337.738	610.5
337.966	617.5
338.194	623.5
338.422	590.5
338.65	572.5
338.878	573.5
339.106	578.5
339.334	577.5
339.562	554.5
339.79	548.5
340.018	531.5
340.246	531.5
340.474	541.5
340.702	518.5
340.93	569.5
341.158	570.5
341.386	566.5
341.614	584.5
341.842	555.5
342.07	550.5
342.298	544.5
342.526	534.5
342.754	544.5
342.981	568.5
343.209	554.5
343.437	610.5
343.665	631.5
343.893	700.5
344.12	696.5
344.348	637.5
344.576	623.5
344.804	600.5
345.031	594.5
345.259	578.5
345.487	546.5
345.714	566.5
345.942	574.5
346.17	579.5
346.397	572.5
346.625	556.5
346.853	555.5
347.08	555.5
347.308	562.5
347.535	555.5
347.763	542.5
347.99	569.5
348.218	578.5
348.445	572.5
348.673	579.5
348.9	559.5
349.128	554.5
349.355	536.5
349.583	534.5
349.81	553.5
350.037	536.5
350.265	530.5
350.492	542.5
350.72	523.5
350.947	535.5
351.174	530.5
351.402	553.5
351.629	521.5
351.856	529.5
352.083	531.5
352.311	557.5
352.538	539.5
352.765	558.5
352.992	522.5
353.22	498.5
353.447	512.5
353.674	519.5
353.901	507.5
354.128	537.5
354.355	506.5
354.583	512.5
354.81	521.5
355.037	538.5
355.264	517.5
355.491	519.5
355.718	536.5
355.945	505.5
356.172	534.5
356.399	542.5
356.626	527.5
356.853	538.5
357.08	504.5
357.307	514.5
357.534	541.5
357.761	531.5
357.988	529.5
358.215	524.5
358.441	528.5
358.668	518.5
358.895	529.5
359.122	519.5
359.349	522.5
359.576	529.5
359.802	541.5
360.029	556.5
360.256	546.5
360.483	520.5
360.709	515.5
360.936	543.5
361.163	546.5
361.39	520.5
361.616	545.5
361.843	541.5
362.07	547.5
362.296	526.5
362.523	535.5
362.749	524.5
362.976	521.5
363.203	510.5
363.429	512.5
363.656	523.5
363.882	536.5
364.109	516.5
364.335	546.5
364.562	510.5
364.788	519.5
365.015	528.5
365.241	516.5
365.468	527.5
365.694	513.5
365.92	538.5
366.147	520.5
366.373	489.5
366.599	518.5
366.826	528.5
367.052	522.5
367.278	527.5
367.505	522.5
367.731	522.5
367.957	507.5
368.184	538.5
368.41	535.5
368.636	554.5
368.862	542.5
369.089	547.5
369.315	557.5
369.541	531.5
369.767	542.5
369.993	540.5
370.219	545.5
370.445	506.5
370.672	556.5
370.898	562.5
371.124	533.5
371.35	591.5
371.576	603.5
371.802	596.5
372.028	558.5
372.254	562.5
372.48	559.5
372.706	564.5
372.932	606.5
373.158	615.5
373.384	599.5
373.61	564.5
373.835	586.5
374.061	558.5
374.287	580.5
374.513	587.5
374.739	608.5
374.965	627.5
375.191	652.5
375.416	640.5
375.642	604.5
375.868	596.5
376.094	579.5
376.319	593.5
376.545	583.5
376.771	621.5
376.997	588.5
377.222	578.5
377.448	574.5
377.674	598.5
377.899	589.5
378.125	572.5
378.35	576.5
378.576	565.5
378.802	572.5
379.027	586.5
379.253	587.5
379.478	565.5
379.704	543.5
379.929	554.5
380.155	557.5
380.38	567.5
380.606	557.5
380.831	564.5
381.057	562.5
381.282	566.5
381.507	546.5
381.733	568.5
381.958	551.5
382.184	547.5
382.409	579.5
382.634	614.5
382.86	581.5
383.085	604.5
383.31	600.5
383.535	639.5
383.761	637.5
383.986	652.5
384.211	648.5
384.436	675.5
384.662	662.5
384.887	682.5
385.112	718.5
385.337	707.5
385.562	674.5
385.787	714.5
386.013	722.5
386.238	686.5
386.463	711.5
386.688	714.5
386.913	676.5
387.138	671.5
387.363	679.5
387.588	675.5
387.813	665.5
388.038	677.5
388.263	677.5
388.488	668.5
388.713	695.5
388.938	685.5
389.163	661.5
389.387	688.5
389.612	640.5
389.837	657.5
390.062	634.5
390.287	695.5
390.512	657.5
390.736	667.5
390.961	692.5
391.186	713.5
391.411	742.5
391.636	739.5
391.86	756.5
392.085	766.5
392.31	769.5
392.534	735.5
392.759	751.5
392.984	726.5
393.208	723.5
393.433	735.5
393.658	713.5
393.882	725.5
394.107	735.5
394.331	757.5
394.556	729.5
394.78	750.5
395.005	724.5
395.229	720.5
395.454	762.5
395.678	776.5
395.903	778.5
396.127	755.5
396.352	726.5
396.576	702.5
396.801	725.5
397.025	729.5
397.249	741.5
397.474	770.5
397.698	771.5
397.922	739.5
398.147	771.5
398.371	768.5
398.595	800.5
398.82	833.5
399.044	874.5
399.268	968.5
399.492	1133.5
399.717	1332.5
399.941	1290.5
400.165	1126.5
400.389	1041.5
400.613	950.5
400.837	870.5
401.062	863.5
401.286	841.5
401.51	839.5
401.734	836.5
401.958	840.5
402.182	885.5
402.406	868.5
402.63	904.5
402.854	912.5
403.078	956.5
403.302	956.5
403.526	968.5
403.75	997.5
403.974	1015.5
404.198	1011.5
404.422	991.5
404.645	980.5
404.869	973.5
405.093	973.5
405.317	968.5
405.541	958.5
405.765	898.5
405.988	926.5
406.212	963.5
406.436	923.5
406.66	947.5
406.883	978.5
407.107	1048.5
407.331	1103.5
407.555	1144.5
407.778	1119.5
408.002	1086.5
408.226	1070.5
408.449	1020.5
408.673	999.5
408.896	988.5
409.12	955.5
409.344	984.5
409.567	995.5
409.791	973.5
410.014	978.5
410.238	981.5
410.461	953.5
410.685	986.5
410.908	927.5
411.132	926.5
411.355	878.5
411.578	912.5
411.802	890.5
412.025	877.5
412.249	919.5
412.472	897.5
412.695	892.5
412.919	854.5
413.142	858.5
413.365	832.5
413.589	869.5
413.812	863.5
414.035	812.5
414.258	836.5
414.482	842.5
414.705	879.5
414.928	868.5
415.151	891.5
415.374	847.5
415.597	868.5
415.821	856.5
416.044	819.5
416.267	848.5
416.49	848.5
416.713	827.5
416.936	870.5
417.159	833.5
417.382	840.5
417.605	855.5
417.828	855.5
418.051	847.5
418.274	818.5
418.497	810.5
418.72	880.5
418.943	863.5
419.166	930.5
419.389	981.5
419.611	936.5
419.834	932.5
420.057	882.5
420.28	844.5
420.503	826.5
420.726	835.5
420.948	858.5
421.171	846.5
421.394	852.5
421.617	839.5
421.839	843.5
422.062	879.5
422.285	835.5
422.507	890.5
422.73	866.5
422.953	856.5
423.175	909.5
423.398	910.5
423.621	909.5
423.843	912.5
424.066	901.5
424.288	926.5
424.511	885.5
424.733	872.5
424.956	854.5
425.178	864.5
425.401	852.5
425.623	851.5
425.846	808.5
426.068	806.5
426.291	816.5
426.513	799.5
426.735	817.5
426.958	803.5
427.18	764.5
427.402	782.5
427.625	776.5
427.847	757.5
428.069	747.5
428.292	763.5
428.514	752.5
428.736	742.5
428.958	754.5
429.181	747.5
429.403	745.5
429.625	748.5
429.847	750.5
430.069	730.5
430.292	742.5
430.514	747.5
430.736	728.5
430.958	743.5
431.18	737.5
431.402	746.5
431.624	763.5
431.846	779.5
432.068	766.5
432.29	775.5
432.512	739.5
432.734	746.5
432.956	792.5
433.178	798.5
433.4	751.5
433.622	779.5
433.844	790.5
434.066	758.5
434.287	792.5
434.509	829.5
434.731	855.5
434.953	871.5
435.175	863.5
435.397	878.5
435.618	811.5
435.84	800.5
436.062	770.5
436.284	741.5
436.505	764.5
436.727	774.5
436.949	776.5
437.17	794.5
437.392	766.5
437.614	747.5
437.835	730.5
438.057	720.5
438.278	720.5
438.5	734.5
438.721	721.5
438.943	741.5
439.165	742.5
439.386	745.5
439.608	746.5
439.829	762.5
440.05	735.5
440.272	778.5
440.493	794.5
440.715	788.5
440.936	775.5
441.158	792.5
441.379	811.5
441.6	867.5
441.822	891.5
442.043	876.5
442.264	830.5
442.486	837.5
442.707	830.5
442.928	840.5
443.149	854.5
443.371	862.5
443.592	891.5
443.813	853.5
444.034	884.5
444.255	904.5
444.476	927.5
444.698	1015.5
444.919	1029.5
445.14	1062.5
445.361	976.5
445.582	880.5
445.803	854.5
446.024	847.5
446.245	823.5
446.466	756.5
446.687	798.5
446.908	788.5
447.129	760.5
447.35	727.5
447.571	756.5
447.792	717.5
448.013	727.5
448.234	711.5
448.455	699.5
448.675	719.5
448.896	699.5
449.117	716.5
449.338	724.5
449.559	702.5
449.779	708.5
450	716.5
450.221	706.5
450.442	732.5
450.662	695.5
450.883	728.5
451.104	756.5
451.324	735.5
451.545	731.5
451.766	720.5
451.986	692.5
452.207	716.5
452.428	680.5
452.648	724.5
452.869	722.5
453.089	715.5
453.31	713.5
453.53	695.5
453.751	699.5
453.971	693.5
454.192	700.5
454.412	688.5
454.633	670.5
454.853	676.5
455.073	654.5
455.294	662.5
455.514	676.5
455.734	670.5
455.955	674.5
456.175	682.5
456.395	670.5
456.616	654.5
456.836	671.5
457.056	650.5
457.276	657.5
457.497	668.5
457.717	650.5
457.937	678.5
458.157	698.5
458.377	685.5
458.598	705.5
458.818	719.5
459.038	711.5
459.258	775.5
459.478	773.5
459.698	839.5
459.918	838.5
460.138	847.5
460.358	903.5
460.578	914.5
460.798	927.5
461.018	928.5
461.238	902.5
461.458	898.5
461.678	895.5
461.898	942.5
462.118	918.5
462.338	960.5
462.558	1005.5
462.777	1039.5
462.997	1149.5
463.217	1225.5
463.437	1290.5
463.657	1136.5
463.876	1048.5
464.096	1054.5
464.316	1083.5
464.536	1070.5
464.755	1047.5
464.975	985.5
465.195	922.5
465.414	902.5
465.634	849.5
465.854	832.5
466.073	784.5
466.293	792.5
466.512	759.5
466.732	737.5
466.951	735.5
467.171	737.5
467.391	750.5
467.61	756.5
467.829	746.5
468.049	731.5
468.268	727.5
468.488	720.5
468.707	700.5
468.927	703.5
469.146	719.5
469.365	712.5
469.585	727.5
469.804	763.5
470.023	784.5
470.243	771.5
470.462	780.5
470.681	764.5
470.901	766.5
471.12	756.5
471.339	732.5
471.558	738.5
471.777	723.5
471.997	710.5
472.216	733.5
472.435	722.5
472.654	693.5
472.873	698.5
473.092	678.5
473.311	691.5
473.53	682.5
473.749	703.5
473.968	728.5
474.187	691.5
474.406	707.5
474.625	686.5
474.844	684.5
475.063	677.5
475.282	690.5
475.501	703.5
475.72	697.5
475.939	695.5
476.158	715.5
476.377	717.5
476.596	721.5
476.814	762.5
477.033	725.5
477.252	750.5
477.471	781.5
477.69	806.5
477.908	800.5
478.127	832.5
478.346	822.5
478.564	843.5
478.783	870.5
479.002	849.5
479.22	873.5
479.439	880.5
479.658	884.5
479.876	850.5
480.095	892.5
480.313	906.5
480.532	970.5
480.751	949.5
480.969	890.5
481.188	860.5
481.406	854.5
481.624	842.5
481.843	809.5
482.061	791.5
482.28	816.5
482.498	792.5
482.717	775.5
482.935	784.5
483.153	795.5
483.372	792.5
483.59	795.5
483.808	838.5
484.027	806.5
484.245	815.5
484.463	813.5
484.681	856.5
484.9	830.5
485.118	838.5
485.336	863.5
485.554	851.5
485.772	870.5
485.99	868.5
486.209	857.5
486.427	876.5
486.645	884.5
486.863	864.5
487.081	873.5
487.299	856.5
487.517	820.5
487.735	847.5
487.953	840.5
488.171	845.5
488.389	852.5
488.607	829.5
488.825	833.5
489.043	812.5
489.261	837.5
489.479	849.5
489.696	859.5
489.914	862.5
490.132	829.5
490.35	835.5
490.568	818.5
490.786	823.5
491.003	852.5
491.221	813.5
491.439	822.5
491.657	824.5
491.874	856.5
492.092	846.5
492.31	824.5
492.527	839.5
492.745	856.5
492.963	867.5
493.18	869.5
493.398	876.5
493.615	886.5
493.833	872.5
494.05	880.5
494.268	857.5
494.485	864.5
494.703	892.5
494.92	880.5
495.138	886.5
495.355	895.5
495.573	893.5
495.79	871.5
496.008	910.5
496.225	892.5
496.442	921.5
496.66	939.5
496.877	903.5
497.094	910.5
497.312	930.5
497.529	980.5
497.746	965.5
497.963	1024.5
498.181	1043.5
498.398	1090.5
498.615	1158.5
498.832	1230.5
499.049	1327.5
499.267	1434.5
499.484	1551.5
499.701	1745.5
499.918	1958.5
500.135	2196.5
500.352	2513.5
500.569	2736.5
500.786	2690.5
501.003	2449.5
501.22	2170.5
501.437	1919.5
501.654	1658.5
501.871	1538.5
502.088	1407.5
502.305	1296.5
502.522	1247.5
502.739	1202.5
502.956	1122.5
503.172	1094.5
503.389	1026.5
503.606	1010.5
503.823	1004.5
504.04	999.5
504.256	965.5
504.473	1022.5
504.69	1056.5
504.907	1063.5
505.123	954.5
505.34	910.5
505.557	872.5
505.773	867.5
505.99	841.5
506.207	808.5
506.423	820.5
506.64	819.5
506.856	777.5
507.073	776.5
507.289	786.5
507.506	780.5
507.722	794.5
507.939	781.5
508.155	758.5
508.372	770.5
508.588	748.5
508.805	729.5
509.021	731.5
509.238	728.5
509.454	738.5
509.67	735.5
509.887	745.5
510.103	744.5
510.319	716.5
510.536	735.5
510.752	711.5
510.968	719.5
511.184	738.5
511.401	694.5
511.617	722.5
511.833	716.5
512.049	704.5
512.265	698.5
512.481	712.5
512.698	720.5
512.914	713.5
513.13	708.5
513.346	741.5
513.562	740.5
513.778	703.5
513.994	696.5
514.21	709.5
514.426	730.5
514.642	720.5
514.858	717.5
515.074	710.5
515.29	741.5
515.506	739.5
515.721	735.5
515.937	747.5
516.153	777.5
516.369	789.5
516.585	821.5
516.801	829.5
517.016	892.5
517.232	886.5
517.448	949.5
517.664	979.5
517.879	996.5
518.095	1042.5
518.311	992.5
518.527	952.5
518.742	893.5
