Data from Ni(NO3)2@0.5M.TitratingCurve.Agarose3%dH2O.NegLispCup.LampEnergy10.LIBS07252019_HRD10591_17-57-47-564.txt Node
Date: Thu Jul 25 17:57:47 EDT 2019
User: cochatt
Spectrometer: HR+D1059
Trigger mode: 1
Integration Time (sec): 1.000000E-1
Scans to average: 1
Electric dark correction enabled: true
Nonlinearity correction enabled: false
Boxcar width: 0
XAxis mode: Wavelengths
Number of Pixels in Spectrum: 2048
>>>>>Begin Spectral Data<<<<<
223.165	-24.06
223.4	-24.06
223.635	-24.06
223.869	-1.06
224.104	-22.06
224.338	-25.06
224.573	-3.06
224.808	0.94
225.042	1.94
225.277	-6.06
225.511	0.94
225.746	-1.06
225.98	-4.06
226.215	22.94
226.449	0.94
226.683	17.94
226.918	18.94
227.152	21.94
227.387	30.94
227.621	40.94
227.856	24.94
228.09	44.94
228.324	50.94
228.559	54.94
228.793	80.94
229.027	118.94
229.262	112.94
229.496	106.94
229.73	116.94
229.964	132.94
230.199	138.94
230.433	155.94
230.667	144.94
230.901	155.94
231.136	130.94
231.37	139.94
231.604	140.94
231.838	153.94
232.072	175.94
232.306	140.94
232.541	131.94
232.775	123.94
233.009	135.94
233.243	138.94
233.477	128.94
233.711	134.94
233.945	138.94
234.179	141.94
234.413	150.94
234.647	132.94
234.881	146.94
235.115	145.94
235.349	132.94
235.583	130.94
235.817	150.94
236.051	137.94
236.285	133.94
236.519	140.94
236.753	151.94
236.987	128.94
237.221	144.94
237.455	137.94
237.689	139.94
237.922	153.94
238.156	157.94
238.39	146.94
238.624	138.94
238.858	146.94
239.091	155.94
239.325	161.94
239.559	154.94
239.793	167.94
240.027	172.94
240.26	154.94
240.494	171.94
240.728	153.94
240.961	156.94
241.195	160.94
241.429	154.94
241.662	161.94
241.896	178.94
242.13	198.94
242.363	177.94
242.597	166.94
242.83	178.94
243.064	179.94
243.298	179.94
243.531	169.94
243.765	182.94
243.998	179.94
244.232	175.94
244.465	182.94
244.699	191.94
244.932	174.94
245.166	184.94
245.399	180.94
245.633	185.94
245.866	188.94
246.099	186.94
246.333	193.94
246.566	187.94
246.8	170.94
247.033	183.94
247.266	186.94
247.5	190.94
247.733	211.94
247.966	191.94
248.2	194.94
248.433	207.94
248.666	230.94
248.899	193.94
249.133	199.94
249.366	207.94
249.599	216.94
249.832	209.94
250.066	215.94
250.299	220.94
250.532	223.94
250.765	243.94
250.998	242.94
251.231	239.94
251.465	258.94
251.698	245.94
251.931	246.94
252.164	235.94
252.397	259.94
252.63	232.94
252.863	246.94
253.096	254.94
253.329	260.94
253.562	235.94
253.795	256.94
254.028	267.94
254.261	248.94
254.494	265.94
254.727	268.94
254.96	280.94
255.193	282.94
255.426	274.94
255.659	277.94
255.892	290.94
256.124	276.94
256.357	270.94
256.59	281.94
256.823	287.94
257.056	291.94
257.289	291.94
257.521	284.94
257.754	280.94
257.987	287.94
258.22	295.94
258.452	281.94
258.685	290.94
258.918	306.94
259.151	294.94
259.383	308.94
259.616	315.94
259.849	314.94
260.081	324.94
260.314	321.94
260.547	310.94
260.779	326.94
261.012	327.94
261.244	334.94
261.477	344.94
261.71	334.94
261.942	328.94
262.175	332.94
262.407	326.94
262.64	324.94
262.872	325.94
263.105	320.94
263.337	337.94
263.57	344.94
263.802	332.94
264.035	325.94
264.267	347.94
264.499	337.94
264.732	370.94
264.964	330.94
265.197	337.94
265.429	363.94
265.661	344.94
265.894	354.94
266.126	342.94
266.358	352.94
266.591	352.94
266.823	370.94
267.055	363.94
267.287	351.94
267.52	358.94
267.752	368.94
267.984	384.94
268.216	366.94
268.448	368.94
268.681	364.94
268.913	390.94
269.145	374.94
269.377	375.94
269.609	367.94
269.841	368.94
270.073	378.94
270.306	363.94
270.538	384.94
270.77	397.94
271.002	376.94
271.234	405.94
271.466	378.94
271.698	369.94
271.93	364.94
272.162	386.94
272.394	400.94
272.626	406.94
272.858	390.94
273.09	388.94
273.322	390.94
273.553	382.94
273.785	398.94
274.017	408.94
274.249	404.94
274.481	394.94
274.713	408.94
274.945	396.94
275.176	427.94
275.408	419.94
275.64	402.94
275.872	408.94
276.104	427.94
276.335	428.94
276.567	430.94
276.799	428.94
277.031	416.94
277.262	435.94
277.494	431.94
277.726	415.94
277.957	423.94
278.189	422.94
278.421	422.94
278.652	420.94
278.884	433.94
279.115	434.94
279.347	452.94
279.579	426.94
279.81	432.94
280.042	436.94
280.273	432.94
280.505	442.94
280.736	430.94
280.968	455.94
281.199	446.94
281.431	427.94
281.662	439.94
281.894	441.94
282.125	433.94
282.356	468.94
282.588	449.94
282.819	460.94
283.051	446.94
283.282	435.94
283.513	464.94
283.745	457.94
283.976	456.94
284.207	438.94
284.439	476.94
284.67	469.94
284.901	459.94
285.132	467.94
285.364	459.94
285.595	465.94
285.826	471.94
286.057	451.94
286.288	447.94
286.52	474.94
286.751	464.94
286.982	471.94
287.213	476.94
287.444	475.94
287.675	488.94
287.906	470.94
288.138	494.94
288.369	486.94
288.6	442.94
288.831	471.94
289.062	471.94
289.293	476.94
289.524	464.94
289.755	514.94
289.986	467.94
290.217	475.94
290.448	483.94
290.679	491.94
290.91	486.94
291.141	494.94
291.371	492.94
291.602	489.94
291.833	466.94
292.064	488.94
292.295	480.94
292.526	484.94
292.757	483.94
292.987	498.94
293.218	481.94
293.449	490.94
293.68	474.94
293.91	500.94
294.141	494.94
294.372	483.94
294.603	474.94
294.833	488.94
295.064	502.94
295.295	486.94
295.525	487.94
295.756	496.94
295.987	495.94
296.217	483.94
296.448	508.94
296.679	510.94
296.909	503.94
297.14	521.94
297.37	489.94
297.601	504.94
297.831	507.94
298.062	527.94
298.292	534.94
298.523	529.94
298.753	515.94
298.984	523.94
299.214	512.94
299.445	522.94
299.675	505.94
299.905	529.94
300.136	540.94
300.366	554.94
300.597	542.94
300.827	528.94
301.057	549.94
301.288	532.94
301.518	553.94
301.748	528.94
301.979	549.94
302.209	553.94
302.439	541.94
302.669	562.94
302.9	542.94
303.13	530.94
303.36	560.94
303.59	539.94
303.82	545.94
304.051	574.94
304.281	580.94
304.511	548.94
304.741	582.94
304.971	566.94
305.201	552.94
305.431	586.94
305.661	554.94
305.891	587.94
306.121	564.94
306.352	558.94
306.582	551.94
306.812	545.94
307.042	578.94
307.272	562.94
307.502	527.94
307.731	559.94
307.961	557.94
308.191	560.94
308.421	575.94
308.651	569.94
308.881	572.94
309.111	584.94
309.341	582.94
309.571	586.94
309.8	574.94
310.03	615.94
310.26	615.94
310.49	607.94
310.72	589.94
310.949	612.94
311.179	598.94
311.409	571.94
311.639	587.94
311.868	606.94
312.098	630.94
312.328	608.94
312.557	606.94
312.787	606.94
313.017	609.94
313.246	625.94
313.476	617.94
313.706	647.94
313.935	640.94
314.165	603.94
314.394	622.94
314.624	628.94
314.853	639.94
315.083	626.94
315.312	649.94
315.542	611.94
315.771	647.94
316.001	636.94
316.23	648.94
316.46	652.94
316.689	625.94
316.919	638.94
317.148	651.94
317.377	643.94
317.607	667.94
317.836	658.94
318.065	688.94
318.295	692.94
318.524	681.94
318.753	679.94
318.983	675.94
319.212	682.94
319.441	686.94
319.67	670.94
319.9	673.94
320.129	678.94
320.358	711.94
320.587	690.94
320.816	715.94
321.046	720.94
321.275	720.94
321.504	714.94
321.733	698.94
321.962	723.94
322.191	741.94
322.42	700.94
322.649	736.94
322.878	722.94
323.108	734.94
323.337	717.94
323.566	714.94
323.795	740.94
324.024	733.94
324.253	721.94
324.482	752.94
324.71	743.94
324.939	737.94
325.168	753.94
325.397	753.94
325.626	756.94
325.855	772.94
326.084	755.94
326.313	743.94
326.542	774.94
326.77	783.94
326.999	777.94
327.228	762.94
327.457	815.94
327.686	787.94
327.914	790.94
328.143	799.94
328.372	791.94
328.6	805.94
328.829	810.94
329.058	794.94
329.287	798.94
329.515	778.94
329.744	786.94
329.972	798.94
330.201	818.94
330.43	797.94
330.658	794.94
330.887	799.94
331.115	797.94
331.344	812.94
331.572	822.94
331.801	828.94
332.03	827.94
332.258	833.94
332.486	838.94
332.715	857.94
332.943	851.94
333.172	851.94
333.4	850.94
333.629	860.94
333.857	871.94
334.085	862.94
334.314	898.94
334.542	890.94
334.771	878.94
334.999	911.94
335.227	888.94
335.455	863.94
335.684	886.94
335.912	920.94
336.14	904.94
336.369	878.94
336.597	902.94
336.825	906.94
337.053	926.94
337.281	892.94
337.51	892.94
337.738	907.94
337.966	922.94
338.194	906.94
338.422	878.94
338.65	857.94
338.878	879.94
339.106	886.94
339.334	885.94
339.562	890.94
339.79	866.94
340.018	868.94
340.246	865.94
340.474	859.94
340.702	868.94
340.93	872.94
341.158	853.94
341.386	860.94
341.614	898.94
341.842	858.94
342.07	859.94
342.298	861.94
342.526	878.94
342.754	854.94
342.981	863.94
343.209	873.94
343.437	898.94
343.665	878.94
343.893	900.94
344.12	895.94
344.348	904.94
344.576	872.94
344.804	902.94
345.031	879.94
345.259	886.94
345.487	866.94
345.714	852.94
345.942	892.94
346.17	874.94
346.397	858.94
346.625	852.94
346.853	845.94
347.08	863.94
347.308	842.94
347.535	838.94
347.763	853.94
347.99	875.94
348.218	847.94
348.445	842.94
348.673	818.94
348.9	832.94
349.128	851.94
349.355	875.94
349.583	847.94
349.81	835.94
350.037	839.94
350.265	837.94
350.492	825.94
350.72	835.94
350.947	839.94
351.174	864.94
351.402	856.94
351.629	872.94
351.856	847.94
352.083	822.94
352.311	828.94
352.538	867.94
352.765	870.94
352.992	804.94
353.22	794.94
353.447	807.94
353.674	805.94
353.901	846.94
354.128	816.94
354.355	825.94
354.583	836.94
354.81	816.94
355.037	819.94
355.264	816.94
355.491	807.94
355.718	806.94
355.945	825.94
356.172	839.94
356.399	834.94
356.626	871.94
356.853	871.94
357.08	839.94
357.307	847.94
357.534	826.94
357.761	844.94
357.988	815.94
358.215	809.94
358.441	828.94
358.668	788.94
358.895	836.94
359.122	831.94
359.349	824.94
359.576	829.94
359.802	814.94
360.029	842.94
360.256	817.94
360.483	810.94
360.709	840.94
360.936	834.94
361.163	843.94
361.39	847.94
361.616	859.94
361.843	848.94
362.07	890.94
362.296	878.94
362.523	855.94
362.749	802.94
362.976	824.94
363.203	834.94
363.429	855.94
363.656	845.94
363.882	825.94
364.109	818.94
364.335	826.94
364.562	815.94
364.788	859.94
365.015	860.94
365.241	825.94
365.468	814.94
365.694	811.94
365.92	814.94
366.147	828.94
366.373	844.94
366.599	839.94
366.826	833.94
367.052	826.94
367.278	832.94
367.505	868.94
367.731	848.94
367.957	794.94
368.184	832.94
368.41	854.94
368.636	845.94
368.862	867.94
369.089	856.94
369.315	843.94
369.541	840.94
369.767	852.94
369.993	839.94
370.219	844.94
370.445	878.94
370.672	885.94
370.898	887.94
371.124	878.94
371.35	895.94
371.576	900.94
371.802	864.94
372.028	856.94
372.254	839.94
372.48	888.94
372.706	892.94
372.932	883.94
373.158	872.94
373.384	849.94
373.61	872.94
373.835	899.94
374.061	860.94
374.287	863.94
374.513	859.94
374.739	881.94
374.965	866.94
375.191	894.94
375.416	878.94
375.642	875.94
375.868	890.94
376.094	875.94
376.319	860.94
376.545	880.94
376.771	856.94
376.997	863.94
377.222	881.94
377.448	836.94
377.674	857.94
377.899	840.94
378.125	821.94
378.35	831.94
378.576	849.94
378.802	843.94
379.027	831.94
379.253	838.94
379.478	862.94
379.704	850.94
379.929	844.94
380.155	825.94
380.38	839.94
380.606	855.94
380.831	841.94
381.057	839.94
381.282	860.94
381.507	850.94
381.733	856.94
381.958	850.94
382.184	848.94
382.409	855.94
382.634	856.94
382.86	853.94
383.085	872.94
383.31	856.94
383.535	854.94
383.761	888.94
383.986	898.94
384.211	857.94
384.436	866.94
384.662	888.94
384.887	896.94
385.112	899.94
385.337	890.94
385.562	912.94
385.787	905.94
386.013	902.94
386.238	925.94
386.463	926.94
386.688	908.94
386.913	888.94
387.138	899.94
387.363	906.94
387.588	896.94
387.813	897.94
388.038	900.94
388.263	903.94
388.488	925.94
388.713	916.94
388.938	900.94
389.163	905.94
389.387	930.94
389.612	900.94
389.837	934.94
390.062	913.94
390.287	916.94
390.512	912.94
390.736	933.94
390.961	921.94
391.186	938.94
391.411	959.94
391.636	926.94
391.86	953.94
392.085	946.94
392.31	930.94
392.534	944.94
392.759	981.94
392.984	942.94
393.208	944.94
393.433	942.94
393.658	958.94
393.882	935.94
394.107	929.94
394.331	951.94
394.556	948.94
394.78	928.94
395.005	957.94
395.229	943.94
395.454	978.94
395.678	971.94
395.903	935.94
396.127	953.94
396.352	948.94
396.576	961.94
396.801	966.94
397.025	968.94
397.249	997.94
397.474	995.94
397.698	997.94
397.922	973.94
398.147	983.94
398.371	1002.94
398.595	1047.94
398.82	1008.94
399.044	1060.94
399.268	1036.94
399.492	1067.94
399.717	1107.94
399.941	1110.94
400.165	1115.94
400.389	1106.94
400.613	1082.94
400.837	1043.94
401.062	1042.94
401.286	1013.94
401.51	1044.94
401.734	1003.94
401.958	1067.94
402.182	1060.94
402.406	1034.94
402.63	1035.94
402.854	1046.94
403.078	1036.94
403.302	1037.94
403.526	1052.94
403.75	1046.94
403.974	1047.94
404.198	1067.94
404.422	1028.94
404.645	1055.94
404.869	1054.94
405.093	1096.94
405.317	1059.94
405.541	1029.94
405.765	1081.94
405.988	1063.94
406.212	1087.94
406.436	1091.94
406.66	1100.94
406.883	1107.94
407.107	1124.94
407.331	1099.94
407.555	1112.94
407.778	1125.94
408.002	1110.94
408.226	1136.94
408.449	1122.94
408.673	1102.94
408.896	1104.94
409.12	1117.94
409.344	1137.94
409.567	1097.94
409.791	1116.94
410.014	1086.94
410.238	1104.94
410.461	1082.94
410.685	1104.94
410.908	1086.94
411.132	1099.94
411.355	1063.94
411.578	1054.94
411.802	1051.94
412.025	1076.94
412.249	1079.94
412.472	1101.94
412.695	1062.94
412.919	1087.94
413.142	1060.94
413.365	1062.94
413.589	1074.94
413.812	1068.94
414.035	1051.94
414.258	1045.94
414.482	1061.94
414.705	1051.94
414.928	1048.94
415.151	1039.94
415.374	1032.94
415.597	1032.94
415.821	1059.94
416.044	1010.94
416.267	1025.94
416.49	1034.94
416.713	1001.94
416.936	1054.94
417.159	1025.94
417.382	1014.94
417.605	992.94
417.828	996.94
418.051	1063.94
418.274	1014.94
418.497	1003.94
418.72	995.94
418.943	1016.94
419.166	1067.94
419.389	1108.94
419.611	1107.94
419.834	1046.94
420.057	1023.94
420.28	1036.94
420.503	1006.94
420.726	1027.94
420.948	1000.94
421.171	1016.94
421.394	1019.94
421.617	1026.94
421.839	1006.94
422.062	1018.94
422.285	970.94
422.507	998.94
422.73	1002.94
422.953	1011.94
423.175	1003.94
423.398	1049.94
423.621	981.94
423.843	1049.94
424.066	1025.94
424.288	1040.94
424.511	1071.94
424.733	1028.94
424.956	1023.94
425.178	1022.94
425.401	1022.94
425.623	1035.94
425.846	995.94
426.068	1056.94
426.291	1022.94
426.513	1016.94
426.735	1039.94
426.958	1004.94
427.18	991.94
427.402	1004.94
427.625	1019.94
427.847	990.94
428.069	994.94
428.292	1018.94
428.514	1034.94
428.736	1017.94
428.958	1004.94
429.181	996.94
429.403	1031.94
429.625	1020.94
429.847	996.94
430.069	991.94
430.292	1003.94
430.514	981.94
430.736	1018.94
430.958	998.94
431.18	984.94
431.402	1017.94
431.624	986.94
431.846	1004.94
432.068	966.94
432.29	1018.94
432.512	977.94
432.734	1012.94
432.956	1010.94
433.178	1012.94
433.4	1024.94
433.622	1028.94
433.844	1024.94
434.066	1017.94
434.287	1056.94
434.509	985.94
434.731	992.94
434.953	1042.94
435.175	1052.94
435.397	1055.94
435.618	1014.94
435.84	999.94
436.062	970.94
436.284	1026.94
436.505	1015.94
436.727	1006.94
436.949	1008.94
437.17	1030.94
437.392	969.94
437.614	992.94
437.835	984.94
438.057	1009.94
438.278	964.94
438.5	999.94
438.721	994.94
438.943	1006.94
439.165	976.94
439.386	986.94
439.608	986.94
439.829	1002.94
440.05	1012.94
440.272	1030.94
440.493	1019.94
440.715	1045.94
440.936	1021.94
441.158	1023.94
441.379	1048.94
441.6	1029.94
441.822	1056.94
442.043	1062.94
442.264	1058.94
442.486	1046.94
442.707	1018.94
442.928	1022.94
443.149	1071.94
443.371	1058.94
443.592	1131.94
443.813	1122.94
444.034	1044.94
444.255	1055.94
444.476	1090.94
444.698	1074.94
444.919	1094.94
445.14	1200.94
445.361	1103.94
445.582	1074.94
445.803	1025.94
446.024	1041.94
446.245	1037.94
446.466	1031.94
446.687	991.94
446.908	1012.94
447.129	984.94
447.35	985.94
447.571	972.94
447.792	1003.94
448.013	974.94
448.234	972.94
448.455	968.94
448.675	951.94
448.896	960.94
449.117	921.94
449.338	939.94
449.559	947.94
449.779	933.94
450	962.94
450.221	935.94
450.442	928.94
450.662	945.94
450.883	948.94
451.104	976.94
451.324	926.94
451.545	956.94
451.766	907.94
451.986	917.94
452.207	928.94
452.428	944.94
452.648	904.94
452.869	909.94
453.089	931.94
453.31	922.94
453.53	900.94
453.751	899.94
453.971	905.94
454.192	925.94
454.412	921.94
454.633	905.94
454.853	935.94
455.073	924.94
455.294	918.94
455.514	908.94
455.734	932.94
455.955	932.94
456.175	906.94
456.395	902.94
456.616	902.94
456.836	875.94
457.056	902.94
457.276	882.94
457.497	912.94
457.717	960.94
457.937	945.94
458.157	925.94
458.377	924.94
458.598	933.94
458.818	920.94
459.038	929.94
459.258	981.94
459.478	997.94
459.698	1029.94
459.918	1042.94
460.138	1020.94
460.358	1014.94
460.578	1051.94
460.798	1056.94
461.018	1082.94
461.238	1041.94
461.458	1037.94
461.678	1008.94
461.898	1051.94
462.118	1028.94
462.338	1051.94
462.558	1064.94
462.777	1088.94
462.997	1105.94
463.217	1130.94
463.437	1175.94
463.657	1131.94
463.876	1110.94
464.096	1104.94
464.316	1095.94
464.536	1085.94
464.755	1070.94
464.975	1078.94
465.195	1072.94
465.414	1020.94
465.634	1006.94
465.854	1027.94
466.073	1008.94
466.293	987.94
466.512	991.94
466.732	976.94
466.951	987.94
467.171	1009.94
467.391	993.94
467.61	964.94
467.829	962.94
468.049	967.94
468.268	944.94
468.488	958.94
468.707	983.94
468.927	953.94
469.146	978.94
469.365	970.94
469.585	992.94
469.804	974.94
470.023	987.94
470.243	984.94
470.462	939.94
470.681	991.94
470.901	964.94
471.12	989.94
471.339	1003.94
471.558	1007.94
471.777	939.94
471.997	992.94
472.216	976.94
472.435	976.94
472.654	953.94
472.873	948.94
473.092	971.94
473.311	986.94
473.53	971.94
473.749	988.94
473.968	991.94
474.187	989.94
474.406	979.94
474.625	997.94
474.844	1004.94
475.063	1003.94
475.282	1005.94
475.501	998.94
475.72	1019.94
475.939	1054.94
476.158	1033.94
476.377	1050.94
476.596	994.94
476.814	1012.94
477.033	990.94
477.252	1031.94
477.471	1064.94
477.69	1075.94
477.908	1057.94
478.127	1078.94
478.346	1066.94
478.564	1116.94
478.783	1119.94
479.002	1137.94
479.22	1171.94
479.439	1142.94
479.658	1137.94
479.876	1119.94
480.095	1120.94
480.313	1150.94
480.532	1125.94
480.751	1140.94
480.969	1113.94
481.188	1138.94
481.406	1102.94
481.624	1114.94
481.843	1152.94
482.061	1144.94
482.28	1115.94
482.498	1138.94
482.717	1112.94
482.935	1170.94
483.153	1142.94
483.372	1177.94
483.59	1178.94
483.808	1175.94
484.027	1148.94
484.245	1172.94
484.463	1190.94
484.681	1152.94
484.9	1155.94
485.118	1185.94
485.336	1148.94
485.554	1126.94
485.772	1145.94
485.99	1182.94
486.209	1190.94
486.427	1154.94
486.645	1179.94
486.863	1178.94
487.081	1190.94
487.299	1179.94
487.517	1198.94
487.735	1248.94
487.953	1195.94
488.171	1202.94
488.389	1186.94
488.607	1211.94
488.825	1169.94
489.043	1170.94
489.261	1193.94
489.479	1196.94
489.696	1184.94
489.914	1169.94
490.132	1174.94
490.35	1206.94
490.568	1199.94
490.786	1204.94
491.003	1208.94
491.221	1234.94
491.439	1248.94
491.657	1223.94
491.874	1238.94
492.092	1232.94
492.31	1259.94
492.527	1286.94
492.745	1233.94
492.963	1251.94
493.18	1228.94
493.398	1219.94
493.615	1262.94
493.833	1246.94
494.05	1208.94
494.268	1243.94
494.485	1223.94
494.703	1238.94
494.92	1258.94
495.138	1256.94
495.355	1242.94
495.573	1249.94
495.79	1270.94
496.008	1286.94
496.225	1280.94
496.442	1250.94
496.66	1302.94
496.877	1285.94
497.094	1303.94
497.312	1352.94
