Data from Ni(NO3)2@0.125M.TitratingCurve.Agarose3%dH2O.NegLispCup.LampEnergy10.LIBS07252019_HRD10591_18-11-26-568.txt Node
Date: Thu Jul 25 18:11:26 EDT 2019
User: cochatt
Spectrometer: HR+D1059
Trigger mode: 1
Integration Time (sec): 1.000000E-1
Scans to average: 1
Electric dark correction enabled: true
Nonlinearity correction enabled: false
Boxcar width: 0
XAxis mode: Wavelengths
Number of Pixels in Spectrum: 2048
>>>>>Begin Spectral Data<<<<<
223.165	-5.94
223.4	-5.94
223.635	-5.94
223.869	-17.94
224.104	-20.94
224.338	-18.94
224.573	-12.94
224.808	-10.94
225.042	-8.94
225.277	-4.94
225.511	-6.94
225.746	4.06
225.98	8.06
226.215	16.06
226.449	10.06
226.683	18.06
226.918	25.06
227.152	27.06
227.387	34.06
227.621	33.06
227.856	55.06
228.09	53.06
228.324	52.06
228.559	57.06
228.793	82.06
229.027	118.06
229.262	112.06
229.496	100.06
229.73	133.06
229.964	132.06
230.199	127.06
230.433	149.06
230.667	134.06
230.901	125.06
231.136	141.06
231.37	143.06
231.604	154.06
231.838	154.06
232.072	150.06
232.306	162.06
232.541	141.06
232.775	153.06
233.009	149.06
233.243	149.06
233.477	159.06
233.711	155.06
233.945	169.06
234.179	165.06
234.413	158.06
234.647	156.06
234.881	144.06
235.115	160.06
235.349	158.06
235.583	169.06
235.817	177.06
236.051	170.06
236.285	167.06
236.519	146.06
236.753	166.06
236.987	143.06
237.221	166.06
237.455	160.06
237.689	161.06
237.922	178.06
238.156	173.06
238.39	179.06
238.624	171.06
238.858	180.06
239.091	171.06
239.325	177.06
239.559	184.06
239.793	196.06
240.027	186.06
240.26	185.06
240.494	199.06
240.728	197.06
240.961	209.06
241.195	209.06
241.429	180.06
241.662	213.06
241.896	212.06
242.13	196.06
242.363	212.06
242.597	201.06
242.83	215.06
243.064	197.06
243.298	220.06
243.531	204.06
243.765	243.06
243.998	221.06
244.232	220.06
244.465	217.06
244.699	225.06
244.932	231.06
245.166	214.06
245.399	225.06
245.633	222.06
245.866	245.06
246.099	238.06
246.333	225.06
246.566	242.06
246.8	232.06
247.033	241.06
247.266	263.06
247.5	227.06
247.733	252.06
247.966	256.06
248.2	239.06
248.433	247.06
248.666	270.06
248.899	265.06
249.133	277.06
249.366	262.06
249.599	271.06
249.832	266.06
250.066	286.06
250.299	277.06
250.532	273.06
250.765	289.06
250.998	270.06
251.231	287.06
251.465	284.06
251.698	275.06
251.931	286.06
252.164	283.06
252.397	313.06
252.63	295.06
252.863	297.06
253.096	297.06
253.329	293.06
253.562	291.06
253.795	289.06
254.028	320.06
254.261	290.06
254.494	310.06
254.727	310.06
254.96	298.06
255.193	315.06
255.426	305.06
255.659	327.06
255.892	310.06
256.124	297.06
256.357	314.06
256.59	324.06
256.823	323.06
257.056	308.06
257.289	304.06
257.521	316.06
257.754	332.06
257.987	325.06
258.22	349.06
258.452	338.06
258.685	332.06
258.918	330.06
259.151	323.06
259.383	317.06
259.616	329.06
259.849	338.06
260.081	343.06
260.314	351.06
260.547	361.06
260.779	357.06
261.012	337.06
261.244	353.06
261.477	351.06
261.71	342.06
261.942	357.06
262.175	346.06
262.407	360.06
262.64	363.06
262.872	360.06
263.105	363.06
263.337	389.06
263.57	349.06
263.802	374.06
264.035	365.06
264.267	379.06
264.499	372.06
264.732	385.06
264.964	365.06
265.197	363.06
265.429	406.06
265.661	392.06
265.894	385.06
266.126	390.06
266.358	395.06
266.591	405.06
266.823	415.06
267.055	407.06
267.287	411.06
267.52	395.06
267.752	375.06
267.984	399.06
268.216	414.06
268.448	405.06
268.681	379.06
268.913	410.06
269.145	419.06
269.377	399.06
269.609	418.06
269.841	430.06
270.073	392.06
270.306	404.06
270.538	415.06
270.77	416.06
271.002	401.06
271.234	427.06
271.466	425.06
271.698	436.06
271.93	416.06
272.162	405.06
272.394	423.06
272.626	434.06
272.858	430.06
273.09	437.06
273.322	428.06
273.553	449.06
273.785	436.06
274.017	443.06
274.249	451.06
274.481	465.06
274.713	454.06
274.945	432.06
275.176	441.06
275.408	458.06
275.64	446.06
275.872	473.06
276.104	484.06
276.335	471.06
276.567	469.06
276.799	460.06
277.031	491.06
277.262	475.06
277.494	471.06
277.726	479.06
277.957	464.06
278.189	464.06
278.421	466.06
278.652	481.06
278.884	476.06
279.115	503.06
279.347	486.06
279.579	483.06
279.81	477.06
280.042	484.06
280.273	468.06
280.505	500.06
280.736	493.06
280.968	478.06
281.199	511.06
281.431	493.06
281.662	515.06
281.894	507.06
282.125	503.06
282.356	547.06
282.588	522.06
282.819	515.06
283.051	521.06
283.282	528.06
283.513	522.06
283.745	535.06
283.976	503.06
284.207	527.06
284.439	509.06
284.67	544.06
284.901	551.06
285.132	535.06
285.364	531.06
285.595	532.06
285.826	570.06
286.057	541.06
286.288	560.06
286.52	558.06
286.751	556.06
286.982	558.06
287.213	554.06
287.444	566.06
287.675	557.06
287.906	587.06
288.138	561.06
288.369	572.06
288.6	557.06
288.831	557.06
289.062	567.06
289.293	597.06
289.524	554.06
289.755	575.06
289.986	565.06
290.217	567.06
290.448	574.06
290.679	588.06
290.91	586.06
291.141	566.06
291.371	588.06
291.602	591.06
291.833	572.06
292.064	579.06
292.295	568.06
292.526	599.06
292.757	573.06
292.987	586.06
293.218	588.06
293.449	582.06
293.68	591.06
293.91	598.06
294.141	585.06
294.372	597.06
294.603	573.06
294.833	590.06
295.064	579.06
295.295	594.06
295.525	586.06
295.756	595.06
295.987	582.06
296.217	599.06
296.448	601.06
296.679	623.06
296.909	605.06
297.14	614.06
297.37	618.06
297.601	625.06
297.831	633.06
298.062	625.06
298.292	639.06
298.523	650.06
298.753	622.06
298.984	633.06
299.214	637.06
299.445	624.06
299.675	622.06
299.905	638.06
300.136	618.06
300.366	627.06
300.597	643.06
300.827	667.06
301.057	656.06
301.288	658.06
301.518	659.06
301.748	659.06
301.979	692.06
302.209	684.06
302.439	674.06
302.669	689.06
302.9	671.06
303.13	638.06
303.36	660.06
303.59	650.06
303.82	655.06
304.051	649.06
304.281	655.06
304.511	654.06
304.741	680.06
304.971	645.06
305.201	634.06
305.431	668.06
305.661	662.06
305.891	650.06
306.121	656.06
306.352	652.06
306.582	633.06
306.812	637.06
307.042	631.06
307.272	643.06
307.502	653.06
307.731	646.06
307.961	658.06
308.191	634.06
308.421	637.06
308.651	646.06
308.881	639.06
309.111	646.06
309.341	637.06
309.571	645.06
309.8	633.06
310.03	649.06
310.26	643.06
310.49	634.06
310.72	631.06
310.949	629.06
311.179	656.06
311.409	659.06
311.639	685.06
311.868	663.06
312.098	685.06
312.328	703.06
312.557	699.06
312.787	690.06
313.017	687.06
313.246	690.06
313.476	701.06
313.706	697.06
313.935	700.06
314.165	693.06
314.394	682.06
314.624	694.06
314.853	706.06
315.083	708.06
315.312	684.06
315.542	692.06
315.771	699.06
316.001	690.06
316.23	680.06
316.46	679.06
316.689	673.06
316.919	690.06
317.148	694.06
317.377	682.06
317.607	683.06
317.836	681.06
318.065	642.06
318.295	683.06
318.524	677.06
318.753	694.06
318.983	687.06
319.212	693.06
319.441	678.06
319.67	699.06
319.9	673.06
320.129	703.06
320.358	697.06
320.587	683.06
320.816	692.06
321.046	677.06
321.275	681.06
321.504	683.06
321.733	716.06
321.962	707.06
322.191	701.06
322.42	682.06
322.649	686.06
322.878	692.06
323.108	701.06
323.337	710.06
323.566	703.06
323.795	695.06
324.024	690.06
324.253	688.06
324.482	700.06
324.71	715.06
324.939	705.06
325.168	727.06
325.397	726.06
325.626	721.06
325.855	722.06
326.084	763.06
326.313	743.06
326.542	758.06
326.77	754.06
326.999	740.06
327.228	750.06
327.457	717.06
327.686	757.06
327.914	745.06
328.143	738.06
328.372	765.06
328.6	758.06
328.829	748.06
329.058	767.06
329.287	789.06
329.515	769.06
329.744	773.06
329.972	807.06
330.201	762.06
330.43	790.06
330.658	766.06
330.887	783.06
331.115	801.06
331.344	812.06
331.572	798.06
331.801	807.06
332.03	866.06
332.258	862.06
332.486	889.06
332.715	905.06
332.943	974.06
333.172	1017.06
333.4	1048.06
333.629	1069.06
333.857	1054.06
334.085	1047.06
334.314	1051.06
334.542	969.06
334.771	993.06
334.999	963.06
335.227	934.06
335.455	956.06
335.684	957.06
335.912	940.06
336.14	913.06
336.369	934.06
336.597	924.06
336.825	938.06
337.053	923.06
337.281	885.06
337.51	890.06
337.738	866.06
337.966	862.06
338.194	847.06
338.422	852.06
338.65	819.06
338.878	810.06
339.106	823.06
339.334	845.06
339.562	821.06
339.79	814.06
340.018	803.06
340.246	799.06
340.474	812.06
340.702	781.06
340.93	838.06
341.158	841.06
341.386	791.06
341.614	800.06
341.842	784.06
342.07	793.06
342.298	810.06
342.526	803.06
342.754	797.06
342.981	793.06
343.209	778.06
343.437	878.06
343.665	910.06
343.893	966.06
344.12	1000.06
344.348	922.06
344.576	896.06
344.804	882.06
345.031	838.06
345.259	809.06
345.487	795.06
345.714	782.06
345.942	774.06
346.17	801.06
346.397	778.06
346.625	793.06
346.853	766.06
347.08	771.06
347.308	775.06
347.535	791.06
347.763	794.06
347.99	807.06
348.218	793.06
348.445	782.06
348.673	779.06
348.9	778.06
349.128	772.06
349.355	760.06
349.583	747.06
349.81	765.06
350.037	772.06
350.265	740.06
350.492	749.06
350.72	757.06
350.947	730.06
351.174	738.06
351.402	749.06
351.629	769.06
351.856	777.06
352.083	741.06
352.311	759.06
352.538	728.06
352.765	741.06
352.992	730.06
353.22	739.06
353.447	718.06
353.674	721.06
353.901	727.06
354.128	718.06
354.355	731.06
354.583	744.06
354.81	714.06
355.037	734.06
355.264	749.06
355.491	742.06
355.718	772.06
355.945	774.06
356.172	784.06
356.399	767.06
356.626	759.06
356.853	739.06
357.08	756.06
357.307	775.06
357.534	740.06
357.761	757.06
357.988	738.06
358.215	745.06
358.441	747.06
358.668	726.06
358.895	773.06
359.122	729.06
359.349	742.06
359.576	741.06
359.802	723.06
360.029	752.06
360.256	755.06
360.483	746.06
360.709	729.06
360.936	768.06
361.163	732.06
361.39	721.06
361.616	747.06
361.843	770.06
362.07	755.06
362.296	732.06
362.523	737.06
362.749	737.06
362.976	753.06
363.203	751.06
363.429	716.06
363.656	727.06
363.882	713.06
364.109	775.06
364.335	755.06
364.562	736.06
364.788	735.06
365.015	743.06
365.241	733.06
365.468	743.06
365.694	726.06
365.92	725.06
366.147	754.06
366.373	725.06
366.599	755.06
366.826	733.06
367.052	743.06
367.278	739.06
367.505	762.06
367.731	753.06
367.957	738.06
368.184	765.06
368.41	777.06
368.636	775.06
368.862	757.06
369.089	732.06
369.315	761.06
369.541	778.06
369.767	785.06
369.993	766.06
370.219	756.06
370.445	780.06
370.672	800.06
370.898	783.06
371.124	783.06
371.35	808.06
371.576	807.06
371.802	812.06
372.028	793.06
372.254	799.06
372.48	824.06
372.706	829.06
372.932	866.06
373.158	823.06
373.384	807.06
373.61	827.06
373.835	828.06
374.061	827.06
374.287	821.06
374.513	830.06
374.739	876.06
374.965	924.06
375.191	873.06
375.416	895.06
375.642	887.06
375.868	862.06
376.094	842.06
376.319	849.06
376.545	809.06
376.771	802.06
376.997	802.06
377.222	831.06
377.448	826.06
377.674	823.06
377.899	818.06
378.125	827.06
378.35	809.06
378.576	791.06
378.802	808.06
379.027	812.06
379.253	797.06
379.478	798.06
379.704	809.06
379.929	818.06
380.155	835.06
380.38	812.06
380.606	821.06
380.831	793.06
381.057	808.06
381.282	808.06
381.507	813.06
381.733	810.06
381.958	835.06
382.184	799.06
382.409	841.06
382.634	828.06
382.86	852.06
383.085	878.06
383.31	838.06
383.535	899.06
383.761	905.06
383.986	927.06
384.211	976.06
384.436	976.06
384.662	951.06
384.887	951.06
385.112	970.06
385.337	974.06
385.562	983.06
385.787	987.06
386.013	1001.06
386.238	1009.06
386.463	988.06
386.688	985.06
386.913	975.06
387.138	983.06
387.363	977.06
387.588	945.06
387.813	998.06
388.038	962.06
388.263	977.06
388.488	975.06
388.713	970.06
388.938	967.06
389.163	959.06
389.387	933.06
389.612	931.06
389.837	963.06
390.062	953.06
390.287	973.06
390.512	960.06
390.736	976.06
390.961	988.06
391.186	1001.06
391.411	1039.06
391.636	1060.06
391.86	1107.06
392.085	1152.06
392.31	1121.06
392.534	1077.06
392.759	1054.06
392.984	1040.06
393.208	1039.06
393.433	1026.06
393.658	1047.06
393.882	1044.06
394.107	1059.06
394.331	1070.06
394.556	1063.06
394.78	1073.06
395.005	1029.06
395.229	1052.06
395.454	1097.06
395.678	1116.06
395.903	1082.06
396.127	1080.06
396.352	1054.06
396.576	1024.06
396.801	1025.06
397.025	1039.06
397.249	1094.06
397.474	1079.06
397.698	1107.06
397.922	1082.06
398.147	1113.06
398.371	1092.06
398.595	1149.06
398.82	1211.06
399.044	1315.06
399.268	1473.06
399.492	1681.06
399.717	1999.06
399.941	1903.06
400.165	1687.06
400.389	1500.06
400.613	1367.06
400.837	1301.06
401.062	1295.06
401.286	1242.06
401.51	1208.06
401.734	1223.06
401.958	1254.06
402.182	1283.06
402.406	1245.06
402.63	1285.06
402.854	1312.06
403.078	1345.06
403.302	1398.06
403.526	1403.06
403.75	1417.06
403.974	1457.06
404.198	1479.06
404.422	1476.06
404.645	1445.06
404.869	1416.06
405.093	1428.06
405.317	1373.06
405.541	1342.06
405.765	1324.06
405.988	1338.06
406.212	1339.06
406.436	1326.06
406.66	1404.06
406.883	1390.06
407.107	1509.06
407.331	1615.06
407.555	1666.06
407.778	1604.06
408.002	1576.06
408.226	1531.06
408.449	1522.06
408.673	1429.06
408.896	1405.06
409.12	1391.06
409.344	1414.06
409.567	1384.06
409.791	1427.06
410.014	1400.06
410.238	1362.06
410.461	1356.06
410.685	1394.06
410.908	1361.06
411.132	1365.06
411.355	1300.06
411.578	1298.06
411.802	1335.06
412.025	1291.06
412.249	1289.06
412.472	1335.06
412.695	1234.06
412.919	1233.06
413.142	1227.06
413.365	1243.06
413.589	1272.06
413.812	1215.06
414.035	1212.06
414.258	1193.06
414.482	1228.06
414.705	1243.06
414.928	1270.06
415.151	1273.06
415.374	1245.06
415.597	1260.06
415.821	1189.06
416.044	1218.06
416.267	1189.06
416.49	1205.06
416.713	1167.06
416.936	1162.06
417.159	1226.06
417.382	1199.06
417.605	1216.06
417.828	1213.06
418.051	1221.06
418.274	1247.06
418.497	1221.06
418.72	1223.06
418.943	1250.06
419.166	1293.06
419.389	1395.06
419.611	1393.06
419.834	1313.06
420.057	1284.06
420.28	1222.06
420.503	1185.06
420.726	1177.06
420.948	1204.06
421.171	1217.06
421.394	1221.06
421.617	1174.06
421.839	1239.06
422.062	1242.06
422.285	1226.06
422.507	1270.06
422.73	1238.06
422.953	1276.06
423.175	1290.06
423.398	1330.06
423.621	1302.06
423.843	1294.06
424.066	1294.06
424.288	1285.06
424.511	1270.06
424.733	1287.06
424.956	1277.06
425.178	1235.06
425.401	1218.06
425.623	1234.06
425.846	1188.06
426.068	1173.06
426.291	1160.06
426.513	1149.06
426.735	1166.06
426.958	1149.06
427.18	1103.06
427.402	1081.06
427.625	1094.06
427.847	1081.06
428.069	1095.06
428.292	1092.06
428.514	1095.06
428.736	1081.06
428.958	1103.06
429.181	1067.06
429.403	1069.06
429.625	1030.06
429.847	1060.06
430.069	1041.06
430.292	1047.06
430.514	1013.06
430.736	1046.06
430.958	1064.06
431.18	1021.06
431.402	1039.06
431.624	1032.06
431.846	1067.06
432.068	1078.06
432.29	1102.06
432.512	1079.06
432.734	1088.06
432.956	1075.06
433.178	1109.06
433.4	1082.06
433.622	1093.06
433.844	1108.06
434.066	1094.06
434.287	1100.06
434.509	1158.06
434.731	1210.06
434.953	1222.06
435.175	1255.06
435.397	1229.06
435.618	1176.06
435.84	1113.06
436.062	1092.06
436.284	1079.06
436.505	1097.06
436.727	1108.06
436.949	1092.06
437.17	1079.06
437.392	1042.06
437.614	1062.06
437.835	1036.06
438.057	1001.06
438.278	1021.06
438.5	1016.06
438.721	1029.06
438.943	1053.06
439.165	1033.06
439.386	1047.06
439.608	1080.06
439.829	1075.06
440.05	1075.06
440.272	1080.06
440.493	1091.06
440.715	1089.06
440.936	1103.06
441.158	1155.06
441.379	1155.06
441.6	1232.06
441.822	1259.06
442.043	1256.06
442.264	1245.06
442.486	1177.06
442.707	1228.06
442.928	1177.06
443.149	1206.06
443.371	1182.06
443.592	1267.06
443.813	1247.06
444.034	1251.06
444.255	1246.06
444.476	1345.06
444.698	1424.06
444.919	1496.06
445.14	1537.06
445.361	1397.06
445.582	1268.06
445.803	1178.06
446.024	1149.06
446.245	1129.06
446.466	1112.06
446.687	1094.06
446.908	1107.06
447.129	1078.06
447.35	1039.06
447.571	1042.06
447.792	1010.06
448.013	1006.06
448.234	992.06
448.455	1009.06
448.675	990.06
448.896	995.06
449.117	983.06
449.338	1002.06
449.559	958.06
449.779	999.06
450	988.06
450.221	981.06
450.442	981.06
450.662	998.06
450.883	1019.06
451.104	1040.06
451.324	1025.06
451.545	983.06
451.766	996.06
451.986	1020.06
452.207	972.06
452.428	977.06
452.648	935.06
452.869	985.06
453.089	949.06
453.31	958.06
453.53	958.06
453.751	967.06
453.971	969.06
454.192	948.06
454.412	933.06
454.633	934.06
454.853	934.06
455.073	931.06
455.294	914.06
455.514	910.06
455.734	932.06
455.955	912.06
456.175	910.06
456.395	915.06
456.616	927.06
456.836	927.06
457.056	923.06
457.276	891.06
457.497	927.06
457.717	903.06
457.937	964.06
458.157	952.06
458.377	949.06
458.598	984.06
458.818	1000.06
459.038	1018.06
459.258	1061.06
459.478	1086.06
459.698	1133.06
459.918	1130.06
460.138	1175.06
460.358	1277.06
460.578	1285.06
460.798	1274.06
461.018	1313.06
461.238	1244.06
461.458	1227.06
461.678	1265.06
461.898	1286.06
462.118	1289.06
462.338	1373.06
462.558	1430.06
462.777	1473.06
462.997	1612.06
463.217	1768.06
463.437	1747.06
463.657	1610.06
463.876	1494.06
464.096	1509.06
464.316	1500.06
464.536	1518.06
464.755	1461.06
464.975	1400.06
465.195	1333.06
465.414	1240.06
465.634	1178.06
465.854	1148.06
466.073	1110.06
466.293	1085.06
466.512	1071.06
466.732	1045.06
466.951	1056.06
467.171	1066.06
467.391	1063.06
467.61	1043.06
467.829	1038.06
468.049	1020.06
468.268	995.06
468.488	963.06
468.707	993.06
468.927	995.06
469.146	980.06
469.365	998.06
469.585	1011.06
469.804	1016.06
470.023	1035.06
470.243	1075.06
470.462	1072.06
470.681	1060.06
470.901	1057.06
471.12	1064.06
471.339	1038.06
471.558	1029.06
471.777	995.06
471.997	991.06
472.216	970.06
472.435	997.06
472.654	963.06
472.873	984.06
473.092	960.06
473.311	943.06
473.53	945.06
473.749	994.06
473.968	993.06
474.187	940.06
474.406	945.06
474.625	929.06
474.844	941.06
475.063	978.06
475.282	970.06
475.501	988.06
475.72	968.06
475.939	971.06
476.158	975.06
476.377	1002.06
476.596	984.06
476.814	1043.06
477.033	1002.06
477.252	1038.06
477.471	1042.06
477.69	1054.06
477.908	1101.06
478.127	1139.06
478.346	1142.06
478.564	1162.06
478.783	1193.06
479.002	1201.06
479.22	1262.06
479.439	1223.06
479.658	1212.06
479.876	1199.06
480.095	1228.06
480.313	1271.06
480.532	1324.06
480.751	1319.06
480.969	1241.06
481.188	1189.06
481.406	1181.06
481.624	1141.06
481.843	1102.06
482.061	1109.06
482.28	1135.06
482.498	1091.06
482.717	1119.06
482.935	1096.06
483.153	1070.06
483.372	1089.06
483.59	1093.06
483.808	1124.06
484.027	1090.06
484.245	1109.06
484.463	1089.06
484.681	1117.06
484.9	1125.06
485.118	1134.06
485.336	1131.06
485.554	1138.06
485.772	1171.06
485.99	1178.06
486.209	1214.06
486.427	1188.06
486.645	1193.06
486.863	1177.06
487.081	1190.06
487.299	1187.06
487.517	1175.06
487.735	1143.06
487.953	1158.06
488.171	1156.06
488.389	1103.06
488.607	1144.06
488.825	1149.06
489.043	1121.06
489.261	1121.06
489.479	1121.06
489.696	1153.06
489.914	1132.06
490.132	1149.06
490.35	1152.06
490.568	1149.06
490.786	1150.06
491.003	1163.06
491.221	1143.06
491.439	1157.06
491.657	1158.06
491.874	1161.06
492.092	1167.06
492.31	1163.06
492.527	1193.06
492.745	1192.06
492.963	1179.06
493.18	1186.06
493.398	1193.06
493.615	1217.06
493.833	1210.06
494.05	1218.06
494.268	1187.06
494.485	1231.06
494.703	1263.06
494.92	1213.06
495.138	1178.06
495.355	1220.06
495.573	1214.06
495.79	1243.06
496.008	1213.06
