Data from Ni(NO3)2Standard.Agarose3%.GreenCap.LampEnergy5.5.E.O_HRD10591_14-42-05-188.txt Node
Date: Mon Jul 22 14:42:05 EDT 2019
User: cochatt
Spectrometer: HR+D1059
Trigger mode: 1
Integration Time (sec): 1.000000E-1
Scans to average: 1
Electric dark correction enabled: true
Nonlinearity correction enabled: false
Boxcar width: 0
XAxis mode: Wavelengths
Number of Pixels in Spectrum: 2048
>>>>>Begin Spectral Data<<<<<
223.165	-17.94
223.4	-17.94
223.635	-17.94
223.869	-4.94
224.104	-24.94
224.338	-23.94
224.573	-17.94
224.808	-12.94
225.042	5.06
225.277	8.06
225.511	-1.94
225.746	0.06
225.98	6.06
226.215	8.06
226.449	11.06
226.683	17.06
226.918	28.06
227.152	21.06
227.387	30.06
227.621	42.06
227.856	38.06
228.09	45.06
228.324	54.06
228.559	55.06
228.793	60.06
229.027	58.06
229.262	58.06
229.496	79.06
229.73	72.06
229.964	64.06
230.199	81.06
230.433	85.06
230.667	83.06
230.901	97.06
231.136	89.06
231.37	80.06
231.604	80.06
231.838	87.06
232.072	90.06
232.306	78.06
232.541	78.06
232.775	81.06
233.009	87.06
233.243	71.06
233.477	79.06
233.711	75.06
233.945	79.06
234.179	98.06
234.413	88.06
234.647	102.06
234.881	81.06
235.115	84.06
235.349	79.06
235.583	76.06
235.817	73.06
236.051	79.06
236.285	79.06
236.519	84.06
236.753	93.06
236.987	83.06
237.221	77.06
237.455	86.06
237.689	84.06
237.922	75.06
238.156	87.06
238.39	85.06
238.624	99.06
238.858	87.06
239.091	63.06
239.325	89.06
239.559	82.06
239.793	81.06
240.027	68.06
240.26	77.06
240.494	81.06
240.728	70.06
240.961	77.06
241.195	87.06
241.429	71.06
241.662	91.06
241.896	84.06
242.13	85.06
242.363	83.06
242.597	85.06
242.83	87.06
243.064	85.06
243.298	84.06
243.531	81.06
243.765	86.06
243.998	79.06
244.232	86.06
244.465	89.06
244.699	99.06
244.932	79.06
245.166	86.06
245.399	76.06
245.633	77.06
245.866	71.06
246.099	74.06
246.333	79.06
246.566	85.06
246.8	74.06
247.033	75.06
247.266	73.06
247.5	77.06
247.733	76.06
247.966	99.06
248.2	89.06
248.433	88.06
248.666	88.06
248.899	84.06
249.133	84.06
249.366	91.06
249.599	78.06
249.832	84.06
250.066	88.06
250.299	89.06
250.532	94.06
250.765	81.06
250.998	86.06
251.231	80.06
251.465	93.06
251.698	80.06
251.931	76.06
252.164	83.06
252.397	91.06
252.63	87.06
252.863	73.06
253.096	72.06
253.329	82.06
253.562	71.06
253.795	84.06
254.028	87.06
254.261	93.06
254.494	81.06
254.727	77.06
254.96	67.06
255.193	87.06
255.426	74.06
255.659	79.06
255.892	75.06
256.124	72.06
256.357	70.06
256.59	89.06
256.823	79.06
257.056	82.06
257.289	97.06
257.521	98.06
257.754	79.06
257.987	73.06
258.22	79.06
258.452	87.06
258.685	78.06
258.918	81.06
259.151	79.06
259.383	86.06
259.616	89.06
259.849	77.06
260.081	91.06
260.314	73.06
260.547	88.06
260.779	89.06
261.012	79.06
261.244	84.06
261.477	89.06
261.71	84.06
261.942	77.06
262.175	81.06
262.407	88.06
262.64	95.06
262.872	92.06
263.105	83.06
263.337	86.06
263.57	111.06
263.802	71.06
264.035	74.06
264.267	83.06
264.499	88.06
264.732	73.06
264.964	79.06
265.197	85.06
265.429	96.06
265.661	87.06
265.894	81.06
266.126	85.06
266.358	88.06
266.591	67.06
266.823	87.06
267.055	95.06
267.287	102.06
267.52	94.06
267.752	75.06
267.984	107.06
268.216	86.06
268.448	87.06
268.681	81.06
268.913	76.06
269.145	81.06
269.377	84.06
269.609	88.06
269.841	87.06
270.073	87.06
270.306	90.06
270.538	76.06
270.77	86.06
271.002	77.06
271.234	95.06
271.466	81.06
271.698	88.06
271.93	90.06
272.162	90.06
272.394	90.06
272.626	92.06
272.858	77.06
273.09	84.06
273.322	71.06
273.553	80.06
273.785	96.06
274.017	90.06
274.249	89.06
274.481	84.06
274.713	88.06
274.945	84.06
275.176	92.06
275.408	106.06
275.64	74.06
275.872	92.06
276.104	81.06
276.335	85.06
276.567	87.06
276.799	100.06
277.031	80.06
277.262	93.06
277.494	91.06
277.726	90.06
277.957	90.06
278.189	101.06
278.421	91.06
278.652	86.06
278.884	90.06
279.115	82.06
279.347	93.06
279.579	82.06
279.81	88.06
280.042	95.06
280.273	82.06
280.505	68.06
280.736	84.06
280.968	81.06
281.199	95.06
281.431	81.06
281.662	80.06
281.894	94.06
282.125	83.06
282.356	86.06
282.588	92.06
282.819	96.06
283.051	84.06
283.282	75.06
283.513	97.06
283.745	89.06
283.976	83.06
284.207	89.06
284.439	87.06
284.67	87.06
284.901	92.06
285.132	75.06
285.364	86.06
285.595	100.06
285.826	83.06
286.057	112.06
286.288	95.06
286.52	83.06
286.751	81.06
286.982	91.06
287.213	94.06
287.444	93.06
287.675	100.06
287.906	94.06
288.138	80.06
288.369	108.06
288.6	83.06
288.831	85.06
289.062	79.06
289.293	88.06
289.524	74.06
289.755	85.06
289.986	89.06
290.217	93.06
290.448	93.06
290.679	93.06
290.91	90.06
291.141	74.06
291.371	88.06
291.602	87.06
291.833	92.06
292.064	100.06
292.295	81.06
292.526	82.06
292.757	93.06
292.987	85.06
293.218	82.06
293.449	92.06
293.68	80.06
293.91	78.06
294.141	83.06
294.372	81.06
294.603	81.06
294.833	89.06
295.064	85.06
295.295	93.06
295.525	68.06
295.756	80.06
295.987	100.06
296.217	75.06
296.448	81.06
296.679	81.06
296.909	104.06
297.14	91.06
297.37	96.06
297.601	91.06
297.831	90.06
298.062	100.06
298.292	88.06
298.523	86.06
298.753	78.06
298.984	96.06
299.214	90.06
299.445	78.06
299.675	76.06
299.905	95.06
300.136	103.06
300.366	102.06
300.597	95.06
300.827	87.06
301.057	80.06
301.288	80.06
301.518	92.06
301.748	88.06
301.979	90.06
302.209	94.06
302.439	73.06
302.669	97.06
302.9	89.06
303.13	95.06
303.36	78.06
303.59	93.06
303.82	80.06
304.051	103.06
304.281	93.06
304.511	95.06
304.741	93.06
304.971	96.06
305.201	85.06
305.431	87.06
305.661	80.06
305.891	82.06
306.121	91.06
306.352	82.06
306.582	92.06
306.812	94.06
307.042	85.06
307.272	87.06
307.502	96.06
307.731	88.06
307.961	86.06
308.191	91.06
308.421	96.06
308.651	101.06
308.881	102.06
309.111	87.06
309.341	84.06
309.571	96.06
309.8	94.06
310.03	90.06
310.26	96.06
310.49	80.06
310.72	83.06
310.949	86.06
311.179	94.06
311.409	75.06
311.639	86.06
311.868	85.06
312.098	96.06
312.328	82.06
312.557	98.06
312.787	91.06
313.017	75.06
313.246	109.06
313.476	92.06
313.706	80.06
313.935	84.06
314.165	105.06
314.394	80.06
314.624	83.06
314.853	97.06
315.083	93.06
315.312	85.06
315.542	89.06
315.771	87.06
316.001	88.06
316.23	88.06
316.46	85.06
316.689	78.06
316.919	86.06
317.148	95.06
317.377	88.06
317.607	86.06
317.836	79.06
318.065	98.06
318.295	95.06
318.524	84.06
318.753	99.06
318.983	95.06
319.212	73.06
319.441	75.06
319.67	89.06
319.9	96.06
320.129	67.06
320.358	87.06
320.587	91.06
320.816	88.06
321.046	91.06
321.275	90.06
321.504	85.06
321.733	80.06
321.962	75.06
322.191	75.06
322.42	77.06
322.649	88.06
322.878	95.06
323.108	82.06
323.337	83.06
323.566	85.06
323.795	91.06
324.024	91.06
324.253	88.06
324.482	96.06
324.71	87.06
324.939	87.06
325.168	76.06
325.397	78.06
325.626	107.06
325.855	81.06
326.084	75.06
326.313	91.06
326.542	79.06
326.77	98.06
326.999	95.06
327.228	90.06
327.457	84.06
327.686	96.06
327.914	83.06
328.143	103.06
328.372	92.06
328.6	90.06
328.829	84.06
329.058	84.06
329.287	86.06
329.515	87.06
329.744	85.06
329.972	91.06
330.201	96.06
330.43	95.06
330.658	82.06
330.887	98.06
331.115	86.06
331.344	95.06
331.572	93.06
331.801	94.06
332.03	88.06
332.258	94.06
332.486	81.06
332.715	77.06
332.943	92.06
333.172	83.06
333.4	78.06
333.629	90.06
333.857	87.06
334.085	91.06
334.314	89.06
334.542	88.06
334.771	82.06
334.999	88.06
335.227	81.06
335.455	90.06
335.684	78.06
335.912	105.06
336.14	93.06
336.369	80.06
336.597	78.06
336.825	91.06
337.053	94.06
337.281	88.06
337.51	88.06
337.738	89.06
337.966	96.06
338.194	83.06
338.422	72.06
338.65	82.06
338.878	95.06
339.106	88.06
339.334	102.06
339.562	90.06
339.79	82.06
340.018	94.06
340.246	76.06
340.474	88.06
340.702	85.06
340.93	96.06
341.158	89.06
341.386	102.06
341.614	87.06
341.842	83.06
342.07	95.06
342.298	87.06
342.526	89.06
342.754	99.06
342.981	88.06
343.209	91.06
343.437	95.06
343.665	70.06
343.893	91.06
344.12	90.06
344.348	91.06
344.576	97.06
344.804	97.06
345.031	86.06
345.259	101.06
345.487	99.06
345.714	89.06
345.942	80.06
346.17	93.06
346.397	107.06
346.625	86.06
346.853	98.06
347.08	89.06
347.308	92.06
347.535	92.06
347.763	79.06
347.99	84.06
348.218	88.06
348.445	93.06
348.673	86.06
348.9	88.06
349.128	84.06
349.355	80.06
349.583	81.06
349.81	102.06
350.037	80.06
350.265	100.06
350.492	81.06
350.72	91.06
350.947	90.06
351.174	90.06
351.402	84.06
351.629	92.06
351.856	89.06
352.083	79.06
352.311	86.06
352.538	99.06
352.765	89.06
352.992	103.06
353.22	93.06
353.447	93.06
353.674	89.06
353.901	87.06
354.128	88.06
354.355	76.06
354.583	103.06
354.81	103.06
355.037	75.06
355.264	80.06
355.491	88.06
355.718	87.06
355.945	71.06
356.172	81.06
356.399	87.06
356.626	79.06
356.853	79.06
357.08	82.06
357.307	108.06
357.534	86.06
357.761	89.06
357.988	90.06
358.215	75.06
358.441	93.06
358.668	83.06
358.895	101.06
359.122	78.06
359.349	87.06
359.576	99.06
359.802	77.06
360.029	71.06
360.256	79.06
360.483	78.06
360.709	83.06
360.936	98.06
361.163	88.06
361.39	86.06
361.616	89.06
361.843	85.06
362.07	73.06
362.296	84.06
362.523	99.06
362.749	91.06
362.976	87.06
363.203	81.06
363.429	97.06
363.656	92.06
363.882	83.06
364.109	84.06
364.335	68.06
364.562	74.06
364.788	99.06
365.015	107.06
365.241	97.06
365.468	96.06
365.694	90.06
365.92	91.06
366.147	77.06
366.373	93.06
366.599	99.06
366.826	91.06
367.052	84.06
367.278	91.06
367.505	89.06
367.731	85.06
367.957	85.06
368.184	95.06
368.41	91.06
368.636	91.06
368.862	89.06
369.089	87.06
369.315	74.06
369.541	86.06
369.767	89.06
369.993	89.06
370.219	91.06
370.445	91.06
370.672	91.06
370.898	89.06
371.124	84.06
371.35	81.06
371.576	89.06
371.802	83.06
372.028	84.06
372.254	93.06
372.48	88.06
372.706	88.06
372.932	90.06
373.158	86.06
373.384	91.06
373.61	83.06
373.835	80.06
374.061	70.06
374.287	89.06
374.513	84.06
374.739	99.06
374.965	84.06
375.191	86.06
375.416	74.06
375.642	87.06
375.868	87.06
376.094	106.06
376.319	84.06
376.545	68.06
376.771	86.06
376.997	75.06
377.222	100.06
377.448	100.06
377.674	93.06
377.899	81.06
378.125	93.06
378.35	92.06
378.576	88.06
378.802	95.06
379.027	77.06
379.253	84.06
379.478	95.06
379.704	81.06
379.929	85.06
380.155	79.06
380.38	100.06
380.606	102.06
380.831	85.06
381.057	86.06
381.282	79.06
381.507	89.06
381.733	87.06
381.958	87.06
382.184	72.06
382.409	85.06
382.634	87.06
382.86	82.06
383.085	94.06
383.31	82.06
383.535	95.06
383.761	100.06
383.986	92.06
384.211	92.06
384.436	97.06
384.662	81.06
384.887	78.06
385.112	102.06
385.337	85.06
385.562	93.06
385.787	88.06
386.013	94.06
386.238	83.06
386.463	85.06
386.688	84.06
386.913	83.06
387.138	82.06
387.363	82.06
387.588	88.06
387.813	100.06
388.038	91.06
388.263	94.06
388.488	85.06
388.713	94.06
388.938	93.06
389.163	92.06
389.387	108.06
389.612	91.06
389.837	99.06
390.062	85.06
390.287	93.06
390.512	89.06
390.736	101.06
390.961	92.06
391.186	85.06
391.411	91.06
391.636	96.06
391.86	79.06
392.085	99.06
392.31	95.06
392.534	84.06
392.759	85.06
392.984	80.06
393.208	84.06
393.433	91.06
393.658	84.06
393.882	80.06
394.107	90.06
394.331	83.06
394.556	91.06
394.78	83.06
395.005	84.06
395.229	88.06
395.454	76.06
395.678	93.06
395.903	84.06
396.127	85.06
396.352	88.06
396.576	89.06
396.801	87.06
397.025	84.06
397.249	91.06
397.474	105.06
397.698	102.06
397.922	85.06
398.147	87.06
398.371	75.06
398.595	85.06
398.82	100.06
399.044	94.06
399.268	92.06
399.492	85.06
399.717	92.06
399.941	95.06
400.165	97.06
400.389	94.06
400.613	88.06
400.837	94.06
401.062	82.06
401.286	87.06
401.51	93.06
401.734	95.06
401.958	76.06
402.182	87.06
402.406	95.06
402.63	95.06
402.854	93.06
403.078	95.06
403.302	72.06
403.526	97.06
403.75	80.06
403.974	96.06
404.198	106.06
404.422	80.06
404.645	77.06
404.869	75.06
405.093	101.06
405.317	90.06
405.541	92.06
405.765	80.06
405.988	89.06
406.212	93.06
406.436	81.06
406.66	87.06
406.883	82.06
407.107	91.06
407.331	87.06
407.555	88.06
407.778	89.06
408.002	87.06
408.226	83.06
408.449	90.06
408.673	82.06
408.896	84.06
409.12	101.06
409.344	97.06
409.567	86.06
409.791	83.06
410.014	90.06
410.238	89.06
410.461	81.06
410.685	80.06
410.908	94.06
411.132	86.06
411.355	100.06
411.578	91.06
411.802	92.06
412.025	80.06
412.249	93.06
412.472	83.06
412.695	90.06
412.919	85.06
413.142	97.06
413.365	82.06
413.589	80.06
413.812	83.06
414.035	91.06
414.258	80.06
414.482	83.06
414.705	88.06
414.928	86.06
415.151	97.06
415.374	88.06
415.597	95.06
415.821	75.06
416.044	87.06
416.267	87.06
416.49	86.06
416.713	84.06
416.936	93.06
417.159	92.06
417.382	99.06
417.605	89.06
417.828	88.06
418.051	83.06
418.274	86.06
418.497	88.06
418.72	88.06
418.943	99.06
419.166	93.06
419.389	99.06
419.611	71.06
419.834	91.06
420.057	89.06
420.28	97.06
420.503	84.06
420.726	83.06
420.948	94.06
421.171	78.06
421.394	84.06
421.617	90.06
421.839	90.06
422.062	85.06
422.285	82.06
422.507	100.06
422.73	94.06
422.953	91.06
423.175	85.06
423.398	89.06
423.621	91.06
423.843	92.06
424.066	88.06
424.288	91.06
424.511	88.06
424.733	88.06
424.956	97.06
425.178	86.06
425.401	89.06
425.623	73.06
425.846	86.06
426.068	81.06
426.291	87.06
426.513	84.06
426.735	77.06
426.958	88.06
427.18	91.06
427.402	84.06
427.625	93.06
427.847	78.06
428.069	74.06
428.292	88.06
428.514	73.06
428.736	80.06
428.958	93.06
429.181	92.06
429.403	102.06
429.625	98.06
429.847	91.06
430.069	84.06
430.292	82.06
430.514	93.06
430.736	90.06
430.958	104.06
431.18	95.06
431.402	80.06
431.624	88.06
431.846	99.06
432.068	72.06
432.29	97.06
432.512	76.06
432.734	95.06
432.956	89.06
433.178	103.06
433.4	89.06
433.622	90.06
433.844	83.06
434.066	96.06
434.287	80.06
434.509	89.06
434.731	100.06
434.953	76.06
435.175	87.06
435.397	97.06
435.618	96.06
435.84	93.06
436.062	88.06
436.284	86.06
436.505	86.06
436.727	88.06
436.949	92.06
437.17	81.06
437.392	81.06
437.614	88.06
437.835	96.06
438.057	95.06
438.278	87.06
438.5	94.06
438.721	93.06
438.943	103.06
439.165	99.06
439.386	89.06
439.608	93.06
439.829	93.06
440.05	90.06
440.272	80.06
440.493	98.06
440.715	94.06
440.936	79.06
441.158	99.06
441.379	83.06
441.6	81.06
441.822	98.06
442.043	91.06
442.264	87.06
442.486	89.06
442.707	102.06
442.928	87.06
443.149	89.06
443.371	103.06
443.592	103.06
443.813	89.06
444.034	81.06
444.255	84.06
444.476	83.06
444.698	82.06
444.919	85.06
445.14	228.06
445.361	145.06
445.582	100.06
445.803	80.06
446.024	73.06
446.245	95.06
446.466	87.06
446.687	98.06
446.908	99.06
447.129	84.06
447.35	79.06
447.571	84.06
447.792	72.06
448.013	77.06
448.234	80.06
448.455	92.06
448.675	84.06
448.896	87.06
449.117	104.06
449.338	78.06
449.559	75.06
449.779	84.06
450	89.06
450.221	91.06
450.442	93.06
450.662	78.06
450.883	85.06
451.104	81.06
451.324	98.06
451.545	78.06
451.766	84.06
451.986	83.06
452.207	91.06
452.428	90.06
452.648	97.06
452.869	86.06
453.089	88.06
453.31	89.06
453.53	99.06
453.751	84.06
453.971	94.06
454.192	85.06
454.412	80.06
454.633	91.06
454.853	85.06
455.073	90.06
455.294	91.06
455.514	94.06
455.734	104.06
455.955	80.06
456.175	97.06
456.395	82.06
456.616	92.06
456.836	87.06
457.056	97.06
457.276	78.06
457.497	100.06
457.717	85.06
457.937	88.06
458.157	93.06
458.377	85.06
458.598	96.06
458.818	86.06
459.038	88.06
459.258	76.06
459.478	88.06
459.698	88.06
459.918	104.06
460.138	88.06
460.358	100.06
460.578	89.06
460.798	94.06
461.018	89.06
461.238	93.06
461.458	80.06
461.678	100.06
461.898	70.06
462.118	91.06
462.338	90.06
462.558	83.06
462.777	88.06
462.997	88.06
463.217	94.06
463.437	92.06
463.657	90.06
463.876	107.06
464.096	91.06
464.316	95.06
464.536	98.06
464.755	86.06
464.975	97.06
465.195	92.06
465.414	87.06
465.634	91.06
465.854	81.06
466.073	91.06
466.293	94.06
466.512	82.06
466.732	96.06
466.951	98.06
467.171	75.06
467.391	87.06
467.61	79.06
467.829	100.06
468.049	92.06
468.268	80.06
468.488	98.06
468.707	82.06
468.927	85.06
469.146	91.06
469.365	85.06
469.585	92.06
469.804	93.06
470.023	92.06
470.243	91.06
470.462	104.06
470.681	91.06
470.901	83.06
471.12	81.06
471.339	83.06
471.558	98.06
471.777	91.06
471.997	96.06
472.216	89.06
472.435	97.06
472.654	79.06
472.873	93.06
473.092	92.06
473.311	96.06
473.53	100.06
473.749	85.06
473.968	100.06
474.187	97.06
474.406	89.06
474.625	89.06
474.844	93.06
475.063	94.06
475.282	91.06
475.501	87.06
475.72	97.06
475.939	92.06
476.158	98.06
476.377	94.06
476.596	83.06
476.814	93.06
477.033	88.06
477.252	82.06
477.471	74.06
477.69	103.06
477.908	93.06
478.127	99.06
478.346	97.06
478.564	93.06
478.783	88.06
479.002	86.06
479.22	95.06
479.439	101.06
479.658	101.06
479.876	97.06
480.095	84.06
480.313	94.06
480.532	88.06
480.751	94.06
480.969	88.06
481.188	100.06
481.406	84.06
481.624	91.06
481.843	89.06
482.061	87.06
482.28	91.06
482.498	97.06
482.717	98.06
482.935	85.06
483.153	98.06
483.372	80.06
483.59	77.06
483.808	87.06
484.027	96.06
484.245	95.06
484.463	97.06
484.681	95.06
484.9	94.06
485.118	98.06
485.336	102.06
485.554	100.06
485.772	97.06
485.99	91.06
486.209	93.06
486.427	91.06
486.645	86.06
486.863	88.06
487.081	92.06
487.299	98.06
487.517	93.06
487.735	92.06
487.953	90.06
488.171	94.06
488.389	94.06
488.607	86.06
488.825	92.06
489.043	87.06
489.261	96.06
489.479	92.06
489.696	90.06
489.914	119.06
490.132	95.06
490.35	115.06
490.568	93.06
490.786	97.06
491.003	99.06
491.221	107.06
491.439	97.06
491.657	102.06
491.874	87.06
492.092	87.06
492.31	98.06
492.527	100.06
492.745	94.06
492.963	89.06
493.18	96.06
493.398	102.06
493.615	103.06
493.833	106.06
494.05	101.06
494.268	93.06
494.485	83.06
494.703	99.06
494.92	99.06
495.138	104.06
495.355	109.06
495.573	99.06
495.79	103.06
496.008	91.06
496.225	100.06
496.442	88.06
496.66	112.06
496.877	93.06
497.094	82.06
497.312	84.06
497.529	101.06
497.746	86.06
497.963	102.06
498.181	94.06
498.398	88.06
498.615	99.06
498.832	108.06
499.049	89.06
499.267	100.06
499.484	113.06
499.701	96.06
499.918	101.06
500.135	120.06
500.352	117.06
500.569	99.06
500.786	117.06
501.003	117.06
501.22	116.06
501.437	109.06
501.654	89.06
501.871	98.06
502.088	93.06
502.305	104.06
502.522	86.06
502.739	98.06
502.956	112.06
503.172	92.06
503.389	97.06
503.606	96.06
503.823	99.06
504.04	118.06
504.256	100.06
504.473	104.06
504.69	109.06
504.907	110.06
505.123	92.06
505.34	97.06
505.557	102.06
505.773	109.06
505.99	96.06
506.207	79.06
506.423	83.06
506.64	93.06
506.856	80.06
507.073	94.06
507.289	92.06
507.506	107.06
507.722	107.06
507.939	93.06
508.155	84.06
508.372	96.06
508.588	92.06
508.805	91.06
509.021	75.06
509.238	92.06
509.454	84.06
509.67	101.06
509.887	109.06
510.103	95.06
510.319	96.06
510.536	100.06
510.752	103.06
510.968	98.06
511.184	96.06
511.401	101.06
511.617	90.06
511.833	88.06
512.049	107.06
512.265	100.06
512.481	101.06
512.698	86.06
512.914	89.06
513.13	93.06
513.346	95.06
513.562	83.06
513.778	110.06
513.994	99.06
514.21	103.06
514.426	87.06
514.642	94.06
514.858	87.06
515.074	102.06
515.29	94.06
515.506	86.06
515.721	89.06
515.937	82.06
516.153	91.06
516.369	111.06
516.585	96.06
516.801	103.06
517.016	92.06
517.232	91.06
517.448	93.06
517.664	99.06
