Data from Ni(NO3)2@0.5M.TitratingCurve.Agarose3%dH2O.NegLispCup.LampEnergy10.LIBS07252019_HRD10591_18-00-28-565.txt Node
Date: Thu Jul 25 18:00:28 EDT 2019
User: cochatt
Spectrometer: HR+D1059
Trigger mode: 1
Integration Time (sec): 1.000000E-1
Scans to average: 1
Electric dark correction enabled: true
Nonlinearity correction enabled: false
Boxcar width: 0
XAxis mode: Wavelengths
Number of Pixels in Spectrum: 2048
>>>>>Begin Spectral Data<<<<<
223.165	-17.88
223.4	-17.88
223.635	-17.88
223.869	-13.88
224.104	-13.88
224.338	-7.88
224.573	-13.88
224.808	-33.88
225.042	-12.88
225.277	-10.88
225.511	-1.88
225.746	4.12
225.98	-1.88
226.215	11.12
226.449	20.12
226.683	22.12
226.918	37.12
227.152	34.12
227.387	31.12
227.621	36.12
227.856	24.12
228.09	58.12
228.324	54.12
228.559	47.12
228.793	79.12
229.027	101.12
229.262	128.12
229.496	126.12
229.73	139.12
229.964	154.12
230.199	156.12
230.433	139.12
230.667	162.12
230.901	148.12
231.136	153.12
231.37	146.12
231.604	158.12
231.838	161.12
232.072	166.12
232.306	165.12
232.541	166.12
232.775	180.12
233.009	154.12
233.243	154.12
233.477	159.12
233.711	155.12
233.945	149.12
234.179	156.12
234.413	170.12
234.647	167.12
234.881	167.12
235.115	158.12
235.349	159.12
235.583	157.12
235.817	175.12
236.051	170.12
236.285	161.12
236.519	167.12
236.753	167.12
236.987	174.12
237.221	167.12
237.455	167.12
237.689	181.12
237.922	170.12
238.156	186.12
238.39	175.12
238.624	186.12
238.858	162.12
239.091	185.12
239.325	207.12
239.559	206.12
239.793	216.12
240.027	206.12
240.26	197.12
240.494	203.12
240.728	198.12
240.961	197.12
241.195	220.12
241.429	198.12
241.662	202.12
241.896	205.12
242.13	215.12
242.363	208.12
242.597	205.12
242.83	213.12
243.064	205.12
243.298	198.12
243.531	212.12
243.765	215.12
243.998	210.12
244.232	235.12
244.465	223.12
244.699	229.12
244.932	218.12
245.166	221.12
245.399	227.12
245.633	247.12
245.866	239.12
246.099	227.12
246.333	226.12
246.566	265.12
246.8	242.12
247.033	255.12
247.266	252.12
247.5	242.12
247.733	237.12
247.966	246.12
248.2	270.12
248.433	279.12
248.666	279.12
248.899	276.12
249.133	264.12
249.366	283.12
249.599	264.12
249.832	287.12
250.066	280.12
250.299	269.12
250.532	265.12
250.765	287.12
250.998	275.12
251.231	300.12
251.465	300.12
251.698	285.12
251.931	274.12
252.164	287.12
252.397	285.12
252.63	299.12
252.863	290.12
253.096	302.12
253.329	301.12
253.562	292.12
253.795	324.12
254.028	314.12
254.261	309.12
254.494	301.12
254.727	320.12
254.96	327.12
255.193	305.12
255.426	319.12
255.659	341.12
255.892	328.12
256.124	327.12
256.357	329.12
256.59	345.12
256.823	325.12
257.056	318.12
257.289	328.12
257.521	332.12
257.754	342.12
257.987	324.12
258.22	337.12
258.452	353.12
258.685	352.12
258.918	346.12
259.151	348.12
259.383	360.12
259.616	364.12
259.849	366.12
260.081	351.12
260.314	371.12
260.547	365.12
260.779	360.12
261.012	355.12
261.244	364.12
261.477	358.12
261.71	363.12
261.942	390.12
262.175	361.12
262.407	406.12
262.64	390.12
262.872	372.12
263.105	389.12
263.337	390.12
263.57	396.12
263.802	374.12
264.035	395.12
264.267	394.12
264.499	390.12
264.732	386.12
264.964	404.12
265.197	407.12
265.429	392.12
265.661	396.12
265.894	410.12
266.126	410.12
266.358	410.12
266.591	394.12
266.823	406.12
267.055	417.12
267.287	413.12
267.52	396.12
267.752	407.12
267.984	425.12
268.216	418.12
268.448	418.12
268.681	410.12
268.913	441.12
269.145	421.12
269.377	424.12
269.609	451.12
269.841	427.12
270.073	440.12
270.306	440.12
270.538	434.12
270.77	423.12
271.002	420.12
271.234	452.12
271.466	447.12
271.698	438.12
271.93	438.12
272.162	459.12
272.394	449.12
272.626	468.12
272.858	456.12
273.09	452.12
273.322	471.12
273.553	469.12
273.785	463.12
274.017	452.12
274.249	462.12
274.481	473.12
274.713	473.12
274.945	471.12
275.176	495.12
275.408	468.12
275.64	467.12
275.872	475.12
276.104	488.12
276.335	482.12
276.567	483.12
276.799	488.12
277.031	478.12
277.262	480.12
277.494	486.12
277.726	503.12
277.957	495.12
278.189	504.12
278.421	496.12
278.652	482.12
278.884	526.12
279.115	501.12
279.347	495.12
279.579	510.12
279.81	514.12
280.042	518.12
280.273	532.12
280.505	511.12
280.736	533.12
280.968	536.12
281.199	520.12
281.431	535.12
281.662	543.12
281.894	567.12
282.125	537.12
282.356	535.12
282.588	533.12
282.819	558.12
283.051	570.12
283.282	543.12
283.513	537.12
283.745	545.12
283.976	550.12
284.207	549.12
284.439	545.12
284.67	569.12
284.901	575.12
285.132	567.12
285.364	569.12
285.595	542.12
285.826	574.12
286.057	555.12
286.288	568.12
286.52	562.12
286.751	545.12
286.982	550.12
287.213	564.12
287.444	588.12
287.675	579.12
287.906	586.12
288.138	582.12
288.369	594.12
288.6	600.12
288.831	586.12
289.062	581.12
289.293	579.12
289.524	592.12
289.755	613.12
289.986	595.12
290.217	615.12
290.448	574.12
290.679	569.12
290.91	569.12
291.141	610.12
291.371	580.12
291.602	607.12
291.833	630.12
292.064	605.12
292.295	604.12
292.526	616.12
292.757	598.12
292.987	596.12
293.218	610.12
293.449	590.12
293.68	581.12
293.91	612.12
294.141	609.12
294.372	605.12
294.603	624.12
294.833	606.12
295.064	602.12
295.295	621.12
295.525	600.12
295.756	605.12
295.987	607.12
296.217	617.12
296.448	625.12
296.679	614.12
296.909	626.12
297.14	619.12
297.37	652.12
297.601	640.12
297.831	634.12
298.062	623.12
298.292	660.12
298.523	665.12
298.753	662.12
298.984	642.12
299.214	620.12
299.445	621.12
299.675	646.12
299.905	674.12
300.136	668.12
300.366	671.12
300.597	663.12
300.827	682.12
301.057	683.12
301.288	674.12
301.518	675.12
301.748	697.12
301.979	685.12
302.209	687.12
302.439	695.12
302.669	684.12
302.9	680.12
303.13	667.12
303.36	675.12
303.59	684.12
303.82	681.12
304.051	709.12
304.281	708.12
304.511	683.12
304.741	674.12
304.971	708.12
305.201	687.12
305.431	692.12
305.661	696.12
305.891	685.12
306.121	704.12
306.352	704.12
306.582	710.12
306.812	679.12
307.042	679.12
307.272	693.12
307.502	674.12
307.731	670.12
307.961	681.12
308.191	698.12
308.421	694.12
308.651	683.12
308.881	683.12
309.111	685.12
309.341	680.12
309.571	691.12
309.8	700.12
310.03	702.12
310.26	705.12
310.49	716.12
310.72	692.12
310.949	704.12
311.179	707.12
311.409	708.12
311.639	710.12
311.868	680.12
312.098	712.12
312.328	721.12
312.557	712.12
312.787	712.12
313.017	744.12
313.246	715.12
313.476	712.12
313.706	762.12
313.935	761.12
314.165	724.12
314.394	728.12
314.624	742.12
314.853	727.12
315.083	725.12
315.312	759.12
315.542	740.12
315.771	747.12
316.001	759.12
316.23	747.12
316.46	739.12
316.689	738.12
316.919	724.12
317.148	724.12
317.377	762.12
317.607	766.12
317.836	743.12
318.065	749.12
318.295	764.12
318.524	754.12
318.753	744.12
318.983	723.12
319.212	728.12
319.441	733.12
319.67	766.12
319.9	741.12
320.129	772.12
320.358	744.12
320.587	741.12
320.816	774.12
321.046	768.12
321.275	772.12
321.504	756.12
321.733	779.12
321.962	774.12
322.191	759.12
322.42	777.12
322.649	751.12
322.878	748.12
323.108	785.12
323.337	788.12
323.566	789.12
323.795	778.12
324.024	786.12
324.253	800.12
324.482	777.12
324.71	819.12
324.939	789.12
325.168	804.12
325.397	798.12
325.626	818.12
325.855	819.12
326.084	810.12
326.313	811.12
326.542	808.12
326.77	831.12
326.999	822.12
327.228	782.12
327.457	809.12
327.686	842.12
327.914	824.12
328.143	812.12
328.372	847.12
328.6	863.12
328.829	828.12
329.058	841.12
329.287	846.12
329.515	874.12
329.744	855.12
329.972	844.12
330.201	867.12
330.43	871.12
330.658	843.12
330.887	871.12
331.115	862.12
331.344	879.12
331.572	901.12
331.801	888.12
332.03	898.12
332.258	910.12
332.486	898.12
332.715	939.12
332.943	964.12
333.172	954.12
333.4	1000.12
333.629	997.12
333.857	1006.12
334.085	1047.12
334.314	1063.12
334.542	1046.12
334.771	1027.12
334.999	1052.12
335.227	1031.12
335.455	1044.12
335.684	1048.12
335.912	1031.12
336.14	998.12
336.369	1034.12
336.597	1005.12
336.825	999.12
337.053	1005.12
337.281	1014.12
337.51	982.12
337.738	960.12
337.966	938.12
338.194	940.12
338.422	959.12
338.65	922.12
338.878	936.12
339.106	939.12
339.334	920.12
339.562	914.12
339.79	901.12
340.018	899.12
340.246	871.12
340.474	868.12
340.702	867.12
340.93	885.12
341.158	894.12
341.386	913.12
341.614	894.12
341.842	922.12
342.07	891.12
342.298	888.12
342.526	940.12
342.754	902.12
342.981	895.12
343.209	905.12
343.437	926.12
343.665	981.12
343.893	982.12
344.12	1024.12
344.348	991.12
344.576	971.12
344.804	972.12
345.031	950.12
345.259	941.12
345.487	912.12
345.714	928.12
345.942	910.12
346.17	933.12
346.397	892.12
346.625	878.12
346.853	873.12
347.08	869.12
347.308	887.12
347.535	856.12
347.763	862.12
347.99	866.12
348.218	856.12
348.445	872.12
348.673	861.12
348.9	873.12
349.128	873.12
349.355	905.12
349.583	877.12
349.81	881.12
350.037	844.12
350.265	828.12
350.492	858.12
350.72	818.12
350.947	803.12
351.174	856.12
351.402	855.12
351.629	840.12
351.856	860.12
352.083	838.12
352.311	842.12
352.538	876.12
352.765	856.12
352.992	821.12
353.22	821.12
353.447	837.12
353.674	818.12
353.901	820.12
354.128	831.12
354.355	823.12
354.583	836.12
354.81	822.12
355.037	850.12
355.264	826.12
355.491	831.12
355.718	808.12
355.945	822.12
356.172	846.12
356.399	844.12
356.626	837.12
356.853	862.12
357.08	858.12
357.307	842.12
357.534	846.12
357.761	831.12
357.988	839.12
358.215	822.12
358.441	810.12
358.668	825.12
358.895	839.12
359.122	814.12
359.349	843.12
359.576	829.12
359.802	838.12
360.029	852.12
360.256	851.12
360.483	845.12
360.709	841.12
360.936	867.12
361.163	836.12
361.39	824.12
361.616	843.12
361.843	872.12
362.07	877.12
362.296	854.12
362.523	831.12
362.749	828.12
362.976	821.12
363.203	856.12
363.429	845.12
363.656	841.12
363.882	821.12
364.109	848.12
364.335	867.12
364.562	835.12
364.788	807.12
365.015	842.12
365.241	853.12
365.468	849.12
365.694	838.12
365.92	838.12
366.147	841.12
366.373	835.12
366.599	846.12
366.826	861.12
367.052	838.12
367.278	833.12
367.505	845.12
367.731	866.12
367.957	855.12
368.184	839.12
368.41	887.12
368.636	838.12
368.862	860.12
369.089	847.12
369.315	890.12
369.541	867.12
369.767	875.12
369.993	864.12
370.219	867.12
370.445	856.12
370.672	876.12
370.898	897.12
371.124	894.12
371.35	900.12
371.576	920.12
371.802	904.12
372.028	902.12
372.254	905.12
372.48	913.12
372.706	916.12
372.932	935.12
373.158	891.12
373.384	909.12
373.61	904.12
373.835	903.12
374.061	916.12
374.287	919.12
374.513	907.12
374.739	955.12
374.965	961.12
375.191	990.12
375.416	964.12
375.642	959.12
375.868	952.12
376.094	940.12
376.319	931.12
376.545	919.12
376.771	898.12
376.997	892.12
377.222	905.12
377.448	892.12
377.674	887.12
377.899	918.12
378.125	907.12
378.35	884.12
378.576	902.12
378.802	914.12
379.027	883.12
379.253	900.12
379.478	891.12
379.704	886.12
379.929	907.12
380.155	873.12
380.38	895.12
380.606	900.12
380.831	887.12
381.057	900.12
381.282	914.12
381.507	892.12
381.733	925.12
381.958	944.12
382.184	935.12
382.409	935.12
382.634	939.12
382.86	923.12
383.085	925.12
383.31	954.12
383.535	983.12
383.761	971.12
383.986	998.12
384.211	978.12
384.436	985.12
384.662	1029.12
384.887	1026.12
385.112	1003.12
385.337	1035.12
385.562	1015.12
385.787	1069.12
386.013	1054.12
386.238	1032.12
386.463	1050.12
386.688	1055.12
386.913	1061.12
387.138	1031.12
387.363	1046.12
387.588	1074.12
387.813	1087.12
388.038	1046.12
388.263	1070.12
388.488	1050.12
388.713	1042.12
388.938	1057.12
389.163	1052.12
389.387	1042.12
389.612	1049.12
389.837	1036.12
390.062	1070.12
390.287	1054.12
390.512	1054.12
390.736	1066.12
390.961	1088.12
391.186	1139.12
391.411	1152.12
391.636	1147.12
391.86	1161.12
392.085	1163.12
392.31	1156.12
392.534	1150.12
392.759	1148.12
392.984	1145.12
393.208	1119.12
393.433	1132.12
393.658	1117.12
393.882	1128.12
394.107	1119.12
394.331	1119.12
394.556	1134.12
394.78	1122.12
395.005	1127.12
395.229	1156.12
395.454	1164.12
395.678	1193.12
395.903	1159.12
396.127	1168.12
396.352	1139.12
396.576	1137.12
396.801	1155.12
397.025	1157.12
397.249	1158.12
397.474	1182.12
397.698	1209.12
397.922	1213.12
398.147	1224.12
398.371	1258.12
398.595	1296.12
398.82	1324.12
399.044	1396.12
399.268	1447.12
399.492	1599.12
399.717	1658.12
399.941	1705.12
400.165	1597.12
400.389	1526.12
400.613	1482.12
400.837	1389.12
401.062	1397.12
401.286	1357.12
401.51	1352.12
401.734	1330.12
401.958	1373.12
402.182	1323.12
402.406	1305.12
402.63	1333.12
402.854	1353.12
403.078	1328.12
403.302	1346.12
403.526	1375.12
403.75	1397.12
403.974	1393.12
404.198	1371.12
404.422	1363.12
404.645	1396.12
404.869	1362.12
405.093	1388.12
405.317	1394.12
405.541	1403.12
405.765	1394.12
405.988	1398.12
406.212	1385.12
406.436	1419.12
406.66	1468.12
406.883	1478.12
407.107	1533.12
407.331	1540.12
407.555	1594.12
407.778	1603.12
408.002	1588.12
408.226	1570.12
408.449	1555.12
408.673	1507.12
408.896	1461.12
409.12	1455.12
409.344	1482.12
409.567	1442.12
409.791	1449.12
410.014	1461.12
410.238	1439.12
410.461	1463.12
410.685	1379.12
410.908	1398.12
411.132	1406.12
411.355	1366.12
411.578	1399.12
411.802	1366.12
412.025	1351.12
412.249	1347.12
412.472	1368.12
412.695	1369.12
412.919	1305.12
413.142	1318.12
413.365	1330.12
413.589	1354.12
413.812	1315.12
414.035	1305.12
414.258	1337.12
414.482	1328.12
414.705	1352.12
414.928	1324.12
415.151	1323.12
415.374	1341.12
415.597	1304.12
415.821	1323.12
416.044	1299.12
416.267	1324.12
416.49	1250.12
416.713	1283.12
416.936	1283.12
417.159	1291.12
417.382	1293.12
417.605	1272.12
417.828	1262.12
418.051	1280.12
418.274	1254.12
418.497	1287.12
418.72	1310.12
418.943	1286.12
419.166	1386.12
419.389	1474.12
419.611	1429.12
419.834	1382.12
420.057	1341.12
420.28	1298.12
420.503	1286.12
420.726	1267.12
420.948	1237.12
421.171	1244.12
421.394	1272.12
421.617	1260.12
421.839	1270.12
422.062	1292.12
422.285	1266.12
422.507	1295.12
422.73	1291.12
422.953	1258.12
423.175	1336.12
423.398	1306.12
423.621	1273.12
423.843	1293.12
424.066	1290.12
424.288	1289.12
424.511	1270.12
424.733	1293.12
424.956	1248.12
425.178	1288.12
425.401	1284.12
425.623	1319.12
425.846	1261.12
426.068	1254.12
426.291	1225.12
426.513	1223.12
426.735	1232.12
426.958	1250.12
427.18	1221.12
427.402	1215.12
427.625	1192.12
427.847	1210.12
428.069	1187.12
428.292	1185.12
428.514	1211.12
428.736	1186.12
428.958	1190.12
429.181	1168.12
429.403	1139.12
429.625	1174.12
429.847	1128.12
430.069	1149.12
430.292	1176.12
430.514	1185.12
430.736	1174.12
430.958	1182.12
431.18	1172.12
431.402	1164.12
431.624	1157.12
431.846	1194.12
432.068	1166.12
432.29	1181.12
432.512	1188.12
432.734	1199.12
432.956	1188.12
433.178	1191.12
433.4	1221.12
433.622	1209.12
433.844	1202.12
434.066	1230.12
434.287	1199.12
434.509	1249.12
434.731	1282.12
434.953	1251.12
435.175	1286.12
435.397	1298.12
435.618	1221.12
435.84	1239.12
436.062	1193.12
436.284	1191.12
436.505	1183.12
436.727	1187.12
436.949	1176.12
437.17	1156.12
437.392	1178.12
437.614	1144.12
437.835	1087.12
438.057	1130.12
438.278	1122.12
438.5	1156.12
438.721	1154.12
438.943	1199.12
439.165	1160.12
439.386	1144.12
439.608	1172.12
439.829	1166.12
440.05	1161.12
440.272	1153.12
440.493	1181.12
440.715	1198.12
440.936	1219.12
441.158	1231.12
441.379	1251.12
441.6	1307.12
441.822	1301.12
442.043	1263.12
442.264	1305.12
442.486	1242.12
442.707	1246.12
442.928	1248.12
443.149	1252.12
443.371	1257.12
443.592	1290.12
443.813	1302.12
444.034	1296.12
444.255	1298.12
444.476	1354.12
444.698	1408.12
444.919	1390.12
445.14	1494.12
445.361	1401.12
445.582	1332.12
445.803	1257.12
446.024	1223.12
446.245	1213.12
446.466	1226.12
446.687	1200.12
446.908	1226.12
447.129	1166.12
447.35	1156.12
447.571	1150.12
447.792	1095.12
448.013	1131.12
448.234	1098.12
448.455	1095.12
448.675	1126.12
448.896	1067.12
449.117	1061.12
449.338	1064.12
449.559	1075.12
449.779	1067.12
450	1062.12
450.221	1065.12
450.442	1071.12
450.662	1052.12
450.883	1094.12
451.104	1106.12
451.324	1067.12
451.545	1080.12
451.766	1078.12
451.986	1070.12
452.207	1067.12
452.428	1060.12
452.648	1044.12
452.869	1053.12
453.089	1032.12
453.31	1069.12
453.53	1024.12
453.751	992.12
453.971	1031.12
454.192	1044.12
454.412	1044.12
454.633	1048.12
454.853	1026.12
455.073	1046.12
455.294	1023.12
455.514	987.12
455.734	1039.12
455.955	1023.12
456.175	999.12
456.395	1007.12
456.616	1030.12
456.836	1039.12
457.056	1017.12
457.276	998.12
457.497	1030.12
457.717	1038.12
457.937	1045.12
458.157	1065.12
458.377	1065.12
458.598	1075.12
458.818	1094.12
459.038	1110.12
459.258	1144.12
459.478	1185.12
459.698	1220.12
459.918	1243.12
460.138	1246.12
460.358	1321.12
460.578	1329.12
460.798	1336.12
461.018	1349.12
461.238	1319.12
461.458	1326.12
461.678	1299.12
461.898	1376.12
462.118	1348.12
462.338	1410.12
462.558	1460.12
462.777	1496.12
462.997	1575.12
463.217	1576.12
463.437	1620.12
463.657	1582.12
463.876	1505.12
464.096	1514.12
464.316	1444.12
464.536	1488.12
464.755	1486.12
464.975	1394.12
465.195	1374.12
465.414	1283.12
465.634	1244.12
465.854	1205.12
466.073	1204.12
466.293	1177.12
466.512	1142.12
466.732	1143.12
466.951	1141.12
467.171	1125.12
467.391	1104.12
467.61	1116.12
467.829	1119.12
468.049	1094.12
468.268	1122.12
468.488	1094.12
468.707	1098.12
468.927	1098.12
469.146	1106.12
469.365	1119.12
469.585	1132.12
469.804	1124.12
470.023	1139.12
470.243	1119.12
470.462	1120.12
470.681	1159.12
470.901	1138.12
471.12	1124.12
471.339	1154.12
471.558	1130.12
471.777	1123.12
471.997	1116.12
472.216	1118.12
472.435	1079.12
472.654	1102.12
472.873	1092.12
473.092	1096.12
473.311	1060.12
473.53	1085.12
473.749	1077.12
473.968	1060.12
474.187	1074.12
474.406	1068.12
474.625	1070.12
474.844	1074.12
475.063	1103.12
475.282	1092.12
475.501	1099.12
475.72	1104.12
475.939	1096.12
476.158	1126.12
476.377	1141.12
476.596	1131.12
476.814	1152.12
477.033	1148.12
477.252	1149.12
477.471	1185.12
477.69	1206.12
477.908	1206.12
478.127	1244.12
478.346	1271.12
478.564	1274.12
478.783	1300.12
479.002	1316.12
479.22	1350.12
479.439	1281.12
479.658	1307.12
479.876	1290.12
480.095	1306.12
480.313	1341.12
480.532	1347.12
480.751	1335.12
480.969	1322.12
481.188	1291.12
481.406	1285.12
481.624	1252.12
481.843	1287.12
482.061	1251.12
482.28	1245.12
482.498	1264.12
482.717	1236.12
482.935	1246.12
483.153	1268.12
483.372	1292.12
483.59	1266.12
483.808	1275.12
484.027	1283.12
484.245	1279.12
484.463	1256.12
484.681	1270.12
484.9	1276.12
485.118	1292.12
485.336	1269.12
485.554	1282.12
485.772	1311.12
485.99	1301.12
486.209	1291.12
486.427	1267.12
486.645	1311.12
486.863	1313.12
487.081	1291.12
487.299	1294.12
487.517	1302.12
487.735	1287.12
487.953	1308.12
488.171	1320.12
488.389	1322.12
488.607	1316.12
488.825	1292.12
489.043	1288.12
489.261	1292.12
489.479	1297.12
489.696	1266.12
489.914	1297.12
490.132	1295.12
490.35	1305.12
490.568	1326.12
490.786	1307.12
491.003	1338.12
491.221	1315.12
491.439	1295.12
491.657	1263.12
491.874	1302.12
492.092	1332.12
492.31	1326.12
492.527	1359.12
492.745	1318.12
492.963	1326.12
493.18	1335.12
493.398	1356.12
493.615	1392.12
493.833	1367.12
494.05	1367.12
494.268	1404.12
494.485	1398.12
