Data from Ni(NO3)2@0.125M.TitratingCurve.Agarose3%dH2O.NegLispCup.LampEnergy10.LIBS07252019_HRD10591_18-08-22-567.txt Node
Date: Thu Jul 25 18:08:22 EDT 2019
User: cochatt
Spectrometer: HR+D1059
Trigger mode: 1
Integration Time (sec): 1.000000E-1
Scans to average: 1
Electric dark correction enabled: true
Nonlinearity correction enabled: false
Boxcar width: 0
XAxis mode: Wavelengths
Number of Pixels in Spectrum: 2048
>>>>>Begin Spectral Data<<<<<
223.165	-18.56
223.4	-18.56
223.635	-18.56
223.869	-20.56
224.104	-29.56
224.338	-26.56
224.573	-12.56
224.808	-17.56
225.042	-7.56
225.277	-1.56
225.511	6.44
225.746	2.44
225.98	4.44
226.215	28.44
226.449	24.44
226.683	10.44
226.918	21.44
227.152	36.44
227.387	30.44
227.621	57.44
227.856	44.44
228.09	62.44
228.324	51.44
228.559	58.44
228.793	82.44
229.027	113.44
229.262	139.44
229.496	132.44
229.73	139.44
229.964	139.44
230.199	149.44
230.433	150.44
230.667	163.44
230.901	142.44
231.136	151.44
231.37	165.44
231.604	162.44
231.838	159.44
232.072	178.44
232.306	170.44
232.541	155.44
232.775	170.44
233.009	158.44
233.243	176.44
233.477	170.44
233.711	194.44
233.945	196.44
234.179	173.44
234.413	179.44
234.647	169.44
234.881	167.44
235.115	170.44
235.349	167.44
235.583	173.44
235.817	189.44
236.051	187.44
236.285	179.44
236.519	188.44
236.753	183.44
236.987	189.44
237.221	185.44
237.455	195.44
237.689	182.44
237.922	191.44
238.156	190.44
238.39	199.44
238.624	179.44
238.858	195.44
239.091	192.44
239.325	197.44
239.559	209.44
239.793	203.44
240.027	209.44
240.26	218.44
240.494	206.44
240.728	220.44
240.961	236.44
241.195	221.44
241.429	211.44
241.662	220.44
241.896	221.44
242.13	236.44
242.363	214.44
242.597	225.44
242.83	243.44
243.064	229.44
243.298	234.44
243.531	223.44
243.765	231.44
243.998	248.44
244.232	244.44
244.465	264.44
244.699	235.44
244.932	259.44
245.166	261.44
245.399	268.44
245.633	263.44
245.866	273.44
246.099	253.44
246.333	230.44
246.566	278.44
246.8	281.44
247.033	276.44
247.266	283.44
247.5	272.44
247.733	265.44
247.966	288.44
248.2	311.44
248.433	298.44
248.666	281.44
248.899	307.44
249.133	296.44
249.366	289.44
249.599	284.44
249.832	284.44
250.066	308.44
250.299	311.44
250.532	317.44
250.765	312.44
250.998	315.44
251.231	327.44
251.465	323.44
251.698	332.44
251.931	320.44
252.164	323.44
252.397	350.44
252.63	323.44
252.863	344.44
253.096	355.44
253.329	350.44
253.562	355.44
253.795	344.44
254.028	355.44
254.261	332.44
254.494	349.44
254.727	363.44
254.96	355.44
255.193	366.44
255.426	346.44
255.659	383.44
255.892	377.44
256.124	377.44
256.357	380.44
256.59	379.44
256.823	390.44
257.056	385.44
257.289	383.44
257.521	380.44
257.754	390.44
257.987	393.44
258.22	378.44
258.452	393.44
258.685	395.44
258.918	416.44
259.151	397.44
259.383	411.44
259.616	385.44
259.849	420.44
260.081	402.44
260.314	430.44
260.547	409.44
260.779	424.44
261.012	424.44
261.244	429.44
261.477	441.44
261.71	433.44
261.942	435.44
262.175	424.44
262.407	435.44
262.64	434.44
262.872	437.44
263.105	439.44
263.337	436.44
263.57	438.44
263.802	435.44
264.035	425.44
264.267	439.44
264.499	448.44
264.732	462.44
264.964	437.44
265.197	449.44
265.429	464.44
265.661	468.44
265.894	467.44
266.126	484.44
266.358	445.44
266.591	463.44
266.823	458.44
267.055	475.44
267.287	483.44
267.52	462.44
267.752	484.44
267.984	468.44
268.216	471.44
268.448	485.44
268.681	500.44
268.913	477.44
269.145	491.44
269.377	514.44
269.609	498.44
269.841	484.44
270.073	472.44
270.306	503.44
270.538	517.44
270.77	497.44
271.002	487.44
271.234	510.44
271.466	493.44
271.698	503.44
271.93	528.44
272.162	518.44
272.394	518.44
272.626	540.44
272.858	509.44
273.09	527.44
273.322	531.44
273.553	512.44
273.785	521.44
274.017	522.44
274.249	545.44
274.481	543.44
274.713	517.44
274.945	537.44
275.176	547.44
275.408	565.44
275.64	530.44
275.872	547.44
276.104	563.44
276.335	556.44
276.567	546.44
276.799	553.44
277.031	546.44
277.262	555.44
277.494	564.44
277.726	550.44
277.957	575.44
278.189	549.44
278.421	569.44
278.652	571.44
278.884	585.44
279.115	585.44
279.347	561.44
279.579	601.44
279.81	584.44
280.042	573.44
280.273	587.44
280.505	592.44
280.736	554.44
280.968	605.44
281.199	608.44
281.431	599.44
281.662	616.44
281.894	597.44
282.125	601.44
282.356	627.44
282.588	642.44
282.819	620.44
283.051	608.44
283.282	615.44
283.513	624.44
283.745	654.44
283.976	633.44
284.207	624.44
284.439	639.44
284.67	634.44
284.901	635.44
285.132	645.44
285.364	627.44
285.595	654.44
285.826	636.44
286.057	654.44
286.288	656.44
286.52	662.44
286.751	645.44
286.982	645.44
287.213	646.44
287.444	651.44
287.675	632.44
287.906	675.44
288.138	653.44
288.369	669.44
288.6	663.44
288.831	684.44
289.062	666.44
289.293	685.44
289.524	677.44
289.755	670.44
289.986	661.44
290.217	667.44
290.448	656.44
290.679	672.44
290.91	661.44
291.141	680.44
291.371	692.44
291.602	701.44
291.833	671.44
292.064	695.44
292.295	688.44
292.526	675.44
292.757	689.44
292.987	671.44
293.218	640.44
293.449	698.44
293.68	678.44
293.91	715.44
294.141	699.44
294.372	678.44
294.603	725.44
294.833	696.44
295.064	692.44
295.295	677.44
295.525	686.44
295.756	687.44
295.987	689.44
296.217	720.44
296.448	724.44
296.679	700.44
296.909	704.44
297.14	708.44
297.37	735.44
297.601	742.44
297.831	724.44
298.062	732.44
298.292	729.44
298.523	761.44
298.753	751.44
298.984	745.44
299.214	720.44
299.445	741.44
299.675	736.44
299.905	746.44
300.136	741.44
300.366	754.44
300.597	771.44
300.827	799.44
301.057	747.44
301.288	802.44
301.518	792.44
301.748	783.44
301.979	775.44
302.209	785.44
302.439	792.44
302.669	780.44
302.9	743.44
303.13	759.44
303.36	775.44
303.59	755.44
303.82	766.44
304.051	814.44
304.281	787.44
304.511	777.44
304.741	777.44
304.971	789.44
305.201	773.44
305.431	790.44
305.661	766.44
305.891	788.44
306.121	761.44
306.352	742.44
306.582	765.44
306.812	755.44
307.042	745.44
307.272	752.44
307.502	766.44
307.731	757.44
307.961	728.44
308.191	765.44
308.421	760.44
308.651	749.44
308.881	769.44
309.111	780.44
309.341	750.44
309.571	767.44
309.8	777.44
310.03	764.44
310.26	792.44
310.49	773.44
310.72	760.44
310.949	755.44
311.179	780.44
311.409	772.44
311.639	773.44
311.868	811.44
312.098	793.44
312.328	797.44
312.557	801.44
312.787	799.44
313.017	819.44
313.246	840.44
313.476	835.44
313.706	843.44
313.935	829.44
314.165	816.44
314.394	849.44
314.624	835.44
314.853	853.44
315.083	838.44
315.312	827.44
315.542	797.44
315.771	835.44
316.001	831.44
316.23	810.44
316.46	823.44
316.689	808.44
316.919	829.44
317.148	808.44
317.377	815.44
317.607	813.44
317.836	819.44
318.065	827.44
318.295	820.44
318.524	847.44
318.753	845.44
318.983	828.44
319.212	806.44
319.441	823.44
319.67	826.44
319.9	821.44
320.129	841.44
320.358	832.44
320.587	843.44
320.816	847.44
321.046	840.44
321.275	868.44
321.504	851.44
321.733	834.44
321.962	857.44
322.191	813.44
322.42	863.44
322.649	837.44
322.878	863.44
323.108	834.44
323.337	853.44
323.566	868.44
323.795	870.44
324.024	854.44
324.253	856.44
324.482	860.44
324.71	878.44
324.939	897.44
325.168	869.44
325.397	904.44
325.626	901.44
325.855	891.44
326.084	916.44
326.313	897.44
326.542	931.44
326.77	923.44
326.999	924.44
327.228	911.44
327.457	906.44
327.686	947.44
327.914	923.44
328.143	943.44
328.372	947.44
328.6	931.44
328.829	952.44
329.058	935.44
329.287	961.44
329.515	954.44
329.744	976.44
329.972	985.44
330.201	995.44
330.43	998.44
330.658	984.44
330.887	993.44
331.115	1015.44
331.344	1025.44
331.572	1032.44
331.801	1067.44
332.03	1092.44
332.258	1094.44
332.486	1119.44
332.715	1152.44
332.943	1212.44
333.172	1264.44
333.4	1303.44
333.629	1326.44
333.857	1351.44
334.085	1337.44
334.314	1324.44
334.542	1269.44
334.771	1260.44
334.999	1211.44
335.227	1254.44
335.455	1246.44
335.684	1183.44
335.912	1199.44
336.14	1161.44
336.369	1157.44
336.597	1158.44
336.825	1170.44
337.053	1166.44
337.281	1157.44
337.51	1119.44
337.738	1129.44
337.966	1117.44
338.194	1107.44
338.422	1099.44
338.65	1067.44
338.878	1058.44
339.106	1062.44
339.334	1067.44
339.562	1072.44
339.79	1007.44
340.018	1021.44
340.246	1006.44
340.474	1035.44
340.702	1022.44
340.93	1043.44
341.158	1023.44
341.386	1041.44
341.614	1042.44
341.842	1054.44
342.07	998.44
342.298	1005.44
342.526	1025.44
342.754	1003.44
342.981	1031.44
343.209	1031.44
343.437	1090.44
343.665	1196.44
343.893	1252.44
344.12	1295.44
344.348	1232.44
344.576	1167.44
344.804	1150.44
345.031	1129.44
345.259	1050.44
345.487	1035.44
345.714	1017.44
345.942	1051.44
346.17	1054.44
346.397	1036.44
346.625	983.44
346.853	997.44
347.08	971.44
347.308	984.44
347.535	1002.44
347.763	1001.44
347.99	951.44
348.218	996.44
348.445	981.44
348.673	963.44
348.9	965.44
349.128	956.44
349.355	973.44
349.583	1000.44
349.81	998.44
350.037	936.44
350.265	956.44
350.492	927.44
350.72	918.44
350.947	953.44
351.174	969.44
351.402	996.44
351.629	963.44
351.856	981.44
352.083	968.44
352.311	955.44
352.538	939.44
352.765	963.44
352.992	937.44
353.22	919.44
353.447	937.44
353.674	967.44
353.901	951.44
354.128	918.44
354.355	931.44
354.583	939.44
354.81	960.44
355.037	953.44
355.264	929.44
355.491	946.44
355.718	949.44
355.945	977.44
356.172	947.44
356.399	945.44
356.626	964.44
356.853	997.44
357.08	944.44
357.307	956.44
357.534	950.44
357.761	951.44
357.988	962.44
358.215	941.44
358.441	917.44
358.668	939.44
358.895	927.44
359.122	919.44
359.349	932.44
359.576	932.44
359.802	953.44
360.029	933.44
360.256	963.44
360.483	944.44
360.709	954.44
360.936	932.44
361.163	966.44
361.39	944.44
361.616	899.44
361.843	952.44
362.07	979.44
362.296	947.44
362.523	941.44
362.749	978.44
362.976	949.44
363.203	931.44
363.429	939.44
363.656	923.44
363.882	928.44
364.109	918.44
364.335	906.44
364.562	921.44
364.788	919.44
365.015	954.44
365.241	928.44
365.468	940.44
365.694	931.44
365.92	938.44
366.147	926.44
366.373	942.44
366.599	917.44
366.826	924.44
367.052	921.44
367.278	929.44
367.505	952.44
367.731	935.44
367.957	919.44
368.184	938.44
368.41	944.44
368.636	941.44
368.862	938.44
369.089	936.44
369.315	973.44
369.541	975.44
369.767	977.44
369.993	977.44
370.219	959.44
370.445	964.44
370.672	981.44
370.898	978.44
371.124	989.44
371.35	1030.44
371.576	985.44
371.802	997.44
372.028	999.44
372.254	977.44
372.48	1027.44
372.706	1059.44
372.932	1037.44
373.158	1035.44
373.384	1045.44
373.61	999.44
373.835	1007.44
374.061	1007.44
374.287	1046.44
374.513	1024.44
374.739	1032.44
374.965	1102.44
375.191	1103.44
375.416	1120.44
375.642	1073.44
375.868	1058.44
376.094	1046.44
376.319	1036.44
376.545	1006.44
376.771	1002.44
376.997	984.44
377.222	1008.44
377.448	993.44
377.674	1012.44
377.899	992.44
378.125	1004.44
378.35	995.44
378.576	997.44
378.802	958.44
379.027	997.44
379.253	989.44
379.478	967.44
379.704	979.44
379.929	980.44
380.155	954.44
380.38	1001.44
380.606	983.44
380.831	966.44
381.057	991.44
381.282	1005.44
381.507	977.44
381.733	998.44
381.958	1005.44
382.184	1010.44
382.409	1041.44
382.634	1029.44
382.86	1059.44
383.085	1049.44
383.31	1066.44
383.535	1110.44
383.761	1081.44
383.986	1099.44
384.211	1135.44
384.436	1164.44
384.662	1162.44
384.887	1194.44
385.112	1211.44
385.337	1214.44
385.562	1217.44
385.787	1195.44
386.013	1271.44
386.238	1224.44
386.463	1228.44
386.688	1228.44
386.913	1218.44
387.138	1213.44
387.363	1216.44
387.588	1199.44
387.813	1179.44
388.038	1199.44
388.263	1196.44
388.488	1204.44
388.713	1181.44
388.938	1195.44
389.163	1180.44
389.387	1180.44
389.612	1134.44
389.837	1152.44
390.062	1182.44
390.287	1169.44
390.512	1196.44
390.736	1173.44
390.961	1205.44
391.186	1211.44
391.411	1284.44
391.636	1296.44
391.86	1339.44
392.085	1376.44
392.31	1355.44
392.534	1331.44
392.759	1310.44
392.984	1259.44
393.208	1258.44
393.433	1282.44
393.658	1287.44
393.882	1272.44
394.107	1258.44
394.331	1250.44
394.556	1310.44
394.78	1279.44
395.005	1310.44
395.229	1299.44
395.454	1338.44
395.678	1379.44
395.903	1360.44
396.127	1350.44
396.352	1253.44
396.576	1275.44
396.801	1275.44
397.025	1260.44
397.249	1305.44
397.474	1358.44
397.698	1354.44
397.922	1357.44
398.147	1379.44
398.371	1374.44
398.595	1465.44
398.82	1480.44
399.044	1609.44
399.268	1739.44
399.492	2071.44
399.717	2309.44
399.941	2346.44
400.165	2123.44
400.389	1846.44
400.613	1673.44
400.837	1607.44
401.062	1596.44
401.286	1540.44
401.51	1504.44
401.734	1487.44
401.958	1549.44
402.182	1541.44
402.406	1607.44
402.63	1607.44
402.854	1652.44
403.078	1696.44
403.302	1702.44
403.526	1736.44
403.75	1745.44
403.974	1746.44
404.198	1770.44
404.422	1785.44
404.645	1751.44
404.869	1729.44
405.093	1772.44
405.317	1731.44
405.541	1707.44
405.765	1683.44
405.988	1635.44
406.212	1692.44
406.436	1715.44
406.66	1697.44
406.883	1742.44
407.107	1854.44
407.331	1925.44
407.555	2037.44
407.778	2000.44
408.002	1956.44
408.226	1905.44
408.449	1867.44
408.673	1749.44
408.896	1728.44
409.12	1715.44
409.344	1710.44
409.567	1703.44
409.791	1725.44
410.014	1712.44
410.238	1679.44
410.461	1692.44
410.685	1677.44
410.908	1586.44
411.132	1637.44
411.355	1561.44
411.578	1602.44
411.802	1568.44
412.025	1602.44
412.249	1584.44
412.472	1572.44
412.695	1567.44
412.919	1581.44
413.142	1532.44
413.365	1491.44
413.589	1557.44
413.812	1555.44
414.035	1523.44
414.258	1509.44
414.482	1561.44
414.705	1599.44
414.928	1589.44
415.151	1527.44
415.374	1507.44
415.597	1542.44
415.821	1487.44
416.044	1498.44
416.267	1496.44
416.49	1502.44
416.713	1484.44
416.936	1528.44
417.159	1494.44
417.382	1509.44
417.605	1542.44
417.828	1480.44
418.051	1505.44
418.274	1542.44
418.497	1529.44
418.72	1577.44
418.943	1546.44
419.166	1671.44
419.389	1764.44
419.611	1745.44
419.834	1687.44
420.057	1559.44
420.28	1569.44
420.503	1533.44
420.726	1500.44
420.948	1509.44
421.171	1514.44
421.394	1549.44
421.617	1518.44
421.839	1537.44
422.062	1539.44
422.285	1498.44
422.507	1575.44
422.73	1561.44
422.953	1609.44
423.175	1604.44
423.398	1605.44
423.621	1608.44
423.843	1657.44
424.066	1638.44
424.288	1623.44
424.511	1622.44
424.733	1593.44
424.956	1588.44
425.178	1567.44
425.401	1591.44
425.623	1556.44
425.846	1527.44
426.068	1490.44
426.291	1437.44
426.513	1442.44
426.735	1417.44
426.958	1413.44
427.18	1400.44
427.402	1382.44
427.625	1387.44
427.847	1379.44
428.069	1380.44
428.292	1396.44
428.514	1355.44
428.736	1347.44
428.958	1335.44
429.181	1338.44
429.403	1345.44
429.625	1358.44
429.847	1333.44
430.069	1364.44
430.292	1337.44
430.514	1327.44
430.736	1335.44
430.958	1348.44
431.18	1324.44
431.402	1336.44
431.624	1352.44
431.846	1382.44
432.068	1390.44
432.29	1368.44
432.512	1333.44
432.734	1368.44
432.956	1345.44
433.178	1382.44
433.4	1355.44
433.622	1365.44
433.844	1402.44
434.066	1411.44
434.287	1447.44
434.509	1431.44
434.731	1513.44
434.953	1568.44
435.175	1537.44
435.397	1528.44
435.618	1440.44
435.84	1405.44
436.062	1402.44
436.284	1379.44
436.505	1339.44
436.727	1418.44
436.949	1375.44
437.17	1361.44
437.392	1386.44
437.614	1369.44
437.835	1300.44
438.057	1309.44
438.278	1295.44
438.5	1317.44
438.721	1309.44
438.943	1333.44
439.165	1347.44
439.386	1355.44
439.608	1346.44
439.829	1368.44
440.05	1379.44
440.272	1378.44
440.493	1418.44
440.715	1424.44
440.936	1468.44
441.158	1473.44
441.379	1491.44
441.6	1548.44
441.822	1575.44
442.043	1583.44
442.264	1551.44
442.486	1549.44
442.707	1528.44
442.928	1504.44
443.149	1514.44
443.371	1537.44
443.592	1548.44
443.813	1593.44
444.034	1564.44
444.255	1623.44
444.476	1714.44
444.698	1796.44
444.919	1872.44
445.14	2007.44
445.361	1757.44
445.582	1605.44
445.803	1575.44
446.024	1481.44
446.245	1433.44
446.466	1431.44
446.687	1376.44
446.908	1405.44
447.129	1357.44
447.35	1353.44
447.571	1343.44
447.792	1285.44
448.013	1289.44
448.234	1291.44
448.455	1281.44
448.675	1251.44
448.896	1261.44
449.117	1228.44
449.338	1222.44
449.559	1240.44
449.779	1221.44
450	1241.44
450.221	1224.44
450.442	1245.44
450.662	1267.44
450.883	1256.44
451.104	1285.44
451.324	1256.44
451.545	1280.44
451.766	1279.44
451.986	1254.44
452.207	1217.44
452.428	1233.44
452.648	1220.44
452.869	1216.44
453.089	1217.44
453.31	1247.44
453.53	1177.44
453.751	1198.44
453.971	1189.44
454.192	1221.44
454.412	1230.44
454.633	1190.44
454.853	1171.44
455.073	1153.44
455.294	1177.44
455.514	1165.44
455.734	1152.44
455.955	1169.44
456.175	1161.44
456.395	1167.44
456.616	1148.44
456.836	1171.44
457.056	1173.44
457.276	1134.44
457.497	1206.44
457.717	1163.44
457.937	1177.44
458.157	1221.44
458.377	1227.44
458.598	1209.44
458.818	1279.44
459.038	1310.44
459.258	1337.44
459.478	1401.44
459.698	1435.44
459.918	1482.44
460.138	1535.44
460.358	1621.44
460.578	1633.44
460.798	1638.44
461.018	1674.44
461.238	1631.44
461.458	1656.44
461.678	1616.44
461.898	1634.44
462.118	1651.44
462.338	1802.44
462.558	1836.44
462.777	1899.44
462.997	2041.44
463.217	2236.44
463.437	2237.44
463.657	2086.44
463.876	1982.44
464.096	1931.44
464.316	1955.44
464.536	1915.44
464.755	1841.44
464.975	1785.44
465.195	1696.44
465.414	1603.44
465.634	1475.44
465.854	1445.44
466.073	1392.44
466.293	1385.44
466.512	1374.44
466.732	1315.44
466.951	1304.44
467.171	1335.44
467.391	1327.44
467.61	1327.44
467.829	1305.44
468.049	1294.44
468.268	1247.44
468.488	1259.44
468.707	1240.44
468.927	1260.44
469.146	1255.44
469.365	1297.44
469.585	1302.44
469.804	1338.44
470.023	1365.44
470.243	1364.44
470.462	1396.44
470.681	1377.44
470.901	1398.44
471.12	1367.44
471.339	1321.44
471.558	1296.44
471.777	1309.44
471.997	1281.44
472.216	1240.44
472.435	1245.44
472.654	1263.44
472.873	1248.44
473.092	1244.44
473.311	1226.44
473.53	1249.44
473.749	1205.44
473.968	1254.44
474.187	1218.44
474.406	1205.44
474.625	1255.44
474.844	1230.44
475.063	1245.44
475.282	1259.44
475.501	1227.44
475.72	1271.44
475.939	1246.44
476.158	1276.44
476.377	1303.44
476.596	1288.44
476.814	1297.44
477.033	1294.44
477.252	1287.44
477.471	1364.44
477.69	1375.44
477.908	1417.44
478.127	1463.44
478.346	1485.44
478.564	1514.44
478.783	1527.44
479.002	1584.44
479.22	1590.44
479.439	1591.44
479.658	1578.44
479.876	1571.44
480.095	1565.44
480.313	1637.44
480.532	1693.44
480.751	1653.44
480.969	1567.44
481.188	1569.44
481.406	1492.44
481.624	1459.44
481.843	1420.44
482.061	1429.44
482.28	1392.44
482.498	1376.44
482.717	1360.44
482.935	1421.44
483.153	1418.44
483.372	1408.44
483.59	1381.44
483.808	1406.44
484.027	1401.44
484.245	1425.44
484.463	1411.44
484.681	1441.44
484.9	1444.44
485.118	1434.44
485.336	1469.44
485.554	1416.44
485.772	1453.44
485.99	1483.44
486.209	1467.44
486.427	1494.44
486.645	1461.44
486.863	1471.44
487.081	1478.44
487.299	1465.44
487.517	1452.44
487.735	1467.44
487.953	1497.44
488.171	1484.44
488.389	1428.44
488.607	1430.44
488.825	1439.44
489.043	1456.44
489.261	1459.44
489.479	1472.44
489.696	1471.44
489.914	1475.44
490.132	1469.44
490.35	1457.44
490.568	1501.44
490.786	1487.44
491.003	1468.44
491.221	1471.44
491.439	1504.44
491.657	1506.44
491.874	1482.44
492.092	1514.44
492.31	1519.44
492.527	1523.44
492.745	1517.44
492.963	1538.44
493.18	1530.44
493.398	1557.44
