Data from Ni(NO3)2@0.25M.TitratingCurve.Agarose3%dH2O.NegLispCup.LampEnergy10.LIBS07252019_HRD10591_18-05-49-566.txt Node
Date: Thu Jul 25 18:05:49 EDT 2019
User: cochatt
Spectrometer: HR+D1059
Trigger mode: 1
Integration Time (sec): 1.000000E-1
Scans to average: 1
Electric dark correction enabled: true
Nonlinearity correction enabled: false
Boxcar width: 0
XAxis mode: Wavelengths
Number of Pixels in Spectrum: 2048
>>>>>Begin Spectral Data<<<<<
223.165	-20.25
223.4	-20.25
223.635	-20.25
223.869	-25.25
224.104	-23.25
224.338	-1.25
224.573	-19.25
224.808	-15.25
225.042	-5.25
225.277	5.75
225.511	-20.25
225.746	9.75
225.98	11.75
226.215	6.75
226.449	19.75
226.683	18.75
226.918	24.75
227.152	32.75
227.387	38.75
227.621	59.75
227.856	64.75
228.09	39.75
228.324	50.75
228.559	55.75
228.793	72.75
229.027	102.75
229.262	121.75
229.496	140.75
229.73	123.75
229.964	120.75
230.199	133.75
230.433	139.75
230.667	137.75
230.901	153.75
231.136	139.75
231.37	166.75
231.604	143.75
231.838	151.75
232.072	162.75
232.306	151.75
232.541	149.75
232.775	164.75
233.009	160.75
233.243	148.75
233.477	164.75
233.711	144.75
233.945	144.75
234.179	162.75
234.413	156.75
234.647	169.75
234.881	171.75
235.115	157.75
235.349	153.75
235.583	167.75
235.817	175.75
236.051	148.75
236.285	182.75
236.519	172.75
236.753	169.75
236.987	187.75
237.221	175.75
237.455	185.75
237.689	167.75
237.922	184.75
238.156	181.75
238.39	170.75
238.624	193.75
238.858	185.75
239.091	191.75
239.325	175.75
239.559	184.75
239.793	199.75
240.027	188.75
240.26	165.75
240.494	196.75
240.728	201.75
240.961	200.75
241.195	206.75
241.429	201.75
241.662	196.75
241.896	200.75
242.13	210.75
242.363	206.75
242.597	208.75
242.83	205.75
243.064	210.75
243.298	231.75
243.531	222.75
243.765	224.75
243.998	227.75
244.232	229.75
244.465	222.75
244.699	219.75
244.932	244.75
245.166	236.75
245.399	244.75
245.633	248.75
245.866	243.75
246.099	256.75
246.333	249.75
246.566	260.75
246.8	243.75
247.033	272.75
247.266	260.75
247.5	251.75
247.733	268.75
247.966	252.75
248.2	268.75
248.433	283.75
248.666	270.75
248.899	282.75
249.133	261.75
249.366	286.75
249.599	284.75
249.832	295.75
250.066	282.75
250.299	288.75
250.532	290.75
250.765	300.75
250.998	319.75
251.231	306.75
251.465	294.75
251.698	328.75
251.931	300.75
252.164	324.75
252.397	318.75
252.63	320.75
252.863	324.75
253.096	330.75
253.329	321.75
253.562	328.75
253.795	351.75
254.028	327.75
254.261	347.75
254.494	337.75
254.727	343.75
254.96	323.75
255.193	356.75
255.426	363.75
255.659	352.75
255.892	342.75
256.124	371.75
256.357	348.75
256.59	381.75
256.823	357.75
257.056	366.75
257.289	345.75
257.521	366.75
257.754	373.75
257.987	372.75
258.22	366.75
258.452	375.75
258.685	384.75
258.918	379.75
259.151	399.75
259.383	398.75
259.616	396.75
259.849	398.75
260.081	392.75
260.314	400.75
260.547	395.75
260.779	397.75
261.012	402.75
261.244	408.75
261.477	379.75
261.71	399.75
261.942	422.75
262.175	414.75
262.407	422.75
262.64	417.75
262.872	419.75
263.105	411.75
263.337	425.75
263.57	441.75
263.802	432.75
264.035	441.75
264.267	438.75
264.499	432.75
264.732	425.75
264.964	444.75
265.197	450.75
265.429	445.75
265.661	451.75
265.894	457.75
266.126	451.75
266.358	452.75
266.591	471.75
266.823	469.75
267.055	447.75
267.287	466.75
267.52	449.75
267.752	466.75
267.984	485.75
268.216	454.75
268.448	447.75
268.681	473.75
268.913	461.75
269.145	466.75
269.377	485.75
269.609	482.75
269.841	494.75
270.073	468.75
270.306	482.75
270.538	489.75
270.77	484.75
271.002	474.75
271.234	487.75
271.466	527.75
271.698	504.75
271.93	501.75
272.162	480.75
272.394	497.75
272.626	482.75
272.858	487.75
273.09	496.75
273.322	511.75
273.553	505.75
273.785	504.75
274.017	520.75
274.249	513.75
274.481	518.75
274.713	528.75
274.945	519.75
275.176	539.75
275.408	533.75
275.64	530.75
275.872	522.75
276.104	546.75
276.335	515.75
276.567	536.75
276.799	548.75
277.031	538.75
277.262	523.75
277.494	559.75
277.726	549.75
277.957	562.75
278.189	549.75
278.421	567.75
278.652	558.75
278.884	536.75
279.115	578.75
279.347	587.75
279.579	569.75
279.81	576.75
280.042	570.75
280.273	562.75
280.505	555.75
280.736	577.75
280.968	578.75
281.199	576.75
281.431	589.75
281.662	577.75
281.894	569.75
282.125	567.75
282.356	584.75
282.588	612.75
282.819	596.75
283.051	601.75
283.282	600.75
283.513	595.75
283.745	604.75
283.976	601.75
284.207	597.75
284.439	618.75
284.67	615.75
284.901	609.75
285.132	579.75
285.364	624.75
285.595	617.75
285.826	609.75
286.057	618.75
286.288	612.75
286.52	622.75
286.751	632.75
286.982	610.75
287.213	638.75
287.444	636.75
287.675	618.75
287.906	640.75
288.138	638.75
288.369	615.75
288.6	622.75
288.831	641.75
289.062	642.75
289.293	633.75
289.524	643.75
289.755	616.75
289.986	634.75
290.217	662.75
290.448	651.75
290.679	658.75
290.91	650.75
291.141	650.75
291.371	675.75
291.602	666.75
291.833	661.75
292.064	638.75
292.295	646.75
292.526	664.75
292.757	652.75
292.987	649.75
293.218	660.75
293.449	676.75
293.68	660.75
293.91	625.75
294.141	637.75
294.372	644.75
294.603	657.75
294.833	663.75
295.064	670.75
295.295	650.75
295.525	638.75
295.756	652.75
295.987	642.75
296.217	668.75
296.448	672.75
296.679	662.75
296.909	677.75
297.14	655.75
297.37	661.75
297.601	677.75
297.831	716.75
298.062	710.75
298.292	694.75
298.523	706.75
298.753	715.75
298.984	699.75
299.214	699.75
299.445	714.75
299.675	708.75
299.905	701.75
300.136	710.75
300.366	706.75
300.597	738.75
300.827	732.75
301.057	718.75
301.288	716.75
301.518	723.75
301.748	721.75
301.979	736.75
302.209	728.75
302.439	722.75
302.669	737.75
302.9	757.75
303.13	716.75
303.36	734.75
303.59	722.75
303.82	757.75
304.051	786.75
304.281	750.75
304.511	722.75
304.741	779.75
304.971	754.75
305.201	734.75
305.431	761.75
305.661	756.75
305.891	748.75
306.121	753.75
306.352	745.75
306.582	741.75
306.812	753.75
307.042	729.75
307.272	714.75
307.502	747.75
307.731	719.75
307.961	736.75
308.191	726.75
308.421	735.75
308.651	723.75
308.881	734.75
309.111	732.75
309.341	713.75
309.571	743.75
309.8	726.75
310.03	728.75
310.26	754.75
310.49	752.75
310.72	770.75
310.949	758.75
311.179	755.75
311.409	748.75
311.639	764.75
311.868	764.75
312.098	768.75
312.328	772.75
312.557	781.75
312.787	786.75
313.017	786.75
313.246	788.75
313.476	802.75
313.706	789.75
313.935	787.75
314.165	788.75
314.394	775.75
314.624	797.75
314.853	792.75
315.083	808.75
315.312	798.75
315.542	794.75
315.771	850.75
316.001	778.75
316.23	812.75
316.46	816.75
316.689	800.75
316.919	797.75
317.148	793.75
317.377	818.75
317.607	802.75
317.836	803.75
318.065	809.75
318.295	820.75
318.524	788.75
318.753	801.75
318.983	800.75
319.212	806.75
319.441	811.75
319.67	815.75
319.9	794.75
320.129	801.75
320.358	800.75
320.587	811.75
320.816	808.75
321.046	839.75
321.275	809.75
321.504	823.75
321.733	850.75
321.962	826.75
322.191	886.75
322.42	862.75
322.649	838.75
322.878	848.75
323.108	856.75
323.337	892.75
323.566	872.75
323.795	845.75
324.024	858.75
324.253	843.75
324.482	852.75
324.71	869.75
324.939	862.75
325.168	878.75
325.397	872.75
325.626	868.75
325.855	906.75
326.084	928.75
326.313	920.75
326.542	917.75
326.77	944.75
326.999	918.75
327.228	905.75
327.457	938.75
327.686	920.75
327.914	912.75
328.143	917.75
328.372	960.75
328.6	938.75
328.829	907.75
329.058	937.75
329.287	926.75
329.515	928.75
329.744	946.75
329.972	934.75
330.201	946.75
330.43	967.75
330.658	980.75
330.887	992.75
331.115	1024.75
331.344	996.75
331.572	988.75
331.801	1017.75
332.03	1016.75
332.258	1058.75
332.486	1063.75
332.715	1088.75
332.943	1078.75
333.172	1124.75
333.4	1157.75
333.629	1147.75
333.857	1210.75
334.085	1196.75
334.314	1193.75
334.542	1238.75
334.771	1208.75
334.999	1210.75
335.227	1237.75
335.455	1195.75
335.684	1208.75
335.912	1244.75
336.14	1193.75
336.369	1180.75
336.597	1206.75
336.825	1187.75
337.053	1168.75
337.281	1134.75
337.51	1140.75
337.738	1146.75
337.966	1128.75
338.194	1094.75
338.422	1081.75
338.65	1095.75
338.878	1046.75
339.106	1052.75
339.334	1080.75
339.562	1081.75
339.79	1052.75
340.018	1018.75
340.246	1030.75
340.474	1023.75
340.702	1059.75
340.93	1014.75
341.158	1025.75
341.386	1012.75
341.614	1038.75
341.842	1051.75
342.07	1023.75
342.298	1009.75
342.526	1039.75
342.754	994.75
342.981	1030.75
343.209	1040.75
343.437	1082.75
343.665	1120.75
343.893	1136.75
344.12	1183.75
344.348	1190.75
344.576	1141.75
344.804	1176.75
345.031	1112.75
345.259	1081.75
345.487	1034.75
345.714	1021.75
345.942	1059.75
346.17	1053.75
346.397	986.75
346.625	1004.75
346.853	966.75
347.08	988.75
347.308	988.75
347.535	980.75
347.763	965.75
347.99	955.75
348.218	998.75
348.445	972.75
348.673	966.75
348.9	994.75
349.128	967.75
349.355	957.75
349.583	974.75
349.81	963.75
350.037	944.75
350.265	962.75
350.492	939.75
350.72	962.75
350.947	916.75
351.174	996.75
351.402	970.75
351.629	971.75
351.856	950.75
352.083	935.75
352.311	958.75
352.538	960.75
352.765	962.75
352.992	948.75
353.22	918.75
353.447	928.75
353.674	937.75
353.901	930.75
354.128	933.75
354.355	913.75
354.583	954.75
354.81	944.75
355.037	942.75
355.264	916.75
355.491	918.75
355.718	935.75
355.945	949.75
356.172	944.75
356.399	934.75
356.626	947.75
356.853	954.75
357.08	926.75
357.307	946.75
357.534	946.75
357.761	919.75
357.988	949.75
358.215	938.75
358.441	936.75
358.668	938.75
358.895	923.75
359.122	950.75
359.349	942.75
359.576	942.75
359.802	932.75
360.029	907.75
360.256	937.75
360.483	943.75
360.709	948.75
360.936	963.75
361.163	948.75
361.39	927.75
361.616	929.75
361.843	951.75
362.07	963.75
362.296	957.75
362.523	939.75
362.749	934.75
362.976	920.75
363.203	922.75
363.429	931.75
363.656	953.75
363.882	913.75
364.109	931.75
364.335	957.75
364.562	901.75
364.788	922.75
365.015	934.75
365.241	950.75
365.468	919.75
365.694	930.75
365.92	958.75
366.147	920.75
366.373	933.75
366.599	931.75
366.826	926.75
367.052	936.75
367.278	958.75
367.505	951.75
367.731	953.75
367.957	969.75
368.184	954.75
368.41	949.75
368.636	944.75
368.862	964.75
369.089	955.75
369.315	948.75
369.541	979.75
369.767	960.75
369.993	968.75
370.219	936.75
370.445	998.75
370.672	983.75
370.898	974.75
371.124	984.75
371.35	1019.75
371.576	996.75
371.802	1032.75
372.028	1013.75
372.254	1010.75
372.48	993.75
372.706	1014.75
372.932	1017.75
373.158	1022.75
373.384	1044.75
373.61	1018.75
373.835	1001.75
374.061	1015.75
374.287	1016.75
374.513	1033.75
374.739	1024.75
374.965	1066.75
375.191	1083.75
375.416	1065.75
375.642	1054.75
375.868	1049.75
376.094	1013.75
376.319	1051.75
376.545	1010.75
376.771	1016.75
376.997	1018.75
377.222	1018.75
377.448	1019.75
377.674	986.75
377.899	991.75
378.125	1002.75
378.35	973.75
378.576	994.75
378.802	960.75
379.027	993.75
379.253	989.75
379.478	999.75
379.704	991.75
379.929	988.75
380.155	987.75
380.38	983.75
380.606	1005.75
380.831	977.75
381.057	981.75
381.282	986.75
381.507	986.75
381.733	1010.75
381.958	1010.75
382.184	1019.75
382.409	1012.75
382.634	1018.75
382.86	1044.75
383.085	1061.75
383.31	1057.75
383.535	1088.75
383.761	1076.75
383.986	1103.75
384.211	1091.75
384.436	1088.75
384.662	1113.75
384.887	1120.75
385.112	1164.75
385.337	1160.75
385.562	1175.75
385.787	1183.75
386.013	1236.75
386.238	1176.75
386.463	1169.75
386.688	1218.75
386.913	1193.75
387.138	1203.75
387.363	1191.75
387.588	1185.75
387.813	1188.75
388.038	1202.75
388.263	1191.75
388.488	1210.75
388.713	1191.75
388.938	1192.75
389.163	1175.75
389.387	1196.75
389.612	1174.75
389.837	1197.75
390.062	1147.75
390.287	1172.75
390.512	1179.75
390.736	1188.75
390.961	1202.75
391.186	1226.75
391.411	1274.75
391.636	1309.75
391.86	1298.75
392.085	1310.75
392.31	1300.75
392.534	1308.75
392.759	1283.75
392.984	1269.75
393.208	1265.75
393.433	1279.75
393.658	1279.75
393.882	1285.75
394.107	1233.75
394.331	1256.75
394.556	1261.75
394.78	1265.75
395.005	1259.75
395.229	1279.75
395.454	1280.75
395.678	1338.75
395.903	1374.75
396.127	1351.75
396.352	1347.75
396.576	1314.75
396.801	1328.75
397.025	1311.75
397.249	1309.75
397.474	1364.75
397.698	1409.75
397.922	1388.75
398.147	1429.75
398.371	1401.75
398.595	1434.75
398.82	1537.75
399.044	1576.75
399.268	1689.75
399.492	1845.75
399.717	1962.75
399.941	1997.75
400.165	1907.75
400.389	1867.75
400.613	1748.75
400.837	1686.75
401.062	1597.75
401.286	1590.75
401.51	1536.75
401.734	1546.75
401.958	1536.75
402.182	1538.75
402.406	1539.75
402.63	1534.75
402.854	1564.75
403.078	1549.75
403.302	1569.75
403.526	1573.75
403.75	1583.75
403.974	1593.75
404.198	1558.75
404.422	1588.75
404.645	1611.75
404.869	1585.75
405.093	1562.75
405.317	1582.75
405.541	1643.75
405.765	1615.75
405.988	1647.75
406.212	1655.75
406.436	1647.75
406.66	1702.75
406.883	1714.75
407.107	1771.75
407.331	1846.75
407.555	1893.75
407.778	1876.75
408.002	1826.75
408.226	1848.75
408.449	1806.75
408.673	1756.75
408.896	1730.75
409.12	1754.75
409.344	1766.75
409.567	1705.75
409.791	1719.75
410.014	1706.75
410.238	1677.75
410.461	1625.75
410.685	1661.75
410.908	1634.75
411.132	1632.75
411.355	1577.75
411.578	1604.75
411.802	1578.75
412.025	1575.75
412.249	1631.75
412.472	1609.75
412.695	1538.75
412.919	1560.75
413.142	1578.75
413.365	1549.75
413.589	1582.75
413.812	1530.75
414.035	1520.75
414.258	1514.75
414.482	1581.75
414.705	1527.75
414.928	1545.75
415.151	1558.75
415.374	1502.75
415.597	1511.75
415.821	1438.75
416.044	1438.75
416.267	1477.75
416.49	1475.75
416.713	1458.75
416.936	1493.75
417.159	1467.75
417.382	1472.75
417.605	1453.75
417.828	1480.75
418.051	1501.75
418.274	1496.75
418.497	1489.75
418.72	1520.75
418.943	1497.75
419.166	1616.75
419.389	1728.75
419.611	1697.75
419.834	1600.75
420.057	1574.75
420.28	1531.75
420.503	1471.75
420.726	1495.75
420.948	1484.75
421.171	1498.75
421.394	1499.75
421.617	1500.75
421.839	1512.75
422.062	1499.75
422.285	1476.75
422.507	1498.75
422.73	1527.75
422.953	1470.75
423.175	1512.75
423.398	1501.75
423.621	1499.75
423.843	1499.75
424.066	1471.75
424.288	1474.75
424.511	1496.75
424.733	1514.75
424.956	1507.75
425.178	1489.75
425.401	1484.75
425.623	1492.75
425.846	1465.75
426.068	1470.75
426.291	1455.75
426.513	1452.75
426.735	1416.75
426.958	1444.75
427.18	1389.75
427.402	1449.75
427.625	1431.75
427.847	1437.75
428.069	1408.75
428.292	1434.75
428.514	1397.75
428.736	1377.75
428.958	1410.75
429.181	1376.75
429.403	1358.75
429.625	1384.75
429.847	1319.75
430.069	1353.75
430.292	1394.75
430.514	1344.75
430.736	1371.75
430.958	1351.75
431.18	1360.75
431.402	1366.75
431.624	1360.75
431.846	1376.75
432.068	1357.75
432.29	1376.75
432.512	1395.75
432.734	1398.75
432.956	1414.75
433.178	1370.75
433.4	1402.75
433.622	1408.75
433.844	1415.75
434.066	1402.75
434.287	1447.75
434.509	1434.75
434.731	1498.75
434.953	1472.75
435.175	1505.75
435.397	1516.75
435.618	1446.75
435.84	1447.75
436.062	1422.75
436.284	1392.75
436.505	1365.75
436.727	1385.75
436.949	1410.75
437.17	1418.75
437.392	1351.75
437.614	1342.75
437.835	1298.75
438.057	1346.75
438.278	1329.75
438.5	1331.75
438.721	1336.75
438.943	1353.75
439.165	1315.75
439.386	1346.75
439.608	1395.75
439.829	1350.75
440.05	1364.75
440.272	1410.75
440.493	1388.75
440.715	1422.75
440.936	1426.75
441.158	1420.75
441.379	1468.75
441.6	1484.75
441.822	1497.75
442.043	1471.75
442.264	1484.75
442.486	1484.75
442.707	1494.75
442.928	1476.75
443.149	1495.75
443.371	1462.75
443.592	1538.75
443.813	1554.75
444.034	1525.75
444.255	1579.75
444.476	1593.75
444.698	1651.75
444.919	1690.75
445.14	1796.75
445.361	1665.75
445.582	1608.75
445.803	1514.75
446.024	1480.75
446.245	1437.75
446.466	1476.75
446.687	1418.75
446.908	1407.75
447.129	1392.75
447.35	1346.75
447.571	1377.75
447.792	1319.75
448.013	1316.75
448.234	1334.75
448.455	1308.75
448.675	1298.75
448.896	1276.75
449.117	1272.75
449.338	1256.75
449.559	1249.75
449.779	1269.75
450	1275.75
450.221	1259.75
450.442	1254.75
450.662	1281.75
450.883	1246.75
451.104	1282.75
451.324	1257.75
451.545	1273.75
451.766	1288.75
451.986	1272.75
452.207	1257.75
452.428	1219.75
452.648	1238.75
452.869	1213.75
453.089	1208.75
453.31	1237.75
453.53	1212.75
453.751	1235.75
453.971	1215.75
454.192	1210.75
454.412	1211.75
454.633	1184.75
454.853	1167.75
455.073	1162.75
455.294	1204.75
455.514	1182.75
455.734	1209.75
455.955	1158.75
456.175	1193.75
456.395	1176.75
456.616	1158.75
456.836	1144.75
457.056	1195.75
457.276	1174.75
457.497	1162.75
457.717	1155.75
457.937	1182.75
458.157	1229.75
458.377	1214.75
458.598	1272.75
458.818	1287.75
459.038	1296.75
459.258	1344.75
459.478	1364.75
459.698	1438.75
459.918	1442.75
460.138	1484.75
460.358	1540.75
460.578	1535.75
460.798	1579.75
461.018	1596.75
461.238	1575.75
461.458	1605.75
461.678	1597.75
461.898	1615.75
462.118	1606.75
462.338	1678.75
462.558	1794.75
462.777	1836.75
462.997	1926.75
463.217	1952.75
463.437	1963.75
463.657	1917.75
463.876	1918.75
464.096	1858.75
464.316	1818.75
464.536	1806.75
464.755	1748.75
464.975	1694.75
465.195	1622.75
465.414	1581.75
465.634	1535.75
465.854	1490.75
466.073	1406.75
466.293	1423.75
466.512	1371.75
466.732	1364.75
466.951	1366.75
467.171	1299.75
467.391	1342.75
467.61	1334.75
467.829	1272.75
468.049	1299.75
468.268	1299.75
468.488	1246.75
468.707	1281.75
468.927	1256.75
469.146	1302.75
469.365	1279.75
469.585	1262.75
469.804	1307.75
470.023	1328.75
470.243	1319.75
470.462	1341.75
470.681	1347.75
470.901	1333.75
471.12	1334.75
471.339	1335.75
471.558	1285.75
471.777	1302.75
471.997	1298.75
472.216	1258.75
472.435	1242.75
472.654	1274.75
472.873	1225.75
473.092	1219.75
473.311	1250.75
473.53	1254.75
473.749	1223.75
473.968	1245.75
474.187	1223.75
474.406	1212.75
474.625	1248.75
474.844	1278.75
475.063	1254.75
475.282	1218.75
475.501	1265.75
475.72	1280.75
475.939	1274.75
476.158	1298.75
476.377	1331.75
476.596	1305.75
476.814	1331.75
477.033	1314.75
477.252	1367.75
477.471	1392.75
477.69	1387.75
477.908	1425.75
478.127	1486.75
478.346	1431.75
478.564	1487.75
478.783	1506.75
479.002	1512.75
479.22	1517.75
479.439	1536.75
479.658	1532.75
479.876	1556.75
480.095	1542.75
480.313	1564.75
480.532	1596.75
480.751	1572.75
480.969	1525.75
481.188	1481.75
481.406	1493.75
481.624	1440.75
481.843	1452.75
482.061	1479.75
482.28	1419.75
482.498	1402.75
482.717	1399.75
482.935	1441.75
483.153	1415.75
483.372	1447.75
483.59	1444.75
483.808	1460.75
484.027	1427.75
484.245	1428.75
484.463	1428.75
484.681	1490.75
484.9	1489.75
485.118	1479.75
485.336	1460.75
485.554	1487.75
485.772	1515.75
485.99	1470.75
486.209	1479.75
486.427	1492.75
486.645	1470.75
486.863	1490.75
487.081	1508.75
487.299	1535.75
487.517	1482.75
487.735	1488.75
487.953	1516.75
488.171	1471.75
488.389	1478.75
488.607	1465.75
488.825	1466.75
489.043	1487.75
489.261	1450.75
489.479	1462.75
489.696	1450.75
489.914	1466.75
490.132	1495.75
490.35	1490.75
490.568	1492.75
490.786	1520.75
491.003	1518.75
491.221	1522.75
491.439	1524.75
491.657	1505.75
491.874	1562.75
492.092	1554.75
492.31	1560.75
492.527	1569.75
492.745	1550.75
492.963	1591.75
493.18	1577.75
493.398	1586.75
