Data from Ni(NO3)2@0.25M.TitratingCurve.Agarose3%dH2O.NegLispCup.LampEnergy10.LIBS07252019_HRD10591_18-05-28-566.txt Node
Date: Thu Jul 25 18:05:28 EDT 2019
User: cochatt
Spectrometer: HR+D1059
Trigger mode: 1
Integration Time (sec): 1.000000E-1
Scans to average: 1
Electric dark correction enabled: true
Nonlinearity correction enabled: false
Boxcar width: 0
XAxis mode: Wavelengths
Number of Pixels in Spectrum: 2048
>>>>>Begin Spectral Data<<<<<
223.165	-11.19
223.4	-11.19
223.635	-11.19
223.869	-20.19
224.104	-6.19
224.338	-23.19
224.573	-10.19
224.808	-12.19
225.042	-10.19
225.277	-9.19
225.511	-11.19
225.746	11.81
225.98	16.81
226.215	0.81
226.449	17.81
226.683	10.81
226.918	29.81
227.152	25.81
227.387	35.81
227.621	48.81
227.856	53.81
228.09	56.81
228.324	54.81
228.559	63.81
228.793	74.81
229.027	82.81
229.262	105.81
229.496	95.81
229.73	108.81
229.964	106.81
230.199	105.81
230.433	101.81
230.667	111.81
230.901	123.81
231.136	116.81
231.37	128.81
231.604	140.81
231.838	121.81
232.072	143.81
232.306	137.81
232.541	142.81
232.775	139.81
233.009	137.81
233.243	139.81
233.477	129.81
233.711	126.81
233.945	132.81
234.179	134.81
234.413	143.81
234.647	133.81
234.881	139.81
235.115	133.81
235.349	135.81
235.583	121.81
235.817	134.81
236.051	138.81
236.285	124.81
236.519	132.81
236.753	130.81
236.987	140.81
237.221	125.81
237.455	140.81
237.689	141.81
237.922	153.81
238.156	130.81
238.39	163.81
238.624	148.81
238.858	158.81
239.091	143.81
239.325	143.81
239.559	159.81
239.793	151.81
240.027	169.81
240.26	151.81
240.494	165.81
240.728	161.81
240.961	169.81
241.195	157.81
241.429	165.81
241.662	168.81
241.896	170.81
242.13	152.81
242.363	165.81
242.597	177.81
242.83	167.81
243.064	167.81
243.298	185.81
243.531	174.81
243.765	182.81
243.998	158.81
244.232	170.81
244.465	189.81
244.699	191.81
244.932	189.81
245.166	169.81
245.399	174.81
245.633	182.81
245.866	182.81
246.099	189.81
246.333	211.81
246.566	194.81
246.8	194.81
247.033	220.81
247.266	193.81
247.5	221.81
247.733	212.81
247.966	195.81
248.2	191.81
248.433	215.81
248.666	192.81
248.899	189.81
249.133	220.81
249.366	218.81
249.599	202.81
249.832	217.81
250.066	205.81
250.299	216.81
250.532	220.81
250.765	202.81
250.998	228.81
251.231	223.81
251.465	222.81
251.698	236.81
251.931	223.81
252.164	220.81
252.397	238.81
252.63	245.81
252.863	236.81
253.096	227.81
253.329	251.81
253.562	238.81
253.795	258.81
254.028	258.81
254.261	269.81
254.494	245.81
254.727	244.81
254.96	244.81
255.193	248.81
255.426	259.81
255.659	256.81
255.892	269.81
256.124	263.81
256.357	275.81
256.59	261.81
256.823	282.81
257.056	279.81
257.289	272.81
257.521	275.81
257.754	258.81
257.987	274.81
258.22	298.81
258.452	274.81
258.685	272.81
258.918	278.81
259.151	288.81
259.383	268.81
259.616	280.81
259.849	300.81
260.081	311.81
260.314	297.81
260.547	267.81
260.779	289.81
261.012	269.81
261.244	293.81
261.477	296.81
261.71	291.81
261.942	295.81
262.175	293.81
262.407	315.81
262.64	298.81
262.872	286.81
263.105	300.81
263.337	303.81
263.57	310.81
263.802	292.81
264.035	290.81
264.267	292.81
264.499	313.81
264.732	306.81
264.964	324.81
265.197	309.81
265.429	317.81
265.661	305.81
265.894	320.81
266.126	319.81
266.358	320.81
266.591	313.81
266.823	315.81
267.055	338.81
267.287	331.81
267.52	333.81
267.752	341.81
267.984	332.81
268.216	320.81
268.448	340.81
268.681	328.81
268.913	350.81
269.145	346.81
269.377	336.81
269.609	343.81
269.841	358.81
270.073	342.81
270.306	360.81
270.538	323.81
270.77	337.81
271.002	332.81
271.234	346.81
271.466	356.81
271.698	327.81
271.93	366.81
272.162	367.81
272.394	364.81
272.626	352.81
272.858	348.81
273.09	346.81
273.322	365.81
273.553	377.81
273.785	378.81
274.017	373.81
274.249	363.81
274.481	383.81
274.713	367.81
274.945	373.81
275.176	367.81
275.408	373.81
275.64	383.81
275.872	379.81
276.104	389.81
276.335	390.81
276.567	383.81
276.799	382.81
277.031	369.81
277.262	387.81
277.494	379.81
277.726	381.81
277.957	393.81
278.189	382.81
278.421	393.81
278.652	406.81
278.884	395.81
279.115	396.81
279.347	401.81
279.579	408.81
279.81	391.81
280.042	392.81
280.273	402.81
280.505	413.81
280.736	402.81
280.968	413.81
281.199	428.81
281.431	417.81
281.662	411.81
281.894	405.81
282.125	414.81
282.356	427.81
282.588	426.81
282.819	405.81
283.051	415.81
283.282	419.81
283.513	443.81
283.745	437.81
283.976	441.81
284.207	407.81
284.439	433.81
284.67	427.81
284.901	411.81
285.132	427.81
285.364	455.81
285.595	454.81
285.826	457.81
286.057	439.81
286.288	441.81
286.52	438.81
286.751	435.81
286.982	450.81
287.213	453.81
287.444	459.81
287.675	463.81
287.906	456.81
288.138	459.81
288.369	450.81
288.6	467.81
288.831	464.81
289.062	455.81
289.293	450.81
289.524	446.81
289.755	458.81
289.986	451.81
290.217	457.81
290.448	476.81
290.679	482.81
290.91	467.81
291.141	464.81
291.371	459.81
291.602	462.81
291.833	456.81
292.064	471.81
292.295	456.81
292.526	454.81
292.757	457.81
292.987	459.81
293.218	452.81
293.449	473.81
293.68	464.81
293.91	435.81
294.141	470.81
294.372	452.81
294.603	482.81
294.833	463.81
295.064	469.81
295.295	464.81
295.525	453.81
295.756	474.81
295.987	461.81
296.217	479.81
296.448	468.81
296.679	475.81
296.909	470.81
297.14	477.81
297.37	502.81
297.601	480.81
297.831	480.81
298.062	473.81
298.292	490.81
298.523	502.81
298.753	507.81
298.984	490.81
299.214	510.81
299.445	515.81
299.675	515.81
299.905	516.81
300.136	502.81
300.366	518.81
300.597	508.81
300.827	530.81
301.057	529.81
301.288	533.81
301.518	546.81
301.748	534.81
301.979	526.81
302.209	522.81
302.439	532.81
302.669	519.81
302.9	513.81
303.13	515.81
303.36	532.81
303.59	523.81
303.82	503.81
304.051	527.81
304.281	526.81
304.511	528.81
304.741	532.81
304.971	523.81
305.201	522.81
305.431	530.81
305.661	517.81
305.891	524.81
306.121	531.81
306.352	541.81
306.582	518.81
306.812	524.81
307.042	519.81
307.272	526.81
307.502	529.81
307.731	523.81
307.961	529.81
308.191	515.81
308.421	503.81
308.651	524.81
308.881	516.81
309.111	523.81
309.341	508.81
309.571	525.81
309.8	522.81
310.03	545.81
310.26	540.81
310.49	556.81
310.72	543.81
310.949	545.81
311.179	521.81
311.409	528.81
311.639	525.81
311.868	542.81
312.098	526.81
312.328	535.81
312.557	539.81
312.787	556.81
313.017	545.81
313.246	576.81
313.476	563.81
313.706	566.81
313.935	573.81
314.165	576.81
314.394	578.81
314.624	567.81
314.853	562.81
315.083	572.81
315.312	556.81
315.542	557.81
315.771	568.81
316.001	554.81
316.23	567.81
316.46	583.81
316.689	565.81
316.919	558.81
317.148	574.81
317.377	565.81
317.607	552.81
317.836	535.81
318.065	570.81
318.295	579.81
318.524	571.81
318.753	577.81
318.983	561.81
319.212	565.81
319.441	560.81
319.67	591.81
319.9	573.81
320.129	585.81
320.358	578.81
320.587	573.81
320.816	591.81
321.046	586.81
321.275	562.81
321.504	585.81
321.733	604.81
321.962	577.81
322.191	579.81
322.42	583.81
322.649	582.81
322.878	609.81
323.108	588.81
323.337	619.81
323.566	613.81
323.795	606.81
324.024	621.81
324.253	596.81
324.482	610.81
324.71	634.81
324.939	601.81
325.168	615.81
325.397	595.81
325.626	622.81
325.855	625.81
326.084	629.81
326.313	670.81
326.542	648.81
326.77	663.81
326.999	641.81
327.228	634.81
327.457	660.81
327.686	645.81
327.914	667.81
328.143	678.81
328.372	660.81
328.6	656.81
328.829	642.81
329.058	668.81
329.287	660.81
329.515	659.81
329.744	667.81
329.972	680.81
330.201	699.81
330.43	684.81
330.658	685.81
330.887	686.81
331.115	705.81
331.344	689.81
331.572	703.81
331.801	707.81
332.03	739.81
332.258	741.81
332.486	761.81
332.715	789.81
332.943	817.81
333.172	830.81
333.4	852.81
333.629	917.81
333.857	890.81
334.085	879.81
334.314	885.81
334.542	889.81
334.771	886.81
334.999	875.81
335.227	853.81
335.455	846.81
335.684	871.81
335.912	843.81
336.14	833.81
336.369	803.81
336.597	824.81
336.825	834.81
337.053	821.81
337.281	793.81
337.51	782.81
337.738	793.81
337.966	749.81
338.194	778.81
338.422	749.81
338.65	730.81
338.878	755.81
339.106	728.81
339.334	748.81
339.562	733.81
339.79	731.81
340.018	708.81
340.246	719.81
340.474	683.81
340.702	732.81
340.93	741.81
341.158	724.81
341.386	759.81
341.614	758.81
341.842	733.81
342.07	714.81
342.298	732.81
342.526	716.81
342.754	718.81
342.981	733.81
343.209	740.81
343.437	791.81
343.665	801.81
343.893	862.81
344.12	879.81
344.348	832.81
344.576	833.81
344.804	788.81
345.031	742.81
345.259	737.81
345.487	717.81
345.714	727.81
345.942	738.81
346.17	715.81
346.397	728.81
346.625	703.81
346.853	698.81
347.08	677.81
347.308	681.81
347.535	672.81
347.763	684.81
347.99	681.81
348.218	708.81
348.445	699.81
348.673	672.81
348.9	692.81
349.128	703.81
349.355	698.81
349.583	666.81
349.81	671.81
350.037	643.81
350.265	638.81
350.492	668.81
350.72	675.81
350.947	669.81
351.174	659.81
351.402	682.81
351.629	654.81
351.856	668.81
352.083	693.81
352.311	665.81
352.538	679.81
352.765	682.81
352.992	678.81
353.22	649.81
353.447	646.81
353.674	661.81
353.901	644.81
354.128	657.81
354.355	671.81
354.583	692.81
354.81	670.81
355.037	686.81
355.264	646.81
355.491	651.81
355.718	668.81
355.945	659.81
356.172	667.81
356.399	686.81
356.626	674.81
356.853	660.81
357.08	653.81
357.307	670.81
357.534	659.81
357.761	659.81
357.988	682.81
358.215	674.81
358.441	663.81
358.668	658.81
358.895	669.81
359.122	655.81
359.349	660.81
359.576	659.81
359.802	668.81
360.029	669.81
360.256	662.81
360.483	655.81
360.709	683.81
360.936	679.81
361.163	671.81
361.39	650.81
361.616	660.81
361.843	687.81
362.07	677.81
362.296	663.81
362.523	664.81
362.749	665.81
362.976	665.81
363.203	647.81
363.429	663.81
363.656	651.81
363.882	669.81
364.109	633.81
364.335	644.81
364.562	660.81
364.788	658.81
365.015	658.81
365.241	650.81
365.468	656.81
365.694	659.81
365.92	628.81
366.147	669.81
366.373	650.81
366.599	672.81
366.826	641.81
367.052	652.81
367.278	681.81
367.505	667.81
367.731	682.81
367.957	648.81
368.184	661.81
368.41	678.81
368.636	673.81
368.862	670.81
369.089	672.81
369.315	668.81
369.541	650.81
369.767	677.81
369.993	701.81
370.219	681.81
370.445	698.81
370.672	690.81
370.898	696.81
371.124	713.81
371.35	714.81
371.576	727.81
371.802	702.81
372.028	717.81
372.254	711.81
372.48	712.81
372.706	733.81
372.932	734.81
373.158	717.81
373.384	717.81
373.61	729.81
373.835	725.81
374.061	691.81
374.287	722.81
374.513	750.81
374.739	763.81
374.965	766.81
375.191	766.81
375.416	791.81
375.642	757.81
375.868	731.81
376.094	731.81
376.319	717.81
376.545	730.81
376.771	710.81
376.997	719.81
377.222	710.81
377.448	713.81
377.674	699.81
377.899	717.81
378.125	705.81
378.35	678.81
378.576	694.81
378.802	699.81
379.027	705.81
379.253	701.81
379.478	698.81
379.704	684.81
379.929	685.81
380.155	698.81
380.38	675.81
380.606	708.81
380.831	674.81
381.057	723.81
381.282	697.81
381.507	664.81
381.733	709.81
381.958	709.81
382.184	711.81
382.409	741.81
382.634	720.81
382.86	742.81
383.085	712.81
383.31	751.81
383.535	754.81
383.761	789.81
383.986	765.81
384.211	780.81
384.436	789.81
384.662	822.81
384.887	854.81
385.112	811.81
385.337	844.81
385.562	857.81
385.787	855.81
386.013	848.81
386.238	828.81
386.463	850.81
386.688	863.81
386.913	837.81
387.138	845.81
387.363	858.81
387.588	844.81
387.813	823.81
388.038	846.81
388.263	837.81
388.488	856.81
388.713	843.81
388.938	821.81
389.163	809.81
389.387	827.81
389.612	833.81
389.837	827.81
390.062	828.81
390.287	825.81
390.512	843.81
390.736	847.81
390.961	884.81
391.186	898.81
391.411	888.81
391.636	881.81
391.86	924.81
392.085	934.81
392.31	962.81
392.534	908.81
392.759	906.81
392.984	914.81
393.208	919.81
393.433	908.81
393.658	900.81
393.882	883.81
394.107	875.81
394.331	869.81
394.556	892.81
394.78	915.81
395.005	917.81
395.229	923.81
395.454	927.81
395.678	955.81
395.903	970.81
396.127	972.81
396.352	931.81
396.576	897.81
396.801	921.81
397.025	912.81
397.249	930.81
397.474	958.81
397.698	995.81
397.922	961.81
398.147	997.81
398.371	998.81
398.595	1043.81
398.82	1069.81
399.044	1160.81
399.268	1247.81
399.492	1398.81
399.717	1555.81
399.941	1603.81
400.165	1451.81
400.389	1317.81
400.613	1222.81
400.837	1169.81
401.062	1121.81
401.286	1106.81
401.51	1108.81
401.734	1067.81
401.958	1086.81
402.182	1138.81
402.406	1125.81
402.63	1147.81
402.854	1150.81
403.078	1145.81
403.302	1131.81
403.526	1190.81
403.75	1193.81
403.974	1191.81
404.198	1189.81
404.422	1206.81
404.645	1211.81
404.869	1185.81
405.093	1201.81
405.317	1167.81
405.541	1193.81
405.765	1191.81
405.988	1196.81
406.212	1186.81
406.436	1194.81
406.66	1220.81
406.883	1207.81
407.107	1289.81
407.331	1327.81
407.555	1394.81
407.778	1390.81
408.002	1353.81
408.226	1315.81
408.449	1300.81
408.673	1268.81
408.896	1219.81
409.12	1238.81
409.344	1201.81
409.567	1198.81
409.791	1213.81
410.014	1178.81
410.238	1196.81
410.461	1197.81
410.685	1177.81
410.908	1136.81
411.132	1142.81
411.355	1112.81
411.578	1118.81
411.802	1112.81
412.025	1117.81
412.249	1154.81
412.472	1120.81
412.695	1113.81
412.919	1102.81
413.142	1085.81
413.365	1081.81
413.589	1096.81
413.812	1090.81
414.035	1067.81
414.258	1091.81
414.482	1079.81
414.705	1121.81
414.928	1118.81
415.151	1076.81
415.374	1098.81
415.597	1083.81
415.821	1024.81
416.044	1058.81
416.267	1028.81
416.49	1047.81
416.713	1061.81
416.936	1069.81
417.159	1018.81
417.382	1044.81
417.605	1043.81
417.828	1062.81
418.051	1085.81
418.274	1064.81
418.497	1051.81
418.72	1113.81
418.943	1096.81
419.166	1155.81
419.389	1261.81
419.611	1194.81
419.834	1176.81
420.057	1133.81
420.28	1110.81
420.503	1074.81
420.726	1077.81
420.948	1071.81
421.171	1060.81
421.394	1084.81
421.617	1086.81
421.839	1085.81
422.062	1091.81
422.285	1027.81
422.507	1107.81
422.73	1100.81
422.953	1123.81
423.175	1137.81
423.398	1123.81
423.621	1083.81
423.843	1135.81
424.066	1175.81
424.288	1095.81
424.511	1146.81
424.733	1141.81
424.956	1119.81
425.178	1086.81
425.401	1095.81
425.623	1065.81
425.846	1037.81
426.068	1059.81
426.291	1034.81
426.513	1027.81
426.735	1003.81
426.958	1027.81
427.18	984.81
427.402	1005.81
427.625	1022.81
427.847	1001.81
428.069	983.81
428.292	965.81
428.514	975.81
428.736	963.81
428.958	1002.81
429.181	968.81
429.403	943.81
429.625	943.81
429.847	908.81
430.069	978.81
430.292	957.81
430.514	931.81
430.736	962.81
430.958	938.81
431.18	947.81
431.402	952.81
431.624	962.81
431.846	988.81
432.068	964.81
432.29	950.81
432.512	958.81
432.734	982.81
432.956	987.81
433.178	985.81
433.4	975.81
433.622	974.81
433.844	984.81
434.066	1001.81
434.287	987.81
434.509	1050.81
434.731	1063.81
434.953	1094.81
435.175	1103.81
435.397	1068.81
435.618	1037.81
435.84	1031.81
436.062	977.81
436.284	974.81
436.505	978.81
436.727	990.81
436.949	992.81
437.17	981.81
437.392	956.81
437.614	923.81
437.835	947.81
438.057	946.81
438.278	917.81
438.5	923.81
438.721	922.81
438.943	954.81
439.165	930.81
439.386	987.81
439.608	990.81
439.829	949.81
440.05	994.81
440.272	982.81
440.493	973.81
440.715	1011.81
440.936	1005.81
441.158	1025.81
441.379	1040.81
441.6	1098.81
441.822	1109.81
442.043	1120.81
442.264	1062.81
442.486	1067.81
442.707	1096.81
442.928	1070.81
443.149	1101.81
443.371	1109.81
443.592	1071.81
443.813	1107.81
444.034	1103.81
444.255	1151.81
444.476	1193.81
444.698	1271.81
444.919	1303.81
445.14	1366.81
445.361	1247.81
445.582	1134.81
445.803	1079.81
446.024	1068.81
446.245	1038.81
446.466	996.81
446.687	965.81
446.908	1016.81
447.129	955.81
447.35	945.81
447.571	954.81
447.792	915.81
448.013	917.81
448.234	909.81
448.455	905.81
448.675	902.81
448.896	914.81
449.117	893.81
449.338	891.81
449.559	915.81
449.779	912.81
450	892.81
450.221	875.81
450.442	870.81
450.662	887.81
450.883	919.81
451.104	956.81
451.324	924.81
451.545	897.81
451.766	873.81
451.986	897.81
452.207	917.81
452.428	871.81
452.648	883.81
452.869	866.81
453.089	856.81
453.31	889.81
453.53	851.81
453.751	807.81
453.971	847.81
454.192	851.81
454.412	834.81
454.633	837.81
454.853	848.81
455.073	844.81
455.294	859.81
455.514	841.81
455.734	863.81
455.955	833.81
456.175	813.81
456.395	852.81
456.616	846.81
456.836	826.81
457.056	835.81
457.276	825.81
457.497	839.81
457.717	805.81
457.937	836.81
458.157	882.81
458.377	891.81
458.598	901.81
458.818	911.81
459.038	924.81
459.258	980.81
459.478	975.81
459.698	1009.81
459.918	1043.81
460.138	1109.81
460.358	1143.81
460.578	1125.81
460.798	1148.81
461.018	1173.81
461.238	1102.81
461.458	1134.81
461.678	1154.81
461.898	1152.81
462.118	1168.81
462.338	1238.81
462.558	1270.81
462.777	1319.81
462.997	1393.81
463.217	1478.81
463.437	1499.81
463.657	1393.81
463.876	1358.81
464.096	1339.81
464.316	1345.81
464.536	1323.81
464.755	1318.81
464.975	1249.81
465.195	1199.81
465.414	1121.81
465.634	1054.81
465.854	994.81
466.073	991.81
466.293	993.81
466.512	954.81
466.732	922.81
466.951	942.81
467.171	939.81
467.391	967.81
467.61	903.81
467.829	904.81
468.049	886.81
468.268	907.81
468.488	878.81
468.707	888.81
468.927	903.81
469.146	897.81
469.365	923.81
469.585	890.81
469.804	930.81
470.023	945.81
470.243	961.81
470.462	971.81
470.681	957.81
470.901	979.81
471.12	949.81
471.339	949.81
471.558	914.81
471.777	923.81
471.997	928.81
472.216	889.81
472.435	888.81
472.654	891.81
472.873	830.81
473.092	872.81
473.311	867.81
473.53	867.81
473.749	865.81
473.968	883.81
474.187	873.81
474.406	870.81
474.625	887.81
474.844	883.81
475.063	893.81
475.282	886.81
475.501	892.81
475.72	869.81
475.939	897.81
476.158	901.81
476.377	901.81
476.596	877.81
476.814	901.81
477.033	917.81
477.252	949.81
477.471	990.81
477.69	974.81
477.908	1015.81
478.127	1055.81
478.346	1052.81
478.564	1051.81
478.783	1068.81
479.002	1113.81
479.22	1084.81
479.439	1094.81
479.658	1068.81
479.876	1077.81
480.095	1078.81
480.313	1106.81
480.532	1153.81
480.751	1133.81
480.969	1088.81
481.188	1089.81
481.406	1049.81
481.624	1030.81
481.843	987.81
482.061	996.81
482.28	1010.81
482.498	978.81
482.717	985.81
482.935	969.81
483.153	980.81
483.372	1007.81
483.59	1006.81
483.808	1007.81
484.027	997.81
484.245	1018.81
484.463	1001.81
484.681	1037.81
484.9	993.81
485.118	1022.81
485.336	1023.81
485.554	1033.81
485.772	1019.81
485.99	1009.81
486.209	1019.81
486.427	1043.81
486.645	1036.81
486.863	1041.81
487.081	1026.81
487.299	1022.81
487.517	1015.81
487.735	1033.81
487.953	1039.81
488.171	1038.81
488.389	1059.81
488.607	1049.81
488.825	1035.81
489.043	1012.81
489.261	1025.81
489.479	1021.81
489.696	1027.81
489.914	1039.81
490.132	1045.81
490.35	1032.81
490.568	1057.81
490.786	1057.81
491.003	1062.81
491.221	1034.81
491.439	1048.81
491.657	1078.81
491.874	1078.81
492.092	1055.81
492.31	1109.81
492.527	1090.81
492.745	1086.81
492.963	1106.81
493.18	1095.81
493.398	1108.81
493.615	1082.81
493.833	1116.81
494.05	1108.81
494.268	1103.81
494.485	1122.81
494.703	1116.81
494.92	1131.81
495.138	1114.81
495.355	1115.81
495.573	1139.81
495.79	1118.81
496.008	1171.81
496.225	1158.81
496.442	1113.81
496.66	1185.81
496.877	1192.81
497.094	1221.81
497.312	1214.81
497.529	1266.81
497.746	1307.81
