Data from Ni(NO3)2Standard.Agarose3%.GreenCap.LampEnergy5.5.E.O_HRD10591_14-41-03-188.txt Node
Date: Mon Jul 22 14:41:03 EDT 2019
User: cochatt
Spectrometer: HR+D1059
Trigger mode: 1
Integration Time (sec): 1.000000E-1
Scans to average: 1
Electric dark correction enabled: true
Nonlinearity correction enabled: false
Boxcar width: 0
XAxis mode: Wavelengths
Number of Pixels in Spectrum: 2048
>>>>>Begin Spectral Data<<<<<
223.165	-16.56
223.4	-16.56
223.635	-16.56
223.869	-12.56
224.104	-19.56
224.338	-15.56
224.573	-10.56
224.808	-2.56
225.042	-5.56
225.277	-17.56
225.511	-4.56
225.746	2.44
225.98	7.44
226.215	0.44
226.449	12.44
226.683	29.44
226.918	23.44
227.152	29.44
227.387	42.44
227.621	27.44
227.856	44.44
228.09	50.44
228.324	53.44
228.559	57.44
228.793	62.44
229.027	71.44
229.262	48.44
229.496	57.44
229.73	55.44
229.964	68.44
230.199	72.44
230.433	81.44
230.667	77.44
230.901	101.44
231.136	78.44
231.37	82.44
231.604	84.44
231.838	78.44
232.072	83.44
232.306	79.44
232.541	82.44
232.775	79.44
233.009	82.44
233.243	76.44
233.477	93.44
233.711	95.44
233.945	63.44
234.179	78.44
234.413	76.44
234.647	85.44
234.881	79.44
235.115	75.44
235.349	79.44
235.583	61.44
235.817	84.44
236.051	73.44
236.285	80.44
236.519	84.44
236.753	88.44
236.987	91.44
237.221	78.44
237.455	76.44
237.689	72.44
237.922	77.44
238.156	67.44
238.39	80.44
238.624	71.44
238.858	76.44
239.091	74.44
239.325	75.44
239.559	78.44
239.793	84.44
240.027	76.44
240.26	75.44
240.494	75.44
240.728	65.44
240.961	69.44
241.195	80.44
241.429	63.44
241.662	72.44
241.896	78.44
242.13	74.44
242.363	70.44
242.597	76.44
242.83	90.44
243.064	79.44
243.298	84.44
243.531	70.44
243.765	61.44
243.998	75.44
244.232	80.44
244.465	81.44
244.699	72.44
244.932	72.44
245.166	76.44
245.399	72.44
245.633	77.44
245.866	84.44
246.099	75.44
246.333	87.44
246.566	79.44
246.8	82.44
247.033	78.44
247.266	68.44
247.5	82.44
247.733	73.44
247.966	68.44
248.2	81.44
248.433	75.44
248.666	80.44
248.899	82.44
249.133	76.44
249.366	72.44
249.599	75.44
249.832	75.44
250.066	71.44
250.299	72.44
250.532	73.44
250.765	97.44
250.998	79.44
251.231	75.44
251.465	81.44
251.698	85.44
251.931	67.44
252.164	59.44
252.397	80.44
252.63	74.44
252.863	98.44
253.096	77.44
253.329	74.44
253.562	80.44
253.795	85.44
254.028	81.44
254.261	79.44
254.494	78.44
254.727	71.44
254.96	95.44
255.193	83.44
255.426	80.44
255.659	84.44
255.892	85.44
256.124	72.44
256.357	81.44
256.59	90.44
256.823	82.44
257.056	80.44
257.289	87.44
257.521	83.44
257.754	90.44
257.987	94.44
258.22	67.44
258.452	73.44
258.685	78.44
258.918	72.44
259.151	70.44
259.383	78.44
259.616	84.44
259.849	90.44
260.081	86.44
260.314	64.44
260.547	87.44
260.779	72.44
261.012	87.44
261.244	83.44
261.477	73.44
261.71	80.44
261.942	69.44
262.175	92.44
262.407	69.44
262.64	67.44
262.872	79.44
263.105	77.44
263.337	76.44
263.57	70.44
263.802	86.44
264.035	73.44
264.267	75.44
264.499	88.44
264.732	81.44
264.964	88.44
265.197	91.44
265.429	83.44
265.661	92.44
265.894	81.44
266.126	87.44
266.358	77.44
266.591	70.44
266.823	76.44
267.055	78.44
267.287	76.44
267.52	82.44
267.752	77.44
267.984	75.44
268.216	80.44
268.448	71.44
268.681	70.44
268.913	87.44
269.145	83.44
269.377	91.44
269.609	81.44
269.841	90.44
270.073	76.44
270.306	72.44
270.538	89.44
270.77	73.44
271.002	79.44
271.234	79.44
271.466	74.44
271.698	68.44
271.93	81.44
272.162	84.44
272.394	87.44
272.626	84.44
272.858	78.44
273.09	65.44
273.322	75.44
273.553	85.44
273.785	77.44
274.017	74.44
274.249	86.44
274.481	90.44
274.713	73.44
274.945	77.44
275.176	86.44
275.408	82.44
275.64	83.44
275.872	77.44
276.104	83.44
276.335	78.44
276.567	84.44
276.799	84.44
277.031	66.44
277.262	88.44
277.494	77.44
277.726	87.44
277.957	82.44
278.189	76.44
278.421	86.44
278.652	86.44
278.884	80.44
279.115	72.44
279.347	93.44
279.579	72.44
279.81	83.44
280.042	90.44
280.273	89.44
280.505	72.44
280.736	79.44
280.968	86.44
281.199	89.44
281.431	68.44
281.662	88.44
281.894	92.44
282.125	67.44
282.356	86.44
282.588	90.44
282.819	70.44
283.051	82.44
283.282	93.44
283.513	88.44
283.745	83.44
283.976	83.44
284.207	79.44
284.439	97.44
284.67	80.44
284.901	81.44
285.132	74.44
285.364	81.44
285.595	87.44
285.826	75.44
286.057	81.44
286.288	94.44
286.52	98.44
286.751	77.44
286.982	87.44
287.213	81.44
287.444	77.44
287.675	83.44
287.906	100.44
288.138	87.44
288.369	75.44
288.6	90.44
288.831	82.44
289.062	76.44
289.293	89.44
289.524	71.44
289.755	82.44
289.986	88.44
290.217	89.44
290.448	99.44
290.679	85.44
290.91	79.44
291.141	72.44
291.371	83.44
291.602	83.44
291.833	78.44
292.064	87.44
292.295	78.44
292.526	91.44
292.757	79.44
292.987	84.44
293.218	67.44
293.449	94.44
293.68	82.44
293.91	83.44
294.141	81.44
294.372	95.44
294.603	76.44
294.833	89.44
295.064	84.44
295.295	79.44
295.525	92.44
295.756	104.44
295.987	94.44
296.217	90.44
296.448	91.44
296.679	86.44
296.909	91.44
297.14	87.44
297.37	86.44
297.601	87.44
297.831	81.44
298.062	75.44
298.292	91.44
298.523	85.44
298.753	84.44
298.984	80.44
299.214	88.44
299.445	97.44
299.675	77.44
299.905	86.44
300.136	97.44
300.366	85.44
300.597	83.44
300.827	78.44
301.057	67.44
301.288	92.44
301.518	83.44
301.748	89.44
301.979	82.44
302.209	75.44
302.439	91.44
302.669	87.44
302.9	93.44
303.13	83.44
303.36	94.44
303.59	81.44
303.82	87.44
304.051	90.44
304.281	73.44
304.511	87.44
304.741	85.44
304.971	85.44
305.201	89.44
305.431	72.44
305.661	72.44
305.891	83.44
306.121	86.44
306.352	82.44
306.582	80.44
306.812	88.44
307.042	83.44
307.272	81.44
307.502	88.44
307.731	75.44
307.961	74.44
308.191	93.44
308.421	90.44
308.651	96.44
308.881	84.44
309.111	93.44
309.341	76.44
309.571	84.44
309.8	81.44
310.03	89.44
310.26	77.44
310.49	86.44
310.72	89.44
310.949	88.44
311.179	104.44
311.409	81.44
311.639	82.44
311.868	89.44
312.098	72.44
312.328	88.44
312.557	94.44
312.787	86.44
313.017	75.44
313.246	78.44
313.476	79.44
313.706	77.44
313.935	90.44
314.165	87.44
314.394	98.44
314.624	81.44
314.853	80.44
315.083	98.44
315.312	93.44
315.542	83.44
315.771	91.44
316.001	78.44
316.23	79.44
316.46	74.44
316.689	91.44
316.919	89.44
317.148	103.44
317.377	99.44
317.607	92.44
317.836	86.44
318.065	94.44
318.295	78.44
318.524	69.44
318.753	84.44
318.983	83.44
319.212	80.44
319.441	85.44
319.67	81.44
319.9	99.44
320.129	87.44
320.358	79.44
320.587	92.44
320.816	75.44
321.046	87.44
321.275	89.44
321.504	81.44
321.733	83.44
321.962	77.44
322.191	81.44
322.42	83.44
322.649	87.44
322.878	86.44
323.108	83.44
323.337	83.44
323.566	85.44
323.795	77.44
324.024	83.44
324.253	86.44
324.482	87.44
324.71	92.44
324.939	75.44
325.168	91.44
325.397	80.44
325.626	84.44
325.855	70.44
326.084	87.44
326.313	72.44
326.542	69.44
326.77	90.44
326.999	78.44
327.228	86.44
327.457	92.44
327.686	95.44
327.914	94.44
328.143	87.44
328.372	88.44
328.6	82.44
328.829	93.44
329.058	70.44
329.287	85.44
329.515	89.44
329.744	75.44
329.972	75.44
330.201	86.44
330.43	82.44
330.658	84.44
330.887	72.44
331.115	86.44
331.344	71.44
331.572	90.44
331.801	86.44
332.03	80.44
332.258	100.44
332.486	89.44
332.715	74.44
332.943	84.44
333.172	95.44
333.4	84.44
333.629	93.44
333.857	94.44
334.085	81.44
334.314	87.44
334.542	101.44
334.771	95.44
334.999	85.44
335.227	106.44
335.455	83.44
335.684	85.44
335.912	100.44
336.14	80.44
336.369	90.44
336.597	84.44
336.825	78.44
337.053	76.44
337.281	87.44
337.51	82.44
337.738	79.44
337.966	75.44
338.194	59.44
338.422	82.44
338.65	82.44
338.878	85.44
339.106	74.44
339.334	98.44
339.562	90.44
339.79	79.44
340.018	83.44
340.246	92.44
340.474	91.44
340.702	69.44
340.93	80.44
341.158	85.44
341.386	101.44
341.614	80.44
341.842	69.44
342.07	83.44
342.298	88.44
342.526	68.44
342.754	77.44
342.981	77.44
343.209	76.44
343.437	97.44
343.665	76.44
343.893	83.44
344.12	87.44
344.348	87.44
344.576	85.44
344.804	85.44
345.031	96.44
345.259	69.44
345.487	74.44
345.714	83.44
345.942	93.44
346.17	101.44
346.397	88.44
346.625	98.44
346.853	92.44
347.08	71.44
347.308	76.44
347.535	86.44
347.763	73.44
347.99	85.44
348.218	79.44
348.445	74.44
348.673	80.44
348.9	92.44
349.128	108.44
349.355	76.44
349.583	94.44
349.81	100.44
350.037	85.44
350.265	88.44
350.492	80.44
350.72	87.44
350.947	84.44
351.174	100.44
351.402	79.44
351.629	84.44
351.856	79.44
352.083	87.44
352.311	78.44
352.538	72.44
352.765	84.44
352.992	88.44
353.22	89.44
353.447	87.44
353.674	88.44
353.901	72.44
354.128	97.44
354.355	84.44
354.583	92.44
354.81	88.44
355.037	76.44
355.264	84.44
355.491	73.44
355.718	81.44
355.945	89.44
356.172	77.44
356.399	89.44
356.626	97.44
356.853	97.44
357.08	88.44
357.307	91.44
357.534	79.44
357.761	89.44
357.988	94.44
358.215	95.44
358.441	80.44
358.668	83.44
358.895	97.44
359.122	84.44
359.349	104.44
359.576	90.44
359.802	75.44
360.029	82.44
360.256	84.44
360.483	85.44
360.709	75.44
360.936	88.44
361.163	74.44
361.39	89.44
361.616	81.44
361.843	86.44
362.07	96.44
362.296	76.44
362.523	84.44
362.749	82.44
362.976	84.44
363.203	90.44
363.429	96.44
363.656	82.44
363.882	89.44
364.109	82.44
364.335	83.44
364.562	90.44
364.788	83.44
365.015	81.44
365.241	89.44
365.468	69.44
365.694	92.44
365.92	83.44
366.147	65.44
366.373	85.44
366.599	74.44
366.826	83.44
367.052	83.44
367.278	88.44
367.505	85.44
367.731	97.44
367.957	90.44
368.184	96.44
368.41	82.44
368.636	87.44
368.862	86.44
369.089	82.44
369.315	90.44
369.541	84.44
369.767	80.44
369.993	69.44
370.219	81.44
370.445	81.44
370.672	69.44
370.898	96.44
371.124	72.44
371.35	75.44
371.576	86.44
371.802	72.44
372.028	77.44
372.254	90.44
372.48	68.44
372.706	94.44
372.932	71.44
373.158	74.44
373.384	86.44
373.61	87.44
373.835	72.44
374.061	87.44
374.287	93.44
374.513	80.44
374.739	91.44
374.965	74.44
375.191	80.44
375.416	87.44
375.642	95.44
375.868	90.44
376.094	79.44
376.319	91.44
376.545	80.44
376.771	92.44
376.997	75.44
377.222	73.44
377.448	90.44
377.674	82.44
377.899	80.44
378.125	87.44
378.35	76.44
378.576	88.44
378.802	67.44
379.027	84.44
379.253	92.44
379.478	83.44
379.704	90.44
379.929	84.44
380.155	82.44
380.38	85.44
380.606	79.44
380.831	75.44
381.057	99.44
381.282	86.44
381.507	82.44
381.733	93.44
381.958	84.44
382.184	79.44
382.409	80.44
382.634	75.44
382.86	77.44
383.085	83.44
383.31	80.44
383.535	81.44
383.761	89.44
383.986	80.44
384.211	96.44
384.436	81.44
384.662	102.44
384.887	88.44
385.112	82.44
385.337	77.44
385.562	83.44
385.787	84.44
386.013	88.44
386.238	80.44
386.463	84.44
386.688	91.44
386.913	79.44
387.138	80.44
387.363	72.44
387.588	87.44
387.813	91.44
388.038	86.44
388.263	78.44
388.488	82.44
388.713	77.44
388.938	76.44
389.163	73.44
389.387	78.44
389.612	71.44
389.837	82.44
390.062	75.44
390.287	81.44
390.512	80.44
390.736	91.44
390.961	83.44
391.186	85.44
391.411	78.44
391.636	78.44
391.86	92.44
392.085	83.44
392.31	81.44
392.534	90.44
392.759	78.44
392.984	92.44
393.208	89.44
393.433	82.44
393.658	79.44
393.882	97.44
394.107	73.44
394.331	73.44
394.556	80.44
394.78	84.44
395.005	93.44
395.229	89.44
395.454	85.44
395.678	91.44
395.903	100.44
396.127	81.44
396.352	82.44
396.576	86.44
396.801	80.44
397.025	83.44
397.249	79.44
397.474	87.44
397.698	83.44
397.922	93.44
398.147	94.44
398.371	76.44
398.595	84.44
398.82	88.44
399.044	84.44
399.268	91.44
399.492	74.44
399.717	85.44
399.941	79.44
400.165	88.44
400.389	76.44
400.613	82.44
400.837	88.44
401.062	108.44
401.286	84.44
401.51	87.44
401.734	90.44
401.958	76.44
402.182	91.44
402.406	83.44
402.63	96.44
402.854	79.44
403.078	87.44
403.302	83.44
403.526	84.44
403.75	83.44
403.974	85.44
404.198	83.44
404.422	68.44
404.645	78.44
404.869	81.44
405.093	85.44
405.317	88.44
405.541	71.44
405.765	90.44
405.988	85.44
406.212	72.44
406.436	69.44
406.66	92.44
406.883	97.44
407.107	90.44
407.331	89.44
407.555	85.44
407.778	97.44
408.002	85.44
408.226	74.44
408.449	69.44
408.673	90.44
408.896	78.44
409.12	75.44
409.344	77.44
409.567	89.44
409.791	81.44
410.014	79.44
410.238	86.44
410.461	70.44
410.685	81.44
410.908	87.44
411.132	102.44
411.355	89.44
411.578	87.44
411.802	100.44
412.025	97.44
412.249	81.44
412.472	80.44
412.695	98.44
412.919	69.44
413.142	77.44
413.365	83.44
413.589	89.44
413.812	78.44
414.035	68.44
414.258	83.44
414.482	69.44
414.705	91.44
414.928	96.44
415.151	81.44
415.374	98.44
415.597	75.44
415.821	69.44
416.044	90.44
416.267	83.44
416.49	90.44
416.713	78.44
416.936	89.44
417.159	92.44
417.382	84.44
417.605	91.44
417.828	87.44
418.051	63.44
418.274	120.44
418.497	95.44
418.72	83.44
418.943	77.44
419.166	83.44
419.389	81.44
419.611	84.44
419.834	79.44
420.057	90.44
420.28	87.44
420.503	83.44
420.726	83.44
420.948	76.44
421.171	74.44
421.394	86.44
421.617	71.44
421.839	87.44
422.062	79.44
422.285	83.44
422.507	82.44
422.73	85.44
422.953	92.44
423.175	86.44
423.398	88.44
423.621	78.44
423.843	72.44
424.066	63.44
424.288	90.44
424.511	76.44
424.733	83.44
424.956	89.44
425.178	79.44
425.401	92.44
425.623	96.44
425.846	93.44
426.068	86.44
426.291	86.44
426.513	95.44
426.735	79.44
426.958	87.44
427.18	83.44
427.402	65.44
427.625	81.44
427.847	86.44
428.069	82.44
428.292	95.44
428.514	74.44
428.736	92.44
428.958	85.44
429.181	73.44
429.403	73.44
429.625	83.44
429.847	75.44
430.069	84.44
430.292	83.44
430.514	85.44
430.736	94.44
430.958	90.44
431.18	77.44
431.402	90.44
431.624	85.44
431.846	87.44
432.068	84.44
432.29	84.44
432.512	93.44
432.734	88.44
432.956	82.44
433.178	79.44
433.4	84.44
433.622	84.44
433.844	72.44
434.066	85.44
434.287	80.44
434.509	90.44
434.731	82.44
434.953	76.44
435.175	82.44
435.397	83.44
435.618	83.44
435.84	92.44
436.062	73.44
436.284	90.44
436.505	74.44
436.727	80.44
436.949	95.44
437.17	79.44
437.392	87.44
437.614	89.44
437.835	100.44
438.057	90.44
438.278	93.44
438.5	99.44
438.721	86.44
438.943	84.44
439.165	85.44
439.386	85.44
439.608	101.44
439.829	82.44
440.05	72.44
440.272	80.44
440.493	89.44
440.715	89.44
440.936	92.44
441.158	93.44
441.379	83.44
441.6	86.44
441.822	96.44
442.043	83.44
442.264	85.44
442.486	90.44
442.707	91.44
442.928	95.44
443.149	91.44
443.371	96.44
443.592	85.44
443.813	73.44
444.034	77.44
444.255	84.44
444.476	77.44
444.698	94.44
444.919	88.44
445.14	215.44
445.361	137.44
445.582	85.44
445.803	90.44
446.024	74.44
446.245	85.44
446.466	84.44
446.687	90.44
446.908	74.44
447.129	82.44
447.35	81.44
447.571	86.44
447.792	76.44
448.013	82.44
448.234	96.44
448.455	100.44
448.675	79.44
448.896	88.44
449.117	77.44
449.338	87.44
449.559	95.44
449.779	90.44
450	100.44
450.221	95.44
450.442	100.44
450.662	87.44
450.883	85.44
451.104	89.44
451.324	80.44
451.545	79.44
451.766	95.44
451.986	72.44
452.207	90.44
452.428	67.44
452.648	83.44
452.869	87.44
453.089	75.44
453.31	84.44
453.53	73.44
453.751	93.44
453.971	69.44
454.192	84.44
454.412	99.44
454.633	89.44
454.853	91.44
455.073	75.44
455.294	95.44
455.514	84.44
455.734	91.44
455.955	87.44
456.175	72.44
456.395	82.44
456.616	92.44
456.836	93.44
457.056	94.44
457.276	81.44
457.497	89.44
457.717	92.44
457.937	89.44
458.157	81.44
458.377	88.44
458.598	91.44
458.818	81.44
459.038	84.44
459.258	97.44
459.478	92.44
459.698	85.44
459.918	98.44
460.138	92.44
460.358	83.44
460.578	91.44
460.798	85.44
461.018	85.44
461.238	77.44
461.458	92.44
461.678	88.44
461.898	87.44
462.118	95.44
462.338	92.44
462.558	103.44
462.777	83.44
462.997	88.44
463.217	88.44
463.437	75.44
463.657	88.44
463.876	97.44
464.096	110.44
464.316	83.44
464.536	111.44
464.755	70.44
464.975	80.44
465.195	77.44
465.414	90.44
465.634	91.44
465.854	85.44
466.073	84.44
466.293	84.44
466.512	81.44
466.732	80.44
466.951	94.44
467.171	98.44
467.391	81.44
467.61	91.44
467.829	88.44
468.049	78.44
468.268	79.44
468.488	105.44
468.707	83.44
468.927	88.44
469.146	71.44
469.365	97.44
469.585	89.44
469.804	90.44
470.023	82.44
470.243	86.44
470.462	98.44
470.681	85.44
470.901	96.44
471.12	92.44
471.339	84.44
471.558	103.44
471.777	85.44
471.997	90.44
472.216	101.44
472.435	81.44
472.654	78.44
472.873	101.44
473.092	94.44
473.311	89.44
473.53	78.44
473.749	79.44
473.968	90.44
474.187	87.44
474.406	83.44
474.625	92.44
474.844	88.44
475.063	91.44
475.282	88.44
475.501	88.44
475.72	98.44
475.939	82.44
476.158	87.44
476.377	102.44
476.596	85.44
476.814	91.44
477.033	73.44
477.252	75.44
477.471	87.44
477.69	77.44
477.908	76.44
478.127	95.44
478.346	84.44
478.564	90.44
478.783	91.44
479.002	105.44
479.22	87.44
479.439	79.44
479.658	87.44
479.876	72.44
480.095	77.44
480.313	88.44
480.532	90.44
480.751	92.44
480.969	93.44
481.188	75.44
481.406	93.44
481.624	89.44
481.843	83.44
482.061	88.44
482.28	102.44
482.498	89.44
482.717	70.44
482.935	84.44
483.153	85.44
483.372	92.44
483.59	78.44
483.808	96.44
484.027	98.44
484.245	96.44
484.463	90.44
484.681	95.44
484.9	98.44
485.118	85.44
485.336	89.44
485.554	88.44
485.772	94.44
485.99	92.44
486.209	85.44
486.427	92.44
486.645	88.44
486.863	93.44
487.081	81.44
487.299	83.44
487.517	123.44
487.735	94.44
487.953	77.44
488.171	75.44
488.389	82.44
488.607	93.44
488.825	94.44
489.043	79.44
489.261	100.44
489.479	82.44
489.696	98.44
489.914	99.44
490.132	89.44
490.35	93.44
490.568	96.44
490.786	91.44
491.003	99.44
491.221	96.44
491.439	95.44
491.657	99.44
491.874	103.44
492.092	96.44
492.31	102.44
492.527	89.44
492.745	104.44
492.963	94.44
493.18	74.44
493.398	89.44
493.615	93.44
493.833	92.44
494.05	90.44
494.268	92.44
494.485	98.44
494.703	89.44
494.92	87.44
495.138	86.44
495.355	106.44
495.573	111.44
495.79	84.44
496.008	82.44
496.225	101.44
496.442	102.44
496.66	100.44
496.877	99.44
497.094	98.44
497.312	100.44
497.529	98.44
497.746	93.44
497.963	103.44
498.181	92.44
498.398	96.44
498.615	95.44
498.832	93.44
499.049	90.44
499.267	96.44
499.484	89.44
499.701	108.44
499.918	111.44
500.135	107.44
500.352	108.44
500.569	114.44
500.786	101.44
501.003	98.44
501.22	116.44
501.437	90.44
501.654	93.44
501.871	115.44
502.088	92.44
502.305	97.44
502.522	92.44
502.739	96.44
502.956	105.44
503.172	99.44
503.389	95.44
503.606	82.44
503.823	101.44
504.04	85.44
504.256	91.44
504.473	92.44
504.69	82.44
504.907	86.44
505.123	109.44
505.34	94.44
505.557	95.44
505.773	104.44
505.99	102.44
506.207	84.44
506.423	87.44
506.64	95.44
506.856	87.44
507.073	93.44
507.289	98.44
507.506	81.44
507.722	97.44
507.939	99.44
508.155	86.44
508.372	87.44
508.588	85.44
508.805	90.44
509.021	97.44
509.238	79.44
509.454	84.44
509.67	92.44
509.887	88.44
510.103	75.44
510.319	84.44
510.536	94.44
510.752	78.44
510.968	97.44
511.184	89.44
511.401	82.44
511.617	92.44
511.833	85.44
512.049	96.44
512.265	104.44
512.481	83.44
512.698	89.44
512.914	95.44
513.13	81.44
513.346	76.44
513.562	79.44
513.778	81.44
513.994	75.44
514.21	77.44
514.426	96.44
514.642	101.44
514.858	88.44
515.074	92.44
515.29	92.44
515.506	90.44
515.721	85.44
515.937	78.44
516.153	92.44
516.369	99.44
516.585	83.44
516.801	95.44
517.016	94.44
517.232	88.44
517.448	99.44
517.664	93.44
517.879	84.44
518.095	86.44
518.311	79.44
518.527	91.44
