Data from Ni(NO3)2@0.0625M.TitratingCurve.Agarose3%dH2O.NegLispCup.LampEnergy10.LIBS07252019_HRD10591_18-15-38-569.txt Node
Date: Thu Jul 25 18:15:38 EDT 2019
User: cochatt
Spectrometer: HR+D1059
Trigger mode: 1
Integration Time (sec): 1.000000E-1
Scans to average: 1
Electric dark correction enabled: true
Nonlinearity correction enabled: false
Boxcar width: 0
XAxis mode: Wavelengths
Number of Pixels in Spectrum: 2048
>>>>>Begin Spectral Data<<<<<
223.165	-10.81
223.4	-10.81
223.635	-10.81
223.869	-11.81
224.104	-19.81
224.338	-10.81
224.573	-23.81
224.808	-1.81
225.042	-10.81
225.277	-15.81
225.511	-0.81
225.746	0.19
225.98	3.19
226.215	6.19
226.449	18.19
226.683	20.19
226.918	21.19
227.152	37.19
227.387	39.19
227.621	45.19
227.856	45.19
228.09	46.19
228.324	42.19
228.559	59.19
228.793	66.19
229.027	95.19
229.262	88.19
229.496	110.19
229.73	94.19
229.964	107.19
230.199	115.19
230.433	136.19
230.667	130.19
230.901	118.19
231.136	121.19
231.37	123.19
231.604	126.19
231.838	128.19
232.072	134.19
232.306	140.19
232.541	120.19
232.775	123.19
233.009	145.19
233.243	131.19
233.477	132.19
233.711	129.19
233.945	138.19
234.179	115.19
234.413	124.19
234.647	123.19
234.881	124.19
235.115	141.19
235.349	134.19
235.583	143.19
235.817	132.19
236.051	135.19
236.285	142.19
236.519	144.19
236.753	137.19
236.987	148.19
237.221	143.19
237.455	117.19
237.689	125.19
237.922	130.19
238.156	133.19
238.39	136.19
238.624	151.19
238.858	144.19
239.091	148.19
239.325	148.19
239.559	151.19
239.793	149.19
240.027	148.19
240.26	142.19
240.494	136.19
240.728	126.19
240.961	142.19
241.195	150.19
241.429	150.19
241.662	167.19
241.896	158.19
242.13	156.19
242.363	148.19
242.597	153.19
242.83	163.19
243.064	139.19
243.298	157.19
243.531	178.19
243.765	171.19
243.998	158.19
244.232	170.19
244.465	179.19
244.699	166.19
244.932	163.19
245.166	186.19
245.399	181.19
245.633	190.19
245.866	194.19
246.099	173.19
246.333	172.19
246.566	174.19
246.8	179.19
247.033	192.19
247.266	167.19
247.5	180.19
247.733	183.19
247.966	208.19
248.2	181.19
248.433	198.19
248.666	184.19
248.899	204.19
249.133	198.19
249.366	200.19
249.599	199.19
249.832	202.19
250.066	192.19
250.299	198.19
250.532	195.19
250.765	186.19
250.998	201.19
251.231	202.19
251.465	205.19
251.698	200.19
251.931	207.19
252.164	194.19
252.397	217.19
252.63	218.19
252.863	203.19
253.096	200.19
253.329	210.19
253.562	198.19
253.795	210.19
254.028	208.19
254.261	201.19
254.494	213.19
254.727	204.19
254.96	224.19
255.193	225.19
255.426	222.19
255.659	245.19
255.892	228.19
256.124	222.19
256.357	216.19
256.59	205.19
256.823	222.19
257.056	206.19
257.289	220.19
257.521	227.19
257.754	240.19
257.987	229.19
258.22	245.19
258.452	270.19
258.685	233.19
258.918	234.19
259.151	253.19
259.383	242.19
259.616	245.19
259.849	262.19
260.081	243.19
260.314	252.19
260.547	239.19
260.779	235.19
261.012	261.19
261.244	238.19
261.477	271.19
261.71	263.19
261.942	254.19
262.175	238.19
262.407	243.19
262.64	239.19
262.872	255.19
263.105	266.19
263.337	281.19
263.57	267.19
263.802	268.19
264.035	271.19
264.267	282.19
264.499	268.19
264.732	267.19
264.964	256.19
265.197	275.19
265.429	276.19
265.661	266.19
265.894	274.19
266.126	272.19
266.358	280.19
266.591	270.19
266.823	270.19
267.055	286.19
267.287	293.19
267.52	279.19
267.752	280.19
267.984	275.19
268.216	261.19
268.448	274.19
268.681	267.19
268.913	282.19
269.145	264.19
269.377	283.19
269.609	260.19
269.841	281.19
270.073	298.19
270.306	287.19
270.538	289.19
270.77	272.19
271.002	296.19
271.234	279.19
271.466	298.19
271.698	312.19
271.93	313.19
272.162	286.19
272.394	290.19
272.626	299.19
272.858	302.19
273.09	316.19
273.322	296.19
273.553	302.19
273.785	311.19
274.017	319.19
274.249	323.19
274.481	307.19
274.713	303.19
274.945	302.19
275.176	324.19
275.408	323.19
275.64	322.19
275.872	324.19
276.104	324.19
276.335	311.19
276.567	326.19
276.799	334.19
277.031	329.19
277.262	350.19
277.494	320.19
277.726	335.19
277.957	326.19
278.189	328.19
278.421	330.19
278.652	320.19
278.884	341.19
279.115	349.19
279.347	336.19
279.579	343.19
279.81	339.19
280.042	341.19
280.273	336.19
280.505	321.19
280.736	342.19
280.968	338.19
281.199	348.19
281.431	325.19
281.662	335.19
281.894	344.19
282.125	356.19
282.356	356.19
282.588	340.19
282.819	366.19
283.051	370.19
283.282	350.19
283.513	364.19
283.745	361.19
283.976	375.19
284.207	356.19
284.439	357.19
284.67	388.19
284.901	372.19
285.132	358.19
285.364	390.19
285.595	367.19
285.826	358.19
286.057	382.19
286.288	367.19
286.52	375.19
286.751	378.19
286.982	365.19
287.213	370.19
287.444	378.19
287.675	391.19
287.906	383.19
288.138	377.19
288.369	375.19
288.6	380.19
288.831	402.19
289.062	401.19
289.293	401.19
289.524	386.19
289.755	403.19
289.986	404.19
290.217	403.19
290.448	410.19
290.679	408.19
290.91	395.19
291.141	388.19
291.371	412.19
291.602	398.19
291.833	399.19
292.064	406.19
292.295	410.19
292.526	409.19
292.757	388.19
292.987	374.19
293.218	399.19
293.449	380.19
293.68	397.19
293.91	397.19
294.141	406.19
294.372	386.19
294.603	416.19
294.833	402.19
295.064	399.19
295.295	407.19
295.525	397.19
295.756	414.19
295.987	405.19
296.217	395.19
296.448	413.19
296.679	406.19
296.909	406.19
297.14	407.19
297.37	432.19
297.601	434.19
297.831	426.19
298.062	436.19
298.292	430.19
298.523	442.19
298.753	448.19
298.984	449.19
299.214	464.19
299.445	451.19
299.675	453.19
299.905	430.19
300.136	452.19
300.366	446.19
300.597	459.19
300.827	468.19
301.057	436.19
301.288	462.19
301.518	450.19
301.748	464.19
301.979	457.19
302.209	475.19
302.439	454.19
302.669	435.19
302.9	443.19
303.13	443.19
303.36	474.19
303.59	455.19
303.82	440.19
304.051	465.19
304.281	447.19
304.511	447.19
304.741	465.19
304.971	455.19
305.201	468.19
305.431	462.19
305.661	458.19
305.891	468.19
306.121	436.19
306.352	452.19
306.582	451.19
306.812	435.19
307.042	449.19
307.272	458.19
307.502	428.19
307.731	458.19
307.961	434.19
308.191	449.19
308.421	462.19
308.651	424.19
308.881	428.19
309.111	437.19
309.341	439.19
309.571	452.19
309.8	444.19
310.03	447.19
310.26	453.19
310.49	469.19
310.72	473.19
310.949	452.19
311.179	435.19
311.409	469.19
311.639	465.19
311.868	465.19
312.098	472.19
312.328	453.19
312.557	455.19
312.787	472.19
313.017	478.19
313.246	482.19
313.476	487.19
313.706	485.19
313.935	475.19
314.165	478.19
314.394	477.19
314.624	478.19
314.853	481.19
315.083	459.19
315.312	451.19
315.542	473.19
315.771	481.19
316.001	489.19
316.23	475.19
316.46	457.19
316.689	450.19
316.919	474.19
317.148	466.19
317.377	457.19
317.607	464.19
317.836	457.19
318.065	442.19
318.295	476.19
318.524	472.19
318.753	468.19
318.983	463.19
319.212	448.19
319.441	447.19
319.67	467.19
319.9	454.19
320.129	454.19
320.358	476.19
320.587	444.19
320.816	476.19
321.046	480.19
321.275	472.19
321.504	478.19
321.733	484.19
321.962	467.19
322.191	456.19
322.42	462.19
322.649	471.19
322.878	488.19
323.108	467.19
323.337	487.19
323.566	471.19
323.795	476.19
324.024	495.19
324.253	477.19
324.482	487.19
324.71	496.19
324.939	487.19
325.168	501.19
325.397	499.19
325.626	492.19
325.855	487.19
326.084	522.19
326.313	519.19
326.542	512.19
326.77	525.19
326.999	507.19
327.228	519.19
327.457	504.19
327.686	508.19
327.914	523.19
328.143	512.19
328.372	521.19
328.6	516.19
328.829	513.19
329.058	529.19
329.287	522.19
329.515	520.19
329.744	519.19
329.972	537.19
330.201	508.19
330.43	499.19
330.658	524.19
330.887	531.19
331.115	524.19
331.344	532.19
331.572	536.19
331.801	549.19
332.03	585.19
332.258	554.19
332.486	583.19
332.715	600.19
332.943	618.19
333.172	650.19
333.4	670.19
333.629	655.19
333.857	703.19
334.085	665.19
334.314	677.19
334.542	646.19
334.771	635.19
334.999	634.19
335.227	613.19
335.455	610.19
335.684	643.19
335.912	631.19
336.14	606.19
336.369	628.19
336.597	646.19
336.825	621.19
337.053	626.19
337.281	618.19
337.51	564.19
337.738	590.19
337.966	599.19
338.194	590.19
338.422	577.19
338.65	570.19
338.878	556.19
339.106	573.19
339.334	591.19
339.562	556.19
339.79	538.19
340.018	569.19
340.246	533.19
340.474	549.19
340.702	541.19
340.93	563.19
341.158	553.19
341.386	542.19
341.614	555.19
341.842	566.19
342.07	546.19
342.298	532.19
342.526	541.19
342.754	546.19
342.981	539.19
343.209	559.19
343.437	602.19
343.665	618.19
343.893	668.19
344.12	669.19
344.348	648.19
344.576	596.19
344.804	601.19
345.031	576.19
345.259	572.19
345.487	583.19
345.714	555.19
345.942	530.19
346.17	558.19
346.397	557.19
346.625	536.19
346.853	523.19
347.08	538.19
347.308	553.19
347.535	545.19
347.763	540.19
347.99	542.19
348.218	539.19
348.445	512.19
348.673	518.19
348.9	517.19
349.128	540.19
349.355	527.19
349.583	531.19
349.81	506.19
350.037	544.19
350.265	511.19
350.492	526.19
350.72	508.19
350.947	527.19
351.174	525.19
351.402	537.19
351.629	519.19
351.856	538.19
352.083	530.19
352.311	516.19
352.538	522.19
352.765	524.19
352.992	509.19
353.22	493.19
353.447	486.19
353.674	503.19
353.901	514.19
354.128	524.19
354.355	519.19
354.583	524.19
354.81	528.19
355.037	495.19
355.264	515.19
355.491	504.19
355.718	493.19
355.945	524.19
356.172	528.19
356.399	498.19
356.626	519.19
356.853	526.19
357.08	515.19
357.307	504.19
357.534	515.19
357.761	513.19
357.988	529.19
358.215	480.19
358.441	484.19
358.668	517.19
358.895	528.19
359.122	519.19
359.349	522.19
359.576	500.19
359.802	503.19
360.029	518.19
360.256	489.19
360.483	491.19
360.709	512.19
360.936	502.19
361.163	503.19
361.39	499.19
361.616	530.19
361.843	544.19
362.07	544.19
362.296	554.19
362.523	515.19
362.749	486.19
362.976	499.19
363.203	517.19
363.429	495.19
363.656	506.19
363.882	530.19
364.109	512.19
364.335	518.19
364.562	486.19
364.788	498.19
365.015	518.19
365.241	486.19
365.468	499.19
365.694	504.19
365.92	532.19
366.147	507.19
366.373	507.19
366.599	510.19
366.826	496.19
367.052	516.19
367.278	508.19
367.505	536.19
367.731	520.19
367.957	533.19
368.184	526.19
368.41	523.19
368.636	510.19
368.862	497.19
369.089	522.19
369.315	527.19
369.541	527.19
369.767	520.19
369.993	520.19
370.219	535.19
370.445	562.19
370.672	555.19
370.898	546.19
371.124	548.19
371.35	575.19
371.576	551.19
371.802	564.19
372.028	546.19
372.254	578.19
372.48	554.19
372.706	584.19
372.932	575.19
373.158	576.19
373.384	571.19
373.61	568.19
373.835	579.19
374.061	564.19
374.287	538.19
374.513	556.19
374.739	597.19
374.965	592.19
375.191	623.19
375.416	602.19
375.642	587.19
375.868	612.19
376.094	578.19
376.319	574.19
376.545	572.19
376.771	591.19
376.997	566.19
377.222	559.19
377.448	590.19
377.674	541.19
377.899	564.19
378.125	553.19
378.35	531.19
378.576	553.19
378.802	565.19
379.027	532.19
379.253	560.19
379.478	545.19
379.704	541.19
379.929	575.19
380.155	537.19
380.38	542.19
380.606	547.19
380.831	543.19
381.057	565.19
381.282	585.19
381.507	562.19
381.733	550.19
381.958	552.19
382.184	579.19
382.409	593.19
382.634	590.19
382.86	580.19
383.085	620.19
383.31	603.19
383.535	628.19
383.761	644.19
383.986	630.19
384.211	642.19
384.436	609.19
384.662	657.19
384.887	665.19
385.112	654.19
385.337	666.19
385.562	661.19
385.787	654.19
386.013	651.19
386.238	666.19
386.463	681.19
386.688	671.19
386.913	672.19
387.138	630.19
387.363	637.19
387.588	642.19
387.813	644.19
388.038	651.19
388.263	637.19
388.488	642.19
388.713	650.19
388.938	632.19
389.163	655.19
389.387	662.19
389.612	631.19
389.837	650.19
390.062	658.19
390.287	637.19
390.512	645.19
390.736	649.19
390.961	663.19
391.186	676.19
391.411	696.19
391.636	714.19
391.86	715.19
392.085	754.19
392.31	737.19
392.534	719.19
392.759	724.19
392.984	720.19
393.208	695.19
393.433	708.19
393.658	686.19
393.882	700.19
394.107	700.19
394.331	704.19
394.556	709.19
394.78	710.19
395.005	692.19
395.229	687.19
395.454	725.19
395.678	749.19
395.903	719.19
396.127	716.19
396.352	690.19
396.576	678.19
396.801	702.19
397.025	690.19
397.249	729.19
397.474	731.19
397.698	735.19
397.922	733.19
398.147	731.19
398.371	754.19
398.595	780.19
398.82	793.19
399.044	837.19
399.268	932.19
399.492	1068.19
399.717	1217.19
399.941	1208.19
400.165	1065.19
400.389	971.19
400.613	914.19
400.837	852.19
401.062	816.19
401.286	818.19
401.51	809.19
401.734	789.19
401.958	800.19
402.182	810.19
402.406	809.19
402.63	828.19
402.854	877.19
403.078	862.19
403.302	898.19
403.526	944.19
403.75	950.19
403.974	922.19
404.198	935.19
404.422	954.19
404.645	942.19
404.869	912.19
405.093	935.19
405.317	917.19
405.541	904.19
405.765	878.19
405.988	877.19
406.212	911.19
406.436	856.19
406.66	922.19
406.883	924.19
407.107	976.19
407.331	1012.19
407.555	1052.19
407.778	1034.19
408.002	1028.19
408.226	1004.19
408.449	952.19
408.673	938.19
408.896	950.19
409.12	944.19
409.344	941.19
409.567	926.19
409.791	926.19
410.014	934.19
410.238	926.19
410.461	910.19
410.685	930.19
410.908	865.19
411.132	892.19
411.355	866.19
411.578	853.19
411.802	876.19
412.025	839.19
412.249	866.19
412.472	888.19
412.695	811.19
412.919	831.19
413.142	810.19
413.365	833.19
413.589	841.19
413.812	795.19
414.035	801.19
414.258	810.19
414.482	795.19
414.705	831.19
414.928	828.19
415.151	816.19
415.374	812.19
415.597	818.19
415.821	803.19
416.044	803.19
416.267	789.19
416.49	783.19
416.713	793.19
416.936	821.19
417.159	800.19
417.382	796.19
417.605	807.19
417.828	804.19
418.051	828.19
418.274	840.19
418.497	812.19
418.72	844.19
418.943	831.19
419.166	879.19
419.389	931.19
419.611	927.19
419.834	887.19
420.057	863.19
420.28	829.19
420.503	783.19
420.726	803.19
420.948	781.19
421.171	783.19
421.394	808.19
421.617	809.19
421.839	821.19
422.062	808.19
422.285	796.19
422.507	840.19
422.73	847.19
422.953	837.19
423.175	842.19
423.398	840.19
423.621	864.19
423.843	853.19
424.066	876.19
424.288	854.19
424.511	856.19
424.733	834.19
424.956	843.19
425.178	820.19
425.401	808.19
425.623	803.19
425.846	787.19
426.068	779.19
426.291	759.19
426.513	779.19
426.735	772.19
426.958	769.19
427.18	747.19
427.402	756.19
427.625	747.19
427.847	737.19
428.069	736.19
428.292	741.19
428.514	733.19
428.736	731.19
428.958	739.19
429.181	716.19
429.403	698.19
429.625	702.19
429.847	708.19
430.069	711.19
430.292	718.19
430.514	695.19
430.736	719.19
430.958	717.19
431.18	698.19
431.402	718.19
431.624	717.19
431.846	732.19
432.068	741.19
432.29	759.19
432.512	749.19
432.734	755.19
432.956	706.19
433.178	730.19
433.4	744.19
433.622	729.19
433.844	759.19
434.066	758.19
434.287	749.19
434.509	782.19
434.731	812.19
434.953	834.19
435.175	844.19
435.397	848.19
435.618	794.19
435.84	732.19
436.062	750.19
436.284	710.19
436.505	736.19
436.727	729.19
436.949	738.19
437.17	728.19
437.392	732.19
437.614	730.19
437.835	714.19
438.057	690.19
438.278	682.19
438.5	691.19
438.721	714.19
438.943	726.19
439.165	699.19
439.386	709.19
439.608	712.19
439.829	727.19
440.05	713.19
440.272	736.19
440.493	731.19
440.715	755.19
440.936	767.19
441.158	778.19
441.379	772.19
441.6	838.19
441.822	828.19
442.043	812.19
442.264	826.19
442.486	786.19
442.707	810.19
442.928	784.19
443.149	802.19
443.371	795.19
443.592	831.19
443.813	827.19
444.034	832.19
444.255	877.19
444.476	899.19
444.698	955.19
444.919	975.19
445.14	1086.19
445.361	948.19
445.582	855.19
445.803	802.19
446.024	804.19
446.245	784.19
446.466	763.19
446.687	747.19
446.908	741.19
447.129	743.19
447.35	715.19
447.571	741.19
447.792	703.19
448.013	693.19
448.234	696.19
448.455	679.19
448.675	694.19
448.896	692.19
449.117	677.19
449.338	658.19
449.559	681.19
449.779	664.19
450	645.19
450.221	683.19
450.442	681.19
450.662	678.19
450.883	717.19
451.104	742.19
451.324	678.19
451.545	685.19
451.766	726.19
451.986	689.19
452.207	681.19
452.428	695.19
452.648	678.19
452.869	694.19
453.089	657.19
453.31	686.19
453.53	668.19
453.751	676.19
453.971	660.19
454.192	682.19
454.412	663.19
454.633	641.19
454.853	645.19
455.073	643.19
455.294	670.19
455.514	656.19
455.734	644.19
455.955	602.19
456.175	624.19
456.395	613.19
456.616	633.19
456.836	650.19
457.056	637.19
457.276	641.19
457.497	651.19
457.717	637.19
457.937	664.19
458.157	639.19
458.377	662.19
458.598	655.19
458.818	682.19
459.038	716.19
459.258	759.19
459.478	746.19
459.698	764.19
459.918	783.19
460.138	809.19
460.358	872.19
460.578	888.19
460.798	868.19
461.018	898.19
461.238	854.19
461.458	855.19
461.678	856.19
461.898	859.19
462.118	876.19
462.338	936.19
462.558	950.19
462.777	959.19
462.997	1036.19
463.217	1153.19
463.437	1195.19
463.657	1077.19
463.876	1030.19
464.096	1054.19
464.316	1025.19
464.536	1032.19
464.755	978.19
464.975	962.19
465.195	910.19
465.414	809.19
465.634	805.19
465.854	776.19
466.073	762.19
466.293	747.19
466.512	712.19
466.732	719.19
466.951	728.19
467.171	721.19
467.391	728.19
467.61	736.19
467.829	716.19
468.049	712.19
468.268	704.19
468.488	705.19
468.707	648.19
468.927	698.19
469.146	696.19
469.365	701.19
469.585	690.19
469.804	727.19
470.023	720.19
470.243	723.19
470.462	744.19
470.681	759.19
470.901	728.19
471.12	733.19
471.339	691.19
471.558	720.19
471.777	716.19
471.997	705.19
472.216	671.19
472.435	669.19
472.654	663.19
472.873	661.19
473.092	662.19
473.311	645.19
473.53	675.19
473.749	654.19
473.968	660.19
474.187	662.19
474.406	657.19
474.625	675.19
474.844	680.19
475.063	655.19
475.282	702.19
475.501	679.19
475.72	677.19
475.939	697.19
476.158	692.19
476.377	712.19
476.596	715.19
476.814	706.19
477.033	715.19
477.252	741.19
477.471	744.19
477.69	739.19
477.908	749.19
478.127	787.19
478.346	810.19
478.564	772.19
478.783	823.19
479.002	834.19
479.22	847.19
479.439	823.19
479.658	840.19
479.876	822.19
480.095	854.19
480.313	870.19
480.532	872.19
480.751	872.19
480.969	848.19
481.188	806.19
481.406	808.19
481.624	787.19
481.843	762.19
482.061	802.19
482.28	779.19
482.498	780.19
482.717	757.19
482.935	762.19
483.153	757.19
483.372	793.19
483.59	770.19
483.808	813.19
484.027	784.19
484.245	776.19
484.463	788.19
484.681	796.19
484.9	804.19
485.118	825.19
485.336	782.19
485.554	849.19
485.772	834.19
485.99	835.19
486.209	855.19
486.427	841.19
486.645	842.19
486.863	847.19
487.081	846.19
487.299	818.19
487.517	831.19
487.735	808.19
487.953	839.19
488.171	839.19
488.389	811.19
488.607	822.19
488.825	788.19
489.043	792.19
489.261	802.19
489.479	797.19
489.696	809.19
489.914	804.19
490.132	810.19
490.35	804.19
490.568	789.19
490.786	828.19
491.003	819.19
491.221	810.19
491.439	812.19
491.657	812.19
491.874	812.19
492.092	822.19
492.31	824.19
492.527	823.19
492.745	844.19
492.963	839.19
493.18	840.19
493.398	823.19
493.615	834.19
493.833	856.19
494.05	836.19
494.268	824.19
494.485	831.19
494.703	834.19
494.92	861.19
495.138	840.19
495.355	858.19
495.573	875.19
495.79	845.19
496.008	869.19
496.225	854.19
496.442	874.19
496.66	881.19
496.877	898.19
497.094	894.19
497.312	904.19
497.529	953.19
497.746	962.19
497.963	949.19
498.181	992.19
498.398	1019.19
498.615	1114.19
498.832	1168.19
499.049	1285.19
499.267	1352.19
499.484	1519.19
499.701	1651.19
499.918	1827.19
500.135	2073.19
500.352	2398.19
500.569	2511.19
500.786	2468.19
501.003	2288.19
501.22	2080.19
