Data from Ni(NO3)2@0.125M.TitratingCurve.Agarose3%dH2O.NegLispCup.LampEnergy10.LIBS07252019_HRD10591_18-10-04-567.txt Node
Date: Thu Jul 25 18:10:04 EDT 2019
User: cochatt
Spectrometer: HR+D1059
Trigger mode: 1
Integration Time (sec): 1.000000E-1
Scans to average: 1
Electric dark correction enabled: true
Nonlinearity correction enabled: false
Boxcar width: 0
XAxis mode: Wavelengths
Number of Pixels in Spectrum: 2048
>>>>>Begin Spectral Data<<<<<
223.165	-7.38
223.4	-7.38
223.635	-7.38
223.869	-11.38
224.104	-22.38
224.338	0.62
224.573	-13.38
224.808	-9.38
225.042	-19.38
225.277	-13.38
225.511	-9.38
225.746	3.62
225.98	3.62
226.215	10.62
226.449	19.62
226.683	17.62
226.918	32.62
227.152	17.62
227.387	38.62
227.621	32.62
227.856	45.62
228.09	49.62
228.324	52.62
228.559	57.62
228.793	55.62
229.027	106.62
229.262	92.62
229.496	90.62
229.73	93.62
229.964	98.62
230.199	97.62
230.433	105.62
230.667	101.62
230.901	96.62
231.136	108.62
231.37	114.62
231.604	117.62
231.838	106.62
232.072	118.62
232.306	116.62
232.541	125.62
232.775	128.62
233.009	126.62
233.243	124.62
233.477	107.62
233.711	117.62
233.945	122.62
234.179	118.62
234.413	115.62
234.647	128.62
234.881	126.62
235.115	124.62
235.349	113.62
235.583	126.62
235.817	117.62
236.051	122.62
236.285	126.62
236.519	117.62
236.753	108.62
236.987	104.62
237.221	124.62
237.455	128.62
237.689	118.62
237.922	125.62
238.156	129.62
238.39	124.62
238.624	124.62
238.858	134.62
239.091	124.62
239.325	100.62
239.559	128.62
239.793	124.62
240.027	135.62
240.26	141.62
240.494	133.62
240.728	128.62
240.961	117.62
241.195	130.62
241.429	132.62
241.662	124.62
241.896	142.62
242.13	129.62
242.363	128.62
242.597	145.62
242.83	141.62
243.064	137.62
243.298	138.62
243.531	134.62
243.765	138.62
243.998	121.62
244.232	145.62
244.465	145.62
244.699	161.62
244.932	148.62
245.166	157.62
245.399	157.62
245.633	154.62
245.866	148.62
246.099	169.62
246.333	166.62
246.566	149.62
246.8	160.62
247.033	156.62
247.266	146.62
247.5	150.62
247.733	163.62
247.966	159.62
248.2	167.62
248.433	169.62
248.666	173.62
248.899	170.62
249.133	178.62
249.366	156.62
249.599	167.62
249.832	165.62
250.066	183.62
250.299	170.62
250.532	173.62
250.765	180.62
250.998	182.62
251.231	190.62
251.465	178.62
251.698	179.62
251.931	185.62
252.164	188.62
252.397	197.62
252.63	195.62
252.863	186.62
253.096	186.62
253.329	198.62
253.562	215.62
253.795	187.62
254.028	177.62
254.261	185.62
254.494	188.62
254.727	200.62
254.96	192.62
255.193	188.62
255.426	187.62
255.659	173.62
255.892	203.62
256.124	209.62
256.357	210.62
256.59	190.62
256.823	194.62
257.056	225.62
257.289	197.62
257.521	196.62
257.754	194.62
257.987	212.62
258.22	204.62
258.452	215.62
258.685	212.62
258.918	213.62
259.151	213.62
259.383	205.62
259.616	203.62
259.849	210.62
260.081	219.62
260.314	202.62
260.547	204.62
260.779	218.62
261.012	214.62
261.244	207.62
261.477	227.62
261.71	213.62
261.942	216.62
262.175	216.62
262.407	232.62
262.64	226.62
262.872	219.62
263.105	211.62
263.337	219.62
263.57	211.62
263.802	225.62
264.035	215.62
264.267	225.62
264.499	223.62
264.732	234.62
264.964	225.62
265.197	222.62
265.429	225.62
265.661	229.62
265.894	240.62
266.126	219.62
266.358	233.62
266.591	245.62
266.823	222.62
267.055	229.62
267.287	264.62
267.52	241.62
267.752	243.62
267.984	245.62
268.216	233.62
268.448	231.62
268.681	243.62
268.913	251.62
269.145	255.62
269.377	242.62
269.609	235.62
269.841	246.62
270.073	242.62
270.306	230.62
270.538	248.62
270.77	249.62
271.002	254.62
271.234	258.62
271.466	273.62
271.698	233.62
271.93	265.62
272.162	240.62
272.394	275.62
272.626	280.62
272.858	253.62
273.09	240.62
273.322	247.62
273.553	258.62
273.785	279.62
274.017	262.62
274.249	268.62
274.481	269.62
274.713	259.62
274.945	277.62
275.176	268.62
275.408	256.62
275.64	262.62
275.872	257.62
276.104	284.62
276.335	279.62
276.567	256.62
276.799	282.62
277.031	292.62
277.262	285.62
277.494	276.62
277.726	290.62
277.957	280.62
278.189	299.62
278.421	282.62
278.652	289.62
278.884	297.62
279.115	276.62
279.347	303.62
279.579	280.62
279.81	294.62
280.042	301.62
280.273	279.62
280.505	299.62
280.736	279.62
280.968	295.62
281.199	313.62
281.431	295.62
281.662	290.62
281.894	292.62
282.125	293.62
282.356	323.62
282.588	305.62
282.819	303.62
283.051	314.62
283.282	304.62
283.513	313.62
283.745	296.62
283.976	309.62
284.207	305.62
284.439	323.62
284.67	328.62
284.901	320.62
285.132	322.62
285.364	324.62
285.595	334.62
285.826	324.62
286.057	318.62
286.288	332.62
286.52	334.62
286.751	337.62
286.982	309.62
287.213	341.62
287.444	333.62
287.675	322.62
287.906	333.62
288.138	334.62
288.369	330.62
288.6	333.62
288.831	332.62
289.062	324.62
289.293	318.62
289.524	338.62
289.755	331.62
289.986	331.62
290.217	321.62
290.448	349.62
290.679	348.62
290.91	347.62
291.141	343.62
291.371	340.62
291.602	331.62
291.833	341.62
292.064	336.62
292.295	335.62
292.526	339.62
292.757	333.62
292.987	342.62
293.218	328.62
293.449	347.62
293.68	345.62
293.91	359.62
294.141	346.62
294.372	352.62
294.603	366.62
294.833	353.62
295.064	363.62
295.295	348.62
295.525	353.62
295.756	360.62
295.987	334.62
296.217	358.62
296.448	374.62
296.679	370.62
296.909	353.62
297.14	376.62
297.37	378.62
297.601	364.62
297.831	370.62
298.062	372.62
298.292	381.62
298.523	390.62
298.753	386.62
298.984	381.62
299.214	395.62
299.445	369.62
299.675	362.62
299.905	361.62
300.136	396.62
300.366	380.62
300.597	385.62
300.827	372.62
301.057	391.62
301.288	407.62
301.518	381.62
301.748	388.62
301.979	410.62
302.209	380.62
302.439	397.62
302.669	389.62
302.9	395.62
303.13	387.62
303.36	395.62
303.59	381.62
303.82	381.62
304.051	373.62
304.281	391.62
304.511	402.62
304.741	374.62
304.971	392.62
305.201	371.62
305.431	394.62
305.661	386.62
305.891	389.62
306.121	381.62
306.352	378.62
306.582	382.62
306.812	368.62
307.042	366.62
307.272	385.62
307.502	384.62
307.731	392.62
307.961	388.62
308.191	376.62
308.421	373.62
308.651	397.62
308.881	378.62
309.111	376.62
309.341	370.62
309.571	374.62
309.8	394.62
310.03	384.62
310.26	380.62
310.49	370.62
310.72	382.62
310.949	385.62
311.179	400.62
311.409	396.62
311.639	383.62
311.868	398.62
312.098	390.62
312.328	405.62
312.557	393.62
312.787	393.62
313.017	400.62
313.246	418.62
313.476	414.62
313.706	396.62
313.935	425.62
314.165	441.62
314.394	417.62
314.624	404.62
314.853	413.62
315.083	397.62
315.312	396.62
315.542	394.62
315.771	410.62
316.001	404.62
316.23	436.62
316.46	394.62
316.689	404.62
316.919	406.62
317.148	384.62
317.377	412.62
317.607	381.62
317.836	384.62
318.065	391.62
318.295	399.62
318.524	392.62
318.753	386.62
318.983	403.62
319.212	386.62
319.441	406.62
319.67	376.62
319.9	404.62
320.129	407.62
320.358	401.62
320.587	403.62
320.816	396.62
321.046	404.62
321.275	391.62
321.504	394.62
321.733	402.62
321.962	417.62
322.191	395.62
322.42	409.62
322.649	415.62
322.878	399.62
323.108	416.62
323.337	408.62
323.566	423.62
323.795	412.62
324.024	418.62
324.253	419.62
324.482	428.62
324.71	421.62
324.939	424.62
325.168	434.62
325.397	438.62
325.626	435.62
325.855	427.62
326.084	462.62
326.313	459.62
326.542	459.62
326.77	466.62
326.999	455.62
327.228	470.62
327.457	445.62
327.686	465.62
327.914	426.62
328.143	453.62
328.372	453.62
328.6	449.62
328.829	449.62
329.058	466.62
329.287	456.62
329.515	459.62
329.744	470.62
329.972	468.62
330.201	454.62
330.43	471.62
330.658	436.62
330.887	463.62
331.115	461.62
331.344	467.62
331.572	477.62
331.801	496.62
332.03	491.62
332.258	504.62
332.486	520.62
332.715	557.62
332.943	559.62
333.172	584.62
333.4	603.62
333.629	631.62
333.857	615.62
334.085	616.62
334.314	589.62
334.542	568.62
334.771	590.62
334.999	602.62
335.227	564.62
335.455	576.62
335.684	551.62
335.912	562.62
336.14	572.62
336.369	558.62
336.597	539.62
336.825	530.62
337.053	556.62
337.281	538.62
337.51	522.62
337.738	514.62
337.966	508.62
338.194	491.62
338.422	488.62
338.65	498.62
338.878	496.62
339.106	516.62
339.334	488.62
339.562	479.62
339.79	478.62
340.018	487.62
340.246	488.62
340.474	464.62
340.702	460.62
340.93	461.62
341.158	501.62
341.386	468.62
341.614	496.62
341.842	456.62
342.07	478.62
342.298	467.62
342.526	480.62
342.754	461.62
342.981	491.62
343.209	479.62
343.437	514.62
343.665	530.62
343.893	568.62
344.12	612.62
344.348	560.62
344.576	553.62
344.804	517.62
345.031	504.62
345.259	500.62
345.487	500.62
345.714	476.62
345.942	475.62
346.17	483.62
346.397	470.62
346.625	466.62
346.853	475.62
347.08	477.62
347.308	467.62
347.535	488.62
347.763	468.62
347.99	464.62
348.218	476.62
348.445	468.62
348.673	457.62
348.9	470.62
349.128	463.62
349.355	485.62
349.583	467.62
349.81	460.62
350.037	451.62
350.265	465.62
350.492	473.62
350.72	455.62
350.947	447.62
351.174	436.62
351.402	433.62
351.629	448.62
351.856	457.62
352.083	449.62
352.311	453.62
352.538	444.62
352.765	440.62
352.992	471.62
353.22	457.62
353.447	453.62
353.674	456.62
353.901	447.62
354.128	434.62
354.355	444.62
354.583	473.62
354.81	441.62
355.037	461.62
355.264	474.62
355.491	439.62
355.718	458.62
355.945	469.62
356.172	472.62
356.399	461.62
356.626	452.62
356.853	451.62
357.08	468.62
357.307	454.62
357.534	421.62
357.761	456.62
357.988	456.62
358.215	450.62
358.441	461.62
358.668	472.62
358.895	454.62
359.122	436.62
359.349	439.62
359.576	453.62
359.802	444.62
360.029	452.62
360.256	448.62
360.483	417.62
360.709	437.62
360.936	456.62
361.163	470.62
361.39	460.62
361.616	445.62
361.843	437.62
362.07	431.62
362.296	445.62
362.523	454.62
362.749	453.62
362.976	440.62
363.203	460.62
363.429	449.62
363.656	429.62
363.882	453.62
364.109	456.62
364.335	449.62
364.562	460.62
364.788	459.62
365.015	449.62
365.241	465.62
365.468	443.62
365.694	435.62
365.92	458.62
366.147	444.62
366.373	472.62
366.599	445.62
366.826	440.62
367.052	458.62
367.278	455.62
367.505	459.62
367.731	473.62
367.957	455.62
368.184	458.62
368.41	457.62
368.636	469.62
368.862	482.62
369.089	460.62
369.315	485.62
369.541	486.62
369.767	472.62
369.993	459.62
370.219	473.62
370.445	456.62
370.672	456.62
370.898	491.62
371.124	451.62
371.35	520.62
371.576	496.62
371.802	496.62
372.028	473.62
372.254	507.62
372.48	500.62
372.706	500.62
372.932	524.62
373.158	493.62
373.384	499.62
373.61	495.62
373.835	493.62
374.061	473.62
374.287	487.62
374.513	502.62
374.739	538.62
374.965	549.62
375.191	532.62
375.416	545.62
375.642	518.62
375.868	524.62
376.094	498.62
376.319	515.62
376.545	501.62
376.771	508.62
376.997	498.62
377.222	476.62
377.448	493.62
377.674	488.62
377.899	486.62
378.125	495.62
378.35	491.62
378.576	473.62
378.802	465.62
379.027	473.62
379.253	480.62
379.478	444.62
379.704	477.62
379.929	483.62
380.155	506.62
380.38	477.62
380.606	500.62
380.831	483.62
381.057	488.62
381.282	489.62
381.507	513.62
381.733	511.62
381.958	484.62
382.184	474.62
382.409	514.62
382.634	513.62
382.86	502.62
383.085	520.62
383.31	526.62
383.535	525.62
383.761	550.62
383.986	560.62
384.211	542.62
384.436	580.62
384.662	577.62
384.887	591.62
385.112	604.62
385.337	605.62
385.562	610.62
385.787	590.62
386.013	591.62
386.238	586.62
386.463	582.62
386.688	596.62
386.913	575.62
387.138	593.62
387.363	573.62
387.588	582.62
387.813	567.62
388.038	569.62
388.263	564.62
388.488	563.62
388.713	542.62
388.938	555.62
389.163	546.62
389.387	582.62
389.612	572.62
389.837	546.62
390.062	564.62
390.287	564.62
390.512	551.62
390.736	552.62
390.961	577.62
391.186	591.62
391.411	621.62
391.636	626.62
391.86	628.62
392.085	666.62
392.31	660.62
392.534	635.62
392.759	622.62
392.984	589.62
393.208	610.62
393.433	596.62
393.658	592.62
393.882	609.62
394.107	611.62
394.331	603.62
394.556	621.62
394.78	647.62
395.005	617.62
395.229	619.62
395.454	662.62
395.678	664.62
395.903	665.62
396.127	644.62
396.352	626.62
396.576	614.62
396.801	614.62
397.025	597.62
397.249	621.62
397.474	629.62
397.698	651.62
397.922	612.62
398.147	661.62
398.371	660.62
398.595	681.62
398.82	728.62
399.044	770.62
399.268	830.62
399.492	981.62
399.717	1108.62
399.941	1076.62
400.165	948.62
400.389	867.62
400.613	774.62
400.837	744.62
401.062	716.62
401.286	744.62
401.51	711.62
401.734	703.62
401.958	730.62
402.182	735.62
402.406	756.62
402.63	757.62
402.854	772.62
403.078	800.62
403.302	842.62
403.526	853.62
403.75	836.62
403.974	841.62
404.198	854.62
404.422	860.62
404.645	840.62
404.869	850.62
405.093	831.62
405.317	827.62
405.541	793.62
405.765	777.62
405.988	809.62
406.212	782.62
406.436	797.62
406.66	802.62
406.883	840.62
407.107	871.62
407.331	946.62
407.555	947.62
407.778	947.62
408.002	893.62
408.226	894.62
408.449	857.62
408.673	831.62
408.896	834.62
409.12	819.62
409.344	844.62
409.567	805.62
409.791	832.62
410.014	850.62
410.238	844.62
410.461	841.62
410.685	814.62
410.908	806.62
411.132	766.62
411.355	741.62
411.578	766.62
411.802	749.62
412.025	764.62
412.249	766.62
412.472	786.62
412.695	755.62
412.919	720.62
413.142	725.62
413.365	718.62
413.589	733.62
413.812	735.62
414.035	722.62
414.258	727.62
414.482	732.62
414.705	719.62
414.928	746.62
415.151	733.62
415.374	732.62
415.597	752.62
415.821	708.62
416.044	689.62
416.267	714.62
416.49	730.62
416.713	723.62
416.936	720.62
417.159	709.62
417.382	711.62
417.605	709.62
417.828	715.62
418.051	731.62
418.274	713.62
418.497	742.62
418.72	738.62
418.943	744.62
419.166	792.62
419.389	844.62
419.611	824.62
419.834	771.62
420.057	748.62
420.28	716.62
420.503	734.62
420.726	741.62
420.948	695.62
421.171	692.62
421.394	754.62
421.617	731.62
421.839	735.62
422.062	739.62
422.285	729.62
422.507	740.62
422.73	745.62
422.953	757.62
423.175	770.62
423.398	774.62
423.621	787.62
423.843	789.62
424.066	768.62
424.288	780.62
424.511	773.62
424.733	753.62
424.956	768.62
425.178	738.62
425.401	726.62
425.623	714.62
425.846	706.62
426.068	694.62
426.291	685.62
426.513	681.62
426.735	685.62
426.958	690.62
427.18	658.62
427.402	669.62
427.625	674.62
427.847	650.62
428.069	668.62
428.292	638.62
428.514	641.62
428.736	668.62
428.958	654.62
429.181	650.62
429.403	642.62
429.625	625.62
429.847	626.62
430.069	642.62
430.292	634.62
430.514	661.62
430.736	649.62
430.958	644.62
431.18	625.62
431.402	632.62
431.624	631.62
431.846	639.62
432.068	657.62
432.29	663.62
432.512	660.62
432.734	668.62
432.956	663.62
433.178	662.62
433.4	643.62
433.622	646.62
433.844	673.62
434.066	666.62
434.287	684.62
434.509	690.62
434.731	726.62
434.953	737.62
435.175	761.62
435.397	715.62
435.618	712.62
435.84	682.62
436.062	664.62
436.284	663.62
436.505	663.62
436.727	652.62
436.949	648.62
437.17	650.62
437.392	649.62
437.614	645.62
437.835	603.62
438.057	636.62
438.278	644.62
438.5	630.62
438.721	627.62
438.943	660.62
439.165	628.62
439.386	647.62
439.608	640.62
439.829	656.62
440.05	636.62
440.272	667.62
440.493	664.62
440.715	674.62
440.936	670.62
441.158	702.62
441.379	729.62
441.6	755.62
441.822	756.62
442.043	763.62
442.264	722.62
442.486	732.62
442.707	699.62
442.928	728.62
443.149	766.62
443.371	731.62
443.592	759.62
443.813	760.62
444.034	749.62
444.255	766.62
444.476	826.62
444.698	875.62
444.919	917.62
445.14	951.62
445.361	853.62
445.582	764.62
445.803	744.62
446.024	692.62
446.245	698.62
446.466	699.62
446.687	679.62
446.908	682.62
447.129	647.62
447.35	649.62
447.571	641.62
447.792	629.62
448.013	610.62
448.234	614.62
448.455	624.62
448.675	611.62
448.896	620.62
449.117	601.62
449.338	594.62
449.559	598.62
449.779	615.62
450	607.62
450.221	616.62
450.442	617.62
450.662	651.62
450.883	628.62
451.104	635.62
451.324	609.62
451.545	633.62
451.766	617.62
451.986	636.62
452.207	608.62
452.428	614.62
452.648	600.62
452.869	587.62
453.089	581.62
453.31	602.62
453.53	581.62
453.751	587.62
453.971	599.62
454.192	581.62
454.412	594.62
454.633	585.62
454.853	595.62
455.073	578.62
455.294	578.62
455.514	550.62
455.734	567.62
455.955	558.62
456.175	561.62
456.395	568.62
456.616	576.62
456.836	572.62
457.056	555.62
457.276	540.62
457.497	582.62
457.717	557.62
457.937	562.62
458.157	584.62
458.377	579.62
458.598	602.62
458.818	614.62
459.038	626.62
459.258	619.62
459.478	649.62
459.698	686.62
459.918	691.62
460.138	730.62
460.358	741.62
460.578	794.62
460.798	797.62
461.018	791.62
461.238	773.62
461.458	752.62
461.678	780.62
461.898	771.62
462.118	801.62
462.338	848.62
462.558	859.62
462.777	870.62
462.997	973.62
463.217	1070.62
463.437	1056.62
463.657	955.62
463.876	891.62
464.096	863.62
464.316	906.62
464.536	915.62
464.755	870.62
464.975	804.62
465.195	806.62
465.414	758.62
465.634	721.62
465.854	668.62
466.073	672.62
466.293	660.62
466.512	653.62
466.732	628.62
466.951	601.62
467.171	628.62
467.391	644.62
467.61	618.62
467.829	610.62
468.049	612.62
468.268	617.62
468.488	631.62
468.707	596.62
468.927	608.62
469.146	614.62
469.365	625.62
469.585	614.62
469.804	649.62
470.023	674.62
470.243	651.62
470.462	695.62
470.681	674.62
470.901	650.62
471.12	668.62
471.339	621.62
471.558	622.62
471.777	629.62
471.997	610.62
472.216	597.62
472.435	609.62
472.654	581.62
472.873	587.62
473.092	587.62
473.311	600.62
473.53	608.62
473.749	598.62
473.968	578.62
474.187	566.62
474.406	575.62
474.625	608.62
474.844	581.62
475.063	596.62
475.282	596.62
475.501	612.62
475.72	588.62
475.939	596.62
476.158	628.62
476.377	586.62
476.596	624.62
476.814	615.62
477.033	624.62
477.252	612.62
477.471	644.62
477.69	638.62
477.908	678.62
478.127	686.62
478.346	707.62
478.564	713.62
478.783	713.62
479.002	743.62
479.22	742.62
479.439	719.62
479.658	731.62
479.876	726.62
480.095	763.62
480.313	761.62
480.532	777.62
480.751	800.62
480.969	721.62
481.188	693.62
481.406	691.62
481.624	681.62
481.843	664.62
482.061	688.62
482.28	649.62
482.498	663.62
482.717	654.62
482.935	671.62
483.153	692.62
483.372	674.62
483.59	674.62
483.808	675.62
484.027	676.62
484.245	674.62
484.463	666.62
484.681	704.62
484.9	686.62
485.118	685.62
485.336	663.62
485.554	688.62
485.772	688.62
485.99	706.62
486.209	720.62
486.427	729.62
486.645	716.62
486.863	701.62
487.081	712.62
487.299	678.62
487.517	698.62
487.735	725.62
487.953	716.62
488.171	714.62
488.389	673.62
488.607	673.62
488.825	693.62
489.043	686.62
489.261	700.62
489.479	681.62
489.696	712.62
489.914	675.62
490.132	700.62
490.35	719.62
490.568	714.62
490.786	694.62
491.003	708.62
491.221	704.62
491.439	733.62
491.657	754.62
491.874	725.62
492.092	718.62
492.31	742.62
492.527	744.62
492.745	755.62
492.963	715.62
493.18	731.62
493.398	713.62
493.615	744.62
493.833	737.62
494.05	749.62
494.268	758.62
494.485	724.62
494.703	745.62
494.92	737.62
495.138	731.62
495.355	728.62
495.573	744.62
495.79	742.62
496.008	776.62
496.225	758.62
496.442	744.62
496.66	764.62
496.877	763.62
497.094	820.62
497.312	820.62
497.529	828.62
497.746	845.62
497.963	845.62
498.181	872.62
498.398	946.62
498.615	1005.62
498.832	1074.62
499.049	1140.62
499.267	1226.62
499.484	1330.62
499.701	1490.62
499.918	1691.62
500.135	1902.62
500.352	2178.62
500.569	2331.62
500.786	2284.62
501.003	2052.62
501.22	1836.62
501.437	1610.62
