Data from Ni(NO3)2@0.5M.TitratingCurve.Agarose3%dH2O.NegLispCup.LampEnergy10.LIBS07252019_HRD10591_17-58-08-564.txt Node
Date: Thu Jul 25 17:58:08 EDT 2019
User: cochatt
Spectrometer: HR+D1059
Trigger mode: 1
Integration Time (sec): 1.000000E-1
Scans to average: 1
Electric dark correction enabled: true
Nonlinearity correction enabled: false
Boxcar width: 0
XAxis mode: Wavelengths
Number of Pixels in Spectrum: 2048
>>>>>Begin Spectral Data<<<<<
223.165	-18.44
223.4	-18.44
223.635	-18.44
223.869	-4.44
224.104	-21.44
224.338	-17.44
224.573	-13.44
224.808	-17.44
225.042	5.56
225.277	-10.44
225.511	-2.44
225.746	17.56
225.98	7.56
226.215	3.56
226.449	11.56
226.683	15.56
226.918	18.56
227.152	25.56
227.387	23.56
227.621	44.56
227.856	43.56
228.09	42.56
228.324	34.56
228.559	44.56
228.793	80.56
229.027	110.56
229.262	126.56
229.496	128.56
229.73	132.56
229.964	162.56
230.199	178.56
230.433	168.56
230.667	184.56
230.901	163.56
231.136	145.56
231.37	154.56
231.604	160.56
231.838	170.56
232.072	183.56
232.306	179.56
232.541	168.56
232.775	155.56
233.009	152.56
233.243	149.56
233.477	151.56
233.711	170.56
233.945	161.56
234.179	157.56
234.413	144.56
234.647	167.56
234.881	175.56
235.115	164.56
235.349	160.56
235.583	154.56
235.817	164.56
236.051	151.56
236.285	159.56
236.519	147.56
236.753	147.56
236.987	164.56
237.221	146.56
237.455	149.56
237.689	161.56
237.922	148.56
238.156	179.56
238.39	162.56
238.624	180.56
238.858	174.56
239.091	166.56
239.325	178.56
239.559	180.56
239.793	192.56
240.027	208.56
240.26	181.56
240.494	177.56
240.728	179.56
240.961	189.56
241.195	171.56
241.429	189.56
241.662	186.56
241.896	218.56
242.13	215.56
242.363	201.56
242.597	183.56
242.83	204.56
243.064	194.56
243.298	201.56
243.531	194.56
243.765	183.56
243.998	211.56
244.232	206.56
244.465	213.56
244.699	192.56
244.932	210.56
245.166	205.56
245.399	200.56
245.633	222.56
245.866	215.56
246.099	216.56
246.333	207.56
246.566	209.56
246.8	225.56
247.033	220.56
247.266	199.56
247.5	235.56
247.733	227.56
247.966	235.56
248.2	237.56
248.433	241.56
248.666	233.56
248.899	228.56
249.133	232.56
249.366	269.56
249.599	244.56
249.832	252.56
250.066	245.56
250.299	244.56
250.532	250.56
250.765	252.56
250.998	279.56
251.231	284.56
251.465	280.56
251.698	289.56
251.931	280.56
252.164	262.56
252.397	270.56
252.63	284.56
252.863	283.56
253.096	279.56
253.329	300.56
253.562	292.56
253.795	293.56
254.028	302.56
254.261	309.56
254.494	301.56
254.727	303.56
254.96	285.56
255.193	330.56
255.426	291.56
255.659	306.56
255.892	312.56
256.124	301.56
256.357	320.56
256.59	321.56
256.823	326.56
257.056	325.56
257.289	317.56
257.521	329.56
257.754	328.56
257.987	324.56
258.22	324.56
258.452	337.56
258.685	334.56
258.918	334.56
259.151	341.56
259.383	333.56
259.616	352.56
259.849	333.56
260.081	348.56
260.314	343.56
260.547	344.56
260.779	332.56
261.012	363.56
261.244	370.56
261.477	388.56
261.71	354.56
261.942	349.56
262.175	345.56
262.407	361.56
262.64	364.56
262.872	397.56
263.105	371.56
263.337	382.56
263.57	379.56
263.802	378.56
264.035	387.56
264.267	388.56
264.499	365.56
264.732	373.56
264.964	370.56
265.197	378.56
265.429	396.56
265.661	383.56
265.894	395.56
266.126	393.56
266.358	408.56
266.591	392.56
266.823	388.56
267.055	417.56
267.287	401.56
267.52	417.56
267.752	390.56
267.984	405.56
268.216	414.56
268.448	410.56
268.681	419.56
268.913	433.56
269.145	413.56
269.377	414.56
269.609	421.56
269.841	423.56
270.073	422.56
270.306	433.56
270.538	413.56
270.77	418.56
271.002	444.56
271.234	438.56
271.466	448.56
271.698	435.56
271.93	440.56
272.162	452.56
272.394	426.56
272.626	436.56
272.858	432.56
273.09	438.56
273.322	449.56
273.553	443.56
273.785	453.56
274.017	457.56
274.249	454.56
274.481	440.56
274.713	468.56
274.945	455.56
275.176	464.56
275.408	461.56
275.64	461.56
275.872	462.56
276.104	461.56
276.335	476.56
276.567	457.56
276.799	466.56
277.031	477.56
277.262	444.56
277.494	458.56
277.726	480.56
277.957	483.56
278.189	455.56
278.421	485.56
278.652	491.56
278.884	475.56
279.115	493.56
279.347	485.56
279.579	502.56
279.81	486.56
280.042	487.56
280.273	514.56
280.505	512.56
280.736	506.56
280.968	482.56
281.199	497.56
281.431	510.56
281.662	488.56
281.894	477.56
282.125	493.56
282.356	502.56
282.588	532.56
282.819	516.56
283.051	504.56
283.282	485.56
283.513	531.56
283.745	514.56
283.976	513.56
284.207	533.56
284.439	530.56
284.67	545.56
284.901	533.56
285.132	550.56
285.364	532.56
285.595	524.56
285.826	533.56
286.057	551.56
286.288	538.56
286.52	560.56
286.751	542.56
286.982	544.56
287.213	540.56
287.444	548.56
287.675	546.56
287.906	529.56
288.138	560.56
288.369	558.56
288.6	544.56
288.831	545.56
289.062	573.56
289.293	568.56
289.524	581.56
289.755	548.56
289.986	564.56
290.217	562.56
290.448	577.56
290.679	541.56
290.91	569.56
291.141	552.56
291.371	544.56
291.602	573.56
291.833	550.56
292.064	568.56
292.295	581.56
292.526	563.56
292.757	570.56
292.987	544.56
293.218	564.56
293.449	592.56
293.68	564.56
293.91	545.56
294.141	566.56
294.372	550.56
294.603	603.56
294.833	574.56
295.064	564.56
295.295	573.56
295.525	564.56
295.756	587.56
295.987	575.56
296.217	572.56
296.448	577.56
296.679	592.56
296.909	571.56
297.14	595.56
297.37	596.56
297.601	612.56
297.831	590.56
298.062	610.56
298.292	595.56
298.523	613.56
298.753	614.56
298.984	633.56
299.214	615.56
299.445	609.56
299.675	620.56
299.905	622.56
300.136	617.56
300.366	627.56
300.597	642.56
300.827	638.56
301.057	652.56
301.288	659.56
301.518	648.56
301.748	655.56
301.979	641.56
302.209	608.56
302.439	640.56
302.669	639.56
302.9	626.56
303.13	640.56
303.36	645.56
303.59	660.56
303.82	644.56
304.051	650.56
304.281	660.56
304.511	630.56
304.741	660.56
304.971	654.56
305.201	677.56
305.431	684.56
305.661	672.56
305.891	685.56
306.121	660.56
306.352	683.56
306.582	661.56
306.812	657.56
307.042	665.56
307.272	681.56
307.502	635.56
307.731	656.56
307.961	675.56
308.191	657.56
308.421	647.56
308.651	685.56
308.881	683.56
309.111	673.56
309.341	687.56
309.571	685.56
309.8	704.56
310.03	690.56
310.26	718.56
310.49	707.56
310.72	714.56
310.949	703.56
311.179	698.56
311.409	683.56
311.639	701.56
311.868	693.56
312.098	706.56
312.328	701.56
312.557	697.56
312.787	704.56
313.017	717.56
313.246	720.56
313.476	750.56
313.706	745.56
313.935	716.56
314.165	721.56
314.394	724.56
314.624	717.56
314.853	723.56
315.083	706.56
315.312	736.56
315.542	724.56
315.771	718.56
316.001	756.56
316.23	725.56
316.46	715.56
316.689	773.56
316.919	770.56
317.148	754.56
317.377	763.56
317.607	764.56
317.836	746.56
318.065	766.56
318.295	774.56
318.524	785.56
318.753	783.56
318.983	772.56
319.212	779.56
319.441	777.56
319.67	794.56
319.9	794.56
320.129	779.56
320.358	791.56
320.587	779.56
320.816	786.56
321.046	779.56
321.275	794.56
321.504	805.56
321.733	816.56
321.962	812.56
322.191	809.56
322.42	817.56
322.649	809.56
322.878	821.56
323.108	799.56
323.337	818.56
323.566	835.56
323.795	822.56
324.024	829.56
324.253	845.56
324.482	818.56
324.71	847.56
324.939	829.56
325.168	832.56
325.397	829.56
325.626	839.56
325.855	840.56
326.084	842.56
326.313	873.56
326.542	857.56
326.77	837.56
326.999	856.56
327.228	878.56
327.457	850.56
327.686	862.56
327.914	884.56
328.143	858.56
328.372	890.56
328.6	914.56
328.829	885.56
329.058	893.56
329.287	901.56
329.515	888.56
329.744	914.56
329.972	900.56
330.201	895.56
330.43	889.56
330.658	919.56
330.887	892.56
331.115	937.56
331.344	941.56
331.572	930.56
331.801	918.56
332.03	929.56
332.258	914.56
332.486	955.56
332.715	944.56
332.943	947.56
333.172	991.56
333.4	987.56
333.629	968.56
333.857	980.56
334.085	1011.56
334.314	995.56
334.542	988.56
334.771	990.56
334.999	1019.56
335.227	1008.56
335.455	1040.56
335.684	1021.56
335.912	1003.56
336.14	1034.56
336.369	1029.56
336.597	1037.56
336.825	1008.56
337.053	1036.56
337.281	1057.56
337.51	1016.56
337.738	993.56
337.966	1018.56
338.194	1053.56
338.422	1022.56
338.65	989.56
338.878	998.56
339.106	975.56
339.334	985.56
339.562	981.56
339.79	939.56
340.018	970.56
340.246	970.56
340.474	944.56
340.702	971.56
340.93	997.56
341.158	981.56
341.386	1034.56
341.614	1027.56
341.842	1018.56
342.07	998.56
342.298	989.56
342.526	977.56
342.754	972.56
342.981	982.56
343.209	1000.56
343.437	1012.56
343.665	1015.56
343.893	1004.56
344.12	1017.56
344.348	1053.56
344.576	1059.56
344.804	1029.56
345.031	1015.56
345.259	982.56
345.487	1016.56
345.714	1000.56
345.942	1038.56
346.17	1051.56
346.397	1026.56
346.625	992.56
346.853	968.56
347.08	965.56
347.308	969.56
347.535	964.56
347.763	954.56
347.99	941.56
348.218	937.56
348.445	957.56
348.673	937.56
348.9	946.56
349.128	978.56
349.355	1028.56
349.583	972.56
349.81	949.56
350.037	973.56
350.265	922.56
350.492	924.56
350.72	933.56
350.947	932.56
351.174	976.56
351.402	970.56
351.629	993.56
351.856	997.56
352.083	945.56
352.311	979.56
352.538	1001.56
352.765	999.56
352.992	903.56
353.22	931.56
353.447	910.56
353.674	914.56
353.901	915.56
354.128	902.56
354.355	931.56
354.583	924.56
354.81	911.56
355.037	912.56
355.264	920.56
355.491	904.56
355.718	889.56
355.945	916.56
356.172	912.56
356.399	945.56
356.626	969.56
356.853	977.56
357.08	959.56
357.307	950.56
357.534	924.56
357.761	937.56
357.988	913.56
358.215	948.56
358.441	922.56
358.668	918.56
358.895	926.56
359.122	920.56
359.349	941.56
359.576	919.56
359.802	923.56
360.029	942.56
360.256	910.56
360.483	926.56
360.709	925.56
360.936	936.56
361.163	934.56
361.39	941.56
361.616	925.56
361.843	953.56
362.07	1025.56
362.296	993.56
362.523	951.56
362.749	934.56
362.976	924.56
363.203	936.56
363.429	950.56
363.656	946.56
363.882	931.56
364.109	929.56
364.335	923.56
364.562	927.56
364.788	938.56
365.015	946.56
365.241	937.56
365.468	924.56
365.694	930.56
365.92	921.56
366.147	926.56
366.373	948.56
366.599	954.56
366.826	929.56
367.052	967.56
367.278	941.56
367.505	924.56
367.731	972.56
367.957	951.56
368.184	930.56
368.41	957.56
368.636	958.56
368.862	954.56
369.089	957.56
369.315	986.56
369.541	984.56
369.767	979.56
369.993	940.56
370.219	944.56
370.445	965.56
370.672	948.56
370.898	985.56
371.124	1000.56
371.35	947.56
371.576	999.56
371.802	1000.56
372.028	1000.56
372.254	977.56
372.48	932.56
372.706	968.56
372.932	967.56
373.158	968.56
373.384	1011.56
373.61	970.56
373.835	990.56
374.061	999.56
374.287	998.56
374.513	997.56
374.739	1014.56
374.965	997.56
375.191	991.56
375.416	994.56
375.642	992.56
375.868	1008.56
376.094	991.56
376.319	989.56
376.545	968.56
376.771	982.56
376.997	982.56
377.222	961.56
377.448	988.56
377.674	979.56
377.899	1002.56
378.125	940.56
378.35	978.56
378.576	950.56
378.802	934.56
379.027	972.56
379.253	946.56
379.478	936.56
379.704	948.56
379.929	978.56
380.155	971.56
380.38	952.56
380.606	978.56
380.831	968.56
381.057	972.56
381.282	960.56
381.507	972.56
381.733	990.56
381.958	989.56
382.184	978.56
382.409	960.56
382.634	957.56
382.86	965.56
383.085	973.56
383.31	1021.56
383.535	1014.56
383.761	1023.56
383.986	983.56
384.211	1005.56
384.436	1012.56
384.662	1036.56
384.887	1045.56
385.112	1033.56
385.337	1046.56
385.562	1045.56
385.787	1073.56
386.013	1060.56
386.238	1089.56
386.463	1080.56
386.688	1048.56
386.913	1045.56
387.138	1062.56
387.363	1067.56
387.588	1087.56
387.813	1074.56
388.038	1072.56
388.263	1085.56
388.488	1080.56
388.713	1099.56
388.938	1068.56
389.163	1075.56
389.387	1092.56
389.612	1078.56
389.837	1067.56
390.062	1048.56
390.287	1079.56
390.512	1084.56
390.736	1121.56
390.961	1095.56
391.186	1077.56
391.411	1134.56
391.636	1109.56
391.86	1109.56
392.085	1118.56
392.31	1125.56
392.534	1116.56
392.759	1116.56
392.984	1136.56
393.208	1101.56
393.433	1129.56
393.658	1125.56
393.882	1092.56
394.107	1088.56
394.331	1100.56
394.556	1093.56
394.78	1114.56
395.005	1085.56
395.229	1127.56
395.454	1124.56
395.678	1158.56
395.903	1142.56
396.127	1164.56
396.352	1147.56
396.576	1120.56
396.801	1162.56
397.025	1184.56
397.249	1149.56
397.474	1201.56
397.698	1178.56
397.922	1195.56
398.147	1172.56
398.371	1198.56
398.595	1220.56
398.82	1244.56
399.044	1256.56
399.268	1246.56
399.492	1311.56
399.717	1350.56
399.941	1340.56
400.165	1335.56
400.389	1326.56
400.613	1292.56
400.837	1285.56
401.062	1282.56
401.286	1299.56
401.51	1251.56
401.734	1241.56
401.958	1244.56
402.182	1259.56
402.406	1241.56
402.63	1240.56
402.854	1235.56
403.078	1264.56
403.302	1211.56
403.526	1268.56
403.75	1261.56
403.974	1259.56
404.198	1246.56
404.422	1261.56
404.645	1252.56
404.869	1214.56
405.093	1258.56
405.317	1268.56
405.541	1297.56
405.765	1272.56
405.988	1284.56
406.212	1275.56
406.436	1273.56
406.66	1317.56
406.883	1289.56
407.107	1339.56
407.331	1390.56
407.555	1366.56
407.778	1376.56
408.002	1347.56
408.226	1364.56
408.449	1400.56
408.673	1342.56
408.896	1320.56
409.12	1328.56
409.344	1346.56
409.567	1291.56
409.791	1318.56
410.014	1293.56
410.238	1287.56
410.461	1289.56
410.685	1312.56
410.908	1284.56
411.132	1268.56
411.355	1294.56
411.578	1293.56
411.802	1275.56
412.025	1292.56
412.249	1284.56
412.472	1301.56
412.695	1304.56
412.919	1253.56
413.142	1253.56
413.365	1239.56
413.589	1245.56
413.812	1249.56
414.035	1268.56
414.258	1260.56
414.482	1250.56
414.705	1227.56
414.928	1245.56
415.151	1239.56
415.374	1232.56
415.597	1235.56
415.821	1218.56
416.044	1230.56
416.267	1213.56
416.49	1193.56
416.713	1191.56
416.936	1222.56
417.159	1221.56
417.382	1186.56
417.605	1185.56
417.828	1216.56
418.051	1200.56
418.274	1174.56
418.497	1219.56
418.72	1206.56
418.943	1203.56
419.166	1281.56
419.389	1283.56
419.611	1321.56
419.834	1249.56
420.057	1211.56
420.28	1203.56
420.503	1188.56
420.726	1170.56
420.948	1180.56
421.171	1176.56
421.394	1222.56
421.617	1170.56
421.839	1174.56
422.062	1196.56
422.285	1184.56
422.507	1189.56
422.73	1208.56
422.953	1206.56
423.175	1226.56
423.398	1237.56
423.621	1179.56
423.843	1193.56
424.066	1196.56
424.288	1174.56
424.511	1228.56
424.733	1179.56
424.956	1179.56
425.178	1212.56
425.401	1208.56
425.623	1222.56
425.846	1197.56
426.068	1188.56
426.291	1180.56
426.513	1170.56
426.735	1193.56
426.958	1192.56
427.18	1169.56
427.402	1149.56
427.625	1147.56
427.847	1184.56
428.069	1184.56
428.292	1150.56
428.514	1173.56
428.736	1173.56
428.958	1188.56
429.181	1143.56
429.403	1174.56
429.625	1169.56
429.847	1143.56
430.069	1179.56
430.292	1162.56
430.514	1189.56
430.736	1183.56
430.958	1204.56
431.18	1126.56
431.402	1180.56
431.624	1180.56
431.846	1128.56
432.068	1156.56
432.29	1184.56
432.512	1152.56
432.734	1182.56
432.956	1216.56
433.178	1210.56
433.4	1189.56
433.622	1218.56
433.844	1204.56
434.066	1191.56
434.287	1176.56
434.509	1177.56
434.731	1212.56
434.953	1172.56
435.175	1247.56
435.397	1256.56
435.618	1207.56
435.84	1182.56
436.062	1177.56
436.284	1217.56
436.505	1200.56
436.727	1178.56
436.949	1181.56
437.17	1181.56
437.392	1218.56
437.614	1170.56
437.835	1120.56
438.057	1150.56
438.278	1118.56
438.5	1171.56
438.721	1160.56
438.943	1160.56
439.165	1132.56
439.386	1172.56
439.608	1179.56
439.829	1174.56
440.05	1151.56
440.272	1209.56
440.493	1197.56
440.715	1213.56
440.936	1189.56
441.158	1197.56
441.379	1178.56
441.6	1202.56
441.822	1202.56
442.043	1230.56
442.264	1219.56
442.486	1213.56
442.707	1208.56
442.928	1229.56
443.149	1212.56
443.371	1236.56
443.592	1278.56
443.813	1290.56
444.034	1228.56
444.255	1243.56
444.476	1214.56
444.698	1261.56
444.919	1283.56
445.14	1333.56
445.361	1293.56
445.582	1295.56
445.803	1218.56
446.024	1216.56
446.245	1194.56
446.466	1195.56
446.687	1183.56
446.908	1175.56
447.129	1143.56
447.35	1169.56
447.571	1122.56
447.792	1124.56
448.013	1127.56
448.234	1107.56
448.455	1101.56
448.675	1097.56
448.896	1097.56
449.117	1094.56
449.338	1118.56
449.559	1090.56
449.779	1092.56
450	1075.56
450.221	1066.56
450.442	1100.56
450.662	1078.56
450.883	1079.56
451.104	1120.56
451.324	1100.56
451.545	1087.56
451.766	1084.56
451.986	1090.56
452.207	1113.56
452.428	1074.56
452.648	1081.56
452.869	1032.56
453.089	1061.56
453.31	1092.56
453.53	1060.56
453.751	1058.56
453.971	1072.56
454.192	1076.56
454.412	1089.56
454.633	1072.56
454.853	1082.56
455.073	1050.56
455.294	1064.56
455.514	1033.56
455.734	1095.56
455.955	1088.56
456.175	1122.56
456.395	1059.56
456.616	1066.56
456.836	1061.56
457.056	1049.56
457.276	1025.56
457.497	1076.56
457.717	1078.56
457.937	1095.56
458.157	1094.56
458.377	1070.56
458.598	1079.56
458.818	1104.56
459.038	1108.56
459.258	1120.56
459.478	1163.56
459.698	1231.56
459.918	1238.56
460.138	1225.56
460.358	1239.56
460.578	1241.56
460.798	1279.56
461.018	1244.56
461.238	1236.56
461.458	1231.56
461.678	1243.56
461.898	1265.56
462.118	1257.56
462.338	1282.56
462.558	1284.56
462.777	1332.56
462.997	1371.56
463.217	1387.56
463.437	1449.56
463.657	1384.56
463.876	1340.56
464.096	1329.56
464.316	1331.56
464.536	1329.56
464.755	1320.56
464.975	1285.56
465.195	1289.56
465.414	1228.56
465.634	1210.56
465.854	1186.56
466.073	1210.56
466.293	1125.56
466.512	1162.56
466.732	1159.56
466.951	1157.56
467.171	1152.56
467.391	1164.56
467.61	1124.56
467.829	1141.56
468.049	1147.56
468.268	1101.56
468.488	1110.56
468.707	1130.56
468.927	1142.56
469.146	1138.56
469.365	1163.56
469.585	1132.56
469.804	1159.56
470.023	1114.56
470.243	1125.56
470.462	1127.56
470.681	1125.56
470.901	1148.56
471.12	1133.56
471.339	1154.56
471.558	1136.56
471.777	1155.56
471.997	1127.56
472.216	1134.56
472.435	1162.56
472.654	1131.56
472.873	1080.56
473.092	1122.56
473.311	1126.56
473.53	1146.56
473.749	1136.56
473.968	1153.56
474.187	1147.56
474.406	1106.56
474.625	1130.56
474.844	1141.56
475.063	1190.56
475.282	1170.56
475.501	1153.56
475.72	1196.56
475.939	1177.56
476.158	1212.56
476.377	1208.56
476.596	1175.56
476.814	1208.56
477.033	1217.56
477.252	1232.56
477.471	1212.56
477.69	1248.56
477.908	1222.56
478.127	1275.56
478.346	1261.56
478.564	1284.56
478.783	1310.56
479.002	1347.56
479.22	1365.56
479.439	1340.56
479.658	1366.56
479.876	1349.56
480.095	1318.56
480.313	1355.56
480.532	1370.56
480.751	1364.56
480.969	1369.56
481.188	1329.56
481.406	1324.56
481.624	1321.56
481.843	1307.56
482.061	1348.56
482.28	1349.56
482.498	1304.56
482.717	1337.56
482.935	1337.56
483.153	1340.56
483.372	1398.56
483.59	1422.56
483.808	1362.56
484.027	1362.56
484.245	1386.56
484.463	1339.56
484.681	1363.56
484.9	1390.56
485.118	1371.56
485.336	1362.56
485.554	1369.56
485.772	1350.56
485.99	1369.56
486.209	1377.56
486.427	1347.56
486.645	1386.56
486.863	1390.56
487.081	1382.56
487.299	1377.56
487.517	1382.56
487.735	1390.56
487.953	1414.56
488.171	1426.56
488.389	1445.56
488.607	1424.56
488.825	1377.56
489.043	1392.56
489.261	1393.56
489.479	1400.56
489.696	1392.56
489.914	1396.56
490.132	1408.56
490.35	1394.56
490.568	1413.56
490.786	1425.56
491.003	1408.56
491.221	1428.56
491.439	1419.56
491.657	1440.56
491.874	1434.56
492.092	1412.56
492.31	1484.56
492.527	1437.56
492.745	1435.56
492.963	1465.56
493.18	1494.56
493.398	1483.56
493.615	1442.56
493.833	1448.56
494.05	1492.56
