Data from Ni(NO3)2@0.25M.TitratingCurve.Agarose3%dH2O.NegLispCup.LampEnergy10.LIBS07252019_HRD10591_18-02-57-565.txt Node
Date: Thu Jul 25 18:02:57 EDT 2019
User: cochatt
Spectrometer: HR+D1059
Trigger mode: 1
Integration Time (sec): 1.000000E-1
Scans to average: 1
Electric dark correction enabled: true
Nonlinearity correction enabled: false
Boxcar width: 0
XAxis mode: Wavelengths
Number of Pixels in Spectrum: 2048
>>>>>Begin Spectral Data<<<<<
223.165	-18.44
223.4	-18.44
223.635	-18.44
223.869	-9.44
224.104	-23.44
224.338	-20.44
224.573	-8.44
224.808	-1.44
225.042	0.56
225.277	-8.44
225.511	5.56
225.746	-1.44
225.98	5.56
226.215	14.56
226.449	9.56
226.683	18.56
226.918	19.56
227.152	17.56
227.387	26.56
227.621	33.56
227.856	53.56
228.09	48.56
228.324	60.56
228.559	49.56
228.793	61.56
229.027	92.56
229.262	91.56
229.496	87.56
229.73	87.56
229.964	109.56
230.199	100.56
230.433	124.56
230.667	115.56
230.901	110.56
231.136	125.56
231.37	126.56
231.604	123.56
231.838	137.56
232.072	112.56
232.306	133.56
232.541	122.56
232.775	116.56
233.009	128.56
233.243	120.56
233.477	120.56
233.711	116.56
233.945	113.56
234.179	117.56
234.413	126.56
234.647	120.56
234.881	124.56
235.115	132.56
235.349	113.56
235.583	106.56
235.817	106.56
236.051	114.56
236.285	106.56
236.519	99.56
236.753	124.56
236.987	123.56
237.221	117.56
237.455	124.56
237.689	119.56
237.922	115.56
238.156	109.56
238.39	125.56
238.624	128.56
238.858	141.56
239.091	121.56
239.325	113.56
239.559	121.56
239.793	124.56
240.027	150.56
240.26	136.56
240.494	130.56
240.728	131.56
240.961	118.56
241.195	131.56
241.429	128.56
241.662	130.56
241.896	138.56
242.13	160.56
242.363	142.56
242.597	139.56
242.83	131.56
243.064	151.56
243.298	143.56
243.531	135.56
243.765	148.56
243.998	146.56
244.232	156.56
244.465	149.56
244.699	145.56
244.932	143.56
245.166	149.56
245.399	154.56
245.633	148.56
245.866	154.56
246.099	160.56
246.333	165.56
246.566	164.56
246.8	162.56
247.033	171.56
247.266	171.56
247.5	174.56
247.733	168.56
247.966	182.56
248.2	197.56
248.433	194.56
248.666	182.56
248.899	212.56
249.133	210.56
249.366	186.56
249.599	213.56
249.832	213.56
250.066	188.56
250.299	208.56
250.532	237.56
250.765	221.56
250.998	225.56
251.231	242.56
251.465	247.56
251.698	261.56
251.931	260.56
252.164	240.56
252.397	278.56
252.63	250.56
252.863	266.56
253.096	264.56
253.329	290.56
253.562	274.56
253.795	289.56
254.028	290.56
254.261	291.56
254.494	306.56
254.727	292.56
254.96	300.56
255.193	301.56
255.426	325.56
255.659	313.56
255.892	314.56
256.124	316.56
256.357	321.56
256.59	330.56
256.823	328.56
257.056	338.56
257.289	334.56
257.521	354.56
257.754	361.56
257.987	340.56
258.22	361.56
258.452	372.56
258.685	376.56
258.918	354.56
259.151	359.56
259.383	352.56
259.616	349.56
259.849	375.56
260.081	372.56
260.314	386.56
260.547	391.56
260.779	376.56
261.012	372.56
261.244	373.56
261.477	378.56
261.71	393.56
261.942	383.56
262.175	419.56
262.407	404.56
262.64	403.56
262.872	399.56
263.105	393.56
263.337	412.56
263.57	419.56
263.802	402.56
264.035	410.56
264.267	428.56
264.499	404.56
264.732	426.56
264.964	438.56
265.197	406.56
265.429	424.56
265.661	430.56
265.894	424.56
266.126	452.56
266.358	418.56
266.591	420.56
266.823	432.56
267.055	438.56
267.287	444.56
267.52	450.56
267.752	443.56
267.984	438.56
268.216	440.56
268.448	460.56
268.681	431.56
268.913	423.56
269.145	444.56
269.377	458.56
269.609	456.56
269.841	462.56
270.073	463.56
270.306	452.56
270.538	443.56
270.77	444.56
271.002	450.56
271.234	459.56
271.466	448.56
271.698	459.56
271.93	450.56
272.162	445.56
272.394	448.56
272.626	470.56
272.858	442.56
273.09	462.56
273.322	463.56
273.553	475.56
273.785	486.56
274.017	463.56
274.249	468.56
274.481	466.56
274.713	473.56
274.945	459.56
275.176	483.56
275.408	483.56
275.64	474.56
275.872	440.56
276.104	478.56
276.335	474.56
276.567	455.56
276.799	450.56
277.031	463.56
277.262	480.56
277.494	475.56
277.726	469.56
277.957	488.56
278.189	453.56
278.421	461.56
278.652	475.56
278.884	484.56
279.115	488.56
279.347	477.56
279.579	486.56
279.81	484.56
280.042	496.56
280.273	470.56
280.505	483.56
280.736	472.56
280.968	466.56
281.199	484.56
281.431	498.56
281.662	487.56
281.894	478.56
282.125	477.56
282.356	475.56
282.588	475.56
282.819	482.56
283.051	486.56
283.282	474.56
283.513	478.56
283.745	478.56
283.976	474.56
284.207	491.56
284.439	490.56
284.67	502.56
284.901	486.56
285.132	498.56
285.364	482.56
285.595	483.56
285.826	493.56
286.057	490.56
286.288	477.56
286.52	490.56
286.751	497.56
286.982	491.56
287.213	483.56
287.444	490.56
287.675	493.56
287.906	483.56
288.138	500.56
288.369	487.56
288.6	488.56
288.831	476.56
289.062	476.56
289.293	470.56
289.524	504.56
289.755	488.56
289.986	505.56
290.217	489.56
290.448	517.56
290.679	489.56
290.91	492.56
291.141	478.56
291.371	506.56
291.602	512.56
291.833	502.56
292.064	503.56
292.295	512.56
292.526	482.56
292.757	477.56
292.987	471.56
293.218	477.56
293.449	501.56
293.68	502.56
293.91	480.56
294.141	499.56
294.372	483.56
294.603	493.56
294.833	476.56
295.064	501.56
295.295	500.56
295.525	499.56
295.756	485.56
295.987	492.56
296.217	479.56
296.448	473.56
296.679	500.56
296.909	477.56
297.14	487.56
297.37	503.56
297.601	510.56
297.831	508.56
298.062	483.56
298.292	510.56
298.523	499.56
298.753	505.56
298.984	492.56
299.214	515.56
299.445	499.56
299.675	502.56
299.905	519.56
300.136	503.56
300.366	512.56
300.597	520.56
300.827	516.56
301.057	520.56
301.288	535.56
301.518	540.56
301.748	537.56
301.979	541.56
302.209	533.56
302.439	530.56
302.669	525.56
302.9	532.56
303.13	527.56
303.36	564.56
303.59	546.56
303.82	544.56
304.051	544.56
304.281	532.56
304.511	534.56
304.741	544.56
304.971	540.56
305.201	584.56
305.431	553.56
305.661	558.56
305.891	547.56
306.121	567.56
306.352	550.56
306.582	557.56
306.812	555.56
307.042	571.56
307.272	545.56
307.502	546.56
307.731	561.56
307.961	585.56
308.191	581.56
308.421	595.56
308.651	584.56
308.881	578.56
309.111	573.56
309.341	582.56
309.571	587.56
309.8	608.56
310.03	585.56
310.26	616.56
310.49	604.56
310.72	599.56
310.949	600.56
311.179	608.56
311.409	627.56
311.639	615.56
311.868	631.56
312.098	626.56
312.328	638.56
312.557	641.56
312.787	667.56
313.017	673.56
313.246	681.56
313.476	676.56
313.706	656.56
313.935	668.56
314.165	692.56
314.394	673.56
314.624	685.56
314.853	679.56
315.083	714.56
315.312	692.56
315.542	685.56
315.771	706.56
316.001	713.56
316.23	706.56
316.46	727.56
316.689	730.56
316.919	730.56
317.148	716.56
317.377	753.56
317.607	766.56
317.836	775.56
318.065	757.56
318.295	781.56
318.524	782.56
318.753	802.56
318.983	765.56
319.212	775.56
319.441	782.56
319.67	827.56
319.9	794.56
320.129	825.56
320.358	833.56
320.587	845.56
320.816	864.56
321.046	836.56
321.275	830.56
321.504	857.56
321.733	843.56
321.962	901.56
322.191	882.56
322.42	866.56
322.649	859.56
322.878	881.56
323.108	920.56
323.337	901.56
323.566	933.56
323.795	908.56
324.024	908.56
324.253	940.56
324.482	945.56
324.71	924.56
324.939	971.56
325.168	946.56
325.397	972.56
325.626	969.56
325.855	988.56
326.084	990.56
326.313	998.56
326.542	996.56
326.77	999.56
326.999	993.56
327.228	1014.56
327.457	1017.56
327.686	1024.56
327.914	1045.56
328.143	1044.56
328.372	1036.56
328.6	1056.56
328.829	1056.56
329.058	1068.56
329.287	1072.56
329.515	1064.56
329.744	1076.56
329.972	1050.56
330.201	1097.56
330.43	1082.56
330.658	1093.56
330.887	1117.56
331.115	1124.56
331.344	1125.56
331.572	1094.56
331.801	1140.56
332.03	1143.56
332.258	1132.56
332.486	1136.56
332.715	1137.56
332.943	1139.56
333.172	1178.56
333.4	1166.56
333.629	1189.56
333.857	1207.56
334.085	1187.56
334.314	1215.56
334.542	1202.56
334.771	1233.56
334.999	1206.56
335.227	1227.56
335.455	1206.56
335.684	1224.56
335.912	1216.56
336.14	1237.56
336.369	1242.56
336.597	1258.56
336.825	1223.56
337.053	1238.56
337.281	1244.56
337.51	1252.56
337.738	1261.56
337.966	1236.56
338.194	1205.56
338.422	1210.56
338.65	1210.56
338.878	1230.56
339.106	1242.56
339.334	1234.56
339.562	1241.56
339.79	1208.56
340.018	1205.56
340.246	1261.56
340.474	1253.56
340.702	1240.56
340.93	1217.56
341.158	1256.56
341.386	1197.56
341.614	1238.56
341.842	1225.56
342.07	1171.56
342.298	1229.56
342.526	1219.56
342.754	1230.56
342.981	1210.56
343.209	1242.56
343.437	1236.56
343.665	1266.56
343.893	1280.56
344.12	1265.56
344.348	1268.56
344.576	1255.56
344.804	1242.56
345.031	1237.56
345.259	1269.56
345.487	1245.56
345.714	1237.56
345.942	1226.56
346.17	1216.56
346.397	1225.56
346.625	1200.56
346.853	1213.56
347.08	1237.56
347.308	1253.56
347.535	1184.56
347.763	1208.56
347.99	1244.56
348.218	1218.56
348.445	1204.56
348.673	1204.56
348.9	1202.56
349.128	1211.56
349.355	1223.56
349.583	1196.56
349.81	1188.56
350.037	1216.56
350.265	1210.56
350.492	1195.56
350.72	1191.56
350.947	1181.56
351.174	1209.56
351.402	1190.56
351.629	1165.56
351.856	1172.56
352.083	1178.56
352.311	1141.56
352.538	1163.56
352.765	1167.56
352.992	1171.56
353.22	1151.56
353.447	1174.56
353.674	1192.56
353.901	1176.56
354.128	1196.56
354.355	1157.56
354.583	1178.56
354.81	1166.56
355.037	1186.56
355.264	1162.56
355.491	1197.56
355.718	1184.56
355.945	1140.56
356.172	1163.56
356.399	1163.56
356.626	1194.56
356.853	1241.56
357.08	1182.56
357.307	1165.56
357.534	1183.56
357.761	1174.56
357.988	1188.56
358.215	1200.56
358.441	1129.56
358.668	1161.56
358.895	1172.56
359.122	1176.56
359.349	1162.56
359.576	1186.56
359.802	1178.56
360.029	1185.56
360.256	1173.56
360.483	1174.56
360.709	1180.56
360.936	1187.56
361.163	1202.56
361.39	1171.56
361.616	1184.56
361.843	1179.56
362.07	1176.56
362.296	1185.56
362.523	1152.56
362.749	1167.56
362.976	1168.56
363.203	1176.56
363.429	1140.56
363.656	1172.56
363.882	1175.56
364.109	1163.56
364.335	1150.56
364.562	1166.56
364.788	1147.56
365.015	1137.56
365.241	1163.56
365.468	1141.56
365.694	1160.56
365.92	1170.56
366.147	1152.56
366.373	1164.56
366.599	1174.56
366.826	1149.56
367.052	1144.56
367.278	1169.56
367.505	1169.56
367.731	1170.56
367.957	1159.56
368.184	1155.56
368.41	1130.56
368.636	1161.56
368.862	1168.56
369.089	1168.56
369.315	1148.56
369.541	1158.56
369.767	1125.56
369.993	1144.56
370.219	1137.56
370.445	1142.56
370.672	1132.56
370.898	1162.56
371.124	1167.56
371.35	1162.56
371.576	1167.56
371.802	1144.56
372.028	1157.56
372.254	1202.56
372.48	1152.56
372.706	1176.56
372.932	1160.56
373.158	1122.56
373.384	1139.56
373.61	1169.56
373.835	1154.56
374.061	1139.56
374.287	1178.56
374.513	1147.56
374.739	1119.56
374.965	1136.56
375.191	1133.56
375.416	1144.56
375.642	1132.56
375.868	1132.56
376.094	1125.56
376.319	1125.56
376.545	1099.56
376.771	1124.56
376.997	1147.56
377.222	1089.56
377.448	1068.56
377.674	1084.56
377.899	1102.56
378.125	1102.56
378.35	1088.56
378.576	1067.56
378.802	1087.56
379.027	1102.56
379.253	1070.56
379.478	1052.56
379.704	1050.56
379.929	1072.56
380.155	1046.56
380.38	1089.56
380.606	1102.56
380.831	1068.56
381.057	1099.56
381.282	1073.56
381.507	1060.56
381.733	1079.56
381.958	1082.56
382.184	1077.56
382.409	1094.56
382.634	1053.56
382.86	1076.56
383.085	1061.56
383.31	1101.56
383.535	1098.56
383.761	1077.56
383.986	1091.56
384.211	1097.56
384.436	1100.56
384.662	1090.56
384.887	1103.56
385.112	1103.56
385.337	1106.56
385.562	1121.56
385.787	1127.56
386.013	1118.56
386.238	1138.56
386.463	1114.56
386.688	1118.56
386.913	1141.56
387.138	1106.56
387.363	1137.56
387.588	1085.56
387.813	1136.56
388.038	1115.56
388.263	1154.56
388.488	1096.56
388.713	1113.56
388.938	1106.56
389.163	1100.56
389.387	1124.56
389.612	1136.56
389.837	1153.56
390.062	1116.56
390.287	1138.56
390.512	1116.56
390.736	1137.56
390.961	1158.56
391.186	1143.56
391.411	1163.56
391.636	1120.56
391.86	1155.56
392.085	1147.56
392.31	1145.56
392.534	1127.56
392.759	1181.56
392.984	1148.56
393.208	1109.56
393.433	1124.56
393.658	1160.56
393.882	1118.56
394.107	1176.56
394.331	1145.56
394.556	1107.56
394.78	1140.56
395.005	1157.56
395.229	1129.56
395.454	1167.56
395.678	1148.56
395.903	1138.56
396.127	1171.56
396.352	1144.56
396.576	1146.56
396.801	1139.56
397.025	1207.56
397.249	1173.56
397.474	1207.56
397.698	1149.56
397.922	1194.56
398.147	1185.56
398.371	1203.56
398.595	1220.56
398.82	1228.56
399.044	1222.56
399.268	1267.56
399.492	1305.56
399.717	1318.56
399.941	1320.56
400.165	1319.56
400.389	1293.56
400.613	1282.56
400.837	1269.56
401.062	1241.56
401.286	1270.56
401.51	1259.56
401.734	1294.56
401.958	1260.56
402.182	1249.56
402.406	1274.56
402.63	1260.56
402.854	1256.56
403.078	1265.56
403.302	1264.56
403.526	1258.56
403.75	1245.56
403.974	1302.56
404.198	1305.56
404.422	1241.56
404.645	1256.56
404.869	1282.56
405.093	1278.56
405.317	1302.56
405.541	1308.56
405.765	1305.56
405.988	1345.56
406.212	1344.56
406.436	1330.56
406.66	1365.56
406.883	1335.56
407.107	1323.56
407.331	1361.56
407.555	1362.56
407.778	1372.56
408.002	1367.56
408.226	1346.56
408.449	1382.56
408.673	1361.56
408.896	1351.56
409.12	1357.56
409.344	1363.56
409.567	1356.56
409.791	1360.56
410.014	1333.56
410.238	1354.56
410.461	1312.56
410.685	1338.56
410.908	1344.56
411.132	1321.56
411.355	1319.56
411.578	1343.56
411.802	1333.56
412.025	1312.56
412.249	1308.56
412.472	1332.56
412.695	1321.56
412.919	1310.56
413.142	1353.56
413.365	1338.56
413.589	1312.56
413.812	1306.56
414.035	1309.56
414.258	1287.56
414.482	1304.56
414.705	1306.56
414.928	1332.56
415.151	1319.56
415.374	1292.56
415.597	1312.56
415.821	1283.56
416.044	1317.56
416.267	1307.56
416.49	1293.56
416.713	1302.56
416.936	1312.56
417.159	1290.56
417.382	1265.56
417.605	1244.56
417.828	1306.56
418.051	1300.56
418.274	1306.56
418.497	1298.56
418.72	1292.56
418.943	1276.56
419.166	1392.56
419.389	1464.56
419.611	1400.56
419.834	1379.56
420.057	1362.56
420.28	1334.56
420.503	1299.56
420.726	1280.56
420.948	1266.56
421.171	1306.56
421.394	1300.56
421.617	1289.56
421.839	1326.56
422.062	1334.56
422.285	1290.56
422.507	1331.56
422.73	1330.56
422.953	1328.56
423.175	1320.56
423.398	1286.56
423.621	1312.56
423.843	1362.56
424.066	1381.56
424.288	1355.56
424.511	1341.56
424.733	1362.56
424.956	1348.56
425.178	1357.56
425.401	1354.56
425.623	1328.56
425.846	1329.56
426.068	1308.56
426.291	1334.56
426.513	1330.56
426.735	1328.56
426.958	1327.56
427.18	1316.56
427.402	1351.56
427.625	1346.56
427.847	1353.56
428.069	1363.56
428.292	1349.56
428.514	1354.56
428.736	1325.56
428.958	1396.56
429.181	1344.56
429.403	1350.56
429.625	1360.56
429.847	1336.56
430.069	1363.56
430.292	1380.56
430.514	1317.56
430.736	1350.56
430.958	1367.56
431.18	1340.56
431.402	1364.56
431.624	1360.56
431.846	1327.56
432.068	1322.56
432.29	1371.56
432.512	1315.56
432.734	1360.56
432.956	1374.56
433.178	1430.56
433.4	1396.56
433.622	1383.56
433.844	1379.56
434.066	1382.56
434.287	1362.56
434.509	1359.56
434.731	1350.56
434.953	1364.56
435.175	1394.56
435.397	1400.56
435.618	1369.56
435.84	1363.56
436.062	1357.56
436.284	1381.56
436.505	1370.56
436.727	1359.56
436.949	1358.56
437.17	1380.56
437.392	1341.56
437.614	1345.56
437.835	1331.56
438.057	1358.56
438.278	1344.56
438.5	1350.56
438.721	1357.56
438.943	1363.56
439.165	1349.56
439.386	1360.56
439.608	1376.56
439.829	1387.56
440.05	1356.56
440.272	1366.56
440.493	1365.56
440.715	1356.56
440.936	1362.56
441.158	1424.56
441.379	1343.56
441.6	1420.56
441.822	1426.56
442.043	1387.56
442.264	1390.56
442.486	1380.56
442.707	1378.56
442.928	1409.56
443.149	1406.56
443.371	1382.56
443.592	1400.56
443.813	1394.56
444.034	1379.56
444.255	1368.56
444.476	1397.56
444.698	1414.56
444.919	1419.56
445.14	1516.56
445.361	1469.56
445.582	1403.56
445.803	1371.56
446.024	1392.56
446.245	1365.56
446.466	1357.56
446.687	1328.56
446.908	1357.56
447.129	1321.56
447.35	1362.56
447.571	1302.56
447.792	1285.56
448.013	1308.56
448.234	1275.56
448.455	1304.56
448.675	1302.56
448.896	1299.56
449.117	1236.56
449.338	1277.56
449.559	1295.56
449.779	1265.56
450	1266.56
450.221	1310.56
450.442	1273.56
450.662	1259.56
450.883	1299.56
451.104	1294.56
451.324	1286.56
451.545	1284.56
451.766	1309.56
451.986	1281.56
452.207	1269.56
452.428	1264.56
452.648	1272.56
452.869	1259.56
453.089	1221.56
453.31	1255.56
453.53	1219.56
453.751	1276.56
453.971	1248.56
454.192	1260.56
454.412	1268.56
454.633	1232.56
454.853	1222.56
455.073	1241.56
455.294	1228.56
455.514	1271.56
455.734	1255.56
455.955	1220.56
456.175	1249.56
456.395	1222.56
456.616	1205.56
456.836	1249.56
457.056	1269.56
457.276	1226.56
457.497	1290.56
457.717	1249.56
457.937	1227.56
458.157	1269.56
458.377	1243.56
458.598	1252.56
458.818	1253.56
459.038	1247.56
459.258	1286.56
459.478	1295.56
459.698	1275.56
459.918	1307.56
460.138	1355.56
460.358	1375.56
460.578	1340.56
460.798	1341.56
461.018	1405.56
461.238	1385.56
461.458	1389.56
461.678	1345.56
461.898	1360.56
462.118	1368.56
462.338	1415.56
462.558	1402.56
462.777	1417.56
462.997	1454.56
463.217	1463.56
463.437	1501.56
463.657	1440.56
463.876	1460.56
464.096	1426.56
464.316	1415.56
464.536	1420.56
464.755	1425.56
464.975	1415.56
465.195	1393.56
465.414	1377.56
465.634	1351.56
465.854	1338.56
466.073	1348.56
466.293	1343.56
466.512	1304.56
466.732	1356.56
466.951	1327.56
467.171	1336.56
467.391	1345.56
467.61	1321.56
467.829	1333.56
468.049	1293.56
468.268	1312.56
468.488	1339.56
468.707	1310.56
468.927	1343.56
469.146	1350.56
469.365	1344.56
469.585	1347.56
469.804	1339.56
470.023	1353.56
470.243	1349.56
470.462	1371.56
470.681	1361.56
470.901	1355.56
471.12	1334.56
471.339	1366.56
471.558	1376.56
471.777	1344.56
471.997	1381.56
472.216	1316.56
472.435	1351.56
472.654	1342.56
472.873	1334.56
473.092	1364.56
473.311	1372.56
473.53	1379.56
473.749	1353.56
473.968	1382.56
474.187	1372.56
474.406	1384.56
474.625	1404.56
474.844	1392.56
475.063	1417.56
475.282	1408.56
475.501	1423.56
475.72	1417.56
475.939	1415.56
476.158	1441.56
476.377	1435.56
476.596	1446.56
476.814	1452.56
477.033	1441.56
477.252	1472.56
477.471	1487.56
477.69	1514.56
477.908	1539.56
478.127	1522.56
478.346	1571.56
478.564	1586.56
478.783	1558.56
479.002	1574.56
479.22	1593.56
479.439	1590.56
479.658	1565.56
479.876	1626.56
480.095	1614.56
480.313	1617.56
480.532	1614.56
480.751	1615.56
480.969	1599.56
481.188	1590.56
481.406	1588.56
481.624	1579.56
481.843	1622.56
482.061	1617.56
482.28	1573.56
482.498	1621.56
482.717	1577.56
482.935	1654.56
483.153	1672.56
483.372	1667.56
483.59	1670.56
483.808	1650.56
484.027	1661.56
484.245	1639.56
484.463	1674.56
484.681	1660.56
484.9	1693.56
485.118	1701.56
485.336	1643.56
485.554	1660.56
485.772	1659.56
485.99	1683.56
486.209	1684.56
486.427	1685.56
486.645	1656.56
486.863	1708.56
487.081	1699.56
487.299	1663.56
487.517	1712.56
487.735	1712.56
487.953	1745.56
488.171	1728.56
488.389	1747.56
488.607	1743.56
488.825	1747.56
489.043	1706.56
489.261	1736.56
489.479	1728.56
489.696	1688.56
489.914	1740.56
490.132	1728.56
490.35	1800.56
490.568	1772.56
490.786	1800.56
491.003	1790.56
491.221	1742.56
491.439	1769.56
491.657	1757.56
