Data from Ni(NO3)2Standard.Agarose3%.GreenCap.LampEnergy5.5.E.O_HRD10591_14-42-17-188.txt Node
Date: Mon Jul 22 14:42:17 EDT 2019
User: cochatt
Spectrometer: HR+D1059
Trigger mode: 1
Integration Time (sec): 1.000000E-1
Scans to average: 1
Electric dark correction enabled: true
Nonlinearity correction enabled: false
Boxcar width: 0
XAxis mode: Wavelengths
Number of Pixels in Spectrum: 2048
>>>>>Begin Spectral Data<<<<<
223.165	-23.31
223.4	-23.31
223.635	-23.31
223.869	2.69
224.104	-24.31
224.338	-11.31
224.573	-13.31
224.808	-16.31
225.042	-9.31
225.277	-1.31
225.511	-0.31
225.746	-7.31
225.98	0.69
226.215	11.69
226.449	22.69
226.683	13.69
226.918	16.69
227.152	38.69
227.387	49.69
227.621	41.69
227.856	54.69
228.09	41.69
228.324	53.69
228.559	71.69
228.793	57.69
229.027	70.69
229.262	68.69
229.496	60.69
229.73	68.69
229.964	65.69
230.199	73.69
230.433	91.69
230.667	92.69
230.901	65.69
231.136	83.69
231.37	76.69
231.604	81.69
231.838	81.69
232.072	93.69
232.306	66.69
232.541	78.69
232.775	81.69
233.009	72.69
233.243	96.69
233.477	88.69
233.711	71.69
233.945	91.69
234.179	90.69
234.413	79.69
234.647	90.69
234.881	77.69
235.115	81.69
235.349	67.69
235.583	78.69
235.817	77.69
236.051	85.69
236.285	78.69
236.519	78.69
236.753	85.69
236.987	73.69
237.221	83.69
237.455	88.69
237.689	79.69
237.922	77.69
238.156	71.69
238.39	76.69
238.624	70.69
238.858	75.69
239.091	67.69
239.325	68.69
239.559	71.69
239.793	84.69
240.027	67.69
240.26	68.69
240.494	59.69
240.728	75.69
240.961	74.69
241.195	61.69
241.429	75.69
241.662	70.69
241.896	76.69
242.13	78.69
242.363	83.69
242.597	74.69
242.83	69.69
243.064	84.69
243.298	78.69
243.531	77.69
243.765	78.69
243.998	78.69
244.232	66.69
244.465	72.69
244.699	86.69
244.932	90.69
245.166	76.69
245.399	86.69
245.633	78.69
245.866	65.69
246.099	70.69
246.333	73.69
246.566	81.69
246.8	82.69
247.033	77.69
247.266	84.69
247.5	85.69
247.733	79.69
247.966	75.69
248.2	71.69
248.433	71.69
248.666	70.69
248.899	86.69
249.133	81.69
249.366	88.69
249.599	77.69
249.832	73.69
250.066	75.69
250.299	77.69
250.532	77.69
250.765	84.69
250.998	83.69
251.231	78.69
251.465	80.69
251.698	84.69
251.931	76.69
252.164	78.69
252.397	84.69
252.63	75.69
252.863	76.69
253.096	71.69
253.329	87.69
253.562	80.69
253.795	73.69
254.028	88.69
254.261	81.69
254.494	73.69
254.727	90.69
254.96	98.69
255.193	85.69
255.426	76.69
255.659	76.69
255.892	77.69
256.124	87.69
256.357	86.69
256.59	70.69
256.823	82.69
257.056	70.69
257.289	87.69
257.521	90.69
257.754	88.69
257.987	88.69
258.22	80.69
258.452	88.69
258.685	86.69
258.918	84.69
259.151	86.69
259.383	79.69
259.616	84.69
259.849	75.69
260.081	90.69
260.314	90.69
260.547	78.69
260.779	83.69
261.012	67.69
261.244	70.69
261.477	97.69
261.71	85.69
261.942	91.69
262.175	81.69
262.407	86.69
262.64	75.69
262.872	94.69
263.105	86.69
263.337	95.69
263.57	83.69
263.802	70.69
264.035	79.69
264.267	76.69
264.499	88.69
264.732	96.69
264.964	83.69
265.197	88.69
265.429	76.69
265.661	83.69
265.894	100.69
266.126	76.69
266.358	80.69
266.591	82.69
266.823	93.69
267.055	78.69
267.287	79.69
267.52	83.69
267.752	82.69
267.984	88.69
268.216	98.69
268.448	80.69
268.681	86.69
268.913	77.69
269.145	80.69
269.377	95.69
269.609	88.69
269.841	90.69
270.073	85.69
270.306	91.69
270.538	83.69
270.77	85.69
271.002	92.69
271.234	74.69
271.466	91.69
271.698	89.69
271.93	82.69
272.162	81.69
272.394	94.69
272.626	90.69
272.858	94.69
273.09	98.69
273.322	76.69
273.553	68.69
273.785	91.69
274.017	93.69
274.249	84.69
274.481	99.69
274.713	101.69
274.945	91.69
275.176	84.69
275.408	97.69
275.64	79.69
275.872	83.69
276.104	86.69
276.335	92.69
276.567	96.69
276.799	76.69
277.031	70.69
277.262	72.69
277.494	76.69
277.726	93.69
277.957	83.69
278.189	90.69
278.421	83.69
278.652	84.69
278.884	92.69
279.115	88.69
279.347	85.69
279.579	83.69
279.81	87.69
280.042	79.69
280.273	87.69
280.505	83.69
280.736	82.69
280.968	101.69
281.199	88.69
281.431	74.69
281.662	85.69
281.894	86.69
282.125	88.69
282.356	91.69
282.588	86.69
282.819	98.69
283.051	93.69
283.282	76.69
283.513	90.69
283.745	78.69
283.976	97.69
284.207	95.69
284.439	98.69
284.67	86.69
284.901	64.69
285.132	75.69
285.364	87.69
285.595	89.69
285.826	81.69
286.057	82.69
286.288	104.69
286.52	107.69
286.751	80.69
286.982	90.69
287.213	75.69
287.444	90.69
287.675	91.69
287.906	86.69
288.138	80.69
288.369	77.69
288.6	95.69
288.831	81.69
289.062	76.69
289.293	96.69
289.524	85.69
289.755	91.69
289.986	91.69
290.217	80.69
290.448	90.69
290.679	93.69
290.91	95.69
291.141	72.69
291.371	77.69
291.602	69.69
291.833	77.69
292.064	95.69
292.295	79.69
292.526	85.69
292.757	86.69
292.987	90.69
293.218	74.69
293.449	88.69
293.68	82.69
293.91	85.69
294.141	93.69
294.372	78.69
294.603	97.69
294.833	72.69
295.064	93.69
295.295	91.69
295.525	82.69
295.756	81.69
295.987	84.69
296.217	95.69
296.448	92.69
296.679	75.69
296.909	90.69
297.14	90.69
297.37	86.69
297.601	89.69
297.831	100.69
298.062	85.69
298.292	92.69
298.523	94.69
298.753	79.69
298.984	84.69
299.214	81.69
299.445	90.69
299.675	84.69
299.905	70.69
300.136	89.69
300.366	87.69
300.597	84.69
300.827	76.69
301.057	91.69
301.288	93.69
301.518	79.69
301.748	95.69
301.979	104.69
302.209	95.69
302.439	99.69
302.669	88.69
302.9	81.69
303.13	91.69
303.36	89.69
303.59	90.69
303.82	79.69
304.051	97.69
304.281	94.69
304.511	100.69
304.741	100.69
304.971	87.69
305.201	85.69
305.431	82.69
305.661	93.69
305.891	105.69
306.121	82.69
306.352	101.69
306.582	83.69
306.812	88.69
307.042	91.69
307.272	95.69
307.502	87.69
307.731	80.69
307.961	90.69
308.191	85.69
308.421	92.69
308.651	92.69
308.881	79.69
309.111	85.69
309.341	91.69
309.571	96.69
309.8	76.69
310.03	91.69
310.26	79.69
310.49	95.69
310.72	79.69
310.949	85.69
311.179	83.69
311.409	85.69
311.639	91.69
311.868	93.69
312.098	77.69
312.328	75.69
312.557	85.69
312.787	93.69
313.017	82.69
313.246	94.69
313.476	105.69
313.706	92.69
313.935	76.69
314.165	89.69
314.394	97.69
314.624	75.69
314.853	78.69
315.083	90.69
315.312	90.69
315.542	82.69
315.771	83.69
316.001	81.69
316.23	75.69
316.46	79.69
316.689	87.69
316.919	92.69
317.148	89.69
317.377	91.69
317.607	82.69
317.836	88.69
318.065	97.69
318.295	83.69
318.524	89.69
318.753	90.69
318.983	78.69
319.212	92.69
319.441	84.69
319.67	76.69
319.9	76.69
320.129	85.69
320.358	87.69
320.587	88.69
320.816	91.69
321.046	86.69
321.275	98.69
321.504	84.69
321.733	97.69
321.962	78.69
322.191	95.69
322.42	83.69
322.649	74.69
322.878	96.69
323.108	71.69
323.337	75.69
323.566	94.69
323.795	99.69
324.024	86.69
324.253	76.69
324.482	90.69
324.71	93.69
324.939	73.69
325.168	86.69
325.397	96.69
325.626	97.69
325.855	88.69
326.084	86.69
326.313	65.69
326.542	87.69
326.77	92.69
326.999	102.69
327.228	99.69
327.457	87.69
327.686	92.69
327.914	85.69
328.143	91.69
328.372	81.69
328.6	95.69
328.829	93.69
329.058	97.69
329.287	102.69
329.515	100.69
329.744	91.69
329.972	99.69
330.201	75.69
330.43	79.69
330.658	91.69
330.887	81.69
331.115	84.69
331.344	89.69
331.572	87.69
331.801	91.69
332.03	84.69
332.258	89.69
332.486	84.69
332.715	94.69
332.943	94.69
333.172	89.69
333.4	92.69
333.629	97.69
333.857	92.69
334.085	87.69
334.314	95.69
334.542	85.69
334.771	82.69
334.999	82.69
335.227	77.69
335.455	87.69
335.684	106.69
335.912	91.69
336.14	78.69
336.369	82.69
336.597	98.69
336.825	87.69
337.053	98.69
337.281	71.69
337.51	79.69
337.738	99.69
337.966	88.69
338.194	75.69
338.422	103.69
338.65	96.69
338.878	107.69
339.106	91.69
339.334	98.69
339.562	90.69
339.79	78.69
340.018	82.69
340.246	83.69
340.474	81.69
340.702	87.69
340.93	84.69
341.158	94.69
341.386	94.69
341.614	90.69
341.842	88.69
342.07	86.69
342.298	87.69
342.526	79.69
342.754	78.69
342.981	71.69
343.209	91.69
343.437	86.69
343.665	85.69
343.893	91.69
344.12	110.69
344.348	96.69
344.576	94.69
344.804	89.69
345.031	85.69
345.259	103.69
345.487	102.69
345.714	92.69
345.942	82.69
346.17	71.69
346.397	79.69
346.625	98.69
346.853	77.69
347.08	91.69
347.308	87.69
347.535	85.69
347.763	92.69
347.99	90.69
348.218	75.69
348.445	86.69
348.673	97.69
348.9	64.69
349.128	98.69
349.355	80.69
349.583	94.69
349.81	88.69
350.037	91.69
350.265	86.69
350.492	81.69
350.72	82.69
350.947	84.69
351.174	83.69
351.402	96.69
351.629	85.69
351.856	90.69
352.083	88.69
352.311	90.69
352.538	88.69
352.765	85.69
352.992	85.69
353.22	83.69
353.447	89.69
353.674	78.69
353.901	80.69
354.128	75.69
354.355	84.69
354.583	74.69
354.81	98.69
355.037	88.69
355.264	95.69
355.491	86.69
355.718	89.69
355.945	85.69
356.172	86.69
356.399	80.69
356.626	87.69
356.853	93.69
357.08	85.69
357.307	90.69
357.534	85.69
357.761	83.69
357.988	66.69
358.215	90.69
358.441	93.69
358.668	81.69
358.895	91.69
359.122	103.69
359.349	85.69
359.576	88.69
359.802	101.69
360.029	87.69
360.256	83.69
360.483	94.69
360.709	79.69
360.936	99.69
361.163	78.69
361.39	77.69
361.616	92.69
361.843	88.69
362.07	68.69
362.296	79.69
362.523	72.69
362.749	90.69
362.976	90.69
363.203	85.69
363.429	90.69
363.656	92.69
363.882	84.69
364.109	82.69
364.335	100.69
364.562	87.69
364.788	81.69
365.015	84.69
365.241	82.69
365.468	92.69
365.694	96.69
365.92	94.69
366.147	82.69
366.373	83.69
366.599	94.69
366.826	89.69
367.052	85.69
367.278	82.69
367.505	82.69
367.731	92.69
367.957	74.69
368.184	82.69
368.41	84.69
368.636	87.69
368.862	84.69
369.089	82.69
369.315	85.69
369.541	92.69
369.767	82.69
369.993	92.69
370.219	69.69
370.445	87.69
370.672	93.69
370.898	78.69
371.124	83.69
371.35	99.69
371.576	98.69
371.802	79.69
372.028	92.69
372.254	97.69
372.48	86.69
372.706	81.69
372.932	96.69
373.158	78.69
373.384	93.69
373.61	87.69
373.835	94.69
374.061	84.69
374.287	77.69
374.513	88.69
374.739	90.69
374.965	78.69
375.191	89.69
375.416	92.69
375.642	85.69
375.868	97.69
376.094	84.69
376.319	77.69
376.545	84.69
376.771	90.69
376.997	92.69
377.222	76.69
377.448	86.69
377.674	90.69
377.899	83.69
378.125	95.69
378.35	84.69
378.576	88.69
378.802	77.69
379.027	93.69
379.253	85.69
379.478	92.69
379.704	87.69
379.929	92.69
380.155	82.69
380.38	92.69
380.606	88.69
380.831	85.69
381.057	78.69
381.282	80.69
381.507	88.69
381.733	98.69
381.958	74.69
382.184	79.69
382.409	63.69
382.634	99.69
382.86	85.69
383.085	90.69
383.31	84.69
383.535	77.69
383.761	99.69
383.986	91.69
384.211	88.69
384.436	90.69
384.662	75.69
384.887	86.69
385.112	77.69
385.337	87.69
385.562	75.69
385.787	82.69
386.013	87.69
386.238	89.69
386.463	97.69
386.688	87.69
386.913	72.69
387.138	84.69
387.363	81.69
387.588	98.69
387.813	99.69
388.038	80.69
388.263	95.69
388.488	72.69
388.713	73.69
388.938	89.69
389.163	90.69
389.387	91.69
389.612	85.69
389.837	80.69
390.062	80.69
390.287	86.69
390.512	84.69
390.736	73.69
390.961	90.69
391.186	87.69
391.411	90.69
391.636	89.69
391.86	86.69
392.085	77.69
392.31	89.69
392.534	91.69
392.759	97.69
392.984	94.69
393.208	89.69
393.433	91.69
393.658	89.69
393.882	77.69
394.107	80.69
394.331	90.69
394.556	93.69
394.78	68.69
395.005	90.69
395.229	71.69
395.454	87.69
395.678	86.69
395.903	78.69
396.127	79.69
396.352	90.69
396.576	90.69
396.801	82.69
397.025	70.69
397.249	79.69
397.474	78.69
397.698	91.69
397.922	97.69
398.147	83.69
398.371	82.69
398.595	93.69
398.82	78.69
399.044	85.69
399.268	85.69
399.492	91.69
399.717	82.69
399.941	88.69
400.165	99.69
400.389	89.69
400.613	96.69
400.837	86.69
401.062	93.69
401.286	91.69
401.51	89.69
401.734	79.69
401.958	91.69
402.182	78.69
402.406	83.69
402.63	81.69
402.854	92.69
403.078	91.69
403.302	82.69
403.526	82.69
403.75	94.69
403.974	78.69
404.198	92.69
404.422	90.69
404.645	76.69
404.869	91.69
405.093	92.69
405.317	88.69
405.541	81.69
405.765	72.69
405.988	81.69
406.212	72.69
406.436	83.69
406.66	85.69
406.883	94.69
407.107	85.69
407.331	81.69
407.555	73.69
407.778	92.69
408.002	83.69
408.226	104.69
408.449	85.69
408.673	93.69
408.896	96.69
409.12	86.69
409.344	96.69
409.567	91.69
409.791	79.69
410.014	87.69
410.238	75.69
410.461	87.69
410.685	89.69
410.908	79.69
411.132	80.69
411.355	87.69
411.578	84.69
411.802	90.69
412.025	88.69
412.249	79.69
412.472	80.69
412.695	84.69
412.919	77.69
413.142	84.69
413.365	94.69
413.589	91.69
413.812	88.69
414.035	80.69
414.258	91.69
414.482	78.69
414.705	100.69
414.928	91.69
415.151	83.69
415.374	70.69
415.597	62.69
415.821	94.69
416.044	81.69
416.267	82.69
416.49	77.69
416.713	83.69
416.936	74.69
417.159	77.69
417.382	89.69
417.605	86.69
417.828	85.69
418.051	91.69
418.274	76.69
418.497	77.69
418.72	97.69
418.943	97.69
419.166	85.69
419.389	91.69
419.611	94.69
419.834	86.69
420.057	85.69
420.28	87.69
420.503	98.69
420.726	80.69
420.948	82.69
421.171	87.69
421.394	87.69
421.617	86.69
421.839	78.69
422.062	73.69
422.285	74.69
422.507	75.69
422.73	90.69
422.953	93.69
423.175	86.69
423.398	93.69
423.621	74.69
423.843	87.69
424.066	83.69
424.288	91.69
424.511	91.69
424.733	77.69
424.956	77.69
425.178	77.69
425.401	84.69
425.623	88.69
425.846	84.69
426.068	86.69
426.291	90.69
426.513	88.69
426.735	90.69
426.958	91.69
427.18	79.69
427.402	88.69
427.625	86.69
427.847	90.69
428.069	96.69
428.292	77.69
428.514	65.69
428.736	86.69
428.958	83.69
429.181	92.69
429.403	97.69
429.625	85.69
429.847	68.69
430.069	90.69
430.292	77.69
430.514	81.69
430.736	87.69
430.958	88.69
431.18	71.69
431.402	84.69
431.624	82.69
431.846	96.69
432.068	85.69
432.29	97.69
432.512	77.69
432.734	73.69
432.956	83.69
433.178	97.69
433.4	104.69
433.622	90.69
433.844	86.69
434.066	77.69
434.287	71.69
434.509	87.69
434.731	87.69
434.953	82.69
435.175	87.69
435.397	77.69
435.618	77.69
435.84	94.69
436.062	89.69
436.284	90.69
436.505	78.69
436.727	83.69
436.949	83.69
437.17	101.69
437.392	84.69
437.614	83.69
437.835	92.69
438.057	73.69
438.278	95.69
438.5	93.69
438.721	70.69
438.943	94.69
439.165	84.69
439.386	82.69
439.608	89.69
439.829	86.69
440.05	91.69
440.272	101.69
440.493	74.69
440.715	74.69
440.936	87.69
441.158	100.69
441.379	90.69
441.6	91.69
441.822	90.69
442.043	78.69
442.264	93.69
442.486	76.69
442.707	82.69
442.928	79.69
443.149	75.69
443.371	86.69
443.592	83.69
443.813	84.69
444.034	93.69
444.255	90.69
444.476	68.69
444.698	86.69
444.919	92.69
445.14	210.69
445.361	146.69
445.582	100.69
445.803	91.69
446.024	79.69
446.245	75.69
446.466	89.69
446.687	93.69
446.908	83.69
447.129	101.69
447.35	85.69
447.571	87.69
447.792	85.69
448.013	91.69
448.234	85.69
448.455	84.69
448.675	88.69
448.896	95.69
449.117	91.69
449.338	77.69
449.559	73.69
449.779	81.69
450	90.69
450.221	82.69
450.442	76.69
450.662	88.69
450.883	90.69
451.104	94.69
451.324	71.69
451.545	76.69
451.766	74.69
451.986	85.69
452.207	85.69
452.428	71.69
452.648	71.69
452.869	82.69
453.089	81.69
453.31	86.69
453.53	86.69
453.751	83.69
453.971	67.69
454.192	89.69
454.412	69.69
454.633	84.69
454.853	90.69
455.073	80.69
455.294	93.69
455.514	98.69
455.734	89.69
455.955	86.69
456.175	76.69
456.395	84.69
456.616	75.69
456.836	97.69
457.056	81.69
457.276	86.69
457.497	71.69
457.717	78.69
457.937	62.69
458.157	96.69
458.377	96.69
458.598	99.69
458.818	83.69
459.038	83.69
459.258	75.69
459.478	94.69
459.698	77.69
459.918	82.69
460.138	84.69
460.358	90.69
460.578	88.69
460.798	77.69
461.018	90.69
461.238	84.69
461.458	84.69
461.678	86.69
461.898	77.69
462.118	95.69
462.338	87.69
462.558	91.69
462.777	91.69
462.997	77.69
463.217	91.69
463.437	88.69
463.657	81.69
463.876	89.69
464.096	93.69
464.316	95.69
464.536	93.69
464.755	84.69
464.975	80.69
465.195	81.69
465.414	77.69
465.634	77.69
465.854	76.69
466.073	110.69
466.293	82.69
466.512	94.69
466.732	86.69
466.951	90.69
467.171	81.69
467.391	97.69
467.61	90.69
467.829	77.69
468.049	80.69
468.268	82.69
468.488	70.69
468.707	89.69
468.927	94.69
469.146	80.69
469.365	77.69
469.585	83.69
469.804	91.69
470.023	77.69
470.243	94.69
470.462	76.69
470.681	83.69
470.901	90.69
471.12	81.69
471.339	90.69
471.558	95.69
471.777	88.69
471.997	81.69
472.216	91.69
472.435	88.69
472.654	85.69
472.873	81.69
473.092	85.69
473.311	90.69
473.53	85.69
473.749	93.69
473.968	85.69
474.187	98.69
474.406	97.69
474.625	90.69
474.844	71.69
475.063	92.69
475.282	79.69
475.501	85.69
475.72	86.69
475.939	93.69
476.158	91.69
476.377	89.69
476.596	95.69
476.814	83.69
477.033	87.69
477.252	91.69
477.471	96.69
477.69	93.69
477.908	76.69
478.127	93.69
478.346	79.69
478.564	92.69
478.783	85.69
479.002	99.69
479.22	83.69
479.439	85.69
479.658	92.69
479.876	90.69
480.095	90.69
480.313	81.69
480.532	91.69
480.751	91.69
480.969	85.69
481.188	90.69
481.406	85.69
481.624	94.69
481.843	93.69
482.061	94.69
482.28	93.69
482.498	90.69
482.717	88.69
482.935	85.69
483.153	91.69
483.372	81.69
483.59	84.69
483.808	80.69
484.027	97.69
484.245	94.69
484.463	76.69
484.681	96.69
484.9	89.69
485.118	98.69
485.336	98.69
485.554	99.69
485.772	80.69
485.99	97.69
486.209	95.69
486.427	90.69
486.645	106.69
486.863	92.69
487.081	80.69
487.299	77.69
487.517	94.69
487.735	95.69
487.953	106.69
488.171	98.69
488.389	101.69
488.607	94.69
488.825	89.69
489.043	79.69
489.261	98.69
489.479	94.69
489.696	84.69
489.914	92.69
490.132	93.69
490.35	93.69
490.568	91.69
490.786	90.69
491.003	94.69
491.221	99.69
491.439	74.69
491.657	87.69
491.874	101.69
492.092	85.69
492.31	93.69
492.527	102.69
492.745	108.69
492.963	79.69
493.18	79.69
493.398	93.69
493.615	86.69
493.833	94.69
494.05	81.69
494.268	99.69
494.485	103.69
494.703	105.69
494.92	77.69
495.138	102.69
495.355	81.69
495.573	85.69
495.79	98.69
496.008	93.69
496.225	101.69
496.442	93.69
496.66	92.69
496.877	110.69
497.094	106.69
497.312	91.69
497.529	102.69
497.746	94.69
497.963	86.69
498.181	86.69
498.398	91.69
498.615	93.69
498.832	83.69
499.049	93.69
499.267	110.69
499.484	102.69
499.701	108.69
499.918	106.69
500.135	102.69
500.352	116.69
500.569	105.69
500.786	106.69
501.003	108.69
501.22	102.69
501.437	107.69
501.654	111.69
501.871	100.69
502.088	80.69
502.305	86.69
502.522	88.69
502.739	102.69
502.956	87.69
503.172	108.69
503.389	97.69
503.606	95.69
503.823	97.69
504.04	103.69
504.256	100.69
504.473	98.69
504.69	89.69
504.907	88.69
505.123	83.69
505.34	87.69
505.557	88.69
505.773	84.69
505.99	93.69
506.207	95.69
506.423	88.69
506.64	91.69
506.856	82.69
507.073	88.69
507.289	86.69
507.506	94.69
507.722	92.69
507.939	82.69
508.155	91.69
508.372	93.69
508.588	93.69
508.805	95.69
509.021	99.69
509.238	84.69
509.454	92.69
509.67	86.69
509.887	81.69
510.103	79.69
510.319	89.69
510.536	82.69
510.752	92.69
510.968	91.69
511.184	85.69
511.401	91.69
511.617	90.69
511.833	96.69
512.049	86.69
512.265	91.69
512.481	95.69
512.698	83.69
512.914	89.69
513.13	92.69
513.346	100.69
513.562	92.69
513.778	90.69
513.994	90.69
514.21	78.69
514.426	73.69
514.642	77.69
514.858	86.69
515.074	100.69
515.29	99.69
515.506	89.69
515.721	82.69
515.937	87.69
516.153	79.69
516.369	90.69
516.585	95.69
516.801	95.69
517.016	92.69
517.232	101.69
517.448	91.69
517.664	95.69
517.879	100.69
518.095	94.69
518.311	84.69
518.527	85.69
