Data from Ni(NO3)2@0.125M.TitratingCurve.Agarose3%dH2O.NegLispCup.LampEnergy10.LIBS07252019_HRD10591_18-08-32-567.txt Node
Date: Thu Jul 25 18:08:32 EDT 2019
User: cochatt
Spectrometer: HR+D1059
Trigger mode: 1
Integration Time (sec): 1.000000E-1
Scans to average: 1
Electric dark correction enabled: true
Nonlinearity correction enabled: false
Boxcar width: 0
XAxis mode: Wavelengths
Number of Pixels in Spectrum: 2048
>>>>>Begin Spectral Data<<<<<
223.165	-21.69
223.4	-21.69
223.635	-21.69
223.869	-5.69
224.104	-23.69
224.338	-3.69
224.573	-13.69
224.808	-25.69
225.042	2.31
225.277	-1.69
225.511	-7.69
225.746	5.31
225.98	14.31
226.215	9.31
226.449	13.31
226.683	11.31
226.918	23.31
227.152	24.31
227.387	36.31
227.621	27.31
227.856	40.31
228.09	31.31
228.324	41.31
228.559	68.31
228.793	81.31
229.027	117.31
229.262	127.31
229.496	114.31
229.73	137.31
229.964	134.31
230.199	129.31
230.433	149.31
230.667	154.31
230.901	154.31
231.136	150.31
231.37	148.31
231.604	150.31
231.838	161.31
232.072	171.31
232.306	161.31
232.541	160.31
232.775	167.31
233.009	162.31
233.243	164.31
233.477	186.31
233.711	165.31
233.945	180.31
234.179	166.31
234.413	168.31
234.647	158.31
234.881	163.31
235.115	162.31
235.349	166.31
235.583	173.31
235.817	171.31
236.051	157.31
236.285	166.31
236.519	185.31
236.753	180.31
236.987	191.31
237.221	181.31
237.455	180.31
237.689	195.31
237.922	182.31
238.156	174.31
238.39	192.31
238.624	181.31
238.858	194.31
239.091	187.31
239.325	189.31
239.559	197.31
239.793	198.31
240.027	218.31
240.26	203.31
240.494	190.31
240.728	208.31
240.961	212.31
241.195	189.31
241.429	205.31
241.662	207.31
241.896	212.31
242.13	205.31
242.363	214.31
242.597	211.31
242.83	209.31
243.064	243.31
243.298	236.31
243.531	240.31
243.765	240.31
243.998	232.31
244.232	247.31
244.465	244.31
244.699	253.31
244.932	267.31
245.166	238.31
245.399	228.31
245.633	259.31
245.866	246.31
246.099	252.31
246.333	241.31
246.566	232.31
246.8	260.31
247.033	263.31
247.266	260.31
247.5	249.31
247.733	262.31
247.966	275.31
248.2	265.31
248.433	278.31
248.666	279.31
248.899	295.31
249.133	281.31
249.366	280.31
249.599	293.31
249.832	287.31
250.066	281.31
250.299	304.31
250.532	292.31
250.765	300.31
250.998	292.31
251.231	308.31
251.465	309.31
251.698	291.31
251.931	308.31
252.164	329.31
252.397	328.31
252.63	322.31
252.863	339.31
253.096	327.31
253.329	332.31
253.562	324.31
253.795	330.31
254.028	347.31
254.261	320.31
254.494	344.31
254.727	327.31
254.96	348.31
255.193	346.31
255.426	341.31
255.659	345.31
255.892	344.31
256.124	361.31
256.357	356.31
256.59	344.31
256.823	349.31
257.056	361.31
257.289	344.31
257.521	362.31
257.754	365.31
257.987	371.31
258.22	352.31
258.452	384.31
258.685	389.31
258.918	359.31
259.151	384.31
259.383	374.31
259.616	376.31
259.849	386.31
260.081	375.31
260.314	392.31
260.547	382.31
260.779	407.31
261.012	392.31
261.244	410.31
261.477	396.31
261.71	394.31
261.942	394.31
262.175	414.31
262.407	403.31
262.64	399.31
262.872	419.31
263.105	421.31
263.337	414.31
263.57	416.31
263.802	404.31
264.035	418.31
264.267	407.31
264.499	422.31
264.732	425.31
264.964	437.31
265.197	421.31
265.429	445.31
265.661	428.31
265.894	419.31
266.126	448.31
266.358	438.31
266.591	464.31
266.823	439.31
267.055	445.31
267.287	446.31
267.52	449.31
267.752	430.31
267.984	441.31
268.216	460.31
268.448	448.31
268.681	451.31
268.913	440.31
269.145	443.31
269.377	475.31
269.609	458.31
269.841	466.31
270.073	459.31
270.306	458.31
270.538	442.31
270.77	461.31
271.002	480.31
271.234	463.31
271.466	468.31
271.698	470.31
271.93	482.31
272.162	478.31
272.394	473.31
272.626	478.31
272.858	477.31
273.09	488.31
273.322	496.31
273.553	487.31
273.785	494.31
274.017	482.31
274.249	502.31
274.481	503.31
274.713	492.31
274.945	492.31
275.176	504.31
275.408	497.31
275.64	498.31
275.872	519.31
276.104	530.31
276.335	516.31
276.567	535.31
276.799	496.31
277.031	536.31
277.262	514.31
277.494	514.31
277.726	523.31
277.957	524.31
278.189	534.31
278.421	529.31
278.652	537.31
278.884	513.31
279.115	550.31
279.347	532.31
279.579	539.31
279.81	535.31
280.042	545.31
280.273	541.31
280.505	538.31
280.736	587.31
280.968	573.31
281.199	568.31
281.431	544.31
281.662	558.31
281.894	564.31
282.125	566.31
282.356	572.31
282.588	595.31
282.819	590.31
283.051	594.31
283.282	611.31
283.513	592.31
283.745	574.31
283.976	567.31
284.207	588.31
284.439	588.31
284.67	602.31
284.901	617.31
285.132	598.31
285.364	587.31
285.595	597.31
285.826	594.31
286.057	585.31
286.288	599.31
286.52	615.31
286.751	610.31
286.982	633.31
287.213	624.31
287.444	597.31
287.675	610.31
287.906	611.31
288.138	617.31
288.369	645.31
288.6	624.31
288.831	618.31
289.062	621.31
289.293	627.31
289.524	622.31
289.755	606.31
289.986	604.31
290.217	634.31
290.448	636.31
290.679	632.31
290.91	639.31
291.141	627.31
291.371	646.31
291.602	648.31
291.833	627.31
292.064	636.31
292.295	637.31
292.526	620.31
292.757	624.31
292.987	644.31
293.218	610.31
293.449	650.31
293.68	668.31
293.91	638.31
294.141	647.31
294.372	622.31
294.603	624.31
294.833	667.31
295.064	643.31
295.295	645.31
295.525	661.31
295.756	672.31
295.987	650.31
296.217	661.31
296.448	660.31
296.679	678.31
296.909	669.31
297.14	666.31
297.37	680.31
297.601	679.31
297.831	696.31
298.062	681.31
298.292	690.31
298.523	736.31
298.753	722.31
298.984	691.31
299.214	683.31
299.445	716.31
299.675	703.31
299.905	692.31
300.136	703.31
300.366	699.31
300.597	721.31
300.827	730.31
301.057	724.31
301.288	737.31
301.518	733.31
301.748	743.31
301.979	757.31
302.209	753.31
302.439	731.31
302.669	732.31
302.9	725.31
303.13	694.31
303.36	728.31
303.59	710.31
303.82	720.31
304.051	737.31
304.281	756.31
304.511	732.31
304.741	719.31
304.971	735.31
305.201	724.31
305.431	719.31
305.661	716.31
305.891	716.31
306.121	713.31
306.352	718.31
306.582	688.31
306.812	692.31
307.042	709.31
307.272	702.31
307.502	701.31
307.731	726.31
307.961	704.31
308.191	746.31
308.421	701.31
308.651	704.31
308.881	677.31
309.111	690.31
309.341	694.31
309.571	728.31
309.8	694.31
310.03	699.31
310.26	730.31
310.49	729.31
310.72	729.31
310.949	716.31
311.179	736.31
311.409	727.31
311.639	722.31
311.868	714.31
312.098	726.31
312.328	771.31
312.557	749.31
312.787	756.31
313.017	750.31
313.246	754.31
313.476	768.31
313.706	766.31
313.935	747.31
314.165	749.31
314.394	773.31
314.624	762.31
314.853	762.31
315.083	773.31
315.312	775.31
315.542	774.31
315.771	762.31
316.001	756.31
316.23	764.31
316.46	754.31
316.689	753.31
316.919	730.31
317.148	734.31
317.377	775.31
317.607	744.31
317.836	759.31
318.065	721.31
318.295	754.31
318.524	757.31
318.753	735.31
318.983	732.31
319.212	763.31
319.441	744.31
319.67	756.31
319.9	764.31
320.129	746.31
320.358	772.31
320.587	780.31
320.816	770.31
321.046	758.31
321.275	766.31
321.504	780.31
321.733	795.31
321.962	748.31
322.191	804.31
322.42	788.31
322.649	757.31
322.878	773.31
323.108	766.31
323.337	795.31
323.566	797.31
323.795	813.31
324.024	813.31
324.253	829.31
324.482	795.31
324.71	805.31
324.939	814.31
325.168	809.31
325.397	821.31
325.626	804.31
325.855	824.31
326.084	826.31
326.313	852.31
326.542	867.31
326.77	894.31
326.999	842.31
327.228	834.31
327.457	833.31
327.686	868.31
327.914	883.31
328.143	832.31
328.372	846.31
328.6	864.31
328.829	868.31
329.058	859.31
329.287	877.31
329.515	891.31
329.744	897.31
329.972	875.31
330.201	895.31
330.43	876.31
330.658	902.31
330.887	881.31
331.115	899.31
331.344	932.31
331.572	941.31
331.801	946.31
332.03	968.31
332.258	964.31
332.486	993.31
332.715	1062.31
332.943	1038.31
333.172	1140.31
333.4	1175.31
333.629	1215.31
333.857	1229.31
334.085	1205.31
334.314	1182.31
334.542	1150.31
334.771	1149.31
334.999	1133.31
335.227	1105.31
335.455	1102.31
335.684	1087.31
335.912	1082.31
336.14	1070.31
336.369	1048.31
336.597	1045.31
336.825	1079.31
337.053	1095.31
337.281	1022.31
337.51	1007.31
337.738	1030.31
337.966	1000.31
338.194	996.31
338.422	990.31
338.65	948.31
338.878	962.31
339.106	949.31
339.334	988.31
339.562	948.31
339.79	931.31
340.018	926.31
340.246	953.31
340.474	913.31
340.702	935.31
340.93	932.31
341.158	921.31
341.386	971.31
341.614	930.31
341.842	923.31
342.07	896.31
342.298	916.31
342.526	942.31
342.754	944.31
342.981	935.31
343.209	952.31
343.437	1013.31
343.665	1056.31
343.893	1127.31
344.12	1198.31
344.348	1151.31
344.576	1059.31
344.804	1012.31
345.031	960.31
345.259	963.31
345.487	945.31
345.714	934.31
345.942	937.31
346.17	946.31
346.397	902.31
346.625	893.31
346.853	903.31
347.08	901.31
347.308	870.31
347.535	915.31
347.763	904.31
347.99	908.31
348.218	919.31
348.445	914.31
348.673	896.31
348.9	899.31
349.128	902.31
349.355	911.31
349.583	896.31
349.81	869.31
350.037	851.31
350.265	852.31
350.492	857.31
350.72	847.31
350.947	868.31
351.174	862.31
351.402	869.31
351.629	870.31
351.856	874.31
352.083	866.31
352.311	853.31
352.538	888.31
352.765	872.31
352.992	858.31
353.22	845.31
353.447	817.31
353.674	829.31
353.901	837.31
354.128	856.31
354.355	853.31
354.583	818.31
354.81	868.31
355.037	845.31
355.264	805.31
355.491	859.31
355.718	861.31
355.945	865.31
356.172	844.31
356.399	848.31
356.626	869.31
356.853	889.31
357.08	865.31
357.307	856.31
357.534	854.31
357.761	866.31
357.988	860.31
358.215	841.31
358.441	856.31
358.668	853.31
358.895	888.31
359.122	864.31
359.349	860.31
359.576	853.31
359.802	856.31
360.029	871.31
360.256	875.31
360.483	849.31
360.709	848.31
360.936	873.31
361.163	884.31
361.39	860.31
361.616	837.31
361.843	845.31
362.07	869.31
362.296	861.31
362.523	843.31
362.749	857.31
362.976	854.31
363.203	853.31
363.429	836.31
363.656	841.31
363.882	842.31
364.109	864.31
364.335	842.31
364.562	844.31
364.788	832.31
365.015	846.31
365.241	843.31
365.468	823.31
365.694	860.31
365.92	875.31
366.147	840.31
366.373	830.31
366.599	858.31
366.826	831.31
367.052	845.31
367.278	848.31
367.505	853.31
367.731	835.31
367.957	844.31
368.184	855.31
368.41	866.31
368.636	829.31
368.862	877.31
369.089	867.31
369.315	868.31
369.541	861.31
369.767	863.31
369.993	873.31
370.219	858.31
370.445	873.31
370.672	898.31
370.898	915.31
371.124	875.31
371.35	940.31
371.576	946.31
371.802	931.31
372.028	893.31
372.254	908.31
372.48	913.31
372.706	946.31
372.932	969.31
373.158	960.31
373.384	929.31
373.61	919.31
373.835	947.31
374.061	932.31
374.287	920.31
374.513	970.31
374.739	979.31
374.965	1003.31
375.191	1043.31
375.416	1028.31
375.642	965.31
375.868	972.31
376.094	957.31
376.319	946.31
376.545	939.31
376.771	929.31
376.997	941.31
377.222	934.31
377.448	904.31
377.674	928.31
377.899	903.31
378.125	880.31
378.35	897.31
378.576	918.31
378.802	894.31
379.027	898.31
379.253	926.31
379.478	910.31
379.704	919.31
379.929	916.31
380.155	924.31
380.38	886.31
380.606	884.31
380.831	918.31
381.057	928.31
381.282	919.31
381.507	905.31
381.733	935.31
381.958	908.31
382.184	944.31
382.409	904.31
382.634	913.31
382.86	970.31
383.085	966.31
383.31	989.31
383.535	982.31
383.761	997.31
383.986	1014.31
384.211	1037.31
384.436	1067.31
384.662	1082.31
384.887	1123.31
385.112	1078.31
385.337	1121.31
385.562	1119.31
385.787	1113.31
386.013	1126.31
386.238	1141.31
386.463	1126.31
386.688	1121.31
386.913	1110.31
387.138	1096.31
387.363	1101.31
387.588	1058.31
387.813	1057.31
388.038	1086.31
388.263	1084.31
388.488	1110.31
388.713	1097.31
388.938	1080.31
389.163	1065.31
389.387	1074.31
389.612	1051.31
389.837	1076.31
390.062	1068.31
390.287	1065.31
390.512	1070.31
390.736	1076.31
390.961	1101.31
391.186	1142.31
391.411	1150.31
391.636	1212.31
391.86	1234.31
392.085	1273.31
392.31	1234.31
392.534	1223.31
392.759	1158.31
392.984	1170.31
393.208	1182.31
393.433	1172.31
393.658	1193.31
393.882	1175.31
394.107	1202.31
394.331	1165.31
394.556	1162.31
394.78	1177.31
395.005	1186.31
395.229	1206.31
395.454	1201.31
395.678	1218.31
395.903	1250.31
396.127	1221.31
396.352	1208.31
396.576	1179.31
396.801	1162.31
397.025	1177.31
397.249	1229.31
397.474	1279.31
397.698	1253.31
397.922	1258.31
398.147	1244.31
398.371	1253.31
398.595	1284.31
398.82	1365.31
399.044	1464.31
399.268	1611.31
399.492	1906.31
399.717	2224.31
399.941	2227.31
400.165	1961.31
400.389	1712.31
400.613	1551.31
400.837	1466.31
401.062	1410.31
401.286	1405.31
401.51	1351.31
401.734	1388.31
401.958	1464.31
402.182	1421.31
402.406	1434.31
402.63	1451.31
402.854	1458.31
403.078	1527.31
403.302	1572.31
403.526	1623.31
403.75	1611.31
403.974	1682.31
404.198	1634.31
404.422	1662.31
404.645	1633.31
404.869	1621.31
405.093	1596.31
405.317	1612.31
405.541	1578.31
405.765	1547.31
405.988	1532.31
406.212	1552.31
406.436	1521.31
406.66	1630.31
406.883	1584.31
407.107	1699.31
407.331	1786.31
407.555	1860.31
407.778	1856.31
408.002	1802.31
408.226	1771.31
408.449	1703.31
408.673	1607.31
408.896	1588.31
409.12	1553.31
409.344	1589.31
409.567	1589.31
409.791	1604.31
410.014	1614.31
410.238	1576.31
410.461	1574.31
410.685	1544.31
410.908	1524.31
411.132	1525.31
411.355	1447.31
411.578	1479.31
411.802	1433.31
412.025	1442.31
412.249	1476.31
412.472	1478.31
412.695	1447.31
412.919	1440.31
413.142	1369.31
413.365	1404.31
413.589	1397.31
413.812	1389.31
414.035	1364.31
414.258	1388.31
414.482	1406.31
414.705	1444.31
414.928	1459.31
415.151	1442.31
415.374	1406.31
415.597	1403.31
415.821	1358.31
416.044	1380.31
416.267	1363.31
416.49	1385.31
416.713	1401.31
416.936	1402.31
417.159	1382.31
417.382	1385.31
417.605	1385.31
417.828	1380.31
418.051	1393.31
418.274	1399.31
418.497	1417.31
418.72	1424.31
418.943	1451.31
419.166	1567.31
419.389	1628.31
419.611	1589.31
419.834	1514.31
420.057	1470.31
420.28	1462.31
420.503	1411.31
420.726	1363.31
420.948	1402.31
421.171	1425.31
421.394	1414.31
421.617	1396.31
421.839	1423.31
422.062	1411.31
422.285	1375.31
422.507	1428.31
422.73	1427.31
422.953	1427.31
423.175	1464.31
423.398	1520.31
423.621	1509.31
423.843	1514.31
424.066	1538.31
424.288	1485.31
424.511	1480.31
424.733	1512.31
424.956	1485.31
425.178	1487.31
425.401	1423.31
425.623	1437.31
425.846	1389.31
426.068	1408.31
426.291	1360.31
426.513	1339.31
426.735	1334.31
426.958	1313.31
427.18	1282.31
427.402	1325.31
427.625	1277.31
427.847	1270.31
428.069	1261.31
428.292	1293.31
428.514	1245.31
428.736	1218.31
428.958	1296.31
429.181	1233.31
429.403	1212.31
429.625	1230.31
429.847	1195.31
430.069	1232.31
430.292	1204.31
430.514	1219.31
430.736	1241.31
430.958	1239.31
431.18	1230.31
431.402	1257.31
431.624	1242.31
431.846	1291.31
432.068	1288.31
432.29	1273.31
432.512	1261.31
432.734	1265.31
432.956	1266.31
433.178	1280.31
433.4	1272.31
433.622	1252.31
433.844	1284.31
434.066	1284.31
434.287	1282.31
434.509	1366.31
434.731	1394.31
434.953	1439.31
435.175	1437.31
435.397	1437.31
435.618	1313.31
435.84	1292.31
436.062	1299.31
436.284	1278.31
436.505	1252.31
436.727	1285.31
436.949	1267.31
437.17	1261.31
437.392	1190.31
437.614	1258.31
437.835	1205.31
438.057	1192.31
438.278	1204.31
438.5	1211.31
438.721	1207.31
438.943	1198.31
439.165	1225.31
439.386	1266.31
439.608	1268.31
439.829	1277.31
440.05	1240.31
440.272	1280.31
440.493	1290.31
440.715	1315.31
440.936	1328.31
441.158	1371.31
441.379	1381.31
441.6	1455.31
441.822	1462.31
442.043	1448.31
442.264	1423.31
442.486	1409.31
442.707	1405.31
442.928	1409.31
443.149	1410.31
443.371	1393.31
443.592	1445.31
443.813	1420.31
444.034	1450.31
444.255	1507.31
444.476	1599.31
444.698	1689.31
444.919	1747.31
445.14	1874.31
445.361	1666.31
445.582	1500.31
445.803	1400.31
446.024	1356.31
446.245	1305.31
446.466	1316.31
446.687	1315.31
446.908	1289.31
447.129	1229.31
447.35	1217.31
447.571	1207.31
447.792	1214.31
448.013	1207.31
448.234	1181.31
448.455	1181.31
448.675	1157.31
448.896	1148.31
449.117	1145.31
449.338	1157.31
449.559	1125.31
449.779	1122.31
450	1130.31
450.221	1155.31
450.442	1158.31
450.662	1148.31
450.883	1187.31
451.104	1203.31
451.324	1188.31
451.545	1172.31
451.766	1198.31
451.986	1170.31
452.207	1159.31
452.428	1168.31
452.648	1149.31
452.869	1113.31
453.089	1151.31
453.31	1170.31
453.53	1146.31
453.751	1108.31
453.971	1127.31
454.192	1145.31
454.412	1099.31
454.633	1123.31
454.853	1121.31
455.073	1132.31
455.294	1121.31
455.514	1075.31
455.734	1079.31
455.955	1069.31
456.175	1090.31
456.395	1100.31
456.616	1053.31
456.836	1070.31
457.056	1082.31
457.276	1050.31
457.497	1090.31
457.717	1083.31
457.937	1097.31
458.157	1114.31
458.377	1138.31
458.598	1179.31
458.818	1190.31
459.038	1193.31
459.258	1240.31
459.478	1334.31
459.698	1332.31
459.918	1385.31
460.138	1404.31
460.358	1472.31
460.578	1530.31
460.798	1534.31
461.018	1517.31
461.238	1505.31
461.458	1502.31
461.678	1518.31
461.898	1547.31
462.118	1582.31
462.338	1621.31
462.558	1700.31
462.777	1782.31
462.997	1940.31
463.217	2109.31
463.437	2132.31
463.657	1950.31
463.876	1840.31
464.096	1826.31
464.316	1865.31
464.536	1814.31
464.755	1708.31
464.975	1680.31
465.195	1603.31
465.414	1490.31
465.634	1371.31
465.854	1351.31
466.073	1296.31
466.293	1271.31
466.512	1250.31
466.732	1238.31
466.951	1229.31
467.171	1229.31
467.391	1235.31
467.61	1223.31
467.829	1212.31
468.049	1245.31
468.268	1177.31
468.488	1171.31
468.707	1182.31
468.927	1162.31
469.146	1131.31
469.365	1148.31
469.585	1210.31
469.804	1232.31
470.023	1254.31
470.243	1246.31
470.462	1251.31
470.681	1292.31
470.901	1299.31
471.12	1254.31
471.339	1239.31
471.558	1226.31
471.777	1203.31
471.997	1186.31
472.216	1184.31
472.435	1173.31
472.654	1159.31
472.873	1150.31
473.092	1133.31
473.311	1132.31
473.53	1109.31
473.749	1120.31
473.968	1140.31
474.187	1127.31
474.406	1140.31
474.625	1153.31
474.844	1132.31
475.063	1122.31
475.282	1136.31
475.501	1165.31
475.72	1138.31
475.939	1166.31
476.158	1186.31
476.377	1186.31
476.596	1161.31
476.814	1187.31
477.033	1174.31
477.252	1254.31
477.471	1248.31
477.69	1291.31
477.908	1355.31
478.127	1365.31
478.346	1388.31
478.564	1399.31
478.783	1413.31
479.002	1460.31
479.22	1467.31
479.439	1478.31
479.658	1448.31
479.876	1413.31
480.095	1427.31
480.313	1535.31
480.532	1544.31
480.751	1596.31
480.969	1497.31
481.188	1442.31
481.406	1391.31
481.624	1326.31
481.843	1325.31
482.061	1324.31
482.28	1305.31
482.498	1283.31
482.717	1272.31
482.935	1252.31
483.153	1304.31
483.372	1307.31
483.59	1294.31
483.808	1296.31
484.027	1303.31
484.245	1294.31
484.463	1312.31
484.681	1296.31
484.9	1355.31
485.118	1338.31
485.336	1309.31
485.554	1341.31
485.772	1370.31
485.99	1350.31
486.209	1370.31
486.427	1361.31
486.645	1383.31
486.863	1377.31
487.081	1380.31
487.299	1389.31
487.517	1331.31
487.735	1358.31
487.953	1357.31
488.171	1370.31
488.389	1347.31
488.607	1341.31
488.825	1305.31
489.043	1302.31
489.261	1356.31
489.479	1330.31
489.696	1372.31
489.914	1348.31
490.132	1378.31
490.35	1386.31
490.568	1393.31
490.786	1366.31
491.003	1399.31
491.221	1397.31
491.439	1399.31
491.657	1378.31
491.874	1379.31
492.092	1420.31
492.31	1405.31
492.527	1410.31
492.745	1416.31
492.963	1412.31
493.18	1412.31
493.398	1450.31
493.615	1431.31
493.833	1454.31
494.05	1456.31
494.268	1457.31
