Data from Ni(NO3)2@0.25M.TitratingCurve.Agarose3%dH2O.NegLispCup.LampEnergy10.LIBS07252019_HRD10591_18-03-34-566.txt Node
Date: Thu Jul 25 18:03:34 EDT 2019
User: cochatt
Spectrometer: HR+D1059
Trigger mode: 1
Integration Time (sec): 1.000000E-1
Scans to average: 1
Electric dark correction enabled: true
Nonlinearity correction enabled: false
Boxcar width: 0
XAxis mode: Wavelengths
Number of Pixels in Spectrum: 2048
>>>>>Begin Spectral Data<<<<<
223.165	-10
223.4	-10
223.635	-10
223.869	-19
224.104	-16
224.338	-9
224.573	-11
224.808	-12
225.042	-9
225.277	-7
225.511	-1
225.746	-3
225.98	-5
226.215	5
226.449	19
226.683	12
226.918	30
227.152	36
227.387	33
227.621	44
227.856	40
228.09	61
228.324	39
228.559	55
228.793	57
229.027	91
229.262	92
229.496	86
229.73	80
229.964	99
230.199	106
230.433	91
230.667	102
230.901	103
231.136	101
231.37	111
231.604	109
231.838	109
232.072	133
232.306	119
232.541	109
232.775	114
233.009	120
233.243	108
233.477	101
233.711	117
233.945	107
234.179	120
234.413	118
234.647	114
234.881	125
235.115	99
235.349	98
235.583	98
235.817	102
236.051	109
236.285	107
236.519	120
236.753	105
236.987	123
237.221	117
237.455	107
237.689	113
237.922	97
238.156	112
238.39	110
238.624	110
238.858	113
239.091	106
239.325	114
239.559	120
239.793	108
240.027	117
240.26	112
240.494	128
240.728	113
240.961	120
241.195	122
241.429	107
241.662	122
241.896	122
242.13	129
242.363	125
242.597	132
242.83	135
243.064	129
243.298	126
243.531	139
243.765	124
243.998	116
244.232	119
244.465	122
244.699	128
244.932	110
245.166	112
245.399	121
245.633	131
245.866	133
246.099	133
246.333	137
246.566	132
246.8	140
247.033	150
247.266	128
247.5	141
247.733	139
247.966	141
248.2	135
248.433	134
248.666	148
248.899	130
249.133	165
249.366	161
249.599	158
249.832	160
250.066	156
250.299	171
250.532	181
250.765	169
250.998	152
251.231	178
251.465	190
251.698	205
251.931	179
252.164	186
252.397	178
252.63	197
252.863	187
253.096	201
253.329	212
253.562	213
253.795	206
254.028	209
254.261	215
254.494	214
254.727	197
254.96	212
255.193	203
255.426	213
255.659	231
255.892	226
256.124	232
256.357	221
256.59	231
256.823	235
257.056	240
257.289	236
257.521	252
257.754	241
257.987	234
258.22	241
258.452	259
258.685	257
258.918	262
259.151	241
259.383	248
259.616	253
259.849	259
260.081	257
260.314	258
260.547	267
260.779	262
261.012	253
261.244	256
261.477	271
261.71	258
261.942	264
262.175	277
262.407	264
262.64	268
262.872	273
263.105	257
263.337	289
263.57	287
263.802	299
264.035	278
264.267	282
264.499	275
264.732	299
264.964	278
265.197	314
265.429	297
265.661	290
265.894	308
266.126	289
266.358	306
266.591	299
266.823	290
267.055	284
267.287	303
267.52	296
267.752	312
267.984	292
268.216	302
268.448	306
268.681	292
268.913	307
269.145	319
269.377	316
269.609	301
269.841	295
270.073	305
270.306	318
270.538	317
270.77	289
271.002	306
271.234	306
271.466	313
271.698	298
271.93	332
272.162	304
272.394	325
272.626	334
272.858	296
273.09	326
273.322	312
273.553	316
273.785	293
274.017	326
274.249	322
274.481	299
274.713	312
274.945	326
275.176	323
275.408	335
275.64	329
275.872	318
276.104	343
276.335	328
276.567	321
276.799	322
277.031	342
277.262	327
277.494	334
277.726	342
277.957	340
278.189	325
278.421	312
278.652	324
278.884	341
279.115	325
279.347	320
279.579	326
279.81	333
280.042	329
280.273	334
280.505	333
280.736	333
280.968	330
281.199	326
281.431	332
281.662	334
281.894	346
282.125	337
282.356	357
282.588	332
282.819	314
283.051	334
283.282	320
283.513	349
283.745	342
283.976	333
284.207	336
284.439	355
284.67	354
284.901	348
285.132	343
285.364	336
285.595	333
285.826	333
286.057	344
286.288	329
286.52	345
286.751	340
286.982	357
287.213	346
287.444	342
287.675	336
287.906	343
288.138	332
288.369	333
288.6	349
288.831	349
289.062	346
289.293	353
289.524	334
289.755	353
289.986	346
290.217	362
290.448	326
290.679	341
290.91	352
291.141	344
291.371	361
291.602	335
291.833	318
292.064	312
292.295	340
292.526	332
292.757	331
292.987	324
293.218	325
293.449	337
293.68	340
293.91	331
294.141	345
294.372	336
294.603	334
294.833	348
295.064	334
295.295	331
295.525	348
295.756	349
295.987	341
296.217	353
296.448	329
296.679	346
296.909	356
297.14	354
297.37	349
297.601	349
297.831	351
298.062	361
298.292	370
298.523	353
298.753	362
298.984	346
299.214	353
299.445	349
299.675	363
299.905	377
300.136	355
300.366	370
300.597	363
300.827	384
301.057	388
301.288	374
301.518	379
301.748	394
301.979	378
302.209	382
302.439	374
302.669	378
302.9	385
303.13	380
303.36	378
303.59	362
303.82	361
304.051	383
304.281	398
304.511	372
304.741	374
304.971	395
305.201	389
305.431	395
305.661	388
305.891	396
306.121	400
306.352	379
306.582	364
306.812	376
307.042	390
307.272	411
307.502	383
307.731	384
307.961	386
308.191	404
308.421	382
308.651	380
308.881	403
309.111	399
309.341	402
309.571	395
309.8	406
310.03	426
310.26	440
310.49	434
310.72	420
310.949	420
311.179	417
311.409	423
311.639	448
311.868	409
312.098	424
312.328	436
312.557	436
312.787	453
313.017	450
313.246	444
313.476	466
313.706	476
313.935	460
314.165	463
314.394	462
314.624	448
314.853	459
315.083	468
315.312	484
315.542	467
315.771	486
316.001	481
316.23	476
316.46	486
316.689	484
316.919	487
317.148	508
317.377	517
317.607	492
317.836	500
318.065	513
318.295	503
318.524	498
318.753	519
318.983	519
319.212	490
319.441	516
319.67	532
319.9	546
320.129	534
320.358	553
320.587	533
320.816	541
321.046	560
321.275	564
321.504	521
321.733	568
321.962	586
322.191	601
322.42	576
322.649	574
322.878	590
323.108	588
323.337	573
323.566	614
323.795	594
324.024	626
324.253	608
324.482	628
324.71	602
324.939	639
325.168	635
325.397	642
325.626	616
325.855	631
326.084	674
326.313	648
326.542	634
326.77	676
326.999	664
327.228	662
327.457	680
327.686	667
327.914	678
328.143	692
328.372	682
328.6	684
328.829	718
329.058	710
329.287	704
329.515	695
329.744	736
329.972	729
330.201	723
330.43	720
330.658	734
330.887	750
331.115	749
331.344	757
331.572	768
331.801	755
332.03	788
332.258	776
332.486	782
332.715	793
332.943	801
333.172	830
333.4	803
333.629	840
333.857	822
334.085	843
334.314	849
334.542	850
334.771	846
334.999	876
335.227	884
335.455	856
335.684	860
335.912	881
336.14	875
336.369	854
336.597	867
336.825	880
337.053	855
337.281	863
337.51	876
337.738	867
337.966	860
338.194	859
338.422	844
338.65	830
338.878	870
339.106	841
339.334	810
339.562	843
339.79	832
340.018	837
340.246	808
340.474	813
340.702	825
340.93	810
341.158	826
341.386	851
341.614	854
341.842	829
342.07	817
342.298	810
342.526	842
342.754	822
342.981	805
343.209	814
343.437	850
343.665	854
343.893	883
344.12	902
344.348	890
344.576	870
344.804	888
345.031	850
345.259	833
345.487	845
345.714	855
345.942	844
346.17	857
346.397	830
346.625	783
346.853	800
347.08	830
347.308	820
347.535	822
347.763	784
347.99	788
348.218	809
348.445	801
348.673	792
348.9	790
349.128	798
349.355	819
349.583	802
349.81	779
350.037	777
350.265	782
350.492	768
350.72	793
350.947	797
351.174	789
351.402	808
351.629	813
351.856	792
352.083	766
352.311	810
352.538	777
352.765	796
352.992	780
353.22	761
353.447	767
353.674	778
353.901	772
354.128	790
354.355	754
354.583	761
354.81	794
355.037	790
355.264	777
355.491	746
355.718	759
355.945	781
356.172	777
356.399	746
356.626	789
356.853	776
357.08	796
357.307	775
357.534	781
357.761	788
357.988	768
358.215	759
358.441	755
358.668	750
358.895	742
359.122	740
359.349	782
359.576	782
359.802	751
360.029	755
360.256	764
360.483	798
360.709	772
360.936	762
361.163	766
361.39	801
361.616	773
361.843	791
362.07	805
362.296	783
362.523	753
362.749	760
362.976	761
363.203	799
363.429	754
363.656	759
363.882	764
364.109	760
364.335	742
364.562	748
364.788	741
365.015	744
365.241	763
365.468	752
365.694	753
365.92	758
366.147	744
366.373	752
366.599	739
366.826	743
367.052	735
367.278	758
367.505	757
367.731	785
367.957	758
368.184	733
368.41	740
368.636	755
368.862	775
369.089	739
369.315	746
369.541	749
369.767	759
369.993	745
370.219	747
370.445	770
370.672	773
370.898	749
371.124	767
371.35	758
371.576	809
371.802	762
372.028	792
372.254	744
372.48	758
372.706	790
372.932	753
373.158	752
373.384	787
373.61	756
373.835	764
374.061	759
374.287	739
374.513	776
374.739	796
374.965	762
375.191	760
375.416	786
375.642	765
375.868	755
376.094	748
376.319	750
376.545	746
376.771	740
376.997	754
377.222	734
377.448	728
377.674	749
377.899	723
378.125	717
378.35	752
378.576	729
378.802	722
379.027	768
379.253	739
379.478	734
379.704	747
379.929	719
380.155	723
380.38	718
380.606	722
380.831	725
381.057	744
381.282	715
381.507	716
381.733	747
381.958	737
382.184	734
382.409	742
382.634	729
382.86	752
383.085	749
383.31	739
383.535	763
383.761	729
383.986	747
384.211	788
384.436	764
384.662	740
384.887	787
385.112	791
385.337	798
385.562	817
385.787	798
386.013	840
386.238	809
386.463	808
386.688	804
386.913	789
387.138	798
387.363	809
387.588	792
387.813	818
388.038	818
388.263	809
388.488	794
388.713	795
388.938	781
389.163	797
389.387	794
389.612	792
389.837	791
390.062	792
390.287	805
390.512	802
390.736	818
390.961	800
391.186	822
391.411	856
391.636	848
391.86	850
392.085	839
392.31	837
392.534	866
392.759	866
392.984	838
393.208	851
393.433	846
393.658	844
393.882	807
394.107	833
394.331	869
394.556	844
394.78	857
395.005	858
395.229	844
395.454	824
395.678	898
395.903	888
396.127	877
396.352	874
396.576	872
396.801	853
397.025	882
397.249	888
397.474	899
397.698	904
397.922	911
398.147	915
398.371	911
398.595	937
398.82	961
399.044	1012
399.268	1029
399.492	1099
399.717	1092
399.941	1135
400.165	1084
400.389	1078
400.613	1052
400.837	1020
401.062	1005
401.286	991
401.51	980
401.734	977
401.958	995
402.182	986
402.406	992
402.63	976
402.854	987
403.078	994
403.302	1005
403.526	995
403.75	1008
403.974	992
404.198	996
404.422	1011
404.645	1003
404.869	1022
405.093	1001
405.317	1011
405.541	1014
405.765	1038
405.988	1042
406.212	985
406.436	1042
406.66	1067
406.883	1066
407.107	1101
407.331	1112
407.555	1146
407.778	1152
408.002	1124
408.226	1150
408.449	1150
408.673	1114
408.896	1092
409.12	1110
409.344	1110
409.567	1119
409.791	1096
410.014	1093
410.238	1089
410.461	1106
410.685	1080
410.908	1068
411.132	1064
411.355	1076
411.578	1066
411.802	1040
412.025	1053
412.249	1052
412.472	1048
412.695	1037
412.919	1042
413.142	1018
413.365	1023
413.589	1062
413.812	1007
414.035	1040
414.258	1050
414.482	1027
414.705	1038
414.928	1058
415.151	1050
415.374	1033
415.597	1021
415.821	1030
416.044	1036
416.267	1014
416.49	1036
416.713	1033
416.936	998
417.159	1023
417.382	1011
417.605	1021
417.828	1028
418.051	1040
418.274	1052
418.497	1018
418.72	1051
418.943	1019
419.166	1100
419.389	1181
419.611	1171
419.834	1108
420.057	1095
420.28	1052
420.503	1037
420.726	1038
420.948	1014
421.171	1040
421.394	1041
421.617	1031
421.839	1038
422.062	1032
422.285	1034
422.507	1082
422.73	1037
422.953	1028
423.175	1049
423.398	1063
423.621	1071
423.843	1061
424.066	1084
424.288	1044
424.511	1101
424.733	1074
424.956	1051
425.178	1057
425.401	1062
425.623	1069
425.846	1039
426.068	1030
426.291	1068
426.513	1057
426.735	1019
426.958	1044
427.18	1035
427.402	1033
427.625	1054
427.847	1026
428.069	1042
428.292	1031
428.514	998
428.736	1043
428.958	1046
429.181	1065
429.403	1020
429.625	1050
429.847	1025
430.069	1027
430.292	1044
430.514	1060
430.736	1055
430.958	1024
431.18	1063
431.402	1042
431.624	1030
431.846	1023
432.068	1031
432.29	1038
432.512	1053
432.734	1064
432.956	1048
433.178	1046
433.4	1112
433.622	1098
433.844	1124
434.066	1078
434.287	1050
434.509	1084
434.731	1049
434.953	1078
435.175	1151
435.397	1128
435.618	1104
435.84	1079
436.062	1055
436.284	1060
436.505	1059
436.727	1074
436.949	1092
437.17	1049
437.392	1069
437.614	1063
437.835	1042
438.057	1059
438.278	1028
438.5	1035
438.721	1036
438.943	1087
439.165	1021
439.386	1068
439.608	1083
439.829	1050
440.05	1054
440.272	1058
440.493	1086
440.715	1066
440.936	1072
441.158	1093
441.379	1100
441.6	1118
441.822	1113
442.043	1141
442.264	1123
442.486	1108
442.707	1099
442.928	1072
443.149	1140
443.371	1148
443.592	1137
443.813	1129
444.034	1157
444.255	1161
444.476	1143
444.698	1167
444.919	1192
445.14	1256
445.361	1207
445.582	1160
445.803	1138
446.024	1128
446.245	1125
446.466	1106
446.687	1078
446.908	1100
447.129	1058
447.35	1070
447.571	1042
447.792	1004
448.013	1021
448.234	996
448.455	1013
448.675	1019
448.896	1016
449.117	978
449.338	998
449.559	989
449.779	996
450	980
450.221	1005
450.442	1006
450.662	972
450.883	989
451.104	999
451.324	1024
451.545	969
451.766	980
451.986	966
452.207	989
452.428	992
452.648	978
452.869	951
453.089	960
453.31	966
453.53	937
453.751	938
453.971	926
454.192	977
454.412	938
454.633	967
454.853	969
455.073	910
455.294	972
455.514	974
455.734	949
455.955	954
456.175	936
456.395	930
456.616	962
456.836	952
457.056	949
457.276	943
457.497	970
457.717	975
457.937	965
458.157	974
458.377	979
458.598	992
458.818	1010
459.038	1006
459.258	1028
459.478	1037
459.698	1051
459.918	1101
460.138	1083
460.358	1110
460.578	1123
460.798	1154
461.018	1166
461.238	1143
461.458	1147
461.678	1151
461.898	1129
462.118	1175
462.338	1219
462.558	1230
462.777	1215
462.997	1294
463.217	1304
463.437	1349
463.657	1295
463.876	1264
464.096	1238
464.316	1276
464.536	1280
464.755	1227
464.975	1202
465.195	1165
465.414	1168
465.634	1144
465.854	1120
466.073	1070
466.293	1072
466.512	1084
466.732	1060
466.951	1080
467.171	1063
467.391	1040
467.61	1062
467.829	1053
468.049	1001
468.268	1049
468.488	1044
468.707	1031
468.927	1020
469.146	1018
469.365	1033
469.585	1027
469.804	1057
470.023	1048
470.243	1048
470.462	1051
470.681	1038
470.901	1065
471.12	1043
471.339	1055
471.558	1077
471.777	1078
471.997	1067
472.216	1050
472.435	1049
472.654	1017
472.873	1032
473.092	1022
473.311	988
473.53	1057
473.749	1034
473.968	1033
474.187	1043
474.406	1067
474.625	1034
474.844	1038
475.063	1047
475.282	1050
475.501	1066
475.72	1077
475.939	1078
476.158	1089
476.377	1102
476.596	1088
476.814	1089
477.033	1100
477.252	1100
477.471	1148
477.69	1118
477.908	1141
478.127	1154
478.346	1171
478.564	1220
478.783	1210
479.002	1206
479.22	1226
479.439	1234
479.658	1232
479.876	1194
480.095	1231
480.313	1264
480.532	1266
480.751	1221
480.969	1229
481.188	1184
481.406	1210
481.624	1221
481.843	1202
482.061	1200
482.28	1179
482.498	1258
482.717	1225
482.935	1221
483.153	1203
483.372	1201
483.59	1258
483.808	1234
484.027	1179
484.245	1233
484.463	1246
484.681	1264
484.9	1240
485.118	1242
485.336	1255
485.554	1253
485.772	1231
485.99	1245
486.209	1223
486.427	1236
486.645	1256
486.863	1270
487.081	1238
487.299	1219
487.517	1257
487.735	1280
487.953	1312
488.171	1313
488.389	1289
488.607	1300
488.825	1250
489.043	1247
489.261	1268
489.479	1256
489.696	1242
489.914	1291
490.132	1294
490.35	1290
490.568	1322
490.786	1334
491.003	1310
491.221	1318
491.439	1305
491.657	1326
491.874	1338
492.092	1350
492.31	1373
492.527	1367
492.745	1359
492.963	1352
493.18	1360
493.398	1343
493.615	1341
493.833	1370
494.05	1353
494.268	1380
494.485	1369
494.703	1390
494.92	1360
495.138	1383
495.355	1380
495.573	1372
495.79	1437
496.008	1417
496.225	1466
496.442	1440
496.66	1431
496.877	1465
497.094	1504
497.312	1505
497.529	1487
497.746	1571
497.963	1567
498.181	1605
498.398	1636
498.615	1682
498.832	1749
499.049	1790
499.267	1858
499.484	1914
499.701	1971
499.918	2120
500.135	2203
500.352	2324
500.569	2322
500.786	2331
501.003	2267
501.22	2178
501.437	2064
501.654	1974
501.871	1950
502.088	1841
502.305	1766
502.522	1784
502.739	1709
502.956	1697
503.172	1627
503.389	1618
503.606	1545
503.823	1535
504.04	1547
504.256	1505
504.473	1508
504.69	1493
504.907	1486
505.123	1428
505.34	1421
505.557	1370
505.773	1370
505.99	1373
506.207	1307
506.423	1298
506.64	1300
506.856	1262
507.073	1266
507.289	1225
507.506	1233
507.722	1216
507.939	1230
508.155	1226
508.372	1241
508.588	1212
508.805	1177
509.021	1189
509.238	1189
509.454	1187
509.67	1176
509.887	1144
510.103	1134
510.319	1124
510.536	1125
510.752	1127
510.968	1141
511.184	1129
511.401	1140
511.617	1132
511.833	1113
512.049	1139
512.265	1120
512.481	1156
512.698	1112
512.914	1156
513.13	1144
513.346	1117
513.562	1148
513.778	1140
513.994	1131
514.21	1143
514.426	1133
514.642	1104
514.858	1148
515.074	1132
515.29	1152
515.506	1157
515.721	1171
515.937	1162
516.153	1156
516.369	1194
516.585	1196
516.801	1226
517.016	1229
517.232	1227
517.448	1254
517.664	1318
517.879	1281
518.095	1276
518.311	1252
518.527	1256
518.742	1245
518.958	1228
519.173	1213
519.389	1200
519.605	1154
519.82	1185
520.036	1144
520.251	1148
520.467	1146
520.682	1086
520.898	1125
521.113	1095
521.329	1085
521.544	1075
521.76	1086
521.975	1070
522.19	1082
522.406	1081
522.621	1088
522.836	1048
523.052	1072
523.267	1054
523.482	1048
523.698	1034
523.913	1067
524.128	1056
524.343	1074
524.559	1042
524.774	1026
524.989	1039
525.204	1017
525.419	1038
525.634	1032
525.849	1016
526.064	1030
526.28	1016
526.495	1032
526.71	1004
526.925	999
527.14	1014
527.355	985
527.57	1012
527.785	1031
527.999	1003
528.214	1016
528.429	1003
528.644	1009
528.859	1020
529.074	1026
529.289	1002
529.503	1014
529.718	1024
529.933	995
530.148	980
530.363	1028
530.577	1000
530.792	973
531.007	977
531.221	988
531.436	1026
531.651	1008
531.865	983
532.08	1008
532.295	1001
532.509	990
532.724	987
532.938	978
533.153	970
533.367	977
533.582	995
533.796	994
534.011	967
534.225	962
534.44	989
534.654	962
534.868	954
535.083	974
535.297	946
535.511	955
535.726	938
535.94	950
536.154	948
536.369	929
536.583	940
536.797	949
537.011	948
537.225	919
537.44	932
537.654	921
537.868	922
538.082	924
538.296	909
538.51	924
538.724	936
538.938	925
539.153	921
539.367	932
539.581	921
539.795	926
540.009	913
540.222	905
540.436	909
540.65	901
540.864	901
541.078	904
541.292	934
541.506	924
541.72	935
541.934	910
542.147	921
542.361	930
542.575	877
542.789	903
543.002	885
543.216	908
543.43	908
543.644	916
543.857	900
544.071	938
544.285	902
544.498	882
544.712	917
544.925	919
545.139	942
545.352	896
545.566	893
545.779	966
545.993	911
546.206	891
546.42	898
546.633	894
546.847	902
547.06	894
547.274	915
547.487	904
547.7	916
547.914	918
548.127	914
548.34	898
548.554	906
548.767	906
548.98	925
549.193	928
549.407	924
549.62	893
549.833	906
550.046	920
550.259	889
550.473	894
550.686	883
550.899	884
551.112	910
551.325	869
551.538	879
551.751	865
551.964	877
552.177	896
552.39	882
552.603	881
552.816	906
553.029	911
553.242	920
553.455	926
553.667	909
553.88	893
554.093	877
554.306	872
554.519	860
