Data from Ni(NO3)2@0.0625M.TitratingCurve.Agarose3%dH2O.NegLispCup.LampEnergy10.LIBS07252019_HRD10591_18-15-46-570.txt Node
Date: Thu Jul 25 18:15:46 EDT 2019
User: cochatt
Spectrometer: HR+D1059
Trigger mode: 1
Integration Time (sec): 1.000000E-1
Scans to average: 1
Electric dark correction enabled: true
Nonlinearity correction enabled: false
Boxcar width: 0
XAxis mode: Wavelengths
Number of Pixels in Spectrum: 2048
>>>>>Begin Spectral Data<<<<<
223.165	-12.06
223.4	-12.06
223.635	-12.06
223.869	-5.06
224.104	-14.06
224.338	-25.06
224.573	-14.06
224.808	-5.06
225.042	-9.06
225.277	-8.06
225.511	2.94
225.746	3.94
225.98	23.94
226.215	11.94
226.449	5.94
226.683	8.94
226.918	22.94
227.152	11.94
227.387	33.94
227.621	31.94
227.856	49.94
228.09	51.94
228.324	58.94
228.559	55.94
228.793	58.94
229.027	99.94
229.262	103.94
229.496	124.94
229.73	119.94
229.964	116.94
230.199	118.94
230.433	113.94
230.667	118.94
230.901	132.94
231.136	129.94
231.37	114.94
231.604	119.94
231.838	133.94
232.072	137.94
232.306	146.94
232.541	129.94
232.775	126.94
233.009	139.94
233.243	135.94
233.477	133.94
233.711	139.94
233.945	131.94
234.179	143.94
234.413	148.94
234.647	152.94
234.881	133.94
235.115	161.94
235.349	144.94
235.583	131.94
235.817	132.94
236.051	153.94
236.285	153.94
236.519	150.94
236.753	148.94
236.987	129.94
237.221	150.94
237.455	152.94
237.689	148.94
237.922	150.94
238.156	143.94
238.39	145.94
238.624	149.94
238.858	168.94
239.091	150.94
239.325	142.94
239.559	165.94
239.793	157.94
240.027	166.94
240.26	157.94
240.494	165.94
240.728	163.94
240.961	169.94
241.195	167.94
241.429	177.94
241.662	187.94
241.896	167.94
242.13	180.94
242.363	175.94
242.597	168.94
242.83	159.94
243.064	176.94
243.298	167.94
243.531	177.94
243.765	185.94
243.998	181.94
244.232	180.94
244.465	174.94
244.699	200.94
244.932	202.94
245.166	204.94
245.399	190.94
245.633	190.94
245.866	197.94
246.099	199.94
246.333	196.94
246.566	205.94
246.8	190.94
247.033	204.94
247.266	206.94
247.5	209.94
247.733	206.94
247.966	201.94
248.2	188.94
248.433	196.94
248.666	221.94
248.899	206.94
249.133	204.94
249.366	212.94
249.599	198.94
249.832	217.94
250.066	210.94
250.299	234.94
250.532	213.94
250.765	217.94
250.998	223.94
251.231	204.94
251.465	224.94
251.698	235.94
251.931	239.94
252.164	239.94
252.397	222.94
252.63	236.94
252.863	229.94
253.096	247.94
253.329	224.94
253.562	218.94
253.795	231.94
254.028	242.94
254.261	233.94
254.494	254.94
254.727	244.94
254.96	249.94
255.193	244.94
255.426	222.94
255.659	244.94
255.892	240.94
256.124	259.94
256.357	250.94
256.59	256.94
256.823	235.94
257.056	237.94
257.289	256.94
257.521	243.94
257.754	249.94
257.987	251.94
258.22	242.94
258.452	263.94
258.685	260.94
258.918	270.94
259.151	270.94
259.383	266.94
259.616	256.94
259.849	261.94
260.081	265.94
260.314	279.94
260.547	270.94
260.779	266.94
261.012	275.94
261.244	278.94
261.477	285.94
261.71	290.94
261.942	297.94
262.175	292.94
262.407	271.94
262.64	289.94
262.872	271.94
263.105	296.94
263.337	287.94
263.57	287.94
263.802	299.94
264.035	298.94
264.267	289.94
264.499	287.94
264.732	295.94
264.964	311.94
265.197	306.94
265.429	313.94
265.661	296.94
265.894	315.94
266.126	309.94
266.358	321.94
266.591	307.94
266.823	325.94
267.055	300.94
267.287	300.94
267.52	325.94
267.752	329.94
267.984	323.94
268.216	308.94
268.448	311.94
268.681	321.94
268.913	322.94
269.145	314.94
269.377	305.94
269.609	319.94
269.841	329.94
270.073	328.94
270.306	332.94
270.538	323.94
270.77	329.94
271.002	341.94
271.234	345.94
271.466	317.94
271.698	348.94
271.93	348.94
272.162	351.94
272.394	323.94
272.626	335.94
272.858	335.94
273.09	340.94
273.322	344.94
273.553	341.94
273.785	347.94
274.017	363.94
274.249	351.94
274.481	358.94
274.713	353.94
274.945	330.94
275.176	350.94
275.408	350.94
275.64	361.94
275.872	345.94
276.104	377.94
276.335	357.94
276.567	364.94
276.799	350.94
277.031	371.94
277.262	355.94
277.494	374.94
277.726	383.94
277.957	370.94
278.189	377.94
278.421	370.94
278.652	396.94
278.884	383.94
279.115	366.94
279.347	373.94
279.579	383.94
279.81	391.94
280.042	376.94
280.273	380.94
280.505	389.94
280.736	389.94
280.968	401.94
281.199	388.94
281.431	388.94
281.662	393.94
281.894	392.94
282.125	389.94
282.356	411.94
282.588	393.94
282.819	406.94
283.051	390.94
283.282	389.94
283.513	406.94
283.745	427.94
283.976	414.94
284.207	422.94
284.439	417.94
284.67	398.94
284.901	421.94
285.132	438.94
285.364	416.94
285.595	428.94
285.826	437.94
286.057	423.94
286.288	429.94
286.52	422.94
286.751	395.94
286.982	426.94
287.213	411.94
287.444	418.94
287.675	402.94
287.906	435.94
288.138	437.94
288.369	450.94
288.6	445.94
288.831	451.94
289.062	437.94
289.293	437.94
289.524	435.94
289.755	449.94
289.986	448.94
290.217	453.94
290.448	445.94
290.679	457.94
290.91	449.94
291.141	457.94
291.371	465.94
291.602	429.94
291.833	467.94
292.064	473.94
292.295	451.94
292.526	448.94
292.757	474.94
292.987	441.94
293.218	435.94
293.449	449.94
293.68	449.94
293.91	456.94
294.141	456.94
294.372	450.94
294.603	453.94
294.833	458.94
295.064	460.94
295.295	457.94
295.525	472.94
295.756	468.94
295.987	460.94
296.217	481.94
296.448	460.94
296.679	482.94
296.909	494.94
297.14	477.94
297.37	490.94
297.601	483.94
297.831	493.94
298.062	499.94
298.292	495.94
298.523	487.94
298.753	495.94
298.984	466.94
299.214	499.94
299.445	492.94
299.675	481.94
299.905	511.94
300.136	516.94
300.366	509.94
300.597	511.94
300.827	512.94
301.057	525.94
301.288	526.94
301.518	518.94
301.748	523.94
301.979	525.94
302.209	521.94
302.439	521.94
302.669	509.94
302.9	529.94
303.13	499.94
303.36	487.94
303.59	506.94
303.82	501.94
304.051	531.94
304.281	525.94
304.511	521.94
304.741	510.94
304.971	527.94
305.201	532.94
305.431	515.94
305.661	533.94
305.891	485.94
306.121	518.94
306.352	508.94
306.582	518.94
306.812	503.94
307.042	518.94
307.272	510.94
307.502	481.94
307.731	489.94
307.961	505.94
308.191	513.94
308.421	503.94
308.651	492.94
308.881	503.94
309.111	503.94
309.341	482.94
309.571	477.94
309.8	509.94
310.03	505.94
310.26	505.94
310.49	493.94
310.72	514.94
310.949	519.94
311.179	501.94
311.409	497.94
311.639	518.94
311.868	517.94
312.098	508.94
312.328	534.94
312.557	517.94
312.787	517.94
313.017	534.94
313.246	506.94
313.476	542.94
313.706	558.94
313.935	541.94
314.165	545.94
314.394	529.94
314.624	550.94
314.853	538.94
315.083	525.94
315.312	555.94
315.542	541.94
315.771	532.94
316.001	541.94
316.23	511.94
316.46	498.94
316.689	526.94
316.919	531.94
317.148	539.94
317.377	526.94
317.607	524.94
317.836	538.94
318.065	510.94
318.295	536.94
318.524	528.94
318.753	518.94
318.983	515.94
319.212	538.94
319.441	536.94
319.67	501.94
319.9	526.94
320.129	518.94
320.358	540.94
320.587	528.94
320.816	529.94
321.046	525.94
321.275	533.94
321.504	525.94
321.733	522.94
321.962	515.94
322.191	522.94
322.42	535.94
322.649	543.94
322.878	532.94
323.108	530.94
323.337	534.94
323.566	516.94
323.795	523.94
324.024	546.94
324.253	527.94
324.482	571.94
324.71	535.94
324.939	517.94
325.168	550.94
325.397	561.94
325.626	561.94
325.855	561.94
326.084	571.94
326.313	567.94
326.542	569.94
326.77	597.94
326.999	568.94
327.228	576.94
327.457	582.94
327.686	570.94
327.914	579.94
328.143	575.94
328.372	574.94
328.6	602.94
328.829	597.94
329.058	577.94
329.287	611.94
329.515	590.94
329.744	597.94
329.972	607.94
330.201	581.94
330.43	595.94
330.658	602.94
330.887	600.94
331.115	627.94
331.344	618.94
331.572	624.94
331.801	621.94
332.03	607.94
332.258	634.94
332.486	650.94
332.715	683.94
332.943	737.94
333.172	733.94
333.4	756.94
333.629	774.94
333.857	776.94
334.085	781.94
334.314	754.94
334.542	740.94
334.771	735.94
334.999	749.94
335.227	742.94
335.455	715.94
335.684	731.94
335.912	718.94
336.14	711.94
336.369	690.94
336.597	701.94
336.825	730.94
337.053	687.94
337.281	698.94
337.51	686.94
337.738	670.94
337.966	701.94
338.194	661.94
338.422	627.94
338.65	638.94
338.878	622.94
339.106	643.94
339.334	617.94
339.562	645.94
339.79	629.94
340.018	612.94
340.246	609.94
340.474	612.94
340.702	635.94
340.93	613.94
341.158	621.94
341.386	628.94
341.614	625.94
341.842	605.94
342.07	622.94
342.298	607.94
342.526	605.94
342.754	630.94
342.981	649.94
343.209	620.94
343.437	649.94
343.665	723.94
343.893	739.94
344.12	758.94
344.348	717.94
344.576	693.94
344.804	671.94
345.031	662.94
345.259	613.94
345.487	628.94
345.714	596.94
345.942	605.94
346.17	615.94
346.397	605.94
346.625	581.94
346.853	594.94
347.08	581.94
347.308	593.94
347.535	598.94
347.763	590.94
347.99	617.94
348.218	590.94
348.445	599.94
348.673	609.94
348.9	591.94
349.128	596.94
349.355	587.94
349.583	601.94
349.81	573.94
350.037	564.94
350.265	572.94
350.492	573.94
350.72	565.94
350.947	588.94
351.174	573.94
351.402	589.94
351.629	595.94
351.856	576.94
352.083	565.94
352.311	571.94
352.538	572.94
352.765	578.94
352.992	564.94
353.22	552.94
353.447	573.94
353.674	588.94
353.901	595.94
354.128	560.94
354.355	582.94
354.583	579.94
354.81	585.94
355.037	596.94
355.264	575.94
355.491	588.94
355.718	567.94
355.945	577.94
356.172	591.94
356.399	587.94
356.626	586.94
356.853	610.94
357.08	605.94
357.307	575.94
357.534	586.94
357.761	571.94
357.988	595.94
358.215	575.94
358.441	573.94
358.668	547.94
358.895	561.94
359.122	575.94
359.349	595.94
359.576	555.94
359.802	574.94
360.029	571.94
360.256	583.94
360.483	572.94
360.709	565.94
360.936	583.94
361.163	578.94
361.39	573.94
361.616	587.94
361.843	588.94
362.07	572.94
362.296	587.94
362.523	571.94
362.749	567.94
362.976	590.94
363.203	571.94
363.429	557.94
363.656	545.94
363.882	580.94
364.109	574.94
364.335	581.94
364.562	581.94
364.788	562.94
365.015	567.94
365.241	557.94
365.468	573.94
365.694	581.94
365.92	590.94
366.147	562.94
366.373	566.94
366.599	590.94
366.826	577.94
367.052	581.94
367.278	576.94
367.505	555.94
367.731	564.94
367.957	577.94
368.184	553.94
368.41	572.94
368.636	590.94
368.862	589.94
369.089	571.94
369.315	599.94
369.541	601.94
369.767	595.94
369.993	592.94
370.219	570.94
370.445	600.94
370.672	612.94
370.898	609.94
371.124	607.94
371.35	660.94
371.576	628.94
371.802	635.94
372.028	640.94
372.254	606.94
372.48	630.94
372.706	631.94
372.932	639.94
373.158	636.94
373.384	612.94
373.61	614.94
373.835	611.94
374.061	623.94
374.287	628.94
374.513	650.94
374.739	670.94
374.965	678.94
375.191	710.94
375.416	718.94
375.642	669.94
375.868	661.94
376.094	655.94
376.319	637.94
376.545	638.94
376.771	651.94
376.997	641.94
377.222	626.94
377.448	611.94
377.674	627.94
377.899	625.94
378.125	622.94
378.35	611.94
378.576	606.94
378.802	631.94
379.027	623.94
379.253	616.94
379.478	622.94
379.704	619.94
379.929	633.94
380.155	609.94
380.38	627.94
380.606	629.94
380.831	619.94
381.057	631.94
381.282	625.94
381.507	629.94
381.733	622.94
381.958	630.94
382.184	655.94
382.409	669.94
382.634	641.94
382.86	648.94
383.085	670.94
383.31	697.94
383.535	678.94
383.761	717.94
383.986	718.94
384.211	734.94
384.436	739.94
384.662	745.94
384.887	753.94
385.112	750.94
385.337	769.94
385.562	762.94
385.787	741.94
386.013	769.94
386.238	749.94
386.463	755.94
386.688	759.94
386.913	735.94
387.138	749.94
387.363	762.94
387.588	742.94
387.813	710.94
388.038	735.94
388.263	768.94
388.488	732.94
388.713	741.94
388.938	717.94
389.163	728.94
389.387	727.94
389.612	717.94
389.837	739.94
390.062	741.94
390.287	735.94
390.512	732.94
390.736	733.94
390.961	771.94
391.186	768.94
391.411	796.94
391.636	828.94
391.86	833.94
392.085	873.94
392.31	838.94
392.534	827.94
392.759	793.94
392.984	785.94
393.208	810.94
393.433	782.94
393.658	792.94
393.882	796.94
394.107	788.94
394.331	807.94
394.556	811.94
394.78	807.94
395.005	799.94
395.229	798.94
395.454	835.94
395.678	817.94
395.903	814.94
396.127	815.94
396.352	786.94
396.576	783.94
396.801	798.94
397.025	811.94
397.249	826.94
397.474	814.94
397.698	845.94
397.922	837.94
398.147	830.94
398.371	859.94
398.595	882.94
398.82	913.94
399.044	945.94
399.268	1079.94
399.492	1244.94
399.717	1413.94
399.941	1380.94
400.165	1247.94
400.389	1159.94
400.613	1029.94
400.837	967.94
401.062	926.94
401.286	965.94
401.51	925.94
401.734	949.94
401.958	947.94
402.182	938.94
402.406	951.94
402.63	995.94
402.854	1017.94
403.078	1029.94
403.302	1022.94
403.526	1030.94
403.75	1084.94
403.974	1071.94
404.198	1090.94
404.422	1077.94
404.645	1063.94
404.869	1078.94
405.093	1053.94
405.317	1033.94
405.541	1013.94
405.765	1017.94
405.988	1009.94
406.212	1013.94
406.436	1026.94
406.66	1054.94
406.883	1071.94
407.107	1112.94
407.331	1180.94
407.555	1249.94
407.778	1247.94
408.002	1185.94
408.226	1143.94
408.449	1110.94
408.673	1061.94
408.896	1047.94
409.12	1050.94
409.344	1069.94
409.567	1037.94
409.791	1078.94
410.014	1083.94
410.238	1059.94
410.461	1053.94
410.685	1082.94
410.908	1030.94
411.132	995.94
411.355	965.94
411.578	991.94
411.802	976.94
412.025	981.94
412.249	972.94
412.472	954.94
412.695	980.94
412.919	927.94
413.142	924.94
413.365	948.94
413.589	934.94
413.812	934.94
414.035	923.94
414.258	911.94
414.482	947.94
414.705	958.94
414.928	938.94
415.151	952.94
415.374	941.94
415.597	957.94
415.821	911.94
416.044	903.94
416.267	904.94
416.49	913.94
416.713	911.94
416.936	919.94
417.159	919.94
417.382	883.94
417.605	915.94
417.828	910.94
418.051	932.94
418.274	920.94
418.497	932.94
418.72	969.94
418.943	965.94
419.166	999.94
419.389	1045.94
419.611	1047.94
419.834	1025.94
420.057	942.94
420.28	917.94
420.503	914.94
420.726	888.94
420.948	899.94
421.171	895.94
421.394	911.94
421.617	894.94
421.839	914.94
422.062	910.94
422.285	910.94
422.507	924.94
422.73	953.94
422.953	934.94
423.175	963.94
423.398	973.94
423.621	985.94
423.843	955.94
424.066	983.94
424.288	971.94
424.511	966.94
424.733	949.94
424.956	966.94
425.178	953.94
425.401	937.94
425.623	937.94
425.846	872.94
426.068	890.94
426.291	871.94
426.513	851.94
426.735	870.94
426.958	895.94
427.18	840.94
427.402	833.94
427.625	884.94
427.847	814.94
428.069	806.94
428.292	831.94
428.514	826.94
428.736	808.94
428.958	856.94
429.181	794.94
429.403	813.94
429.625	823.94
429.847	796.94
430.069	823.94
430.292	814.94
430.514	813.94
430.736	802.94
430.958	841.94
431.18	794.94
431.402	788.94
431.624	810.94
431.846	817.94
432.068	833.94
432.29	850.94
432.512	821.94
432.734	829.94
432.956	840.94
433.178	842.94
433.4	824.94
433.622	821.94
433.844	855.94
434.066	843.94
434.287	827.94
434.509	874.94
434.731	895.94
434.953	905.94
435.175	949.94
435.397	927.94
435.618	894.94
435.84	868.94
436.062	840.94
436.284	836.94
436.505	818.94
436.727	811.94
436.949	825.94
437.17	828.94
437.392	813.94
437.614	805.94
437.835	802.94
438.057	809.94
438.278	794.94
438.5	803.94
438.721	781.94
438.943	797.94
439.165	798.94
439.386	784.94
439.608	835.94
439.829	814.94
440.05	807.94
440.272	845.94
440.493	815.94
440.715	848.94
440.936	839.94
441.158	857.94
441.379	916.94
441.6	937.94
441.822	951.94
442.043	926.94
442.264	901.94
442.486	901.94
442.707	928.94
442.928	906.94
443.149	905.94
443.371	896.94
443.592	926.94
443.813	910.94
444.034	942.94
444.255	975.94
444.476	978.94
444.698	1083.94
444.919	1114.94
445.14	1148.94
445.361	1076.94
445.582	960.94
445.803	906.94
446.024	878.94
446.245	886.94
446.466	870.94
446.687	853.94
446.908	836.94
447.129	819.94
447.35	802.94
447.571	817.94
447.792	805.94
448.013	802.94
448.234	772.94
448.455	786.94
448.675	780.94
448.896	775.94
449.117	760.94
449.338	768.94
449.559	764.94
449.779	771.94
450	763.94
450.221	750.94
450.442	773.94
450.662	801.94
450.883	748.94
451.104	789.94
451.324	776.94
451.545	749.94
451.766	796.94
451.986	757.94
452.207	785.94
452.428	779.94
452.648	784.94
452.869	762.94
453.089	746.94
453.31	753.94
453.53	718.94
453.751	757.94
453.971	721.94
454.192	719.94
454.412	713.94
454.633	722.94
454.853	733.94
455.073	757.94
455.294	714.94
455.514	721.94
455.734	722.94
455.955	663.94
456.175	718.94
456.395	705.94
456.616	697.94
456.836	727.94
457.056	706.94
457.276	689.94
457.497	720.94
457.717	731.94
457.937	726.94
458.157	695.94
458.377	717.94
458.598	714.94
458.818	789.94
459.038	789.94
459.258	833.94
459.478	843.94
459.698	873.94
459.918	854.94
460.138	908.94
460.358	946.94
460.578	949.94
460.798	986.94
461.018	988.94
461.238	985.94
461.458	961.94
461.678	989.94
461.898	1000.94
462.118	977.94
462.338	1038.94
462.558	1075.94
462.777	1103.94
462.997	1169.94
463.217	1310.94
463.437	1305.94
463.657	1203.94
463.876	1161.94
464.096	1166.94
464.316	1144.94
464.536	1173.94
464.755	1095.94
464.975	1073.94
465.195	1021.94
465.414	929.94
465.634	899.94
465.854	884.94
466.073	802.94
466.293	810.94
466.512	819.94
466.732	812.94
466.951	809.94
467.171	788.94
467.391	795.94
467.61	804.94
467.829	807.94
468.049	797.94
468.268	781.94
468.488	781.94
468.707	750.94
468.927	733.94
469.146	757.94
469.365	748.94
469.585	775.94
469.804	818.94
470.023	795.94
470.243	829.94
470.462	852.94
470.681	811.94
470.901	823.94
471.12	794.94
471.339	792.94
471.558	781.94
471.777	776.94
471.997	743.94
472.216	772.94
472.435	787.94
472.654	757.94
472.873	718.94
473.092	735.94
473.311	736.94
473.53	732.94
473.749	735.94
473.968	736.94
474.187	735.94
474.406	729.94
474.625	727.94
474.844	756.94
475.063	767.94
475.282	762.94
475.501	778.94
475.72	764.94
475.939	771.94
476.158	755.94
476.377	772.94
476.596	793.94
476.814	784.94
477.033	822.94
477.252	813.94
477.471	814.94
477.69	833.94
477.908	855.94
478.127	881.94
478.346	897.94
478.564	913.94
478.783	883.94
479.002	949.94
479.22	921.94
479.439	915.94
479.658	935.94
479.876	925.94
480.095	931.94
480.313	972.94
480.532	1007.94
480.751	999.94
480.969	951.94
481.188	951.94
481.406	918.94
481.624	899.94
481.843	893.94
482.061	841.94
482.28	862.94
482.498	859.94
482.717	853.94
482.935	839.94
483.153	844.94
483.372	862.94
483.59	869.94
483.808	893.94
484.027	861.94
484.245	862.94
484.463	853.94
484.681	876.94
484.9	886.94
485.118	893.94
485.336	869.94
485.554	926.94
485.772	923.94
485.99	903.94
486.209	911.94
486.427	924.94
486.645	899.94
486.863	923.94
487.081	920.94
487.299	882.94
487.517	888.94
487.735	892.94
487.953	895.94
488.171	890.94
488.389	868.94
488.607	883.94
488.825	890.94
489.043	875.94
489.261	877.94
489.479	896.94
489.696	874.94
489.914	875.94
490.132	909.94
490.35	893.94
490.568	876.94
490.786	899.94
491.003	911.94
491.221	895.94
491.439	909.94
491.657	887.94
491.874	909.94
492.092	897.94
492.31	929.94
492.527	889.94
492.745	934.94
492.963	915.94
493.18	902.94
493.398	933.94
493.615	937.94
493.833	915.94
494.05	931.94
494.268	913.94
494.485	958.94
494.703	929.94
494.92	921.94
495.138	958.94
495.355	920.94
495.573	939.94
495.79	952.94
496.008	973.94
496.225	953.94
496.442	960.94
496.66	948.94
496.877	992.94
497.094	982.94
497.312	1031.94
497.529	1027.94
497.746	1084.94
497.963	1085.94
498.181	1171.94
498.398	1187.94
498.615	1226.94
498.832	1311.94
499.049	1425.94
499.267	1529.94
499.484	1651.94
499.701	1840.94
499.918	2041.94
500.135	2364.94
500.352	2704.94
500.569	2856.94
