Data from Ni(NO3)2Standard.Agarose3%.GreenCap.LampEnergy5.5.E.O_HRD10591_14-40-22-188.txt Node
Date: Mon Jul 22 14:40:22 EDT 2019
User: cochatt
Spectrometer: HR+D1059
Trigger mode: 1
Integration Time (sec): 1.000000E-1
Scans to average: 1
Electric dark correction enabled: true
Nonlinearity correction enabled: false
Boxcar width: 0
XAxis mode: Wavelengths
Number of Pixels in Spectrum: 2048
>>>>>Begin Spectral Data<<<<<
223.165	-14.12
223.4	-14.12
223.635	-14.12
223.869	-29.12
224.104	-23.12
224.338	-23.12
224.573	-18.12
224.808	-13.12
225.042	-6.12
225.277	-10.12
225.511	-10.12
225.746	12.88
225.98	7.88
226.215	22.88
226.449	2.88
226.683	26.88
226.918	40.88
227.152	32.88
227.387	41.88
227.621	47.88
227.856	39.88
228.09	42.88
228.324	55.88
228.559	53.88
228.793	52.88
229.027	61.88
229.262	66.88
229.496	57.88
229.73	69.88
229.964	68.88
230.199	70.88
230.433	77.88
230.667	71.88
230.901	91.88
231.136	74.88
231.37	64.88
231.604	73.88
231.838	84.88
232.072	82.88
232.306	61.88
232.541	88.88
232.775	78.88
233.009	73.88
233.243	80.88
233.477	79.88
233.711	83.88
233.945	85.88
234.179	76.88
234.413	82.88
234.647	89.88
234.881	83.88
235.115	81.88
235.349	76.88
235.583	81.88
235.817	71.88
236.051	80.88
236.285	81.88
236.519	84.88
236.753	67.88
236.987	72.88
237.221	86.88
237.455	82.88
237.689	92.88
237.922	74.88
238.156	82.88
238.39	71.88
238.624	79.88
238.858	82.88
239.091	85.88
239.325	75.88
239.559	79.88
239.793	89.88
240.027	81.88
240.26	59.88
240.494	69.88
240.728	75.88
240.961	81.88
241.195	83.88
241.429	77.88
241.662	72.88
241.896	76.88
242.13	80.88
242.363	83.88
242.597	72.88
242.83	76.88
243.064	80.88
243.298	76.88
243.531	81.88
243.765	86.88
243.998	85.88
244.232	72.88
244.465	70.88
244.699	77.88
244.932	75.88
245.166	82.88
245.399	86.88
245.633	80.88
245.866	73.88
246.099	82.88
246.333	85.88
246.566	76.88
246.8	82.88
247.033	94.88
247.266	85.88
247.5	91.88
247.733	97.88
247.966	83.88
248.2	79.88
248.433	78.88
248.666	84.88
248.899	80.88
249.133	82.88
249.366	84.88
249.599	100.88
249.832	75.88
250.066	88.88
250.299	81.88
250.532	81.88
250.765	71.88
250.998	88.88
251.231	61.88
251.465	81.88
251.698	79.88
251.931	88.88
252.164	85.88
252.397	63.88
252.63	64.88
252.863	73.88
253.096	75.88
253.329	89.88
253.562	94.88
253.795	75.88
254.028	82.88
254.261	74.88
254.494	90.88
254.727	84.88
254.96	81.88
255.193	75.88
255.426	69.88
255.659	69.88
255.892	77.88
256.124	78.88
256.357	81.88
256.59	72.88
256.823	79.88
257.056	98.88
257.289	87.88
257.521	88.88
257.754	88.88
257.987	79.88
258.22	82.88
258.452	63.88
258.685	82.88
258.918	93.88
259.151	74.88
259.383	80.88
259.616	70.88
259.849	80.88
260.081	88.88
260.314	70.88
260.547	74.88
260.779	83.88
261.012	79.88
261.244	75.88
261.477	80.88
261.71	81.88
261.942	92.88
262.175	91.88
262.407	84.88
262.64	85.88
262.872	83.88
263.105	80.88
263.337	95.88
263.57	88.88
263.802	76.88
264.035	87.88
264.267	73.88
264.499	97.88
264.732	85.88
264.964	84.88
265.197	82.88
265.429	83.88
265.661	78.88
265.894	70.88
266.126	84.88
266.358	80.88
266.591	77.88
266.823	91.88
267.055	67.88
267.287	83.88
267.52	91.88
267.752	67.88
267.984	74.88
268.216	91.88
268.448	78.88
268.681	92.88
268.913	84.88
269.145	93.88
269.377	86.88
269.609	66.88
269.841	74.88
270.073	83.88
270.306	83.88
270.538	80.88
270.77	72.88
271.002	81.88
271.234	84.88
271.466	74.88
271.698	72.88
271.93	72.88
272.162	82.88
272.394	90.88
272.626	81.88
272.858	100.88
273.09	73.88
273.322	77.88
273.553	89.88
273.785	78.88
274.017	90.88
274.249	86.88
274.481	82.88
274.713	85.88
274.945	72.88
275.176	82.88
275.408	76.88
275.64	93.88
275.872	95.88
276.104	71.88
276.335	71.88
276.567	87.88
276.799	73.88
277.031	81.88
277.262	83.88
277.494	100.88
277.726	86.88
277.957	77.88
278.189	80.88
278.421	100.88
278.652	78.88
278.884	67.88
279.115	82.88
279.347	87.88
279.579	73.88
279.81	87.88
280.042	85.88
280.273	87.88
280.505	85.88
280.736	83.88
280.968	83.88
281.199	74.88
281.431	80.88
281.662	77.88
281.894	92.88
282.125	81.88
282.356	84.88
282.588	87.88
282.819	90.88
283.051	81.88
283.282	92.88
283.513	85.88
283.745	82.88
283.976	80.88
284.207	81.88
284.439	88.88
284.67	88.88
284.901	84.88
285.132	87.88
285.364	85.88
285.595	90.88
285.826	90.88
286.057	77.88
286.288	74.88
286.52	87.88
286.751	84.88
286.982	86.88
287.213	84.88
287.444	78.88
287.675	87.88
287.906	80.88
288.138	77.88
288.369	85.88
288.6	87.88
288.831	84.88
289.062	95.88
289.293	84.88
289.524	93.88
289.755	88.88
289.986	78.88
290.217	83.88
290.448	72.88
290.679	89.88
290.91	83.88
291.141	84.88
291.371	83.88
291.602	81.88
291.833	84.88
292.064	84.88
292.295	84.88
292.526	81.88
292.757	75.88
292.987	91.88
293.218	104.88
293.449	81.88
293.68	93.88
293.91	98.88
294.141	105.88
294.372	99.88
294.603	91.88
294.833	77.88
295.064	92.88
295.295	102.88
295.525	86.88
295.756	94.88
295.987	90.88
296.217	94.88
296.448	73.88
296.679	81.88
296.909	82.88
297.14	85.88
297.37	78.88
297.601	90.88
297.831	82.88
298.062	79.88
298.292	82.88
298.523	93.88
298.753	69.88
298.984	74.88
299.214	83.88
299.445	77.88
299.675	85.88
299.905	83.88
300.136	81.88
300.366	86.88
300.597	78.88
300.827	90.88
301.057	83.88
301.288	93.88
301.518	87.88
301.748	88.88
301.979	81.88
302.209	85.88
302.439	86.88
302.669	85.88
302.9	78.88
303.13	85.88
303.36	86.88
303.59	82.88
303.82	88.88
304.051	93.88
304.281	82.88
304.511	85.88
304.741	89.88
304.971	75.88
305.201	86.88
305.431	87.88
305.661	87.88
305.891	87.88
306.121	82.88
306.352	86.88
306.582	84.88
306.812	83.88
307.042	80.88
307.272	82.88
307.502	74.88
307.731	66.88
307.961	86.88
308.191	99.88
308.421	99.88
308.651	83.88
308.881	93.88
309.111	84.88
309.341	72.88
309.571	82.88
309.8	95.88
310.03	80.88
310.26	85.88
310.49	85.88
310.72	101.88
310.949	88.88
311.179	91.88
311.409	95.88
311.639	99.88
311.868	74.88
312.098	85.88
312.328	93.88
312.557	91.88
312.787	77.88
313.017	83.88
313.246	90.88
313.476	83.88
313.706	91.88
313.935	73.88
314.165	90.88
314.394	84.88
314.624	86.88
314.853	90.88
315.083	80.88
315.312	77.88
315.542	83.88
315.771	81.88
316.001	71.88
316.23	85.88
316.46	89.88
316.689	77.88
316.919	88.88
317.148	95.88
317.377	98.88
317.607	90.88
317.836	78.88
318.065	77.88
318.295	80.88
318.524	79.88
318.753	106.88
318.983	83.88
319.212	82.88
319.441	93.88
319.67	97.88
319.9	94.88
320.129	78.88
320.358	86.88
320.587	81.88
320.816	76.88
321.046	87.88
321.275	85.88
321.504	93.88
321.733	88.88
321.962	75.88
322.191	84.88
322.42	74.88
322.649	82.88
322.878	81.88
323.108	85.88
323.337	79.88
323.566	86.88
323.795	83.88
324.024	95.88
324.253	91.88
324.482	99.88
324.71	84.88
324.939	102.88
325.168	79.88
325.397	96.88
325.626	94.88
325.855	83.88
326.084	99.88
326.313	82.88
326.542	87.88
326.77	86.88
326.999	105.88
327.228	81.88
327.457	84.88
327.686	99.88
327.914	93.88
328.143	82.88
328.372	83.88
328.6	100.88
328.829	87.88
329.058	89.88
329.287	84.88
329.515	95.88
329.744	86.88
329.972	99.88
330.201	97.88
330.43	98.88
330.658	85.88
330.887	81.88
331.115	87.88
331.344	83.88
331.572	83.88
331.801	96.88
332.03	80.88
332.258	92.88
332.486	78.88
332.715	76.88
332.943	74.88
333.172	96.88
333.4	73.88
333.629	83.88
333.857	88.88
334.085	78.88
334.314	100.88
334.542	87.88
334.771	91.88
334.999	84.88
335.227	79.88
335.455	81.88
335.684	98.88
335.912	84.88
336.14	89.88
336.369	82.88
336.597	85.88
336.825	94.88
337.053	88.88
337.281	80.88
337.51	77.88
337.738	85.88
337.966	72.88
338.194	90.88
338.422	89.88
338.65	93.88
338.878	91.88
339.106	80.88
339.334	80.88
339.562	69.88
339.79	90.88
340.018	95.88
340.246	81.88
340.474	85.88
340.702	82.88
340.93	84.88
341.158	85.88
341.386	97.88
341.614	87.88
341.842	109.88
342.07	82.88
342.298	79.88
342.526	92.88
342.754	82.88
342.981	88.88
343.209	86.88
343.437	98.88
343.665	86.88
343.893	91.88
344.12	89.88
344.348	74.88
344.576	77.88
344.804	92.88
345.031	84.88
345.259	81.88
345.487	86.88
345.714	85.88
345.942	74.88
346.17	82.88
346.397	89.88
346.625	77.88
346.853	94.88
347.08	81.88
347.308	89.88
347.535	84.88
347.763	73.88
347.99	93.88
348.218	82.88
348.445	80.88
348.673	83.88
348.9	87.88
349.128	87.88
349.355	71.88
349.583	83.88
349.81	91.88
350.037	85.88
350.265	89.88
350.492	92.88
350.72	96.88
350.947	85.88
351.174	78.88
351.402	76.88
351.629	92.88
351.856	87.88
352.083	92.88
352.311	90.88
352.538	82.88
352.765	84.88
352.992	81.88
353.22	89.88
353.447	85.88
353.674	95.88
353.901	74.88
354.128	86.88
354.355	79.88
354.583	76.88
354.81	83.88
355.037	95.88
355.264	88.88
355.491	97.88
355.718	86.88
355.945	90.88
356.172	87.88
356.399	88.88
356.626	82.88
356.853	83.88
357.08	96.88
357.307	86.88
357.534	72.88
357.761	84.88
357.988	78.88
358.215	81.88
358.441	92.88
358.668	78.88
358.895	76.88
359.122	89.88
359.349	81.88
359.576	81.88
359.802	77.88
360.029	89.88
360.256	95.88
360.483	91.88
360.709	81.88
360.936	85.88
361.163	91.88
361.39	73.88
361.616	73.88
361.843	96.88
362.07	79.88
362.296	86.88
362.523	99.88
362.749	90.88
362.976	91.88
363.203	85.88
363.429	97.88
363.656	66.88
363.882	83.88
364.109	101.88
364.335	84.88
364.562	82.88
364.788	92.88
365.015	81.88
365.241	85.88
365.468	91.88
365.694	82.88
365.92	94.88
366.147	73.88
366.373	77.88
366.599	83.88
366.826	96.88
367.052	95.88
367.278	82.88
367.505	93.88
367.731	69.88
367.957	93.88
368.184	84.88
368.41	76.88
368.636	88.88
368.862	100.88
369.089	92.88
369.315	86.88
369.541	86.88
369.767	97.88
369.993	82.88
370.219	90.88
370.445	86.88
370.672	97.88
370.898	95.88
371.124	93.88
371.35	93.88
371.576	81.88
371.802	78.88
372.028	80.88
372.254	81.88
372.48	83.88
372.706	93.88
372.932	92.88
373.158	85.88
373.384	86.88
373.61	84.88
373.835	81.88
374.061	87.88
374.287	87.88
374.513	88.88
374.739	77.88
374.965	87.88
375.191	87.88
375.416	93.88
375.642	76.88
375.868	89.88
376.094	90.88
376.319	81.88
376.545	80.88
376.771	81.88
376.997	82.88
377.222	96.88
377.448	86.88
377.674	75.88
377.899	86.88
378.125	90.88
378.35	87.88
378.576	101.88
378.802	76.88
379.027	84.88
379.253	85.88
379.478	75.88
379.704	73.88
379.929	83.88
380.155	79.88
380.38	84.88
380.606	90.88
380.831	77.88
381.057	84.88
381.282	88.88
381.507	93.88
381.733	88.88
381.958	83.88
382.184	87.88
382.409	84.88
382.634	97.88
382.86	85.88
383.085	86.88
383.31	85.88
383.535	82.88
383.761	82.88
383.986	80.88
384.211	96.88
384.436	73.88
384.662	82.88
384.887	85.88
385.112	73.88
385.337	61.88
385.562	75.88
385.787	77.88
386.013	77.88
386.238	86.88
386.463	77.88
386.688	83.88
386.913	74.88
387.138	85.88
387.363	92.88
387.588	91.88
387.813	77.88
388.038	79.88
388.263	77.88
388.488	81.88
388.713	73.88
388.938	85.88
389.163	86.88
389.387	97.88
389.612	82.88
389.837	82.88
390.062	83.88
390.287	78.88
390.512	99.88
390.736	82.88
390.961	89.88
391.186	79.88
391.411	101.88
391.636	84.88
391.86	84.88
392.085	79.88
392.31	76.88
392.534	83.88
392.759	83.88
392.984	88.88
393.208	81.88
393.433	89.88
393.658	89.88
393.882	79.88
394.107	79.88
394.331	88.88
394.556	101.88
394.78	67.88
395.005	83.88
395.229	84.88
395.454	83.88
395.678	84.88
395.903	86.88
396.127	76.88
396.352	91.88
396.576	93.88
396.801	86.88
397.025	84.88
397.249	90.88
397.474	97.88
397.698	95.88
397.922	88.88
398.147	93.88
398.371	99.88
398.595	91.88
398.82	87.88
399.044	80.88
399.268	83.88
399.492	92.88
399.717	106.88
399.941	89.88
400.165	102.88
400.389	87.88
400.613	88.88
400.837	101.88
401.062	92.88
401.286	87.88
401.51	89.88
401.734	84.88
401.958	89.88
402.182	87.88
402.406	93.88
402.63	90.88
402.854	81.88
403.078	86.88
403.302	97.88
403.526	87.88
403.75	89.88
403.974	94.88
404.198	92.88
404.422	88.88
404.645	90.88
404.869	93.88
405.093	97.88
405.317	76.88
405.541	90.88
405.765	78.88
405.988	89.88
406.212	83.88
406.436	87.88
406.66	82.88
406.883	103.88
407.107	85.88
407.331	88.88
407.555	77.88
407.778	79.88
408.002	81.88
408.226	96.88
408.449	87.88
408.673	89.88
408.896	83.88
409.12	103.88
409.344	88.88
409.567	87.88
409.791	75.88
410.014	90.88
410.238	80.88
410.461	97.88
410.685	91.88
410.908	77.88
411.132	91.88
411.355	84.88
411.578	99.88
411.802	71.88
412.025	89.88
412.249	75.88
412.472	87.88
412.695	87.88
412.919	84.88
413.142	85.88
413.365	84.88
413.589	86.88
413.812	90.88
414.035	87.88
414.258	101.88
414.482	81.88
414.705	85.88
414.928	107.88
415.151	94.88
415.374	79.88
415.597	81.88
415.821	85.88
416.044	76.88
416.267	92.88
416.49	91.88
416.713	84.88
416.936	73.88
417.159	97.88
417.382	85.88
417.605	79.88
417.828	88.88
418.051	89.88
418.274	84.88
418.497	84.88
418.72	82.88
418.943	84.88
419.166	78.88
419.389	80.88
419.611	82.88
419.834	80.88
420.057	81.88
420.28	91.88
420.503	79.88
420.726	90.88
420.948	79.88
421.171	87.88
421.394	95.88
421.617	88.88
421.839	86.88
422.062	86.88
422.285	67.88
422.507	83.88
422.73	72.88
422.953	89.88
423.175	76.88
423.398	98.88
423.621	90.88
423.843	80.88
424.066	89.88
424.288	68.88
424.511	88.88
424.733	90.88
424.956	95.88
425.178	81.88
425.401	85.88
425.623	89.88
425.846	88.88
426.068	77.88
426.291	83.88
426.513	83.88
426.735	98.88
426.958	82.88
427.18	64.88
427.402	89.88
427.625	82.88
427.847	76.88
428.069	88.88
428.292	86.88
428.514	84.88
428.736	84.88
428.958	90.88
429.181	88.88
429.403	70.88
429.625	95.88
429.847	85.88
430.069	78.88
430.292	66.88
430.514	70.88
430.736	80.88
430.958	87.88
431.18	89.88
431.402	81.88
431.624	84.88
431.846	84.88
432.068	85.88
432.29	82.88
432.512	100.88
432.734	89.88
432.956	87.88
433.178	94.88
433.4	99.88
433.622	80.88
433.844	80.88
434.066	84.88
434.287	92.88
434.509	80.88
434.731	71.88
434.953	90.88
435.175	87.88
435.397	91.88
435.618	83.88
435.84	69.88
436.062	73.88
436.284	86.88
436.505	86.88
436.727	86.88
436.949	80.88
437.17	91.88
437.392	84.88
437.614	100.88
437.835	85.88
438.057	100.88
438.278	91.88
438.5	80.88
438.721	89.88
438.943	85.88
439.165	79.88
439.386	75.88
439.608	88.88
439.829	91.88
440.05	76.88
440.272	102.88
440.493	94.88
440.715	57.88
440.936	94.88
441.158	92.88
441.379	76.88
441.6	71.88
441.822	91.88
442.043	79.88
442.264	99.88
442.486	96.88
442.707	84.88
442.928	75.88
443.149	90.88
443.371	81.88
443.592	97.88
443.813	90.88
444.034	96.88
444.255	91.88
444.476	88.88
444.698	98.88
444.919	90.88
445.14	205.88
445.361	127.88
445.582	93.88
445.803	83.88
446.024	96.88
446.245	102.88
446.466	65.88
446.687	94.88
446.908	72.88
447.129	81.88
447.35	80.88
447.571	68.88
447.792	87.88
448.013	94.88
448.234	90.88
448.455	97.88
448.675	91.88
448.896	84.88
449.117	101.88
449.338	89.88
449.559	82.88
449.779	74.88
450	92.88
450.221	92.88
450.442	68.88
450.662	87.88
450.883	90.88
451.104	70.88
451.324	91.88
451.545	74.88
451.766	91.88
451.986	75.88
452.207	81.88
452.428	85.88
452.648	84.88
452.869	87.88
453.089	93.88
453.31	84.88
453.53	84.88
453.751	102.88
453.971	85.88
454.192	95.88
454.412	91.88
454.633	82.88
454.853	80.88
455.073	92.88
455.294	84.88
455.514	76.88
455.734	84.88
455.955	87.88
456.175	71.88
456.395	83.88
456.616	72.88
456.836	90.88
457.056	80.88
457.276	86.88
457.497	82.88
457.717	91.88
457.937	89.88
458.157	91.88
458.377	88.88
458.598	95.88
458.818	95.88
459.038	95.88
459.258	89.88
459.478	81.88
459.698	91.88
459.918	83.88
460.138	87.88
460.358	93.88
460.578	69.88
460.798	78.88
461.018	83.88
461.238	82.88
461.458	77.88
461.678	96.88
461.898	87.88
462.118	90.88
462.338	89.88
462.558	100.88
462.777	91.88
462.997	97.88
463.217	91.88
463.437	76.88
463.657	87.88
463.876	101.88
464.096	84.88
464.316	86.88
464.536	96.88
464.755	80.88
464.975	84.88
465.195	79.88
465.414	95.88
465.634	88.88
465.854	88.88
466.073	85.88
466.293	99.88
466.512	103.88
466.732	93.88
466.951	91.88
467.171	91.88
467.391	81.88
467.61	79.88
467.829	88.88
468.049	98.88
468.268	97.88
468.488	88.88
468.707	76.88
468.927	77.88
469.146	85.88
469.365	98.88
469.585	96.88
469.804	93.88
470.023	92.88
470.243	90.88
470.462	86.88
470.681	87.88
470.901	85.88
471.12	90.88
471.339	93.88
471.558	95.88
471.777	93.88
471.997	81.88
472.216	91.88
472.435	82.88
472.654	97.88
472.873	90.88
473.092	87.88
473.311	81.88
473.53	72.88
473.749	89.88
473.968	91.88
474.187	90.88
474.406	79.88
474.625	87.88
474.844	90.88
475.063	85.88
475.282	88.88
475.501	97.88
475.72	90.88
475.939	83.88
476.158	94.88
476.377	78.88
476.596	80.88
476.814	87.88
477.033	81.88
477.252	81.88
477.471	85.88
477.69	92.88
477.908	98.88
478.127	87.88
478.346	80.88
478.564	99.88
478.783	104.88
479.002	107.88
479.22	93.88
479.439	104.88
479.658	77.88
479.876	79.88
480.095	102.88
480.313	99.88
480.532	81.88
480.751	85.88
480.969	96.88
481.188	79.88
481.406	87.88
481.624	92.88
481.843	101.88
482.061	91.88
482.28	86.88
482.498	87.88
482.717	80.88
482.935	92.88
483.153	93.88
483.372	99.88
483.59	93.88
483.808	90.88
484.027	97.88
484.245	87.88
484.463	73.88
484.681	98.88
484.9	85.88
485.118	103.88
485.336	71.88
485.554	97.88
485.772	96.88
485.99	85.88
486.209	95.88
486.427	91.88
486.645	97.88
486.863	87.88
487.081	79.88
487.299	91.88
487.517	92.88
487.735	93.88
487.953	91.88
488.171	100.88
488.389	91.88
488.607	111.88
488.825	85.88
489.043	108.88
489.261	104.88
489.479	95.88
489.696	97.88
489.914	84.88
490.132	80.88
490.35	94.88
490.568	94.88
490.786	91.88
491.003	104.88
491.221	104.88
491.439	98.88
491.657	93.88
491.874	92.88
492.092	99.88
492.31	93.88
492.527	100.88
492.745	101.88
492.963	97.88
493.18	92.88
493.398	100.88
493.615	101.88
493.833	97.88
494.05	94.88
494.268	88.88
494.485	93.88
494.703	108.88
494.92	96.88
495.138	92.88
495.355	102.88
495.573	98.88
495.79	94.88
496.008	105.88
496.225	99.88
496.442	97.88
496.66	99.88
496.877	109.88
497.094	91.88
497.312	97.88
497.529	96.88
497.746	99.88
497.963	103.88
498.181	101.88
498.398	86.88
498.615	95.88
498.832	97.88
499.049	86.88
499.267	103.88
499.484	97.88
499.701	112.88
499.918	111.88
500.135	114.88
500.352	104.88
500.569	106.88
500.786	118.88
501.003	121.88
501.22	106.88
501.437	103.88
501.654	92.88
501.871	95.88
502.088	115.88
502.305	107.88
502.522	91.88
502.739	111.88
502.956	101.88
503.172	91.88
503.389	89.88
503.606	97.88
503.823	95.88
504.04	103.88
504.256	97.88
504.473	97.88
504.69	95.88
504.907	100.88
505.123	96.88
505.34	97.88
505.557	81.88
505.773	98.88
505.99	96.88
506.207	97.88
506.423	104.88
506.64	91.88
506.856	90.88
507.073	97.88
507.289	89.88
507.506	100.88
507.722	108.88
507.939	102.88
508.155	93.88
508.372	104.88
508.588	88.88
508.805	88.88
509.021	120.88
509.238	115.88
509.454	84.88
509.67	91.88
509.887	84.88
510.103	92.88
510.319	90.88
510.536	77.88
510.752	91.88
510.968	100.88
511.184	99.88
511.401	95.88
511.617	91.88
511.833	89.88
512.049	94.88
512.265	88.88
512.481	89.88
512.698	105.88
512.914	71.88
513.13	81.88
513.346	85.88
513.562	82.88
513.778	102.88
513.994	90.88
514.21	105.88
514.426	99.88
514.642	99.88
514.858	98.88
515.074	96.88
515.29	93.88
515.506	112.88
515.721	97.88
515.937	99.88
516.153	86.88
516.369	82.88
516.585	102.88
516.801	87.88
517.016	93.88
517.232	89.88
517.448	109.88
517.664	97.88
517.879	97.88
518.095	91.88
