Data from Ni(NO3)2@0.25M.TitratingCurve.Agarose3%dH2O.NegLispCup.LampEnergy10.LIBS07252019_HRD10591_18-02-32-566.txt Node
Date: Thu Jul 25 18:02:32 EDT 2019
User: cochatt
Spectrometer: HR+D1059
Trigger mode: 1
Integration Time (sec): 1.000000E-1
Scans to average: 1
Electric dark correction enabled: true
Nonlinearity correction enabled: false
Boxcar width: 0
XAxis mode: Wavelengths
Number of Pixels in Spectrum: 2048
>>>>>Begin Spectral Data<<<<<
223.165	-15.56
223.4	-15.56
223.635	-15.56
223.869	-14.56
224.104	-28.56
224.338	-8.56
224.573	-23.56
224.808	-11.56
225.042	6.44
225.277	-2.56
225.511	-14.56
225.746	2.44
225.98	2.44
226.215	14.44
226.449	36.44
226.683	14.44
226.918	22.44
227.152	20.44
227.387	45.44
227.621	38.44
227.856	40.44
228.09	59.44
228.324	45.44
228.559	65.44
228.793	63.44
229.027	80.44
229.262	94.44
229.496	97.44
229.73	102.44
229.964	114.44
230.199	107.44
230.433	121.44
230.667	122.44
230.901	118.44
231.136	106.44
231.37	114.44
231.604	114.44
231.838	123.44
232.072	130.44
232.306	119.44
232.541	113.44
232.775	122.44
233.009	113.44
233.243	126.44
233.477	130.44
233.711	132.44
233.945	121.44
234.179	129.44
234.413	126.44
234.647	125.44
234.881	134.44
235.115	112.44
235.349	106.44
235.583	122.44
235.817	108.44
236.051	120.44
236.285	114.44
236.519	120.44
236.753	122.44
236.987	132.44
237.221	121.44
237.455	112.44
237.689	128.44
237.922	131.44
238.156	118.44
238.39	118.44
238.624	126.44
238.858	129.44
239.091	123.44
239.325	130.44
239.559	129.44
239.793	152.44
240.027	132.44
240.26	128.44
240.494	123.44
240.728	142.44
240.961	132.44
241.195	138.44
241.429	128.44
241.662	142.44
241.896	137.44
242.13	146.44
242.363	133.44
242.597	137.44
242.83	162.44
243.064	144.44
243.298	147.44
243.531	141.44
243.765	160.44
243.998	154.44
244.232	152.44
244.465	145.44
244.699	159.44
244.932	149.44
245.166	138.44
245.399	168.44
245.633	151.44
245.866	137.44
246.099	141.44
246.333	143.44
246.566	168.44
246.8	154.44
247.033	165.44
247.266	142.44
247.5	158.44
247.733	162.44
247.966	146.44
248.2	164.44
248.433	168.44
248.666	153.44
248.899	173.44
249.133	177.44
249.366	158.44
249.599	171.44
249.832	166.44
250.066	164.44
250.299	154.44
250.532	172.44
250.765	194.44
250.998	191.44
251.231	159.44
251.465	207.44
251.698	188.44
251.931	190.44
252.164	200.44
252.397	184.44
252.63	189.44
252.863	198.44
253.096	185.44
253.329	187.44
253.562	181.44
253.795	197.44
254.028	176.44
254.261	188.44
254.494	206.44
254.727	212.44
254.96	205.44
255.193	217.44
255.426	198.44
255.659	199.44
255.892	196.44
256.124	200.44
256.357	188.44
256.59	194.44
256.823	196.44
257.056	202.44
257.289	213.44
257.521	224.44
257.754	206.44
257.987	206.44
258.22	218.44
258.452	200.44
258.685	219.44
258.918	218.44
259.151	223.44
259.383	215.44
259.616	220.44
259.849	225.44
260.081	241.44
260.314	225.44
260.547	229.44
260.779	253.44
261.012	231.44
261.244	236.44
261.477	230.44
261.71	224.44
261.942	251.44
262.175	231.44
262.407	237.44
262.64	247.44
262.872	236.44
263.105	244.44
263.337	216.44
263.57	237.44
263.802	253.44
264.035	238.44
264.267	245.44
264.499	248.44
264.732	258.44
264.964	235.44
265.197	246.44
265.429	262.44
265.661	277.44
265.894	247.44
266.126	252.44
266.358	245.44
266.591	261.44
266.823	258.44
267.055	244.44
267.287	269.44
267.52	232.44
267.752	256.44
267.984	263.44
268.216	254.44
268.448	262.44
268.681	262.44
268.913	250.44
269.145	268.44
269.377	273.44
269.609	282.44
269.841	261.44
270.073	278.44
270.306	258.44
270.538	260.44
270.77	254.44
271.002	266.44
271.234	261.44
271.466	256.44
271.698	270.44
271.93	275.44
272.162	272.44
272.394	265.44
272.626	260.44
272.858	267.44
273.09	280.44
273.322	270.44
273.553	284.44
273.785	287.44
274.017	283.44
274.249	293.44
274.481	280.44
274.713	288.44
274.945	296.44
275.176	305.44
275.408	296.44
275.64	286.44
275.872	300.44
276.104	297.44
276.335	311.44
276.567	310.44
276.799	272.44
277.031	282.44
277.262	301.44
277.494	286.44
277.726	304.44
277.957	303.44
278.189	304.44
278.421	289.44
278.652	291.44
278.884	286.44
279.115	292.44
279.347	302.44
279.579	310.44
279.81	304.44
280.042	308.44
280.273	312.44
280.505	317.44
280.736	297.44
280.968	304.44
281.199	308.44
281.431	300.44
281.662	312.44
281.894	316.44
282.125	321.44
282.356	323.44
282.588	304.44
282.819	302.44
283.051	318.44
283.282	308.44
283.513	324.44
283.745	312.44
283.976	319.44
284.207	305.44
284.439	336.44
284.67	330.44
284.901	316.44
285.132	303.44
285.364	327.44
285.595	331.44
285.826	319.44
286.057	314.44
286.288	322.44
286.52	332.44
286.751	313.44
286.982	334.44
287.213	336.44
287.444	337.44
287.675	345.44
287.906	335.44
288.138	343.44
288.369	324.44
288.6	324.44
288.831	329.44
289.062	331.44
289.293	320.44
289.524	337.44
289.755	337.44
289.986	330.44
290.217	319.44
290.448	335.44
290.679	335.44
290.91	345.44
291.141	334.44
291.371	335.44
291.602	352.44
291.833	347.44
292.064	340.44
292.295	339.44
292.526	332.44
292.757	333.44
292.987	346.44
293.218	348.44
293.449	342.44
293.68	343.44
293.91	338.44
294.141	354.44
294.372	350.44
294.603	338.44
294.833	356.44
295.064	340.44
295.295	370.44
295.525	340.44
295.756	350.44
295.987	334.44
296.217	343.44
296.448	350.44
296.679	366.44
296.909	356.44
297.14	358.44
297.37	358.44
297.601	362.44
297.831	369.44
298.062	367.44
298.292	352.44
298.523	363.44
298.753	365.44
298.984	376.44
299.214	374.44
299.445	372.44
299.675	369.44
299.905	374.44
300.136	382.44
300.366	406.44
300.597	400.44
300.827	382.44
301.057	382.44
301.288	384.44
301.518	398.44
301.748	385.44
301.979	365.44
302.209	380.44
302.439	376.44
302.669	394.44
302.9	389.44
303.13	383.44
303.36	367.44
303.59	391.44
303.82	364.44
304.051	412.44
304.281	386.44
304.511	384.44
304.741	407.44
304.971	406.44
305.201	403.44
305.431	402.44
305.661	392.44
305.891	385.44
306.121	401.44
306.352	401.44
306.582	381.44
306.812	360.44
307.042	410.44
307.272	386.44
307.502	386.44
307.731	385.44
307.961	389.44
308.191	388.44
308.421	380.44
308.651	367.44
308.881	388.44
309.111	392.44
309.341	408.44
309.571	366.44
309.8	405.44
310.03	412.44
310.26	414.44
310.49	401.44
310.72	395.44
310.949	396.44
311.179	406.44
311.409	406.44
311.639	405.44
311.868	413.44
312.098	416.44
312.328	397.44
312.557	418.44
312.787	397.44
313.017	412.44
313.246	426.44
313.476	446.44
313.706	436.44
313.935	446.44
314.165	428.44
314.394	434.44
314.624	434.44
314.853	440.44
315.083	449.44
315.312	419.44
315.542	433.44
315.771	441.44
316.001	447.44
316.23	463.44
316.46	418.44
316.689	432.44
316.919	435.44
317.148	424.44
317.377	429.44
317.607	438.44
317.836	417.44
318.065	440.44
318.295	428.44
318.524	450.44
318.753	448.44
318.983	452.44
319.212	433.44
319.441	432.44
319.67	422.44
319.9	434.44
320.129	436.44
320.358	440.44
320.587	433.44
320.816	477.44
321.046	463.44
321.275	451.44
321.504	447.44
321.733	440.44
321.962	462.44
322.191	456.44
322.42	464.44
322.649	462.44
322.878	484.44
323.108	471.44
323.337	480.44
323.566	480.44
323.795	462.44
324.024	488.44
324.253	486.44
324.482	490.44
324.71	492.44
324.939	506.44
325.168	500.44
325.397	489.44
325.626	498.44
325.855	502.44
326.084	479.44
326.313	523.44
326.542	496.44
326.77	500.44
326.999	516.44
327.228	498.44
327.457	494.44
327.686	501.44
327.914	517.44
328.143	506.44
328.372	547.44
328.6	516.44
328.829	511.44
329.058	535.44
329.287	539.44
329.515	527.44
329.744	525.44
329.972	506.44
330.201	532.44
330.43	540.44
330.658	528.44
330.887	553.44
331.115	549.44
331.344	556.44
331.572	571.44
331.801	584.44
332.03	605.44
332.258	569.44
332.486	580.44
332.715	570.44
332.943	607.44
333.172	582.44
333.4	605.44
333.629	618.44
333.857	661.44
334.085	644.44
334.314	638.44
334.542	625.44
334.771	654.44
334.999	646.44
335.227	636.44
335.455	652.44
335.684	641.44
335.912	636.44
336.14	622.44
336.369	626.44
336.597	616.44
336.825	619.44
337.053	638.44
337.281	631.44
337.51	624.44
337.738	626.44
337.966	628.44
338.194	612.44
338.422	639.44
338.65	591.44
338.878	572.44
339.106	614.44
339.334	602.44
339.562	606.44
339.79	592.44
340.018	585.44
340.246	581.44
340.474	582.44
340.702	575.44
340.93	595.44
341.158	588.44
341.386	605.44
341.614	600.44
341.842	606.44
342.07	594.44
342.298	593.44
342.526	571.44
342.754	594.44
342.981	583.44
343.209	588.44
343.437	622.44
343.665	656.44
343.893	654.44
344.12	661.44
344.348	649.44
344.576	630.44
344.804	646.44
345.031	594.44
345.259	596.44
345.487	581.44
345.714	604.44
345.942	598.44
346.17	617.44
346.397	597.44
346.625	572.44
346.853	589.44
347.08	560.44
347.308	584.44
347.535	590.44
347.763	557.44
347.99	551.44
348.218	570.44
348.445	540.44
348.673	549.44
348.9	566.44
349.128	574.44
349.355	585.44
349.583	593.44
349.81	544.44
350.037	545.44
350.265	558.44
350.492	552.44
350.72	534.44
350.947	554.44
351.174	556.44
351.402	573.44
351.629	573.44
351.856	558.44
352.083	568.44
352.311	572.44
352.538	558.44
352.765	605.44
352.992	537.44
353.22	529.44
353.447	526.44
353.674	542.44
353.901	553.44
354.128	547.44
354.355	542.44
354.583	538.44
354.81	546.44
355.037	553.44
355.264	520.44
355.491	546.44
355.718	536.44
355.945	555.44
356.172	558.44
356.399	521.44
356.626	550.44
356.853	557.44
357.08	536.44
357.307	554.44
357.534	559.44
357.761	546.44
357.988	544.44
358.215	518.44
358.441	512.44
358.668	529.44
358.895	537.44
359.122	532.44
359.349	541.44
359.576	526.44
359.802	553.44
360.029	531.44
360.256	556.44
360.483	538.44
360.709	541.44
360.936	557.44
361.163	561.44
361.39	549.44
361.616	570.44
361.843	558.44
362.07	565.44
362.296	561.44
362.523	518.44
362.749	561.44
362.976	552.44
363.203	546.44
363.429	544.44
363.656	540.44
363.882	547.44
364.109	565.44
364.335	530.44
364.562	512.44
364.788	555.44
365.015	541.44
365.241	541.44
365.468	538.44
365.694	535.44
365.92	536.44
366.147	571.44
366.373	536.44
366.599	540.44
366.826	560.44
367.052	537.44
367.278	539.44
367.505	533.44
367.731	556.44
367.957	558.44
368.184	523.44
368.41	541.44
368.636	541.44
368.862	575.44
369.089	536.44
369.315	543.44
369.541	556.44
369.767	546.44
369.993	552.44
370.219	546.44
370.445	551.44
370.672	561.44
370.898	554.44
371.124	569.44
371.35	553.44
371.576	571.44
371.802	565.44
372.028	568.44
372.254	554.44
372.48	571.44
372.706	579.44
372.932	576.44
373.158	572.44
373.384	577.44
373.61	585.44
373.835	591.44
374.061	581.44
374.287	589.44
374.513	586.44
374.739	605.44
374.965	600.44
375.191	604.44
375.416	608.44
375.642	595.44
375.868	591.44
376.094	592.44
376.319	558.44
376.545	569.44
376.771	573.44
376.997	565.44
377.222	581.44
377.448	560.44
377.674	583.44
377.899	559.44
378.125	562.44
378.35	538.44
378.576	558.44
378.802	577.44
379.027	530.44
379.253	552.44
379.478	566.44
379.704	580.44
379.929	573.44
380.155	549.44
380.38	553.44
380.606	551.44
380.831	538.44
381.057	558.44
381.282	562.44
381.507	554.44
381.733	574.44
381.958	558.44
382.184	555.44
382.409	545.44
382.634	578.44
382.86	587.44
383.085	587.44
383.31	576.44
383.535	585.44
383.761	570.44
383.986	604.44
384.211	586.44
384.436	609.44
384.662	620.44
384.887	652.44
385.112	620.44
385.337	624.44
385.562	634.44
385.787	631.44
386.013	657.44
386.238	642.44
386.463	631.44
386.688	621.44
386.913	638.44
387.138	632.44
387.363	624.44
387.588	622.44
387.813	663.44
388.038	639.44
388.263	637.44
388.488	662.44
388.713	669.44
388.938	645.44
389.163	658.44
389.387	651.44
389.612	636.44
389.837	644.44
390.062	659.44
390.287	639.44
390.512	625.44
390.736	671.44
390.961	658.44
391.186	662.44
391.411	694.44
391.636	666.44
391.86	658.44
392.085	685.44
392.31	721.44
392.534	666.44
392.759	689.44
392.984	688.44
393.208	663.44
393.433	666.44
393.658	673.44
393.882	650.44
394.107	664.44
394.331	666.44
394.556	669.44
394.78	658.44
395.005	667.44
395.229	649.44
395.454	704.44
395.678	686.44
395.903	688.44
396.127	696.44
396.352	697.44
396.576	685.44
396.801	687.44
397.025	694.44
397.249	719.44
397.474	744.44
397.698	698.44
397.922	747.44
398.147	733.44
398.371	756.44
398.595	754.44
398.82	791.44
399.044	795.44
399.268	876.44
399.492	900.44
399.717	954.44
399.941	923.44
400.165	920.44
400.389	874.44
400.613	855.44
400.837	814.44
401.062	809.44
401.286	799.44
401.51	772.44
401.734	784.44
401.958	791.44
402.182	768.44
402.406	778.44
402.63	769.44
402.854	780.44
403.078	809.44
403.302	795.44
403.526	828.44
403.75	838.44
403.974	846.44
404.198	814.44
404.422	809.44
404.645	816.44
404.869	824.44
405.093	807.44
405.317	811.44
405.541	811.44
405.765	810.44
405.988	836.44
406.212	849.44
406.436	857.44
406.66	855.44
406.883	863.44
407.107	881.44
407.331	900.44
407.555	922.44
407.778	902.44
408.002	927.44
408.226	898.44
408.449	861.44
408.673	873.44
408.896	866.44
409.12	849.44
409.344	881.44
409.567	850.44
409.791	877.44
410.014	840.44
410.238	817.44
410.461	854.44
410.685	856.44
410.908	815.44
411.132	838.44
411.355	824.44
411.578	825.44
411.802	828.44
412.025	831.44
412.249	811.44
412.472	811.44
412.695	808.44
412.919	779.44
413.142	814.44
413.365	814.44
413.589	791.44
413.812	824.44
414.035	817.44
414.258	810.44
414.482	794.44
414.705	809.44
414.928	808.44
415.151	791.44
415.374	771.44
415.597	760.44
415.821	770.44
416.044	782.44
416.267	758.44
416.49	765.44
416.713	770.44
416.936	767.44
417.159	773.44
417.382	801.44
417.605	784.44
417.828	798.44
418.051	776.44
418.274	800.44
418.497	781.44
418.72	807.44
418.943	785.44
419.166	838.44
419.389	845.44
419.611	854.44
419.834	826.44
420.057	860.44
420.28	794.44
420.503	769.44
420.726	806.44
420.948	776.44
421.171	797.44
421.394	783.44
421.617	808.44
421.839	791.44
422.062	800.44
422.285	770.44
422.507	790.44
422.73	792.44
422.953	804.44
423.175	808.44
423.398	805.44
423.621	800.44
423.843	812.44
424.066	828.44
424.288	794.44
424.511	806.44
424.733	794.44
424.956	813.44
425.178	805.44
425.401	804.44
425.623	764.44
425.846	809.44
426.068	805.44
426.291	780.44
426.513	774.44
426.735	792.44
426.958	781.44
427.18	757.44
427.402	772.44
427.625	761.44
427.847	743.44
428.069	768.44
428.292	764.44
428.514	773.44
428.736	749.44
428.958	764.44
429.181	748.44
429.403	745.44
429.625	757.44
429.847	743.44
430.069	751.44
430.292	730.44
430.514	745.44
430.736	753.44
430.958	736.44
431.18	754.44
431.402	763.44
431.624	774.44
431.846	740.44
432.068	740.44
432.29	756.44
432.512	748.44
432.734	776.44
432.956	788.44
433.178	788.44
433.4	789.44
433.622	796.44
433.844	773.44
434.066	782.44
434.287	779.44
434.509	777.44
434.731	797.44
434.953	815.44
435.175	805.44
435.397	814.44
435.618	789.44
435.84	763.44
436.062	756.44
436.284	778.44
436.505	775.44
436.727	780.44
436.949	766.44
437.17	766.44
437.392	745.44
437.614	744.44
437.835	741.44
438.057	771.44
438.278	741.44
438.5	734.44
438.721	736.44
438.943	749.44
439.165	740.44
439.386	742.44
439.608	783.44
439.829	781.44
440.05	772.44
440.272	781.44
440.493	801.44
440.715	807.44
440.936	799.44
441.158	770.44
441.379	820.44
441.6	848.44
441.822	821.44
442.043	806.44
442.264	804.44
442.486	800.44
442.707	832.44
442.928	808.44
443.149	802.44
443.371	825.44
443.592	830.44
443.813	840.44
444.034	836.44
444.255	841.44
444.476	856.44
444.698	889.44
444.919	884.44
445.14	1019.44
445.361	922.44
445.582	844.44
445.803	818.44
446.024	813.44
446.245	791.44
446.466	792.44
446.687	790.44
446.908	783.44
447.129	770.44
447.35	797.44
447.571	761.44
447.792	744.44
448.013	744.44
448.234	712.44
448.455	726.44
448.675	737.44
448.896	734.44
449.117	724.44
449.338	693.44
449.559	723.44
449.779	696.44
450	705.44
450.221	705.44
450.442	709.44
450.662	702.44
450.883	737.44
451.104	726.44
451.324	717.44
451.545	710.44
451.766	715.44
451.986	711.44
452.207	698.44
452.428	684.44
452.648	687.44
452.869	671.44
453.089	686.44
453.31	681.44
453.53	683.44
453.751	667.44
453.971	658.44
454.192	650.44
454.412	662.44
454.633	662.44
454.853	682.44
455.073	683.44
455.294	687.44
455.514	662.44
455.734	673.44
455.955	698.44
456.175	666.44
456.395	680.44
456.616	663.44
456.836	649.44
457.056	649.44
457.276	647.44
457.497	673.44
457.717	641.44
457.937	668.44
458.157	688.44
458.377	706.44
458.598	700.44
458.818	711.44
459.038	727.44
459.258	726.44
459.478	746.44
459.698	767.44
459.918	775.44
460.138	808.44
460.358	850.44
460.578	842.44
460.798	849.44
461.018	834.44
461.238	861.44
461.458	838.44
461.678	816.44
461.898	832.44
462.118	854.44
462.338	888.44
462.558	904.44
462.777	920.44
462.997	952.44
463.217	991.44
463.437	1015.44
463.657	976.44
463.876	932.44
464.096	900.44
464.316	941.44
464.536	924.44
464.755	908.44
464.975	889.44
465.195	841.44
465.414	849.44
465.634	815.44
465.854	767.44
466.073	794.44
466.293	761.44
466.512	760.44
466.732	757.44
466.951	739.44
467.171	758.44
467.391	741.44
467.61	732.44
467.829	724.44
468.049	732.44
468.268	717.44
468.488	746.44
468.707	739.44
468.927	728.44
469.146	736.44
469.365	730.44
469.585	733.44
469.804	724.44
470.023	747.44
470.243	766.44
470.462	758.44
470.681	757.44
470.901	757.44
471.12	753.44
471.339	780.44
471.558	769.44
471.777	731.44
471.997	762.44
472.216	716.44
472.435	714.44
472.654	722.44
472.873	712.44
473.092	731.44
473.311	726.44
473.53	713.44
473.749	714.44
473.968	720.44
474.187	730.44
474.406	698.44
474.625	732.44
474.844	720.44
475.063	721.44
475.282	750.44
475.501	729.44
475.72	750.44
475.939	725.44
476.158	737.44
476.377	750.44
476.596	728.44
476.814	759.44
477.033	734.44
477.252	763.44
477.471	781.44
477.69	778.44
477.908	818.44
478.127	824.44
478.346	809.44
478.564	824.44
478.783	855.44
479.002	872.44
479.22	857.44
479.439	852.44
479.658	851.44
479.876	841.44
480.095	836.44
480.313	852.44
480.532	903.44
480.751	843.44
480.969	855.44
481.188	848.44
481.406	786.44
481.624	806.44
481.843	801.44
482.061	824.44
482.28	784.44
482.498	823.44
482.717	808.44
482.935	812.44
483.153	832.44
483.372	855.44
483.59	829.44
483.808	847.44
484.027	817.44
484.245	833.44
484.463	832.44
484.681	840.44
484.9	842.44
485.118	861.44
485.336	811.44
485.554	827.44
485.772	826.44
485.99	830.44
486.209	810.44
486.427	834.44
486.645	837.44
486.863	835.44
487.081	867.44
487.299	832.44
487.517	854.44
487.735	898.44
487.953	873.44
488.171	897.44
488.389	872.44
488.607	848.44
488.825	848.44
489.043	858.44
489.261	834.44
489.479	841.44
489.696	838.44
489.914	860.44
490.132	863.44
490.35	892.44
490.568	892.44
490.786	873.44
491.003	893.44
491.221	900.44
491.439	892.44
491.657	914.44
491.874	912.44
492.092	921.44
492.31	932.44
492.527	938.44
492.745	960.44
492.963	923.44
493.18	904.44
493.398	927.44
493.615	944.44
493.833	946.44
494.05	913.44
494.268	925.44
494.485	932.44
494.703	923.44
494.92	942.44
495.138	948.44
495.355	920.44
495.573	949.44
495.79	948.44
496.008	956.44
496.225	968.44
496.442	959.44
496.66	987.44
496.877	999.44
497.094	1013.44
497.312	1038.44
497.529	1047.44
497.746	1039.44
497.963	1085.44
498.181	1090.44
498.398	1113.44
498.615	1133.44
498.832	1205.44
499.049	1300.44
499.267	1336.44
499.484	1363.44
499.701	1495.44
499.918	1566.44
500.135	1667.44
500.352	1783.44
500.569	1732.44
500.786	1747.44
501.003	1730.44
501.22	1634.44
