Data from Ni(NO3)2@0.5M.TitratingCurve.Agarose3%dH2O.NegLispCup.LampEnergy10.LIBS07252019_HRD10591_17-58-01-564.txt Node
Date: Thu Jul 25 17:58:01 EDT 2019
User: cochatt
Spectrometer: HR+D1059
Trigger mode: 1
Integration Time (sec): 1.000000E-1
Scans to average: 1
Electric dark correction enabled: true
Nonlinearity correction enabled: false
Boxcar width: 0
XAxis mode: Wavelengths
Number of Pixels in Spectrum: 2048
>>>>>Begin Spectral Data<<<<<
223.165	-22.56
223.4	-22.56
223.635	-22.56
223.869	-10.56
224.104	-21.56
224.338	-9.56
224.573	-18.56
224.808	-5.56
225.042	-4.56
225.277	-13.56
225.511	-8.56
225.746	-4.56
225.98	5.44
226.215	6.44
226.449	21.44
226.683	26.44
226.918	25.44
227.152	34.44
227.387	32.44
227.621	38.44
227.856	36.44
228.09	37.44
228.324	50.44
228.559	51.44
228.793	71.44
229.027	129.44
229.262	172.44
229.496	157.44
229.73	160.44
229.964	189.44
230.199	232.44
230.433	230.44
230.667	211.44
230.901	210.44
231.136	186.44
231.37	202.44
231.604	211.44
231.838	218.44
232.072	257.44
232.306	231.44
232.541	209.44
232.775	202.44
233.009	186.44
233.243	179.44
233.477	210.44
233.711	189.44
233.945	195.44
234.179	200.44
234.413	190.44
234.647	185.44
234.881	192.44
235.115	181.44
235.349	178.44
235.583	186.44
235.817	177.44
236.051	193.44
236.285	172.44
236.519	178.44
236.753	185.44
236.987	189.44
237.221	184.44
237.455	195.44
237.689	188.44
237.922	204.44
238.156	211.44
238.39	208.44
238.624	216.44
238.858	194.44
239.091	209.44
239.325	211.44
239.559	254.44
239.793	258.44
240.027	258.44
240.26	221.44
240.494	211.44
240.728	224.44
240.961	217.44
241.195	230.44
241.429	217.44
241.662	274.44
241.896	279.44
242.13	274.44
242.363	249.44
242.597	260.44
242.83	232.44
243.064	233.44
243.298	235.44
243.531	235.44
243.765	267.44
243.998	266.44
244.232	265.44
244.465	248.44
244.699	245.44
244.932	256.44
245.166	260.44
245.399	253.44
245.633	268.44
245.866	277.44
246.099	273.44
246.333	269.44
246.566	283.44
246.8	270.44
247.033	264.44
247.266	290.44
247.5	264.44
247.733	277.44
247.966	284.44
248.2	303.44
248.433	290.44
248.666	282.44
248.899	322.44
249.133	309.44
249.366	299.44
249.599	308.44
249.832	295.44
250.066	301.44
250.299	324.44
250.532	310.44
250.765	343.44
250.998	349.44
251.231	375.44
251.465	368.44
251.698	377.44
251.931	364.44
252.164	348.44
252.397	369.44
252.63	353.44
252.863	359.44
253.096	354.44
253.329	356.44
253.562	355.44
253.795	374.44
254.028	381.44
254.261	353.44
254.494	386.44
254.727	379.44
254.96	398.44
255.193	404.44
255.426	361.44
255.659	374.44
255.892	401.44
256.124	394.44
256.357	392.44
256.59	394.44
256.823	386.44
257.056	409.44
257.289	404.44
257.521	416.44
257.754	399.44
257.987	407.44
258.22	421.44
258.452	439.44
258.685	453.44
258.918	404.44
259.151	418.44
259.383	443.44
259.616	412.44
259.849	452.44
260.081	427.44
260.314	456.44
260.547	448.44
260.779	425.44
261.012	450.44
261.244	459.44
261.477	448.44
261.71	432.44
261.942	476.44
262.175	460.44
262.407	487.44
262.64	494.44
262.872	472.44
263.105	478.44
263.337	482.44
263.57	487.44
263.802	486.44
264.035	503.44
264.267	474.44
264.499	480.44
264.732	515.44
264.964	504.44
265.197	504.44
265.429	499.44
265.661	495.44
265.894	492.44
266.126	510.44
266.358	522.44
266.591	496.44
266.823	520.44
267.055	499.44
267.287	525.44
267.52	520.44
267.752	525.44
267.984	523.44
268.216	522.44
268.448	538.44
268.681	550.44
268.913	538.44
269.145	526.44
269.377	516.44
269.609	532.44
269.841	531.44
270.073	526.44
270.306	533.44
270.538	558.44
270.77	557.44
271.002	538.44
271.234	547.44
271.466	552.44
271.698	526.44
271.93	548.44
272.162	563.44
272.394	582.44
272.626	563.44
272.858	580.44
273.09	561.44
273.322	577.44
273.553	587.44
273.785	579.44
274.017	548.44
274.249	588.44
274.481	575.44
274.713	600.44
274.945	594.44
275.176	596.44
275.408	612.44
275.64	604.44
275.872	599.44
276.104	611.44
276.335	608.44
276.567	598.44
276.799	608.44
277.031	604.44
277.262	602.44
277.494	601.44
277.726	609.44
277.957	608.44
278.189	617.44
278.421	621.44
278.652	627.44
278.884	649.44
279.115	644.44
279.347	619.44
279.579	638.44
279.81	633.44
280.042	640.44
280.273	647.44
280.505	624.44
280.736	654.44
280.968	635.44
281.199	629.44
281.431	633.44
281.662	638.44
281.894	653.44
282.125	652.44
282.356	657.44
282.588	659.44
282.819	646.44
283.051	667.44
283.282	663.44
283.513	665.44
283.745	696.44
283.976	690.44
284.207	683.44
284.439	670.44
284.67	691.44
284.901	683.44
285.132	688.44
285.364	692.44
285.595	713.44
285.826	644.44
286.057	676.44
286.288	692.44
286.52	702.44
286.751	723.44
286.982	711.44
287.213	714.44
287.444	671.44
287.675	678.44
287.906	702.44
288.138	728.44
288.369	708.44
288.6	677.44
288.831	728.44
289.062	725.44
289.293	710.44
289.524	708.44
289.755	712.44
289.986	710.44
290.217	724.44
290.448	716.44
290.679	708.44
290.91	714.44
291.141	715.44
291.371	729.44
291.602	709.44
291.833	698.44
292.064	722.44
292.295	715.44
292.526	720.44
292.757	748.44
292.987	740.44
293.218	705.44
293.449	727.44
293.68	736.44
293.91	718.44
294.141	700.44
294.372	730.44
294.603	732.44
294.833	717.44
295.064	735.44
295.295	718.44
295.525	728.44
295.756	736.44
295.987	736.44
296.217	747.44
296.448	765.44
296.679	740.44
296.909	733.44
297.14	763.44
297.37	760.44
297.601	770.44
297.831	754.44
298.062	784.44
298.292	738.44
298.523	802.44
298.753	766.44
298.984	771.44
299.214	803.44
299.445	784.44
299.675	769.44
299.905	792.44
300.136	828.44
300.366	853.44
300.597	837.44
300.827	829.44
301.057	827.44
301.288	828.44
301.518	830.44
301.748	808.44
301.979	836.44
302.209	818.44
302.439	818.44
302.669	812.44
302.9	819.44
303.13	833.44
303.36	836.44
303.59	847.44
303.82	860.44
304.051	881.44
304.281	835.44
304.511	837.44
304.741	853.44
304.971	858.44
305.201	893.44
305.431	884.44
305.661	890.44
305.891	878.44
306.121	876.44
306.352	862.44
306.582	820.44
306.812	842.44
307.042	859.44
307.272	846.44
307.502	850.44
307.731	872.44
307.961	868.44
308.191	869.44
308.421	839.44
308.651	873.44
308.881	817.44
309.111	861.44
309.341	841.44
309.571	885.44
309.8	867.44
310.03	909.44
310.26	960.44
310.49	946.44
310.72	895.44
310.949	889.44
311.179	867.44
311.409	867.44
311.639	903.44
311.868	901.44
312.098	885.44
312.328	911.44
312.557	909.44
312.787	894.44
313.017	918.44
313.246	924.44
313.476	950.44
313.706	969.44
313.935	935.44
314.165	927.44
314.394	922.44
314.624	934.44
314.853	901.44
315.083	903.44
315.312	945.44
315.542	965.44
315.771	968.44
316.001	955.44
316.23	970.44
316.46	964.44
316.689	958.44
316.919	948.44
317.148	948.44
317.377	960.44
317.607	974.44
317.836	979.44
318.065	995.44
318.295	951.44
318.524	994.44
318.753	1003.44
318.983	983.44
319.212	1012.44
319.441	1005.44
319.67	989.44
319.9	994.44
320.129	1033.44
320.358	1002.44
320.587	1012.44
320.816	1020.44
321.046	1026.44
321.275	1016.44
321.504	1019.44
321.733	1044.44
321.962	1065.44
322.191	1044.44
322.42	1049.44
322.649	1053.44
322.878	1068.44
323.108	1065.44
323.337	1074.44
323.566	1078.44
323.795	1087.44
324.024	1086.44
324.253	1094.44
324.482	1091.44
324.71	1093.44
324.939	1100.44
325.168	1080.44
325.397	1067.44
325.626	1085.44
325.855	1082.44
326.084	1130.44
326.313	1098.44
326.542	1100.44
326.77	1093.44
326.999	1127.44
327.228	1122.44
327.457	1097.44
327.686	1113.44
327.914	1152.44
328.143	1146.44
328.372	1127.44
328.6	1110.44
328.829	1141.44
329.058	1131.44
329.287	1131.44
329.515	1161.44
329.744	1168.44
329.972	1160.44
330.201	1165.44
330.43	1155.44
330.658	1178.44
330.887	1204.44
331.115	1193.44
331.344	1164.44
331.572	1200.44
331.801	1195.44
332.03	1170.44
332.258	1176.44
332.486	1224.44
332.715	1198.44
332.943	1227.44
333.172	1202.44
333.4	1213.44
333.629	1221.44
333.857	1241.44
334.085	1276.44
334.314	1258.44
334.542	1244.44
334.771	1286.44
334.999	1294.44
335.227	1267.44
335.455	1254.44
335.684	1305.44
335.912	1303.44
336.14	1298.44
336.369	1285.44
336.597	1303.44
336.825	1282.44
337.053	1315.44
337.281	1320.44
337.51	1274.44
337.738	1293.44
337.966	1289.44
338.194	1318.44
338.422	1324.44
338.65	1289.44
338.878	1253.44
339.106	1274.44
339.334	1291.44
339.562	1296.44
339.79	1256.44
340.018	1282.44
340.246	1220.44
340.474	1238.44
340.702	1253.44
340.93	1274.44
341.158	1281.44
341.386	1301.44
341.614	1344.44
341.842	1340.44
342.07	1259.44
342.298	1258.44
342.526	1255.44
342.754	1285.44
342.981	1267.44
343.209	1247.44
343.437	1271.44
343.665	1316.44
343.893	1293.44
344.12	1288.44
344.348	1319.44
344.576	1316.44
344.804	1321.44
345.031	1334.44
345.259	1279.44
345.487	1290.44
345.714	1297.44
345.942	1336.44
346.17	1319.44
346.397	1331.44
346.625	1244.44
346.853	1234.44
347.08	1219.44
347.308	1243.44
347.535	1245.44
347.763	1235.44
347.99	1233.44
348.218	1232.44
348.445	1218.44
348.673	1249.44
348.9	1227.44
349.128	1229.44
349.355	1252.44
349.583	1259.44
349.81	1240.44
350.037	1172.44
350.265	1196.44
350.492	1211.44
350.72	1229.44
350.947	1225.44
351.174	1288.44
351.402	1280.44
351.629	1317.44
351.856	1284.44
352.083	1227.44
352.311	1226.44
352.538	1288.44
352.765	1287.44
352.992	1209.44
353.22	1167.44
353.447	1168.44
353.674	1184.44
353.901	1149.44
354.128	1180.44
354.355	1179.44
354.583	1172.44
354.81	1165.44
355.037	1204.44
355.264	1161.44
355.491	1181.44
355.718	1187.44
355.945	1195.44
356.172	1220.44
356.399	1178.44
356.626	1270.44
356.853	1280.44
357.08	1241.44
357.307	1217.44
357.534	1203.44
357.761	1194.44
357.988	1194.44
358.215	1166.44
358.441	1206.44
358.668	1215.44
358.895	1224.44
359.122	1206.44
359.349	1172.44
359.576	1174.44
359.802	1229.44
360.029	1184.44
360.256	1204.44
360.483	1217.44
360.709	1231.44
360.936	1230.44
361.163	1227.44
361.39	1240.44
361.616	1197.44
361.843	1265.44
362.07	1322.44
362.296	1312.44
362.523	1229.44
362.749	1208.44
362.976	1189.44
363.203	1168.44
363.429	1195.44
363.656	1208.44
363.882	1184.44
364.109	1196.44
364.335	1201.44
364.562	1200.44
364.788	1217.44
365.015	1204.44
365.241	1203.44
365.468	1224.44
365.694	1227.44
365.92	1216.44
366.147	1212.44
366.373	1204.44
366.599	1207.44
366.826	1182.44
367.052	1214.44
367.278	1217.44
367.505	1212.44
367.731	1232.44
367.957	1230.44
368.184	1192.44
368.41	1220.44
368.636	1216.44
368.862	1216.44
369.089	1253.44
369.315	1238.44
369.541	1240.44
369.767	1249.44
369.993	1233.44
370.219	1227.44
370.445	1266.44
370.672	1258.44
370.898	1244.44
371.124	1248.44
371.35	1231.44
371.576	1277.44
371.802	1284.44
372.028	1251.44
372.254	1279.44
372.48	1264.44
372.706	1261.44
372.932	1234.44
373.158	1259.44
373.384	1264.44
373.61	1270.44
373.835	1241.44
374.061	1258.44
374.287	1243.44
374.513	1293.44
374.739	1270.44
374.965	1272.44
375.191	1261.44
375.416	1290.44
375.642	1244.44
375.868	1252.44
376.094	1257.44
376.319	1268.44
376.545	1258.44
376.771	1261.44
376.997	1258.44
377.222	1239.44
377.448	1257.44
377.674	1223.44
377.899	1247.44
378.125	1262.44
378.35	1241.44
378.576	1214.44
378.802	1230.44
379.027	1224.44
379.253	1225.44
379.478	1254.44
379.704	1228.44
379.929	1226.44
380.155	1234.44
380.38	1234.44
380.606	1264.44
380.831	1252.44
381.057	1287.44
381.282	1257.44
381.507	1203.44
381.733	1265.44
381.958	1264.44
382.184	1249.44
382.409	1249.44
382.634	1250.44
382.86	1255.44
383.085	1256.44
383.31	1260.44
383.535	1304.44
383.761	1276.44
383.986	1286.44
384.211	1301.44
384.436	1281.44
384.662	1305.44
384.887	1266.44
385.112	1277.44
385.337	1323.44
385.562	1298.44
385.787	1332.44
386.013	1338.44
386.238	1367.44
386.463	1334.44
386.688	1380.44
386.913	1353.44
387.138	1330.44
387.363	1334.44
387.588	1324.44
387.813	1360.44
388.038	1333.44
388.263	1364.44
388.488	1346.44
388.713	1365.44
388.938	1379.44
389.163	1375.44
389.387	1342.44
389.612	1323.44
389.837	1347.44
390.062	1343.44
390.287	1322.44
390.512	1380.44
390.736	1350.44
390.961	1361.44
391.186	1357.44
391.411	1368.44
391.636	1392.44
391.86	1385.44
392.085	1374.44
392.31	1373.44
392.534	1414.44
392.759	1400.44
392.984	1444.44
393.208	1421.44
393.433	1428.44
393.658	1443.44
393.882	1386.44
394.107	1364.44
394.331	1383.44
394.556	1411.44
394.78	1387.44
395.005	1383.44
395.229	1364.44
395.454	1412.44
395.678	1388.44
395.903	1396.44
396.127	1426.44
396.352	1420.44
396.576	1416.44
396.801	1434.44
397.025	1443.44
397.249	1407.44
397.474	1484.44
397.698	1430.44
397.922	1463.44
398.147	1449.44
398.371	1490.44
398.595	1486.44
398.82	1512.44
399.044	1551.44
399.268	1496.44
399.492	1606.44
399.717	1620.44
399.941	1650.44
400.165	1639.44
400.389	1645.44
400.613	1586.44
400.837	1599.44
401.062	1573.44
401.286	1546.44
401.51	1544.44
401.734	1545.44
401.958	1512.44
402.182	1519.44
402.406	1529.44
402.63	1515.44
402.854	1520.44
403.078	1544.44
403.302	1568.44
403.526	1522.44
403.75	1528.44
403.974	1540.44
404.198	1493.44
404.422	1542.44
404.645	1516.44
404.869	1509.44
405.093	1566.44
405.317	1547.44
405.541	1537.44
405.765	1566.44
405.988	1562.44
406.212	1582.44
406.436	1582.44
406.66	1626.44
406.883	1569.44
407.107	1597.44
407.331	1600.44
407.555	1661.44
407.778	1626.44
408.002	1650.44
408.226	1630.44
408.449	1674.44
408.673	1663.44
408.896	1631.44
409.12	1624.44
409.344	1614.44
409.567	1604.44
409.791	1626.44
410.014	1634.44
410.238	1609.44
410.461	1589.44
410.685	1584.44
410.908	1594.44
411.132	1609.44
411.355	1604.44
411.578	1566.44
411.802	1560.44
412.025	1581.44
412.249	1544.44
412.472	1562.44
412.695	1562.44
412.919	1580.44
413.142	1561.44
413.365	1540.44
413.589	1534.44
413.812	1527.44
414.035	1513.44
414.258	1545.44
414.482	1543.44
414.705	1528.44
414.928	1481.44
415.151	1541.44
415.374	1498.44
415.597	1503.44
415.821	1511.44
416.044	1502.44
416.267	1502.44
416.49	1470.44
416.713	1512.44
416.936	1480.44
417.159	1453.44
417.382	1432.44
417.605	1436.44
417.828	1447.44
418.051	1462.44
418.274	1435.44
418.497	1456.44
418.72	1472.44
418.943	1467.44
419.166	1509.44
419.389	1641.44
419.611	1576.44
419.834	1561.44
420.057	1499.44
420.28	1473.44
420.503	1435.44
420.726	1412.44
420.948	1473.44
421.171	1490.44
421.394	1425.44
421.617	1453.44
421.839	1476.44
422.062	1471.44
422.285	1415.44
422.507	1465.44
422.73	1474.44
422.953	1465.44
423.175	1474.44
423.398	1458.44
423.621	1417.44
423.843	1451.44
424.066	1476.44
424.288	1473.44
424.511	1473.44
424.733	1448.44
424.956	1430.44
425.178	1470.44
425.401	1478.44
425.623	1514.44
425.846	1451.44
426.068	1472.44
426.291	1444.44
426.513	1451.44
426.735	1456.44
426.958	1451.44
427.18	1447.44
427.402	1431.44
427.625	1435.44
427.847	1447.44
428.069	1432.44
428.292	1458.44
428.514	1440.44
428.736	1464.44
428.958	1450.44
429.181	1439.44
429.403	1464.44
429.625	1421.44
429.847	1436.44
430.069	1461.44
430.292	1444.44
430.514	1403.44
430.736	1440.44
430.958	1438.44
431.18	1439.44
431.402	1424.44
431.624	1391.44
431.846	1438.44
432.068	1397.44
432.29	1472.44
432.512	1404.44
432.734	1458.44
432.956	1456.44
433.178	1483.44
433.4	1495.44
433.622	1518.44
433.844	1499.44
434.066	1512.44
434.287	1494.44
434.509	1514.44
434.731	1487.44
434.953	1522.44
435.175	1495.44
435.397	1557.44
435.618	1486.44
435.84	1444.44
436.062	1451.44
436.284	1453.44
436.505	1464.44
436.727	1458.44
436.949	1417.44
437.17	1448.44
437.392	1469.44
437.614	1433.44
437.835	1377.44
438.057	1429.44
438.278	1404.44
438.5	1379.44
438.721	1428.44
438.943	1446.44
439.165	1406.44
439.386	1416.44
439.608	1426.44
439.829	1429.44
440.05	1456.44
440.272	1432.44
440.493	1442.44
440.715	1455.44
440.936	1428.44
441.158	1464.44
441.379	1476.44
441.6	1499.44
441.822	1475.44
442.043	1483.44
442.264	1507.44
442.486	1487.44
442.707	1465.44
442.928	1485.44
443.149	1517.44
443.371	1516.44
443.592	1625.44
443.813	1567.44
444.034	1526.44
444.255	1504.44
444.476	1531.44
444.698	1566.44
444.919	1605.44
445.14	1662.44
445.361	1582.44
445.582	1536.44
445.803	1483.44
446.024	1461.44
446.245	1479.44
446.466	1486.44
446.687	1413.44
446.908	1444.44
447.129	1404.44
447.35	1407.44
447.571	1423.44
447.792	1367.44
448.013	1375.44
448.234	1384.44
448.455	1387.44
448.675	1385.44
448.896	1344.44
449.117	1360.44
449.338	1355.44
449.559	1333.44
449.779	1363.44
450	1322.44
450.221	1318.44
450.442	1351.44
450.662	1378.44
450.883	1355.44
451.104	1397.44
451.324	1330.44
451.545	1340.44
451.766	1353.44
451.986	1305.44
452.207	1304.44
452.428	1297.44
452.648	1321.44
452.869	1297.44
453.089	1337.44
453.31	1368.44
453.53	1284.44
453.751	1300.44
453.971	1301.44
454.192	1359.44
454.412	1324.44
454.633	1314.44
454.853	1308.44
455.073	1292.44
455.294	1318.44
455.514	1301.44
455.734	1354.44
455.955	1356.44
456.175	1357.44
456.395	1304.44
456.616	1300.44
456.836	1330.44
457.056	1316.44
457.276	1292.44
457.497	1330.44
457.717	1351.44
457.937	1320.44
458.157	1320.44
458.377	1354.44
458.598	1369.44
458.818	1357.44
459.038	1360.44
459.258	1410.44
459.478	1479.44
459.698	1547.44
459.918	1571.44
460.138	1547.44
460.358	1501.44
460.578	1523.44
460.798	1566.44
461.018	1612.44
461.238	1511.44
461.458	1510.44
461.678	1473.44
461.898	1484.44
462.118	1502.44
462.338	1554.44
462.558	1578.44
462.777	1674.44
462.997	1644.44
463.217	1670.44
463.437	1713.44
463.657	1682.44
463.876	1621.44
464.096	1597.44
464.316	1582.44
464.536	1631.44
464.755	1588.44
464.975	1575.44
465.195	1483.44
465.414	1460.44
465.634	1441.44
465.854	1466.44
466.073	1406.44
466.293	1414.44
466.512	1403.44
466.732	1406.44
466.951	1453.44
467.171	1454.44
467.391	1427.44
467.61	1373.44
467.829	1406.44
468.049	1422.44
468.268	1364.44
468.488	1379.44
468.707	1412.44
468.927	1386.44
469.146	1417.44
469.365	1426.44
469.585	1418.44
469.804	1416.44
470.023	1403.44
470.243	1407.44
470.462	1389.44
470.681	1374.44
470.901	1372.44
471.12	1370.44
471.339	1427.44
471.558	1400.44
471.777	1428.44
471.997	1392.44
472.216	1425.44
472.435	1419.44
472.654	1375.44
472.873	1371.44
473.092	1375.44
473.311	1399.44
473.53	1432.44
473.749	1416.44
473.968	1398.44
474.187	1408.44
474.406	1396.44
474.625	1395.44
474.844	1451.44
475.063	1475.44
475.282	1458.44
475.501	1452.44
475.72	1481.44
475.939	1437.44
476.158	1466.44
476.377	1490.44
476.596	1501.44
476.814	1493.44
477.033	1502.44
477.252	1493.44
477.471	1538.44
477.69	1558.44
477.908	1579.44
478.127	1586.44
478.346	1593.44
478.564	1629.44
478.783	1600.44
479.002	1690.44
479.22	1731.44
479.439	1663.44
479.658	1664.44
479.876	1632.44
480.095	1633.44
480.313	1651.44
480.532	1661.44
480.751	1684.44
480.969	1650.44
481.188	1645.44
481.406	1641.44
481.624	1635.44
481.843	1648.44
482.061	1654.44
482.28	1692.44
482.498	1662.44
482.717	1665.44
482.935	1687.44
483.153	1752.44
483.372	1805.44
483.59	1794.44
483.808	1738.44
484.027	1648.44
484.245	1701.44
484.463	1722.44
484.681	1700.44
484.9	1702.44
485.118	1734.44
485.336	1669.44
485.554	1719.44
485.772	1711.44
485.99	1675.44
486.209	1678.44
486.427	1695.44
486.645	1681.44
486.863	1724.44
487.081	1719.44
487.299	1753.44
487.517	1750.44
487.735	1788.44
487.953	1777.44
488.171	1782.44
488.389	1754.44
488.607	1730.44
488.825	1725.44
489.043	1726.44
489.261	1736.44
489.479	1716.44
489.696	1722.44
489.914	1714.44
490.132	1730.44
490.35	1716.44
490.568	1750.44
490.786	1763.44
491.003	1735.44
