Data from Ni(NO3)2Standard.Agarose3%.GreenCap.LampEnergy5.5.E.O_HRD10591_14-42-26-188.txt Node
Date: Mon Jul 22 14:42:26 EDT 2019
User: cochatt
Spectrometer: HR+D1059
Trigger mode: 1
Integration Time (sec): 1.000000E-1
Scans to average: 1
Electric dark correction enabled: true
Nonlinearity correction enabled: false
Boxcar width: 0
XAxis mode: Wavelengths
Number of Pixels in Spectrum: 2048
>>>>>Begin Spectral Data<<<<<
223.165	-18.69
223.4	-18.69
223.635	-18.69
223.869	-18.69
224.104	-15.69
224.338	-13.69
224.573	-4.69
224.808	-21.69
225.042	3.31
225.277	-3.69
225.511	-8.69
225.746	5.31
225.98	-2.69
226.215	12.31
226.449	13.31
226.683	14.31
226.918	31.31
227.152	28.31
227.387	30.31
227.621	31.31
227.856	42.31
228.09	41.31
228.324	58.31
228.559	57.31
228.793	51.31
229.027	60.31
229.262	63.31
229.496	37.31
229.73	57.31
229.964	77.31
230.199	71.31
230.433	56.31
230.667	71.31
230.901	86.31
231.136	83.31
231.37	63.31
231.604	73.31
231.838	86.31
232.072	73.31
232.306	85.31
232.541	78.31
232.775	60.31
233.009	74.31
233.243	85.31
233.477	79.31
233.711	76.31
233.945	71.31
234.179	73.31
234.413	90.31
234.647	74.31
234.881	78.31
235.115	79.31
235.349	74.31
235.583	80.31
235.817	78.31
236.051	74.31
236.285	75.31
236.519	68.31
236.753	73.31
236.987	73.31
237.221	77.31
237.455	73.31
237.689	79.31
237.922	65.31
238.156	76.31
238.39	85.31
238.624	75.31
238.858	80.31
239.091	71.31
239.325	70.31
239.559	62.31
239.793	82.31
240.027	89.31
240.26	77.31
240.494	74.31
240.728	86.31
240.961	71.31
241.195	71.31
241.429	91.31
241.662	71.31
241.896	94.31
242.13	83.31
242.363	85.31
242.597	71.31
242.83	79.31
243.064	83.31
243.298	84.31
243.531	96.31
243.765	74.31
243.998	73.31
244.232	89.31
244.465	74.31
244.699	85.31
244.932	83.31
245.166	82.31
245.399	68.31
245.633	89.31
245.866	81.31
246.099	87.31
246.333	84.31
246.566	84.31
246.8	84.31
247.033	76.31
247.266	95.31
247.5	95.31
247.733	85.31
247.966	73.31
248.2	85.31
248.433	78.31
248.666	69.31
248.899	87.31
249.133	87.31
249.366	68.31
249.599	68.31
249.832	66.31
250.066	79.31
250.299	65.31
250.532	95.31
250.765	81.31
250.998	83.31
251.231	87.31
251.465	92.31
251.698	91.31
251.931	70.31
252.164	81.31
252.397	71.31
252.63	84.31
252.863	85.31
253.096	86.31
253.329	88.31
253.562	78.31
253.795	80.31
254.028	94.31
254.261	94.31
254.494	83.31
254.727	78.31
254.96	70.31
255.193	80.31
255.426	82.31
255.659	80.31
255.892	85.31
256.124	84.31
256.357	72.31
256.59	76.31
256.823	74.31
257.056	80.31
257.289	84.31
257.521	75.31
257.754	81.31
257.987	79.31
258.22	77.31
258.452	83.31
258.685	77.31
258.918	80.31
259.151	73.31
259.383	89.31
259.616	83.31
259.849	81.31
260.081	79.31
260.314	80.31
260.547	78.31
260.779	66.31
261.012	86.31
261.244	77.31
261.477	89.31
261.71	89.31
261.942	84.31
262.175	72.31
262.407	81.31
262.64	93.31
262.872	86.31
263.105	85.31
263.337	79.31
263.57	69.31
263.802	83.31
264.035	79.31
264.267	75.31
264.499	78.31
264.732	83.31
264.964	77.31
265.197	76.31
265.429	83.31
265.661	94.31
265.894	88.31
266.126	94.31
266.358	69.31
266.591	85.31
266.823	70.31
267.055	92.31
267.287	88.31
267.52	92.31
267.752	88.31
267.984	91.31
268.216	86.31
268.448	89.31
268.681	87.31
268.913	92.31
269.145	83.31
269.377	85.31
269.609	77.31
269.841	72.31
270.073	90.31
270.306	90.31
270.538	84.31
270.77	82.31
271.002	89.31
271.234	88.31
271.466	80.31
271.698	99.31
271.93	94.31
272.162	85.31
272.394	90.31
272.626	78.31
272.858	83.31
273.09	83.31
273.322	89.31
273.553	86.31
273.785	76.31
274.017	87.31
274.249	93.31
274.481	82.31
274.713	94.31
274.945	94.31
275.176	87.31
275.408	77.31
275.64	92.31
275.872	91.31
276.104	92.31
276.335	91.31
276.567	84.31
276.799	81.31
277.031	71.31
277.262	85.31
277.494	97.31
277.726	86.31
277.957	83.31
278.189	86.31
278.421	90.31
278.652	84.31
278.884	77.31
279.115	78.31
279.347	70.31
279.579	82.31
279.81	90.31
280.042	92.31
280.273	81.31
280.505	72.31
280.736	87.31
280.968	76.31
281.199	102.31
281.431	83.31
281.662	74.31
281.894	89.31
282.125	91.31
282.356	80.31
282.588	82.31
282.819	91.31
283.051	72.31
283.282	73.31
283.513	76.31
283.745	86.31
283.976	94.31
284.207	78.31
284.439	92.31
284.67	88.31
284.901	71.31
285.132	86.31
285.364	82.31
285.595	84.31
285.826	75.31
286.057	81.31
286.288	83.31
286.52	95.31
286.751	87.31
286.982	100.31
287.213	71.31
287.444	77.31
287.675	88.31
287.906	100.31
288.138	90.31
288.369	88.31
288.6	78.31
288.831	79.31
289.062	94.31
289.293	80.31
289.524	83.31
289.755	86.31
289.986	98.31
290.217	90.31
290.448	81.31
290.679	72.31
290.91	95.31
291.141	82.31
291.371	79.31
291.602	84.31
291.833	83.31
292.064	74.31
292.295	76.31
292.526	102.31
292.757	79.31
292.987	86.31
293.218	81.31
293.449	85.31
293.68	86.31
293.91	98.31
294.141	94.31
294.372	83.31
294.603	90.31
294.833	91.31
295.064	74.31
295.295	92.31
295.525	93.31
295.756	72.31
295.987	85.31
296.217	94.31
296.448	86.31
296.679	95.31
296.909	77.31
297.14	80.31
297.37	85.31
297.601	81.31
297.831	88.31
298.062	77.31
298.292	97.31
298.523	99.31
298.753	77.31
298.984	85.31
299.214	73.31
299.445	77.31
299.675	93.31
299.905	65.31
300.136	73.31
300.366	95.31
300.597	82.31
300.827	93.31
301.057	103.31
301.288	65.31
301.518	99.31
301.748	72.31
301.979	75.31
302.209	81.31
302.439	77.31
302.669	79.31
302.9	70.31
303.13	87.31
303.36	94.31
303.59	85.31
303.82	87.31
304.051	78.31
304.281	86.31
304.511	78.31
304.741	84.31
304.971	88.31
305.201	90.31
305.431	87.31
305.661	84.31
305.891	94.31
306.121	72.31
306.352	83.31
306.582	85.31
306.812	79.31
307.042	80.31
307.272	88.31
307.502	76.31
307.731	76.31
307.961	79.31
308.191	78.31
308.421	86.31
308.651	86.31
308.881	86.31
309.111	85.31
309.341	109.31
309.571	81.31
309.8	87.31
310.03	91.31
310.26	78.31
310.49	61.31
310.72	98.31
310.949	78.31
311.179	92.31
311.409	91.31
311.639	86.31
311.868	102.31
312.098	80.31
312.328	70.31
312.557	111.31
312.787	78.31
313.017	77.31
313.246	95.31
313.476	94.31
313.706	93.31
313.935	80.31
314.165	86.31
314.394	96.31
314.624	86.31
314.853	95.31
315.083	92.31
315.312	104.31
315.542	94.31
315.771	82.31
316.001	90.31
316.23	83.31
316.46	82.31
316.689	83.31
316.919	87.31
317.148	84.31
317.377	80.31
317.607	93.31
317.836	91.31
318.065	79.31
318.295	82.31
318.524	81.31
318.753	77.31
318.983	85.31
319.212	84.31
319.441	88.31
319.67	93.31
319.9	93.31
320.129	92.31
320.358	89.31
320.587	86.31
320.816	82.31
321.046	85.31
321.275	91.31
321.504	76.31
321.733	82.31
321.962	96.31
322.191	85.31
322.42	97.31
322.649	93.31
322.878	89.31
323.108	100.31
323.337	90.31
323.566	102.31
323.795	90.31
324.024	81.31
324.253	96.31
324.482	88.31
324.71	100.31
324.939	81.31
325.168	94.31
325.397	86.31
325.626	85.31
325.855	86.31
326.084	85.31
326.313	89.31
326.542	79.31
326.77	106.31
326.999	74.31
327.228	77.31
327.457	92.31
327.686	81.31
327.914	94.31
328.143	89.31
328.372	84.31
328.6	96.31
328.829	75.31
329.058	94.31
329.287	97.31
329.515	88.31
329.744	90.31
329.972	102.31
330.201	74.31
330.43	82.31
330.658	85.31
330.887	85.31
331.115	88.31
331.344	88.31
331.572	90.31
331.801	91.31
332.03	78.31
332.258	85.31
332.486	87.31
332.715	84.31
332.943	83.31
333.172	98.31
333.4	103.31
333.629	87.31
333.857	75.31
334.085	99.31
334.314	83.31
334.542	84.31
334.771	95.31
334.999	98.31
335.227	83.31
335.455	97.31
335.684	98.31
335.912	105.31
336.14	103.31
336.369	82.31
336.597	80.31
336.825	78.31
337.053	82.31
337.281	85.31
337.51	84.31
337.738	86.31
337.966	91.31
338.194	80.31
338.422	82.31
338.65	79.31
338.878	90.31
339.106	91.31
339.334	83.31
339.562	74.31
339.79	85.31
340.018	94.31
340.246	90.31
340.474	85.31
340.702	77.31
340.93	84.31
341.158	90.31
341.386	87.31
341.614	76.31
341.842	86.31
342.07	82.31
342.298	90.31
342.526	88.31
342.754	80.31
342.981	81.31
343.209	88.31
343.437	79.31
343.665	83.31
343.893	88.31
344.12	78.31
344.348	103.31
344.576	95.31
344.804	75.31
345.031	88.31
345.259	86.31
345.487	75.31
345.714	96.31
345.942	100.31
346.17	89.31
346.397	86.31
346.625	88.31
346.853	90.31
347.08	78.31
347.308	83.31
347.535	96.31
347.763	74.31
347.99	100.31
348.218	72.31
348.445	78.31
348.673	77.31
348.9	82.31
349.128	78.31
349.355	79.31
349.583	93.31
349.81	88.31
350.037	83.31
350.265	83.31
350.492	88.31
350.72	88.31
350.947	70.31
351.174	83.31
351.402	79.31
351.629	92.31
351.856	93.31
352.083	87.31
352.311	74.31
352.538	78.31
352.765	96.31
352.992	83.31
353.22	87.31
353.447	90.31
353.674	92.31
353.901	81.31
354.128	93.31
354.355	99.31
354.583	84.31
354.81	86.31
355.037	82.31
355.264	90.31
355.491	98.31
355.718	82.31
355.945	97.31
356.172	97.31
356.399	77.31
356.626	82.31
356.853	88.31
357.08	85.31
357.307	95.31
357.534	87.31
357.761	78.31
357.988	85.31
358.215	69.31
358.441	84.31
358.668	93.31
358.895	98.31
359.122	100.31
359.349	76.31
359.576	91.31
359.802	89.31
360.029	90.31
360.256	97.31
360.483	88.31
360.709	80.31
360.936	87.31
361.163	95.31
361.39	94.31
361.616	65.31
361.843	81.31
362.07	78.31
362.296	89.31
362.523	92.31
362.749	90.31
362.976	90.31
363.203	93.31
363.429	78.31
363.656	89.31
363.882	85.31
364.109	91.31
364.335	94.31
364.562	85.31
364.788	87.31
365.015	82.31
365.241	84.31
365.468	93.31
365.694	91.31
365.92	85.31
366.147	79.31
366.373	96.31
366.599	69.31
366.826	93.31
367.052	82.31
367.278	92.31
367.505	94.31
367.731	84.31
367.957	105.31
368.184	73.31
368.41	82.31
368.636	78.31
368.862	85.31
369.089	91.31
369.315	89.31
369.541	92.31
369.767	89.31
369.993	69.31
370.219	83.31
370.445	84.31
370.672	91.31
370.898	64.31
371.124	81.31
371.35	92.31
371.576	85.31
371.802	87.31
372.028	87.31
372.254	98.31
372.48	84.31
372.706	82.31
372.932	83.31
373.158	87.31
373.384	80.31
373.61	69.31
373.835	90.31
374.061	99.31
374.287	94.31
374.513	84.31
374.739	80.31
374.965	92.31
375.191	77.31
375.416	79.31
375.642	77.31
375.868	81.31
376.094	95.31
376.319	97.31
376.545	90.31
376.771	83.31
376.997	81.31
377.222	86.31
377.448	91.31
377.674	100.31
377.899	90.31
378.125	76.31
378.35	79.31
378.576	78.31
378.802	84.31
379.027	91.31
379.253	89.31
379.478	87.31
379.704	81.31
379.929	85.31
380.155	78.31
380.38	82.31
380.606	84.31
380.831	82.31
381.057	82.31
381.282	78.31
381.507	84.31
381.733	83.31
381.958	78.31
382.184	93.31
382.409	80.31
382.634	101.31
382.86	101.31
383.085	78.31
383.31	82.31
383.535	87.31
383.761	78.31
383.986	104.31
384.211	78.31
384.436	78.31
384.662	78.31
384.887	81.31
385.112	74.31
385.337	83.31
385.562	86.31
385.787	94.31
386.013	104.31
386.238	92.31
386.463	70.31
386.688	78.31
386.913	83.31
387.138	76.31
387.363	79.31
387.588	94.31
387.813	88.31
388.038	83.31
388.263	98.31
388.488	88.31
388.713	73.31
388.938	83.31
389.163	86.31
389.387	108.31
389.612	91.31
389.837	82.31
390.062	97.31
390.287	93.31
390.512	93.31
390.736	91.31
390.961	91.31
391.186	82.31
391.411	92.31
391.636	82.31
391.86	82.31
392.085	79.31
392.31	81.31
392.534	73.31
392.759	78.31
392.984	103.31
393.208	90.31
393.433	85.31
393.658	85.31
393.882	79.31
394.107	83.31
394.331	76.31
394.556	86.31
394.78	90.31
395.005	79.31
395.229	85.31
395.454	89.31
395.678	88.31
395.903	86.31
396.127	79.31
396.352	99.31
396.576	81.31
396.801	83.31
397.025	97.31
397.249	79.31
397.474	95.31
397.698	100.31
397.922	80.31
398.147	90.31
398.371	86.31
398.595	83.31
398.82	93.31
399.044	78.31
399.268	91.31
399.492	87.31
399.717	80.31
399.941	92.31
400.165	75.31
400.389	92.31
400.613	89.31
400.837	95.31
401.062	86.31
401.286	92.31
401.51	91.31
401.734	98.31
401.958	86.31
402.182	94.31
402.406	93.31
402.63	92.31
402.854	64.31
403.078	97.31
403.302	89.31
403.526	75.31
403.75	89.31
403.974	67.31
404.198	78.31
404.422	80.31
404.645	75.31
404.869	78.31
405.093	92.31
405.317	92.31
405.541	88.31
405.765	84.31
405.988	83.31
406.212	98.31
406.436	95.31
406.66	79.31
406.883	68.31
407.107	83.31
407.331	87.31
407.555	91.31
407.778	91.31
408.002	77.31
408.226	77.31
408.449	88.31
408.673	93.31
408.896	82.31
409.12	78.31
409.344	83.31
409.567	75.31
409.791	87.31
410.014	86.31
410.238	81.31
410.461	84.31
410.685	92.31
410.908	84.31
411.132	89.31
411.355	93.31
411.578	83.31
411.802	89.31
412.025	88.31
412.249	87.31
412.472	83.31
412.695	86.31
412.919	90.31
413.142	83.31
413.365	88.31
413.589	93.31
413.812	84.31
414.035	78.31
414.258	67.31
414.482	82.31
414.705	84.31
414.928	91.31
415.151	75.31
415.374	79.31
415.597	84.31
415.821	76.31
416.044	89.31
416.267	78.31
416.49	90.31
416.713	88.31
416.936	93.31
417.159	84.31
417.382	79.31
417.605	85.31
417.828	83.31
418.051	93.31
418.274	79.31
418.497	72.31
418.72	94.31
418.943	89.31
419.166	89.31
419.389	86.31
419.611	92.31
419.834	78.31
420.057	86.31
420.28	79.31
420.503	98.31
420.726	89.31
420.948	70.31
421.171	86.31
421.394	85.31
421.617	79.31
421.839	85.31
422.062	97.31
422.285	90.31
422.507	67.31
422.73	109.31
422.953	92.31
423.175	82.31
423.398	89.31
423.621	98.31
423.843	97.31
424.066	88.31
424.288	83.31
424.511	80.31
424.733	93.31
424.956	83.31
425.178	97.31
425.401	95.31
425.623	84.31
425.846	88.31
426.068	92.31
426.291	92.31
426.513	82.31
426.735	86.31
426.958	92.31
427.18	90.31
427.402	87.31
427.625	100.31
427.847	90.31
428.069	97.31
428.292	82.31
428.514	88.31
428.736	84.31
428.958	78.31
429.181	93.31
429.403	83.31
429.625	100.31
429.847	76.31
430.069	78.31
430.292	80.31
430.514	89.31
430.736	94.31
430.958	83.31
431.18	108.31
431.402	86.31
431.624	97.31
431.846	84.31
432.068	87.31
432.29	82.31
432.512	82.31
432.734	100.31
432.956	81.31
433.178	95.31
433.4	87.31
433.622	92.31
433.844	85.31
434.066	92.31
434.287	76.31
434.509	85.31
434.731	93.31
434.953	95.31
435.175	80.31
435.397	96.31
435.618	98.31
435.84	79.31
436.062	82.31
436.284	85.31
436.505	66.31
436.727	71.31
436.949	85.31
437.17	89.31
437.392	90.31
437.614	98.31
437.835	87.31
438.057	89.31
438.278	84.31
438.5	77.31
438.721	82.31
438.943	97.31
439.165	86.31
439.386	94.31
439.608	101.31
439.829	90.31
440.05	85.31
440.272	80.31
440.493	75.31
440.715	76.31
440.936	94.31
441.158	84.31
441.379	83.31
441.6	74.31
441.822	84.31
442.043	89.31
442.264	88.31
442.486	87.31
442.707	83.31
442.928	86.31
443.149	77.31
443.371	91.31
443.592	79.31
443.813	96.31
444.034	91.31
444.255	80.31
444.476	88.31
444.698	99.31
444.919	94.31
445.14	208.31
445.361	149.31
445.582	95.31
445.803	78.31
446.024	76.31
446.245	77.31
446.466	87.31
446.687	82.31
446.908	85.31
447.129	84.31
447.35	86.31
447.571	98.31
447.792	83.31
448.013	87.31
448.234	76.31
448.455	81.31
448.675	92.31
448.896	76.31
449.117	85.31
449.338	93.31
449.559	79.31
449.779	82.31
450	74.31
450.221	86.31
450.442	91.31
450.662	94.31
450.883	86.31
451.104	90.31
451.324	81.31
451.545	88.31
451.766	79.31
451.986	93.31
452.207	70.31
452.428	80.31
452.648	84.31
452.869	86.31
453.089	90.31
453.31	85.31
453.53	85.31
453.751	89.31
453.971	79.31
454.192	84.31
454.412	99.31
454.633	80.31
454.853	87.31
455.073	87.31
455.294	79.31
455.514	78.31
455.734	74.31
455.955	87.31
456.175	81.31
456.395	88.31
456.616	74.31
456.836	96.31
457.056	91.31
457.276	85.31
457.497	92.31
457.717	100.31
457.937	85.31
458.157	92.31
458.377	82.31
458.598	78.31
458.818	89.31
459.038	83.31
459.258	89.31
459.478	78.31
459.698	101.31
459.918	90.31
460.138	78.31
460.358	83.31
460.578	91.31
460.798	77.31
461.018	80.31
461.238	92.31
461.458	93.31
461.678	80.31
461.898	91.31
462.118	89.31
462.338	74.31
462.558	87.31
462.777	86.31
462.997	91.31
463.217	85.31
463.437	86.31
463.657	99.31
463.876	110.31
464.096	83.31
464.316	99.31
464.536	84.31
464.755	94.31
464.975	94.31
465.195	95.31
465.414	86.31
465.634	70.31
465.854	71.31
466.073	70.31
466.293	77.31
466.512	87.31
466.732	79.31
466.951	75.31
467.171	65.31
467.391	84.31
467.61	98.31
467.829	86.31
468.049	100.31
468.268	89.31
468.488	90.31
468.707	85.31
468.927	84.31
469.146	86.31
469.365	86.31
469.585	94.31
469.804	93.31
470.023	92.31
470.243	73.31
470.462	80.31
470.681	102.31
470.901	95.31
471.12	80.31
471.339	87.31
471.558	87.31
471.777	81.31
471.997	84.31
472.216	103.31
472.435	88.31
472.654	82.31
472.873	92.31
473.092	94.31
473.311	77.31
473.53	96.31
473.749	75.31
473.968	79.31
474.187	83.31
474.406	87.31
474.625	78.31
474.844	88.31
475.063	83.31
475.282	88.31
475.501	77.31
475.72	87.31
475.939	94.31
476.158	77.31
476.377	79.31
476.596	86.31
476.814	85.31
477.033	98.31
477.252	91.31
477.471	84.31
477.69	73.31
477.908	90.31
478.127	97.31
478.346	99.31
478.564	98.31
478.783	94.31
479.002	76.31
479.22	80.31
479.439	90.31
479.658	84.31
479.876	82.31
480.095	88.31
480.313	92.31
480.532	90.31
480.751	106.31
480.969	93.31
481.188	92.31
481.406	81.31
481.624	81.31
481.843	85.31
482.061	100.31
482.28	101.31
482.498	98.31
482.717	88.31
482.935	104.31
483.153	87.31
483.372	85.31
483.59	82.31
483.808	88.31
484.027	90.31
484.245	102.31
484.463	72.31
484.681	92.31
484.9	79.31
485.118	85.31
485.336	83.31
485.554	77.31
485.772	93.31
485.99	97.31
486.209	103.31
486.427	84.31
486.645	92.31
486.863	109.31
487.081	90.31
487.299	76.31
487.517	85.31
487.735	88.31
487.953	85.31
488.171	85.31
488.389	95.31
488.607	91.31
488.825	93.31
489.043	97.31
489.261	90.31
489.479	98.31
489.696	89.31
489.914	91.31
490.132	79.31
490.35	89.31
490.568	116.31
490.786	94.31
491.003	84.31
491.221	93.31
491.439	89.31
491.657	109.31
491.874	98.31
492.092	91.31
492.31	98.31
492.527	108.31
492.745	102.31
492.963	93.31
493.18	99.31
493.398	98.31
493.615	105.31
493.833	92.31
494.05	98.31
494.268	105.31
494.485	101.31
494.703	108.31
494.92	100.31
495.138	95.31
495.355	95.31
495.573	96.31
495.79	85.31
496.008	101.31
496.225	87.31
496.442	87.31
496.66	105.31
496.877	98.31
497.094	98.31
497.312	91.31
497.529	90.31
497.746	99.31
497.963	106.31
498.181	87.31
498.398	97.31
498.615	95.31
498.832	116.31
499.049	97.31
499.267	81.31
499.484	100.31
499.701	101.31
499.918	96.31
500.135	107.31
500.352	105.31
500.569	108.31
500.786	111.31
501.003	109.31
501.22	115.31
501.437	97.31
501.654	104.31
501.871	84.31
502.088	83.31
502.305	101.31
502.522	92.31
502.739	75.31
502.956	92.31
503.172	86.31
503.389	81.31
503.606	97.31
503.823	89.31
504.04	83.31
504.256	93.31
504.473	96.31
504.69	108.31
504.907	107.31
505.123	105.31
505.34	99.31
505.557	97.31
505.773	88.31
505.99	100.31
506.207	97.31
506.423	95.31
506.64	86.31
506.856	90.31
507.073	90.31
507.289	90.31
507.506	84.31
507.722	87.31
507.939	92.31
508.155	91.31
508.372	89.31
508.588	89.31
508.805	94.31
509.021	90.31
509.238	103.31
509.454	85.31
509.67	80.31
509.887	92.31
510.103	93.31
510.319	93.31
510.536	81.31
510.752	88.31
510.968	89.31
511.184	82.31
511.401	84.31
511.617	84.31
511.833	85.31
512.049	80.31
512.265	97.31
512.481	79.31
512.698	92.31
512.914	102.31
513.13	90.31
513.346	101.31
513.562	87.31
513.778	93.31
513.994	79.31
514.21	91.31
514.426	86.31
514.642	101.31
514.858	84.31
515.074	97.31
515.29	95.31
515.506	96.31
515.721	84.31
515.937	108.31
516.153	105.31
516.369	86.31
516.585	91.31
516.801	88.31
517.016	95.31
517.232	87.31
517.448	94.31
517.664	86.31
517.879	86.31
518.095	90.31
518.311	95.31
