Data from Ni(NO3)2@0.0625M.TitratingCurve.Agarose3%dH2O.NegLispCup.LampEnergy10.LIBS07252019_HRD10591_18-15-53-570.txt Node
Date: Thu Jul 25 18:15:53 EDT 2019
User: cochatt
Spectrometer: HR+D1059
Trigger mode: 1
Integration Time (sec): 1.000000E-1
Scans to average: 1
Electric dark correction enabled: true
Nonlinearity correction enabled: false
Boxcar width: 0
XAxis mode: Wavelengths
Number of Pixels in Spectrum: 2048
>>>>>Begin Spectral Data<<<<<
223.165	-9.81
223.4	-9.81
223.635	-9.81
223.869	-17.81
224.104	-25.81
224.338	-18.81
224.573	-30.81
224.808	-9.81
225.042	-1.81
225.277	-7.81
225.511	13.19
225.746	3.19
225.98	8.19
226.215	20.19
226.449	24.19
226.683	16.19
226.918	15.19
227.152	22.19
227.387	23.19
227.621	36.19
227.856	34.19
228.09	30.19
228.324	43.19
228.559	55.19
228.793	69.19
229.027	81.19
229.262	78.19
229.496	102.19
229.73	117.19
229.964	114.19
230.199	105.19
230.433	96.19
230.667	109.19
230.901	112.19
231.136	119.19
231.37	111.19
231.604	110.19
231.838	114.19
232.072	133.19
232.306	127.19
232.541	125.19
232.775	113.19
233.009	134.19
233.243	122.19
233.477	130.19
233.711	130.19
233.945	129.19
234.179	114.19
234.413	123.19
234.647	136.19
234.881	126.19
235.115	139.19
235.349	134.19
235.583	130.19
235.817	134.19
236.051	125.19
236.285	137.19
236.519	133.19
236.753	128.19
236.987	133.19
237.221	123.19
237.455	139.19
237.689	122.19
237.922	133.19
238.156	129.19
238.39	134.19
238.624	130.19
238.858	137.19
239.091	138.19
239.325	134.19
239.559	138.19
239.793	150.19
240.027	150.19
240.26	144.19
240.494	142.19
240.728	146.19
240.961	150.19
241.195	137.19
241.429	147.19
241.662	145.19
241.896	143.19
242.13	148.19
242.363	154.19
242.597	157.19
242.83	178.19
243.064	149.19
243.298	171.19
243.531	163.19
243.765	169.19
243.998	173.19
244.232	167.19
244.465	181.19
244.699	156.19
244.932	170.19
245.166	175.19
245.399	168.19
245.633	166.19
245.866	194.19
246.099	190.19
246.333	166.19
246.566	178.19
246.8	189.19
247.033	189.19
247.266	177.19
247.5	184.19
247.733	195.19
247.966	190.19
248.2	194.19
248.433	191.19
248.666	185.19
248.899	170.19
249.133	200.19
249.366	201.19
249.599	194.19
249.832	183.19
250.066	211.19
250.299	207.19
250.532	201.19
250.765	196.19
250.998	192.19
251.231	200.19
251.465	205.19
251.698	222.19
251.931	213.19
252.164	205.19
252.397	217.19
252.63	211.19
252.863	226.19
253.096	212.19
253.329	222.19
253.562	216.19
253.795	218.19
254.028	238.19
254.261	215.19
254.494	217.19
254.727	233.19
254.96	233.19
255.193	228.19
255.426	226.19
255.659	220.19
255.892	219.19
256.124	235.19
256.357	235.19
256.59	232.19
256.823	218.19
257.056	239.19
257.289	239.19
257.521	219.19
257.754	238.19
257.987	232.19
258.22	257.19
258.452	243.19
258.685	245.19
258.918	234.19
259.151	242.19
259.383	225.19
259.616	244.19
259.849	249.19
260.081	250.19
260.314	254.19
260.547	252.19
260.779	243.19
261.012	253.19
261.244	257.19
261.477	243.19
261.71	249.19
261.942	243.19
262.175	246.19
262.407	266.19
262.64	268.19
262.872	255.19
263.105	253.19
263.337	276.19
263.57	266.19
263.802	266.19
264.035	250.19
264.267	266.19
264.499	271.19
264.732	257.19
264.964	279.19
265.197	268.19
265.429	275.19
265.661	289.19
265.894	285.19
266.126	268.19
266.358	281.19
266.591	292.19
266.823	287.19
267.055	259.19
267.287	284.19
267.52	290.19
267.752	283.19
267.984	288.19
268.216	280.19
268.448	310.19
268.681	272.19
268.913	285.19
269.145	287.19
269.377	278.19
269.609	292.19
269.841	303.19
270.073	282.19
270.306	303.19
270.538	294.19
270.77	281.19
271.002	300.19
271.234	311.19
271.466	305.19
271.698	299.19
271.93	310.19
272.162	303.19
272.394	309.19
272.626	325.19
272.858	309.19
273.09	307.19
273.322	321.19
273.553	302.19
273.785	320.19
274.017	311.19
274.249	316.19
274.481	295.19
274.713	323.19
274.945	319.19
275.176	325.19
275.408	337.19
275.64	331.19
275.872	315.19
276.104	325.19
276.335	317.19
276.567	332.19
276.799	329.19
277.031	327.19
277.262	358.19
277.494	321.19
277.726	336.19
277.957	313.19
278.189	331.19
278.421	321.19
278.652	336.19
278.884	343.19
279.115	338.19
279.347	359.19
279.579	341.19
279.81	346.19
280.042	335.19
280.273	337.19
280.505	337.19
280.736	358.19
280.968	346.19
281.199	360.19
281.431	349.19
281.662	354.19
281.894	353.19
282.125	367.19
282.356	357.19
282.588	369.19
282.819	368.19
283.051	357.19
283.282	378.19
283.513	369.19
283.745	351.19
283.976	371.19
284.207	373.19
284.439	383.19
284.67	381.19
284.901	390.19
285.132	378.19
285.364	377.19
285.595	369.19
285.826	391.19
286.057	361.19
286.288	386.19
286.52	370.19
286.751	386.19
286.982	378.19
287.213	394.19
287.444	392.19
287.675	387.19
287.906	399.19
288.138	391.19
288.369	383.19
288.6	385.19
288.831	411.19
289.062	402.19
289.293	402.19
289.524	395.19
289.755	412.19
289.986	408.19
290.217	401.19
290.448	402.19
290.679	401.19
290.91	430.19
291.141	406.19
291.371	437.19
291.602	426.19
291.833	397.19
292.064	399.19
292.295	409.19
292.526	420.19
292.757	393.19
292.987	424.19
293.218	409.19
293.449	404.19
293.68	418.19
293.91	408.19
294.141	413.19
294.372	385.19
294.603	431.19
294.833	407.19
295.064	395.19
295.295	407.19
295.525	438.19
295.756	421.19
295.987	409.19
296.217	421.19
296.448	423.19
296.679	443.19
296.909	409.19
297.14	459.19
297.37	442.19
297.601	431.19
297.831	431.19
298.062	422.19
298.292	443.19
298.523	465.19
298.753	453.19
298.984	459.19
299.214	435.19
299.445	438.19
299.675	461.19
299.905	449.19
300.136	453.19
300.366	445.19
300.597	450.19
300.827	472.19
301.057	469.19
301.288	479.19
301.518	472.19
301.748	471.19
301.979	469.19
302.209	449.19
302.439	464.19
302.669	465.19
302.9	457.19
303.13	451.19
303.36	456.19
303.59	450.19
303.82	456.19
304.051	459.19
304.281	434.19
304.511	460.19
304.741	467.19
304.971	457.19
305.201	449.19
305.431	469.19
305.661	456.19
305.891	460.19
306.121	457.19
306.352	460.19
306.582	467.19
306.812	460.19
307.042	443.19
307.272	454.19
307.502	436.19
307.731	452.19
307.961	438.19
308.191	454.19
308.421	450.19
308.651	467.19
308.881	438.19
309.111	456.19
309.341	452.19
309.571	464.19
309.8	446.19
310.03	483.19
310.26	456.19
310.49	451.19
310.72	456.19
310.949	455.19
311.179	465.19
311.409	461.19
311.639	466.19
311.868	453.19
312.098	477.19
312.328	466.19
312.557	480.19
312.787	472.19
313.017	457.19
313.246	480.19
313.476	497.19
313.706	506.19
313.935	491.19
314.165	496.19
314.394	491.19
314.624	475.19
314.853	484.19
315.083	500.19
315.312	484.19
315.542	491.19
315.771	477.19
316.001	459.19
316.23	471.19
316.46	457.19
316.689	479.19
316.919	479.19
317.148	455.19
317.377	490.19
317.607	478.19
317.836	472.19
318.065	469.19
318.295	465.19
318.524	437.19
318.753	486.19
318.983	488.19
319.212	464.19
319.441	456.19
319.67	459.19
319.9	467.19
320.129	462.19
320.358	457.19
320.587	476.19
320.816	475.19
321.046	489.19
321.275	459.19
321.504	472.19
321.733	472.19
321.962	451.19
322.191	476.19
322.42	467.19
322.649	486.19
322.878	465.19
323.108	477.19
323.337	473.19
323.566	483.19
323.795	477.19
324.024	489.19
324.253	484.19
324.482	495.19
324.71	482.19
324.939	495.19
325.168	488.19
325.397	495.19
325.626	497.19
325.855	485.19
326.084	522.19
326.313	515.19
326.542	522.19
326.77	526.19
326.999	547.19
327.228	499.19
327.457	502.19
327.686	491.19
327.914	507.19
328.143	533.19
328.372	506.19
328.6	528.19
328.829	542.19
329.058	499.19
329.287	525.19
329.515	523.19
329.744	527.19
329.972	509.19
330.201	527.19
330.43	534.19
330.658	526.19
330.887	557.19
331.115	540.19
331.344	553.19
331.572	552.19
331.801	567.19
332.03	583.19
332.258	581.19
332.486	602.19
332.715	596.19
332.943	650.19
333.172	640.19
333.4	697.19
333.629	701.19
333.857	709.19
334.085	682.19
334.314	693.19
334.542	659.19
334.771	645.19
334.999	663.19
335.227	645.19
335.455	637.19
335.684	621.19
335.912	633.19
336.14	621.19
336.369	633.19
336.597	613.19
336.825	639.19
337.053	618.19
337.281	629.19
337.51	594.19
337.738	583.19
337.966	589.19
338.194	577.19
338.422	580.19
338.65	566.19
338.878	578.19
339.106	583.19
339.334	553.19
339.562	537.19
339.79	548.19
340.018	554.19
340.246	521.19
340.474	551.19
340.702	534.19
340.93	542.19
341.158	542.19
341.386	541.19
341.614	541.19
341.842	557.19
342.07	523.19
342.298	522.19
342.526	530.19
342.754	549.19
342.981	538.19
343.209	574.19
343.437	564.19
343.665	609.19
343.893	659.19
344.12	685.19
344.348	649.19
344.576	604.19
344.804	586.19
345.031	579.19
345.259	589.19
345.487	523.19
345.714	548.19
345.942	555.19
346.17	550.19
346.397	559.19
346.625	546.19
346.853	528.19
347.08	551.19
347.308	542.19
347.535	532.19
347.763	557.19
347.99	567.19
348.218	563.19
348.445	554.19
348.673	536.19
348.9	530.19
349.128	545.19
349.355	544.19
349.583	538.19
349.81	531.19
350.037	517.19
350.265	523.19
350.492	495.19
350.72	510.19
350.947	497.19
351.174	531.19
351.402	529.19
351.629	515.19
351.856	505.19
352.083	509.19
352.311	488.19
352.538	524.19
352.765	519.19
352.992	510.19
353.22	496.19
353.447	513.19
353.674	490.19
353.901	524.19
354.128	515.19
354.355	487.19
354.583	517.19
354.81	507.19
355.037	529.19
355.264	480.19
355.491	511.19
355.718	516.19
355.945	500.19
356.172	527.19
356.399	526.19
356.626	506.19
356.853	507.19
357.08	518.19
357.307	501.19
357.534	518.19
357.761	517.19
357.988	505.19
358.215	522.19
358.441	509.19
358.668	507.19
358.895	497.19
359.122	474.19
359.349	499.19
359.576	515.19
359.802	518.19
360.029	495.19
360.256	512.19
360.483	514.19
360.709	490.19
360.936	531.19
361.163	526.19
361.39	502.19
361.616	519.19
361.843	511.19
362.07	520.19
362.296	499.19
362.523	513.19
362.749	501.19
362.976	489.19
363.203	523.19
363.429	518.19
363.656	496.19
363.882	500.19
364.109	498.19
364.335	482.19
364.562	497.19
364.788	511.19
365.015	517.19
365.241	494.19
365.468	472.19
365.694	499.19
365.92	495.19
366.147	509.19
366.373	501.19
366.599	517.19
366.826	498.19
367.052	505.19
367.278	520.19
367.505	501.19
367.731	509.19
367.957	513.19
368.184	521.19
368.41	496.19
368.636	524.19
368.862	534.19
369.089	526.19
369.315	539.19
369.541	530.19
369.767	522.19
369.993	529.19
370.219	538.19
370.445	531.19
370.672	535.19
370.898	554.19
371.124	540.19
371.35	553.19
371.576	554.19
371.802	557.19
372.028	543.19
372.254	552.19
372.48	574.19
372.706	572.19
372.932	569.19
373.158	587.19
373.384	578.19
373.61	565.19
373.835	562.19
374.061	568.19
374.287	579.19
374.513	583.19
374.739	584.19
374.965	609.19
375.191	609.19
375.416	621.19
375.642	615.19
375.868	613.19
376.094	586.19
376.319	580.19
376.545	569.19
376.771	553.19
376.997	593.19
377.222	574.19
377.448	561.19
377.674	588.19
377.899	576.19
378.125	555.19
378.35	548.19
378.576	555.19
378.802	560.19
379.027	539.19
379.253	546.19
379.478	564.19
379.704	544.19
379.929	531.19
380.155	537.19
380.38	552.19
380.606	563.19
380.831	560.19
381.057	538.19
381.282	557.19
381.507	552.19
381.733	574.19
381.958	571.19
382.184	558.19
382.409	597.19
382.634	567.19
382.86	593.19
383.085	606.19
383.31	594.19
383.535	608.19
383.761	626.19
383.986	618.19
384.211	643.19
384.436	649.19
384.662	646.19
384.887	658.19
385.112	652.19
385.337	699.19
385.562	666.19
385.787	672.19
386.013	662.19
386.238	677.19
386.463	671.19
386.688	657.19
386.913	643.19
387.138	677.19
387.363	649.19
387.588	632.19
387.813	671.19
388.038	649.19
388.263	627.19
388.488	682.19
388.713	641.19
388.938	655.19
389.163	630.19
389.387	649.19
389.612	638.19
389.837	625.19
390.062	644.19
390.287	643.19
390.512	657.19
390.736	643.19
390.961	676.19
391.186	698.19
391.411	710.19
391.636	729.19
391.86	770.19
392.085	785.19
392.31	750.19
392.534	745.19
392.759	712.19
392.984	725.19
393.208	712.19
393.433	705.19
393.658	725.19
393.882	703.19
394.107	718.19
394.331	703.19
394.556	715.19
394.78	713.19
395.005	706.19
395.229	722.19
395.454	745.19
395.678	753.19
395.903	738.19
396.127	706.19
396.352	726.19
396.576	695.19
396.801	688.19
397.025	698.19
397.249	715.19
397.474	741.19
397.698	758.19
397.922	736.19
398.147	729.19
398.371	737.19
398.595	791.19
398.82	819.19
399.044	879.19
399.268	954.19
399.492	1125.19
399.717	1329.19
399.941	1256.19
400.165	1101.19
400.389	985.19
400.613	898.19
400.837	838.19
401.062	842.19
401.286	825.19
401.51	841.19
401.734	808.19
401.958	832.19
402.182	834.19
402.406	855.19
402.63	839.19
402.854	899.19
403.078	898.19
403.302	917.19
403.526	970.19
403.75	964.19
403.974	1008.19
404.198	996.19
404.422	1003.19
404.645	951.19
404.869	983.19
405.093	955.19
405.317	915.19
405.541	937.19
405.765	918.19
405.988	891.19
406.212	903.19
406.436	914.19
406.66	955.19
406.883	934.19
407.107	997.19
407.331	1071.19
407.555	1090.19
407.778	1097.19
408.002	1067.19
408.226	1003.19
408.449	1011.19
408.673	960.19
408.896	938.19
409.12	923.19
409.344	953.19
409.567	942.19
409.791	964.19
410.014	968.19
410.238	937.19
410.461	974.19
410.685	926.19
410.908	894.19
411.132	907.19
411.355	904.19
411.578	880.19
411.802	864.19
412.025	911.19
412.249	906.19
412.472	884.19
412.695	831.19
412.919	854.19
413.142	810.19
413.365	822.19
413.589	820.19
413.812	821.19
414.035	821.19
414.258	822.19
414.482	830.19
414.705	851.19
414.928	874.19
415.151	839.19
415.374	821.19
415.597	864.19
415.821	799.19
416.044	818.19
416.267	832.19
416.49	798.19
416.713	825.19
416.936	831.19
417.159	826.19
417.382	842.19
417.605	849.19
417.828	874.19
418.051	838.19
418.274	837.19
418.497	842.19
418.72	849.19
418.943	851.19
419.166	911.19
419.389	947.19
419.611	940.19
419.834	900.19
420.057	869.19
420.28	817.19
420.503	830.19
420.726	817.19
420.948	829.19
421.171	823.19
421.394	817.19
421.617	807.19
421.839	783.19
422.062	835.19
422.285	843.19
422.507	865.19
422.73	871.19
422.953	848.19
423.175	877.19
423.398	886.19
423.621	888.19
423.843	897.19
424.066	889.19
424.288	901.19
424.511	878.19
424.733	846.19
424.956	853.19
425.178	847.19
425.401	847.19
425.623	859.19
425.846	809.19
426.068	807.19
426.291	800.19
426.513	803.19
426.735	772.19
426.958	789.19
427.18	753.19
427.402	766.19
427.625	751.19
427.847	719.19
428.069	734.19
428.292	734.19
428.514	756.19
428.736	743.19
428.958	746.19
429.181	725.19
429.403	715.19
429.625	731.19
429.847	725.19
430.069	729.19
430.292	738.19
430.514	681.19
430.736	713.19
430.958	728.19
431.18	712.19
431.402	735.19
431.624	719.19
431.846	721.19
432.068	749.19
432.29	739.19
432.512	730.19
432.734	721.19
432.956	738.19
433.178	749.19
433.4	757.19
433.622	737.19
433.844	757.19
434.066	760.19
434.287	778.19
434.509	805.19
434.731	799.19
434.953	861.19
435.175	851.19
435.397	860.19
435.618	775.19
435.84	784.19
436.062	761.19
436.284	730.19
436.505	769.19
436.727	775.19
436.949	758.19
437.17	741.19
437.392	748.19
437.614	738.19
437.835	726.19
438.057	729.19
438.278	712.19
438.5	703.19
438.721	713.19
438.943	734.19
439.165	703.19
439.386	747.19
439.608	743.19
439.829	746.19
440.05	743.19
440.272	772.19
440.493	757.19
440.715	791.19
440.936	793.19
441.158	795.19
441.379	806.19
441.6	858.19
441.822	855.19
442.043	886.19
442.264	845.19
442.486	804.19
442.707	810.19
442.928	823.19
443.149	804.19
443.371	811.19
443.592	839.19
443.813	838.19
444.034	833.19
444.255	873.19
444.476	931.19
444.698	989.19
444.919	999.19
445.14	1031.19
445.361	937.19
445.582	876.19
445.803	813.19
446.024	783.19
446.245	775.19
446.466	738.19
446.687	753.19
446.908	757.19
447.129	747.19
447.35	707.19
447.571	690.19
447.792	701.19
448.013	705.19
448.234	734.19
448.455	711.19
448.675	664.19
448.896	691.19
449.117	673.19
449.338	682.19
449.559	690.19
449.779	674.19
450	677.19
450.221	707.19
450.442	706.19
450.662	697.19
450.883	719.19
451.104	718.19
451.324	720.19
451.545	719.19
451.766	706.19
451.986	698.19
452.207	679.19
452.428	699.19
452.648	719.19
452.869	693.19
453.089	670.19
453.31	683.19
453.53	682.19
453.751	682.19
453.971	670.19
454.192	655.19
454.412	660.19
454.633	659.19
454.853	647.19
455.073	646.19
455.294	653.19
455.514	649.19
455.734	662.19
455.955	645.19
456.175	647.19
456.395	639.19
456.616	630.19
456.836	641.19
457.056	657.19
457.276	633.19
457.497	635.19
457.717	630.19
457.937	639.19
458.157	664.19
458.377	661.19
458.598	672.19
458.818	664.19
459.038	703.19
459.258	747.19
459.478	769.19
459.698	794.19
459.918	791.19
460.138	823.19
460.358	889.19
460.578	911.19
460.798	897.19
461.018	904.19
461.238	874.19
461.458	886.19
461.678	885.19
461.898	881.19
462.118	899.19
462.338	921.19
462.558	951.19
462.777	984.19
462.997	1096.19
463.217	1194.19
463.437	1225.19
463.657	1116.19
463.876	1069.19
464.096	1062.19
464.316	1066.19
464.536	1040.19
464.755	1013.19
464.975	988.19
465.195	935.19
465.414	877.19
465.634	820.19
465.854	795.19
466.073	769.19
466.293	771.19
466.512	771.19
466.732	754.19
466.951	722.19
467.171	725.19
467.391	727.19
467.61	727.19
467.829	706.19
468.049	705.19
468.268	719.19
468.488	699.19
468.707	680.19
468.927	694.19
469.146	685.19
469.365	705.19
469.585	728.19
469.804	725.19
470.023	769.19
470.243	752.19
470.462	751.19
470.681	761.19
470.901	760.19
471.12	729.19
471.339	744.19
471.558	724.19
471.777	709.19
471.997	682.19
472.216	689.19
472.435	694.19
472.654	691.19
472.873	680.19
473.092	654.19
473.311	670.19
473.53	669.19
473.749	677.19
473.968	685.19
474.187	679.19
474.406	662.19
474.625	673.19
474.844	689.19
475.063	680.19
475.282	689.19
475.501	691.19
475.72	694.19
475.939	697.19
476.158	687.19
476.377	721.19
476.596	705.19
476.814	701.19
477.033	736.19
477.252	742.19
477.471	758.19
477.69	757.19
477.908	771.19
478.127	792.19
478.346	807.19
478.564	822.19
478.783	795.19
479.002	864.19
479.22	842.19
479.439	846.19
479.658	838.19
479.876	836.19
480.095	838.19
480.313	874.19
480.532	901.19
480.751	901.19
480.969	831.19
481.188	809.19
481.406	825.19
481.624	794.19
481.843	788.19
482.061	767.19
482.28	754.19
482.498	783.19
482.717	774.19
482.935	769.19
483.153	758.19
483.372	761.19
483.59	788.19
483.808	801.19
484.027	769.19
484.245	785.19
484.463	766.19
484.681	813.19
484.9	801.19
485.118	804.19
485.336	815.19
485.554	810.19
485.772	853.19
485.99	833.19
486.209	849.19
486.427	850.19
486.645	825.19
486.863	836.19
487.081	850.19
487.299	827.19
487.517	828.19
487.735	825.19
487.953	818.19
488.171	809.19
488.389	815.19
488.607	819.19
488.825	808.19
489.043	826.19
489.261	824.19
489.479	828.19
489.696	805.19
489.914	818.19
490.132	847.19
490.35	813.19
490.568	821.19
490.786	816.19
491.003	813.19
491.221	857.19
491.439	810.19
491.657	817.19
491.874	820.19
492.092	789.19
492.31	806.19
492.527	843.19
492.745	804.19
492.963	825.19
493.18	842.19
493.398	841.19
493.615	848.19
493.833	841.19
494.05	846.19
494.268	851.19
494.485	895.19
494.703	867.19
494.92	856.19
495.138	862.19
495.355	859.19
495.573	855.19
495.79	853.19
496.008	859.19
496.225	878.19
496.442	865.19
496.66	875.19
496.877	874.19
497.094	901.19
497.312	925.19
497.529	938.19
497.746	952.19
497.963	1023.19
498.181	1030.19
498.398	1051.19
498.615	1106.19
498.832	1198.19
499.049	1295.19
499.267	1416.19
499.484	1523.19
499.701	1714.19
499.918	1914.19
500.135	2149.19
500.352	2580.19
500.569	2658.19
500.786	2675.19
501.003	2444.19
501.22	2133.19
