Data from Ni(NO3)2@0.25M.TitratingCurve.Agarose3%dH2O.NegLispCup.LampEnergy10.LIBS07252019_HRD10591_18-04-25-566.txt Node
Date: Thu Jul 25 18:04:25 EDT 2019
User: cochatt
Spectrometer: HR+D1059
Trigger mode: 1
Integration Time (sec): 1.000000E-1
Scans to average: 1
Electric dark correction enabled: true
Nonlinearity correction enabled: false
Boxcar width: 0
XAxis mode: Wavelengths
Number of Pixels in Spectrum: 2048
>>>>>Begin Spectral Data<<<<<
223.165	-16.31
223.4	-16.31
223.635	-16.31
223.869	-18.31
224.104	-21.31
224.338	-26.31
224.573	-4.31
224.808	-18.31
225.042	-2.31
225.277	-2.31
225.511	0.69
225.746	14.69
225.98	10.69
226.215	8.69
226.449	16.69
226.683	14.69
226.918	18.69
227.152	24.69
227.387	38.69
227.621	27.69
227.856	55.69
228.09	37.69
228.324	41.69
228.559	40.69
228.793	63.69
229.027	99.69
229.262	101.69
229.496	106.69
229.73	109.69
229.964	102.69
230.199	120.69
230.433	122.69
230.667	142.69
230.901	128.69
231.136	115.69
231.37	124.69
231.604	131.69
231.838	128.69
232.072	142.69
232.306	124.69
232.541	120.69
232.775	127.69
233.009	132.69
233.243	132.69
233.477	138.69
233.711	123.69
233.945	132.69
234.179	135.69
234.413	152.69
234.647	124.69
234.881	118.69
235.115	132.69
235.349	132.69
235.583	135.69
235.817	131.69
236.051	125.69
236.285	120.69
236.519	137.69
236.753	129.69
236.987	144.69
237.221	142.69
237.455	136.69
237.689	134.69
237.922	147.69
238.156	132.69
238.39	141.69
238.624	140.69
238.858	123.69
239.091	136.69
239.325	149.69
239.559	151.69
239.793	154.69
240.027	157.69
240.26	137.69
240.494	142.69
240.728	135.69
240.961	140.69
241.195	150.69
241.429	160.69
241.662	157.69
241.896	171.69
242.13	162.69
242.363	146.69
242.597	151.69
242.83	163.69
243.064	172.69
243.298	166.69
243.531	162.69
243.765	176.69
243.998	180.69
244.232	173.69
244.465	168.69
244.699	174.69
244.932	195.69
245.166	167.69
245.399	182.69
245.633	190.69
245.866	196.69
246.099	200.69
246.333	193.69
246.566	168.69
246.8	179.69
247.033	182.69
247.266	199.69
247.5	190.69
247.733	172.69
247.966	192.69
248.2	197.69
248.433	194.69
248.666	200.69
248.899	189.69
249.133	184.69
249.366	193.69
249.599	208.69
249.832	220.69
250.066	239.69
250.299	224.69
250.532	212.69
250.765	217.69
250.998	226.69
251.231	221.69
251.465	226.69
251.698	237.69
251.931	217.69
252.164	218.69
252.397	230.69
252.63	229.69
252.863	234.69
253.096	242.69
253.329	241.69
253.562	233.69
253.795	242.69
254.028	243.69
254.261	253.69
254.494	238.69
254.727	256.69
254.96	244.69
255.193	239.69
255.426	253.69
255.659	232.69
255.892	258.69
256.124	248.69
256.357	254.69
256.59	261.69
256.823	257.69
257.056	269.69
257.289	273.69
257.521	279.69
257.754	273.69
257.987	269.69
258.22	249.69
258.452	276.69
258.685	265.69
258.918	292.69
259.151	280.69
259.383	276.69
259.616	279.69
259.849	272.69
260.081	279.69
260.314	282.69
260.547	309.69
260.779	286.69
261.012	287.69
261.244	292.69
261.477	294.69
261.71	286.69
261.942	300.69
262.175	300.69
262.407	301.69
262.64	291.69
262.872	300.69
263.105	295.69
263.337	302.69
263.57	302.69
263.802	311.69
264.035	319.69
264.267	309.69
264.499	309.69
264.732	310.69
264.964	302.69
265.197	303.69
265.429	314.69
265.661	324.69
265.894	337.69
266.126	330.69
266.358	317.69
266.591	312.69
266.823	316.69
267.055	312.69
267.287	292.69
267.52	302.69
267.752	304.69
267.984	317.69
268.216	326.69
268.448	340.69
268.681	334.69
268.913	340.69
269.145	340.69
269.377	328.69
269.609	331.69
269.841	323.69
270.073	353.69
270.306	334.69
270.538	329.69
270.77	345.69
271.002	344.69
271.234	344.69
271.466	349.69
271.698	336.69
271.93	339.69
272.162	328.69
272.394	334.69
272.626	334.69
272.858	359.69
273.09	371.69
273.322	349.69
273.553	357.69
273.785	351.69
274.017	351.69
274.249	345.69
274.481	361.69
274.713	364.69
274.945	370.69
275.176	367.69
275.408	373.69
275.64	368.69
275.872	364.69
276.104	343.69
276.335	368.69
276.567	380.69
276.799	360.69
277.031	374.69
277.262	374.69
277.494	362.69
277.726	378.69
277.957	384.69
278.189	375.69
278.421	372.69
278.652	395.69
278.884	382.69
279.115	380.69
279.347	384.69
279.579	387.69
279.81	375.69
280.042	405.69
280.273	377.69
280.505	376.69
280.736	391.69
280.968	412.69
281.199	398.69
281.431	406.69
281.662	400.69
281.894	405.69
282.125	400.69
282.356	395.69
282.588	404.69
282.819	396.69
283.051	412.69
283.282	401.69
283.513	412.69
283.745	418.69
283.976	406.69
284.207	422.69
284.439	415.69
284.67	437.69
284.901	410.69
285.132	432.69
285.364	432.69
285.595	408.69
285.826	405.69
286.057	417.69
286.288	440.69
286.52	422.69
286.751	438.69
286.982	426.69
287.213	425.69
287.444	450.69
287.675	444.69
287.906	440.69
288.138	422.69
288.369	421.69
288.6	409.69
288.831	446.69
289.062	440.69
289.293	452.69
289.524	448.69
289.755	442.69
289.986	446.69
290.217	425.69
290.448	448.69
290.679	464.69
290.91	456.69
291.141	442.69
291.371	430.69
291.602	436.69
291.833	434.69
292.064	448.69
292.295	463.69
292.526	440.69
292.757	438.69
292.987	435.69
293.218	424.69
293.449	458.69
293.68	445.69
293.91	454.69
294.141	450.69
294.372	442.69
294.603	431.69
294.833	443.69
295.064	462.69
295.295	443.69
295.525	456.69
295.756	448.69
295.987	451.69
296.217	451.69
296.448	461.69
296.679	451.69
296.909	452.69
297.14	462.69
297.37	494.69
297.601	480.69
297.831	455.69
298.062	479.69
298.292	498.69
298.523	482.69
298.753	498.69
298.984	505.69
299.214	494.69
299.445	481.69
299.675	478.69
299.905	478.69
300.136	485.69
300.366	498.69
300.597	507.69
300.827	526.69
301.057	512.69
301.288	497.69
301.518	512.69
301.748	498.69
301.979	513.69
302.209	505.69
302.439	526.69
302.669	497.69
302.9	502.69
303.13	505.69
303.36	485.69
303.59	520.69
303.82	520.69
304.051	538.69
304.281	512.69
304.511	522.69
304.741	521.69
304.971	511.69
305.201	522.69
305.431	539.69
305.661	508.69
305.891	489.69
306.121	522.69
306.352	492.69
306.582	517.69
306.812	500.69
307.042	488.69
307.272	497.69
307.502	482.69
307.731	527.69
307.961	518.69
308.191	502.69
308.421	503.69
308.651	494.69
308.881	496.69
309.111	521.69
309.341	504.69
309.571	533.69
309.8	516.69
310.03	532.69
310.26	530.69
310.49	529.69
310.72	505.69
310.949	520.69
311.179	514.69
311.409	520.69
311.639	545.69
311.868	526.69
312.098	536.69
312.328	548.69
312.557	543.69
312.787	548.69
313.017	549.69
313.246	554.69
313.476	543.69
313.706	551.69
313.935	526.69
314.165	568.69
314.394	545.69
314.624	553.69
314.853	538.69
315.083	564.69
315.312	554.69
315.542	547.69
315.771	548.69
316.001	559.69
316.23	537.69
316.46	566.69
316.689	566.69
316.919	549.69
317.148	568.69
317.377	560.69
317.607	561.69
317.836	538.69
318.065	549.69
318.295	586.69
318.524	569.69
318.753	569.69
318.983	545.69
319.212	554.69
319.441	565.69
319.67	565.69
319.9	587.69
320.129	583.69
320.358	582.69
320.587	546.69
320.816	580.69
321.046	590.69
321.275	604.69
321.504	600.69
321.733	584.69
321.962	578.69
322.191	588.69
322.42	618.69
322.649	589.69
322.878	591.69
323.108	609.69
323.337	625.69
323.566	595.69
323.795	613.69
324.024	634.69
324.253	626.69
324.482	620.69
324.71	621.69
324.939	644.69
325.168	622.69
325.397	642.69
325.626	618.69
325.855	644.69
326.084	645.69
326.313	644.69
326.542	651.69
326.77	662.69
326.999	653.69
327.228	653.69
327.457	670.69
327.686	658.69
327.914	662.69
328.143	646.69
328.372	671.69
328.6	684.69
328.829	662.69
329.058	654.69
329.287	662.69
329.515	677.69
329.744	682.69
329.972	682.69
330.201	658.69
330.43	690.69
330.658	693.69
330.887	712.69
331.115	704.69
331.344	680.69
331.572	702.69
331.801	726.69
332.03	735.69
332.258	738.69
332.486	791.69
332.715	753.69
332.943	792.69
333.172	813.69
333.4	822.69
333.629	840.69
333.857	858.69
334.085	853.69
334.314	867.69
334.542	840.69
334.771	853.69
334.999	850.69
335.227	872.69
335.455	851.69
335.684	846.69
335.912	845.69
336.14	843.69
336.369	872.69
336.597	865.69
336.825	873.69
337.053	863.69
337.281	849.69
337.51	823.69
337.738	776.69
337.966	777.69
338.194	798.69
338.422	794.69
338.65	771.69
338.878	768.69
339.106	760.69
339.334	749.69
339.562	763.69
339.79	754.69
340.018	724.69
340.246	732.69
340.474	769.69
340.702	727.69
340.93	753.69
341.158	770.69
341.386	763.69
341.614	772.69
341.842	752.69
342.07	697.69
342.298	734.69
342.526	732.69
342.754	733.69
342.981	752.69
343.209	759.69
343.437	798.69
343.665	820.69
343.893	825.69
344.12	828.69
344.348	824.69
344.576	842.69
344.804	841.69
345.031	779.69
345.259	780.69
345.487	749.69
345.714	753.69
345.942	736.69
346.17	760.69
346.397	753.69
346.625	745.69
346.853	696.69
347.08	724.69
347.308	720.69
347.535	729.69
347.763	733.69
347.99	719.69
348.218	719.69
348.445	709.69
348.673	720.69
348.9	710.69
349.128	699.69
349.355	730.69
349.583	720.69
349.81	720.69
350.037	701.69
350.265	697.69
350.492	688.69
350.72	678.69
350.947	686.69
351.174	722.69
351.402	725.69
351.629	727.69
351.856	708.69
352.083	702.69
352.311	727.69
352.538	708.69
352.765	733.69
352.992	696.69
353.22	688.69
353.447	678.69
353.674	672.69
353.901	679.69
354.128	662.69
354.355	682.69
354.583	699.69
354.81	692.69
355.037	677.69
355.264	662.69
355.491	663.69
355.718	686.69
355.945	688.69
356.172	675.69
356.399	697.69
356.626	695.69
356.853	709.69
357.08	713.69
357.307	706.69
357.534	668.69
357.761	680.69
357.988	675.69
358.215	695.69
358.441	675.69
358.668	692.69
358.895	709.69
359.122	694.69
359.349	676.69
359.576	675.69
359.802	675.69
360.029	701.69
360.256	688.69
360.483	707.69
360.709	693.69
360.936	704.69
361.163	696.69
361.39	670.69
361.616	695.69
361.843	688.69
362.07	744.69
362.296	705.69
362.523	694.69
362.749	693.69
362.976	695.69
363.203	679.69
363.429	672.69
363.656	692.69
363.882	692.69
364.109	674.69
364.335	692.69
364.562	686.69
364.788	677.69
365.015	678.69
365.241	681.69
365.468	709.69
365.694	685.69
365.92	658.69
366.147	668.69
366.373	700.69
366.599	669.69
366.826	668.69
367.052	701.69
367.278	691.69
367.505	686.69
367.731	673.69
367.957	700.69
368.184	656.69
368.41	672.69
368.636	692.69
368.862	681.69
369.089	704.69
369.315	706.69
369.541	701.69
369.767	713.69
369.993	705.69
370.219	714.69
370.445	713.69
370.672	713.69
370.898	709.69
371.124	700.69
371.35	752.69
371.576	719.69
371.802	724.69
372.028	712.69
372.254	737.69
372.48	743.69
372.706	758.69
372.932	751.69
373.158	758.69
373.384	742.69
373.61	731.69
373.835	766.69
374.061	722.69
374.287	737.69
374.513	776.69
374.739	782.69
374.965	758.69
375.191	796.69
375.416	804.69
375.642	745.69
375.868	774.69
376.094	750.69
376.319	715.69
376.545	741.69
376.771	728.69
376.997	732.69
377.222	741.69
377.448	704.69
377.674	710.69
377.899	704.69
378.125	727.69
378.35	729.69
378.576	719.69
378.802	698.69
379.027	713.69
379.253	722.69
379.478	698.69
379.704	707.69
379.929	694.69
380.155	738.69
380.38	710.69
380.606	729.69
380.831	702.69
381.057	738.69
381.282	704.69
381.507	725.69
381.733	710.69
381.958	710.69
382.184	698.69
382.409	717.69
382.634	713.69
382.86	751.69
383.085	732.69
383.31	759.69
383.535	742.69
383.761	764.69
383.986	774.69
384.211	808.69
384.436	790.69
384.662	796.69
384.887	789.69
385.112	796.69
385.337	821.69
385.562	827.69
385.787	820.69
386.013	863.69
386.238	857.69
386.463	816.69
386.688	840.69
386.913	837.69
387.138	821.69
387.363	870.69
387.588	823.69
387.813	840.69
388.038	814.69
388.263	833.69
388.488	838.69
388.713	825.69
388.938	836.69
389.163	828.69
389.387	852.69
389.612	860.69
389.837	848.69
390.062	829.69
390.287	831.69
390.512	818.69
390.736	834.69
390.961	871.69
391.186	853.69
391.411	886.69
391.636	901.69
391.86	883.69
392.085	925.69
392.31	908.69
392.534	932.69
392.759	940.69
392.984	920.69
393.208	877.69
393.433	908.69
393.658	894.69
393.882	907.69
394.107	892.69
394.331	888.69
394.556	887.69
394.78	910.69
395.005	906.69
395.229	915.69
395.454	910.69
395.678	914.69
395.903	922.69
396.127	941.69
396.352	916.69
396.576	898.69
396.801	906.69
397.025	922.69
397.249	958.69
397.474	953.69
397.698	977.69
397.922	960.69
398.147	953.69
398.371	981.69
398.595	1017.69
398.82	1040.69
399.044	1079.69
399.268	1160.69
399.492	1239.69
399.717	1346.69
399.941	1362.69
400.165	1285.69
400.389	1222.69
400.613	1180.69
400.837	1113.69
401.062	1104.69
401.286	1086.69
401.51	1060.69
401.734	1038.69
401.958	1088.69
402.182	1041.69
402.406	1054.69
402.63	1062.69
402.854	1114.69
403.078	1052.69
403.302	1083.69
403.526	1085.69
403.75	1134.69
403.974	1126.69
404.198	1095.69
404.422	1141.69
404.645	1161.69
404.869	1076.69
405.093	1134.69
405.317	1111.69
405.541	1124.69
405.765	1135.69
405.988	1114.69
406.212	1154.69
406.436	1180.69
406.66	1161.69
406.883	1171.69
407.107	1203.69
407.331	1261.69
407.555	1342.69
407.778	1281.69
408.002	1279.69
408.226	1261.69
408.449	1250.69
408.673	1206.69
408.896	1184.69
409.12	1218.69
409.344	1180.69
409.567	1166.69
409.791	1176.69
410.014	1169.69
410.238	1162.69
410.461	1160.69
410.685	1175.69
410.908	1120.69
411.132	1133.69
411.355	1097.69
411.578	1106.69
411.802	1113.69
412.025	1128.69
412.249	1160.69
412.472	1106.69
412.695	1100.69
412.919	1099.69
413.142	1091.69
413.365	1107.69
413.589	1094.69
413.812	1082.69
414.035	1055.69
414.258	1070.69
414.482	1072.69
414.705	1101.69
414.928	1090.69
415.151	1108.69
415.374	1085.69
415.597	1058.69
415.821	1080.69
416.044	1068.69
416.267	1054.69
416.49	1045.69
416.713	1038.69
416.936	1082.69
417.159	1039.69
417.382	1040.69
417.605	1034.69
417.828	1035.69
418.051	1068.69
418.274	1052.69
418.497	1040.69
418.72	1068.69
418.943	1078.69
419.166	1128.69
419.389	1182.69
419.611	1200.69
419.834	1138.69
420.057	1103.69
420.28	1078.69
420.503	1049.69
420.726	1030.69
420.948	1036.69
421.171	1056.69
421.394	1063.69
421.617	1042.69
421.839	1061.69
422.062	1070.69
422.285	1042.69
422.507	1065.69
422.73	1063.69
422.953	1056.69
423.175	1046.69
423.398	1065.69
423.621	1079.69
423.843	1077.69
424.066	1077.69
424.288	1075.69
424.511	1072.69
424.733	1085.69
424.956	1038.69
425.178	1068.69
425.401	1086.69
425.623	1054.69
425.846	1047.69
426.068	1040.69
426.291	1025.69
426.513	1030.69
426.735	1049.69
426.958	1040.69
427.18	996.69
427.402	1018.69
427.625	1031.69
427.847	996.69
428.069	999.69
428.292	966.69
428.514	990.69
428.736	1014.69
428.958	988.69
429.181	975.69
429.403	978.69
429.625	1007.69
429.847	1006.69
430.069	988.69
430.292	1014.69
430.514	966.69
430.736	971.69
430.958	981.69
431.18	1015.69
431.402	1007.69
431.624	977.69
431.846	986.69
432.068	999.69
432.29	970.69
432.512	1004.69
432.734	1021.69
432.956	1007.69
433.178	998.69
433.4	1024.69
433.622	1031.69
433.844	1030.69
434.066	1021.69
434.287	1020.69
434.509	1042.69
434.731	1055.69
434.953	1083.69
435.175	1089.69
435.397	1064.69
435.618	1034.69
435.84	1041.69
436.062	1017.69
436.284	1009.69
436.505	1024.69
436.727	995.69
436.949	992.69
437.17	1018.69
437.392	995.69
437.614	984.69
437.835	975.69
438.057	973.69
438.278	975.69
438.5	964.69
438.721	959.69
438.943	969.69
439.165	983.69
439.386	975.69
439.608	972.69
439.829	990.69
440.05	1006.69
440.272	1024.69
440.493	1039.69
440.715	1026.69
440.936	1027.69
441.158	1052.69
441.379	1069.69
441.6	1125.69
441.822	1094.69
442.043	1078.69
442.264	1080.69
442.486	1066.69
442.707	1125.69
442.928	1073.69
443.149	1068.69
443.371	1058.69
443.592	1066.69
443.813	1133.69
444.034	1089.69
444.255	1144.69
444.476	1161.69
444.698	1174.69
444.919	1210.69
445.14	1294.69
445.361	1189.69
445.582	1140.69
445.803	1092.69
446.024	1057.69
446.245	1056.69
446.466	1054.69
446.687	989.69
446.908	1039.69
447.129	1016.69
447.35	960.69
447.571	988.69
447.792	986.69
448.013	970.69
448.234	962.69
448.455	948.69
448.675	937.69
448.896	954.69
449.117	913.69
449.338	961.69
449.559	919.69
449.779	894.69
450	917.69
450.221	934.69
450.442	952.69
450.662	935.69
450.883	934.69
451.104	955.69
451.324	940.69
451.545	915.69
451.766	949.69
451.986	912.69
452.207	903.69
452.428	929.69
452.648	916.69
452.869	898.69
453.089	910.69
453.31	893.69
453.53	899.69
453.751	889.69
453.971	869.69
454.192	898.69
454.412	872.69
454.633	883.69
454.853	884.69
455.073	877.69
455.294	880.69
455.514	873.69
455.734	858.69
455.955	855.69
456.175	873.69
456.395	864.69
456.616	874.69
456.836	879.69
457.056	844.69
457.276	848.69
457.497	885.69
457.717	883.69
457.937	868.69
458.157	904.69
458.377	938.69
458.598	921.69
458.818	929.69
459.038	949.69
459.258	976.69
459.478	1008.69
459.698	1018.69
459.918	1049.69
460.138	1095.69
460.358	1092.69
460.578	1119.69
460.798	1113.69
461.018	1140.69
461.238	1120.69
461.458	1148.69
461.678	1117.69
461.898	1151.69
462.118	1183.69
462.338	1199.69
462.558	1264.69
462.777	1267.69
462.997	1353.69
463.217	1379.69
463.437	1375.69
463.657	1350.69
463.876	1342.69
464.096	1332.69
464.316	1300.69
464.536	1287.69
464.755	1238.69
464.975	1233.69
465.195	1141.69
465.414	1112.69
465.634	1057.69
465.854	1054.69
466.073	1038.69
466.293	1012.69
466.512	1006.69
466.732	978.69
466.951	997.69
467.171	997.69
467.391	995.69
467.61	980.69
467.829	971.69
468.049	956.69
468.268	964.69
468.488	943.69
468.707	941.69
468.927	933.69
469.146	942.69
469.365	953.69
469.585	967.69
469.804	958.69
470.023	1006.69
470.243	971.69
470.462	966.69
470.681	992.69
470.901	977.69
471.12	978.69
471.339	977.69
471.558	974.69
471.777	981.69
471.997	952.69
472.216	942.69
472.435	916.69
472.654	937.69
472.873	909.69
473.092	933.69
473.311	926.69
473.53	934.69
473.749	928.69
473.968	914.69
474.187	916.69
474.406	926.69
474.625	878.69
474.844	959.69
475.063	921.69
475.282	932.69
475.501	950.69
475.72	956.69
475.939	942.69
476.158	952.69
476.377	974.69
476.596	972.69
476.814	962.69
477.033	982.69
477.252	983.69
477.471	1025.69
477.69	1010.69
477.908	1025.69
478.127	1073.69
478.346	1070.69
478.564	1091.69
478.783	1097.69
479.002	1111.69
479.22	1150.69
479.439	1120.69
479.658	1108.69
479.876	1100.69
480.095	1112.69
480.313	1156.69
480.532	1147.69
480.751	1132.69
480.969	1112.69
481.188	1108.69
481.406	1082.69
481.624	1063.69
481.843	1090.69
482.061	1078.69
482.28	1054.69
482.498	1070.69
482.717	1056.69
482.935	1033.69
483.153	1056.69
483.372	1080.69
483.59	1104.69
483.808	1085.69
484.027	1060.69
484.245	1048.69
484.463	1102.69
484.681	1080.69
484.9	1091.69
485.118	1106.69
485.336	1090.69
485.554	1108.69
485.772	1109.69
485.99	1107.69
486.209	1113.69
486.427	1090.69
486.645	1103.69
486.863	1110.69
487.081	1123.69
487.299	1104.69
487.517	1105.69
487.735	1133.69
487.953	1116.69
488.171	1099.69
488.389	1099.69
488.607	1084.69
488.825	1072.69
489.043	1086.69
489.261	1096.69
489.479	1056.69
489.696	1085.69
489.914	1084.69
490.132	1110.69
490.35	1106.69
490.568	1161.69
490.786	1112.69
491.003	1136.69
491.221	1140.69
491.439	1131.69
491.657	1132.69
491.874	1142.69
492.092	1165.69
492.31	1141.69
492.527	1143.69
492.745	1194.69
492.963	1176.69
493.18	1176.69
493.398	1156.69
493.615	1184.69
493.833	1158.69
494.05	1171.69
494.268	1187.69
494.485	1203.69
494.703	1196.69
494.92	1204.69
495.138	1218.69
495.355	1189.69
495.573	1234.69
495.79	1253.69
496.008	1247.69
496.225	1220.69
496.442	1258.69
496.66	1272.69
496.877	1311.69
497.094	1285.69
497.312	1333.69
