Data from Ni(NO3)2@0.25M.TitratingCurve.Agarose3%dH2O.NegLispCup.LampEnergy10.LIBS07252019_HRD10591_18-03-17-566.txt Node
Date: Thu Jul 25 18:03:17 EDT 2019
User: cochatt
Spectrometer: HR+D1059
Trigger mode: 1
Integration Time (sec): 1.000000E-1
Scans to average: 1
Electric dark correction enabled: true
Nonlinearity correction enabled: false
Boxcar width: 0
XAxis mode: Wavelengths
Number of Pixels in Spectrum: 2048
>>>>>Begin Spectral Data<<<<<
223.165	-12.38
223.4	-12.38
223.635	-12.38
223.869	-9.38
224.104	-23.38
224.338	-10.38
224.573	-0.38
224.808	-12.38
225.042	-11.38
225.277	-8.38
225.511	-8.38
225.746	4.62
225.98	7.62
226.215	-3.38
226.449	15.62
226.683	19.62
226.918	19.62
227.152	32.62
227.387	33.62
227.621	29.62
227.856	38.62
228.09	40.62
228.324	67.62
228.559	49.62
228.793	59.62
229.027	115.62
229.262	104.62
229.496	109.62
229.73	104.62
229.964	125.62
230.199	140.62
230.433	135.62
230.667	139.62
230.901	137.62
231.136	122.62
231.37	129.62
231.604	132.62
231.838	146.62
232.072	146.62
232.306	149.62
232.541	141.62
232.775	135.62
233.009	151.62
233.243	139.62
233.477	121.62
233.711	131.62
233.945	139.62
234.179	135.62
234.413	149.62
234.647	131.62
234.881	149.62
235.115	138.62
235.349	127.62
235.583	148.62
235.817	128.62
236.051	134.62
236.285	145.62
236.519	141.62
236.753	141.62
236.987	148.62
237.221	142.62
237.455	142.62
237.689	149.62
237.922	131.62
238.156	151.62
238.39	136.62
238.624	151.62
238.858	145.62
239.091	142.62
239.325	140.62
239.559	147.62
239.793	159.62
240.027	164.62
240.26	143.62
240.494	142.62
240.728	156.62
240.961	153.62
241.195	159.62
241.429	156.62
241.662	175.62
241.896	197.62
242.13	189.62
242.363	179.62
242.597	158.62
242.83	169.62
243.064	166.62
243.298	164.62
243.531	172.62
243.765	168.62
243.998	160.62
244.232	184.62
244.465	180.62
244.699	172.62
244.932	167.62
245.166	180.62
245.399	171.62
245.633	177.62
245.866	184.62
246.099	178.62
246.333	194.62
246.566	179.62
246.8	186.62
247.033	190.62
247.266	187.62
247.5	187.62
247.733	215.62
247.966	207.62
248.2	233.62
248.433	218.62
248.666	204.62
248.899	212.62
249.133	235.62
249.366	237.62
249.599	223.62
249.832	233.62
250.066	239.62
250.299	246.62
250.532	231.62
250.765	257.62
250.998	268.62
251.231	268.62
251.465	300.62
251.698	271.62
251.931	270.62
252.164	258.62
252.397	269.62
252.63	289.62
252.863	301.62
253.096	285.62
253.329	293.62
253.562	298.62
253.795	304.62
254.028	293.62
254.261	300.62
254.494	314.62
254.727	323.62
254.96	327.62
255.193	339.62
255.426	328.62
255.659	332.62
255.892	334.62
256.124	325.62
256.357	328.62
256.59	342.62
256.823	330.62
257.056	346.62
257.289	364.62
257.521	325.62
257.754	372.62
257.987	362.62
258.22	375.62
258.452	373.62
258.685	368.62
258.918	388.62
259.151	382.62
259.383	386.62
259.616	370.62
259.849	389.62
260.081	382.62
260.314	388.62
260.547	401.62
260.779	393.62
261.012	396.62
261.244	403.62
261.477	408.62
261.71	426.62
261.942	406.62
262.175	395.62
262.407	420.62
262.64	427.62
262.872	431.62
263.105	431.62
263.337	420.62
263.57	419.62
263.802	421.62
264.035	442.62
264.267	438.62
264.499	448.62
264.732	432.62
264.964	455.62
265.197	439.62
265.429	449.62
265.661	457.62
265.894	438.62
266.126	466.62
266.358	461.62
266.591	449.62
266.823	448.62
267.055	470.62
267.287	467.62
267.52	465.62
267.752	435.62
267.984	458.62
268.216	460.62
268.448	481.62
268.681	469.62
268.913	471.62
269.145	475.62
269.377	456.62
269.609	468.62
269.841	479.62
270.073	466.62
270.306	460.62
270.538	460.62
270.77	480.62
271.002	479.62
271.234	471.62
271.466	486.62
271.698	503.62
271.93	487.62
272.162	483.62
272.394	487.62
272.626	467.62
272.858	474.62
273.09	495.62
273.322	490.62
273.553	497.62
273.785	488.62
274.017	489.62
274.249	463.62
274.481	498.62
274.713	488.62
274.945	501.62
275.176	514.62
275.408	509.62
275.64	508.62
275.872	496.62
276.104	486.62
276.335	507.62
276.567	488.62
276.799	506.62
277.031	537.62
277.262	520.62
277.494	514.62
277.726	481.62
277.957	521.62
278.189	518.62
278.421	533.62
278.652	502.62
278.884	516.62
279.115	516.62
279.347	534.62
279.579	530.62
279.81	509.62
280.042	513.62
280.273	543.62
280.505	524.62
280.736	524.62
280.968	521.62
281.199	526.62
281.431	511.62
281.662	525.62
281.894	517.62
282.125	526.62
282.356	548.62
282.588	548.62
282.819	554.62
283.051	515.62
283.282	523.62
283.513	518.62
283.745	545.62
283.976	530.62
284.207	541.62
284.439	545.62
284.67	555.62
284.901	542.62
285.132	539.62
285.364	511.62
285.595	540.62
285.826	542.62
286.057	549.62
286.288	525.62
286.52	540.62
286.751	551.62
286.982	546.62
287.213	537.62
287.444	541.62
287.675	522.62
287.906	565.62
288.138	546.62
288.369	552.62
288.6	522.62
288.831	539.62
289.062	546.62
289.293	555.62
289.524	540.62
289.755	544.62
289.986	564.62
290.217	536.62
290.448	544.62
290.679	527.62
290.91	542.62
291.141	549.62
291.371	533.62
291.602	560.62
291.833	549.62
292.064	586.62
292.295	544.62
292.526	548.62
292.757	541.62
292.987	555.62
293.218	551.62
293.449	553.62
293.68	554.62
293.91	560.62
294.141	547.62
294.372	549.62
294.603	554.62
294.833	544.62
295.064	540.62
295.295	557.62
295.525	557.62
295.756	544.62
295.987	559.62
296.217	564.62
296.448	561.62
296.679	523.62
296.909	557.62
297.14	550.62
297.37	584.62
297.601	564.62
297.831	571.62
298.062	586.62
298.292	586.62
298.523	584.62
298.753	580.62
298.984	567.62
299.214	574.62
299.445	576.62
299.675	592.62
299.905	607.62
300.136	586.62
300.366	618.62
300.597	599.62
300.827	617.62
301.057	605.62
301.288	616.62
301.518	613.62
301.748	607.62
301.979	624.62
302.209	611.62
302.439	626.62
302.669	610.62
302.9	595.62
303.13	590.62
303.36	613.62
303.59	635.62
303.82	641.62
304.051	637.62
304.281	633.62
304.511	614.62
304.741	637.62
304.971	649.62
305.201	633.62
305.431	645.62
305.661	645.62
305.891	635.62
306.121	619.62
306.352	624.62
306.582	629.62
306.812	628.62
307.042	634.62
307.272	651.62
307.502	633.62
307.731	633.62
307.961	648.62
308.191	632.62
308.421	664.62
308.651	620.62
308.881	643.62
309.111	643.62
309.341	653.62
309.571	652.62
309.8	668.62
310.03	649.62
310.26	669.62
310.49	696.62
310.72	700.62
310.949	652.62
311.179	686.62
311.409	704.62
311.639	700.62
311.868	675.62
312.098	691.62
312.328	714.62
312.557	706.62
312.787	714.62
313.017	709.62
313.246	740.62
313.476	729.62
313.706	744.62
313.935	749.62
314.165	743.62
314.394	723.62
314.624	743.62
314.853	735.62
315.083	749.62
315.312	762.62
315.542	760.62
315.771	757.62
316.001	791.62
316.23	755.62
316.46	781.62
316.689	770.62
316.919	782.62
317.148	791.62
317.377	776.62
317.607	806.62
317.836	800.62
318.065	821.62
318.295	807.62
318.524	833.62
318.753	808.62
318.983	854.62
319.212	805.62
319.441	808.62
319.67	851.62
319.9	817.62
320.129	847.62
320.358	847.62
320.587	841.62
320.816	890.62
321.046	867.62
321.275	874.62
321.504	891.62
321.733	908.62
321.962	891.62
322.191	931.62
322.42	916.62
322.649	902.62
322.878	901.62
323.108	898.62
323.337	941.62
323.566	949.62
323.795	939.62
324.024	947.62
324.253	975.62
324.482	982.62
324.71	965.62
324.939	972.62
325.168	988.62
325.397	1009.62
325.626	995.62
325.855	1009.62
326.084	1028.62
326.313	1024.62
326.542	1010.62
326.77	1058.62
326.999	1013.62
327.228	1046.62
327.457	1036.62
327.686	1043.62
327.914	1062.62
328.143	1086.62
328.372	1062.62
328.6	1075.62
328.829	1079.62
329.058	1075.62
329.287	1060.62
329.515	1092.62
329.744	1088.62
329.972	1113.62
330.201	1095.62
330.43	1124.62
330.658	1121.62
330.887	1141.62
331.115	1147.62
331.344	1164.62
331.572	1172.62
331.801	1175.62
332.03	1163.62
332.258	1204.62
332.486	1207.62
332.715	1194.62
332.943	1209.62
333.172	1260.62
333.4	1218.62
333.629	1235.62
333.857	1261.62
334.085	1296.62
334.314	1255.62
334.542	1292.62
334.771	1286.62
334.999	1301.62
335.227	1329.62
335.455	1343.62
335.684	1320.62
335.912	1331.62
336.14	1322.62
336.369	1365.62
336.597	1349.62
336.825	1392.62
337.053	1355.62
337.281	1339.62
337.51	1366.62
337.738	1345.62
337.966	1323.62
338.194	1345.62
338.422	1323.62
338.65	1299.62
338.878	1289.62
339.106	1280.62
339.334	1321.62
339.562	1285.62
339.79	1260.62
340.018	1241.62
340.246	1245.62
340.474	1264.62
340.702	1269.62
340.93	1267.62
341.158	1283.62
341.386	1315.62
341.614	1282.62
341.842	1283.62
342.07	1241.62
342.298	1279.62
342.526	1263.62
342.754	1247.62
342.981	1258.62
343.209	1243.62
343.437	1319.62
343.665	1331.62
343.893	1322.62
344.12	1311.62
344.348	1332.62
344.576	1349.62
344.804	1351.62
345.031	1310.62
345.259	1298.62
345.487	1317.62
345.714	1297.62
345.942	1299.62
346.17	1314.62
346.397	1288.62
346.625	1247.62
346.853	1272.62
347.08	1228.62
347.308	1242.62
347.535	1233.62
347.763	1206.62
347.99	1193.62
348.218	1216.62
348.445	1207.62
348.673	1237.62
348.9	1228.62
349.128	1228.62
349.355	1226.62
349.583	1211.62
349.81	1211.62
350.037	1188.62
350.265	1218.62
350.492	1216.62
350.72	1187.62
350.947	1211.62
351.174	1196.62
351.402	1223.62
351.629	1219.62
351.856	1212.62
352.083	1215.62
352.311	1184.62
352.538	1196.62
352.765	1220.62
352.992	1169.62
353.22	1183.62
353.447	1202.62
353.674	1177.62
353.901	1156.62
354.128	1163.62
354.355	1161.62
354.583	1170.62
354.81	1166.62
355.037	1159.62
355.264	1170.62
355.491	1187.62
355.718	1183.62
355.945	1173.62
356.172	1193.62
356.399	1183.62
356.626	1193.62
356.853	1239.62
357.08	1191.62
357.307	1189.62
357.534	1187.62
357.761	1203.62
357.988	1187.62
358.215	1150.62
358.441	1171.62
358.668	1159.62
358.895	1181.62
359.122	1164.62
359.349	1164.62
359.576	1178.62
359.802	1178.62
360.029	1144.62
360.256	1181.62
360.483	1177.62
360.709	1165.62
360.936	1180.62
361.163	1197.62
361.39	1180.62
361.616	1196.62
361.843	1212.62
362.07	1210.62
362.296	1246.62
362.523	1171.62
362.749	1165.62
362.976	1137.62
363.203	1179.62
363.429	1157.62
363.656	1127.62
363.882	1172.62
364.109	1171.62
364.335	1143.62
364.562	1172.62
364.788	1161.62
365.015	1180.62
365.241	1158.62
365.468	1185.62
365.694	1157.62
365.92	1143.62
366.147	1127.62
366.373	1146.62
366.599	1184.62
366.826	1149.62
367.052	1127.62
367.278	1153.62
367.505	1145.62
367.731	1167.62
367.957	1137.62
368.184	1151.62
368.41	1183.62
368.636	1187.62
368.862	1147.62
369.089	1159.62
369.315	1157.62
369.541	1195.62
369.767	1160.62
369.993	1158.62
370.219	1163.62
370.445	1176.62
370.672	1183.62
370.898	1164.62
371.124	1188.62
371.35	1178.62
371.576	1159.62
371.802	1184.62
372.028	1179.62
372.254	1192.62
372.48	1205.62
372.706	1177.62
372.932	1164.62
373.158	1189.62
373.384	1217.62
373.61	1169.62
373.835	1190.62
374.061	1166.62
374.287	1193.62
374.513	1183.62
374.739	1203.62
374.965	1216.62
375.191	1210.62
375.416	1178.62
375.642	1169.62
375.868	1186.62
376.094	1149.62
376.319	1139.62
376.545	1132.62
376.771	1125.62
376.997	1126.62
377.222	1140.62
377.448	1135.62
377.674	1153.62
377.899	1131.62
378.125	1162.62
378.35	1107.62
378.576	1092.62
378.802	1107.62
379.027	1121.62
379.253	1133.62
379.478	1121.62
379.704	1109.62
379.929	1110.62
380.155	1102.62
380.38	1123.62
380.606	1111.62
380.831	1103.62
381.057	1123.62
381.282	1132.62
381.507	1106.62
381.733	1117.62
381.958	1133.62
382.184	1119.62
382.409	1121.62
382.634	1137.62
382.86	1121.62
383.085	1159.62
383.31	1163.62
383.535	1155.62
383.761	1154.62
383.986	1173.62
384.211	1163.62
384.436	1171.62
384.662	1173.62
384.887	1179.62
385.112	1213.62
385.337	1193.62
385.562	1236.62
385.787	1224.62
386.013	1250.62
386.238	1221.62
386.463	1244.62
386.688	1237.62
386.913	1217.62
387.138	1220.62
387.363	1239.62
387.588	1236.62
387.813	1254.62
388.038	1233.62
388.263	1212.62
388.488	1235.62
388.713	1212.62
388.938	1224.62
389.163	1235.62
389.387	1233.62
389.612	1240.62
389.837	1227.62
390.062	1207.62
390.287	1240.62
390.512	1279.62
390.736	1273.62
390.961	1249.62
391.186	1257.62
391.411	1272.62
391.636	1248.62
391.86	1301.62
392.085	1291.62
392.31	1270.62
392.534	1314.62
392.759	1288.62
392.984	1311.62
393.208	1265.62
393.433	1266.62
393.658	1284.62
393.882	1268.62
394.107	1271.62
394.331	1293.62
394.556	1264.62
394.78	1270.62
395.005	1279.62
395.229	1309.62
395.454	1315.62
395.678	1310.62
395.903	1289.62
396.127	1329.62
396.352	1308.62
396.576	1343.62
396.801	1343.62
397.025	1335.62
397.249	1371.62
397.474	1375.62
397.698	1384.62
397.922	1384.62
398.147	1408.62
398.371	1437.62
398.595	1442.62
398.82	1480.62
399.044	1516.62
399.268	1523.62
399.492	1590.62
399.717	1673.62
399.941	1647.62
400.165	1620.62
400.389	1625.62
400.613	1555.62
400.837	1532.62
401.062	1512.62
401.286	1565.62
401.51	1472.62
401.734	1483.62
401.958	1491.62
402.182	1502.62
402.406	1466.62
402.63	1479.62
402.854	1492.62
403.078	1480.62
403.302	1438.62
403.526	1497.62
403.75	1475.62
403.974	1525.62
404.198	1464.62
404.422	1493.62
404.645	1487.62
404.869	1482.62
405.093	1501.62
405.317	1522.62
405.541	1539.62
405.765	1519.62
405.988	1515.62
406.212	1554.62
406.436	1573.62
406.66	1610.62
406.883	1569.62
407.107	1621.62
407.331	1650.62
407.555	1682.62
407.778	1669.62
408.002	1692.62
408.226	1697.62
408.449	1707.62
408.673	1676.62
408.896	1625.62
409.12	1617.62
409.344	1641.62
409.567	1609.62
409.791	1616.62
410.014	1573.62
410.238	1615.62
410.461	1609.62
410.685	1613.62
410.908	1585.62
411.132	1583.62
411.355	1558.62
411.578	1568.62
411.802	1576.62
412.025	1560.62
412.249	1558.62
412.472	1569.62
412.695	1559.62
412.919	1528.62
413.142	1546.62
413.365	1546.62
413.589	1615.62
413.812	1561.62
414.035	1522.62
414.258	1565.62
414.482	1537.62
414.705	1513.62
414.928	1552.62
415.151	1544.62
415.374	1522.62
415.597	1531.62
415.821	1477.62
416.044	1510.62
416.267	1516.62
416.49	1522.62
416.713	1516.62
416.936	1507.62
417.159	1509.62
417.382	1525.62
417.605	1480.62
417.828	1505.62
418.051	1486.62
418.274	1537.62
418.497	1515.62
418.72	1502.62
418.943	1501.62
419.166	1572.62
419.389	1697.62
419.611	1673.62
419.834	1614.62
420.057	1549.62
420.28	1531.62
420.503	1507.62
420.726	1461.62
420.948	1476.62
421.171	1512.62
421.394	1530.62
421.617	1508.62
421.839	1528.62
422.062	1565.62
422.285	1485.62
422.507	1487.62
422.73	1507.62
422.953	1544.62
423.175	1531.62
423.398	1505.62
423.621	1525.62
423.843	1500.62
424.066	1536.62
424.288	1583.62
424.511	1527.62
424.733	1526.62
424.956	1532.62
425.178	1535.62
425.401	1557.62
425.623	1583.62
425.846	1511.62
426.068	1549.62
426.291	1548.62
426.513	1539.62
426.735	1524.62
426.958	1540.62
427.18	1485.62
427.402	1526.62
427.625	1535.62
427.847	1520.62
428.069	1541.62
428.292	1550.62
428.514	1532.62
428.736	1528.62
428.958	1549.62
429.181	1527.62
429.403	1516.62
429.625	1519.62
429.847	1519.62
430.069	1536.62
430.292	1528.62
430.514	1498.62
430.736	1508.62
430.958	1532.62
431.18	1528.62
431.402	1542.62
431.624	1509.62
431.846	1537.62
432.068	1513.62
432.29	1560.62
432.512	1554.62
432.734	1539.62
432.956	1539.62
433.178	1576.62
433.4	1539.62
433.622	1580.62
433.844	1563.62
434.066	1567.62
434.287	1557.62
434.509	1570.62
434.731	1580.62
434.953	1567.62
435.175	1639.62
435.397	1621.62
435.618	1581.62
435.84	1572.62
436.062	1555.62
436.284	1593.62
436.505	1558.62
436.727	1564.62
436.949	1561.62
437.17	1540.62
437.392	1548.62
437.614	1533.62
437.835	1482.62
438.057	1512.62
438.278	1496.62
438.5	1496.62
438.721	1504.62
438.943	1519.62
439.165	1513.62
439.386	1528.62
439.608	1529.62
439.829	1543.62
440.05	1509.62
440.272	1550.62
440.493	1555.62
440.715	1539.62
440.936	1570.62
441.158	1586.62
441.379	1564.62
441.6	1584.62
441.822	1607.62
442.043	1638.62
442.264	1604.62
442.486	1574.62
442.707	1624.62
442.928	1582.62
443.149	1620.62
443.371	1604.62
443.592	1625.62
443.813	1623.62
444.034	1599.62
444.255	1600.62
444.476	1624.62
444.698	1675.62
444.919	1672.62
445.14	1758.62
445.361	1729.62
445.582	1653.62
445.803	1629.62
446.024	1580.62
446.245	1591.62
446.466	1579.62
446.687	1524.62
446.908	1537.62
447.129	1524.62
447.35	1515.62
447.571	1549.62
447.792	1489.62
448.013	1488.62
448.234	1459.62
448.455	1481.62
448.675	1442.62
448.896	1464.62
449.117	1453.62
449.338	1461.62
449.559	1420.62
449.779	1409.62
450	1403.62
450.221	1441.62
450.442	1439.62
450.662	1429.62
450.883	1431.62
451.104	1464.62
451.324	1459.62
451.545	1435.62
451.766	1418.62
451.986	1410.62
452.207	1418.62
452.428	1393.62
452.648	1409.62
452.869	1388.62
453.089	1375.62
453.31	1410.62
453.53	1385.62
453.751	1401.62
453.971	1369.62
454.192	1372.62
454.412	1393.62
454.633	1366.62
454.853	1363.62
455.073	1361.62
455.294	1381.62
455.514	1380.62
455.734	1361.62
455.955	1388.62
456.175	1387.62
456.395	1369.62
456.616	1368.62
456.836	1395.62
457.056	1385.62
457.276	1347.62
457.497	1413.62
457.717	1423.62
457.937	1418.62
458.157	1443.62
458.377	1410.62
458.598	1422.62
458.818	1417.62
459.038	1491.62
459.258	1457.62
459.478	1563.62
459.698	1556.62
459.918	1543.62
460.138	1600.62
460.358	1592.62
460.578	1621.62
460.798	1643.62
461.018	1663.62
461.238	1639.62
461.458	1680.62
461.678	1654.62
461.898	1673.62
462.118	1660.62
462.338	1738.62
462.558	1750.62
462.777	1780.62
462.997	1787.62
463.217	1817.62
463.437	1858.62
463.657	1816.62
463.876	1787.62
464.096	1789.62
464.316	1770.62
464.536	1745.62
464.755	1709.62
464.975	1679.62
465.195	1660.62
465.414	1664.62
465.634	1632.62
465.854	1575.62
466.073	1576.62
466.293	1550.62
466.512	1556.62
466.732	1520.62
466.951	1512.62
467.171	1550.62
467.391	1523.62
467.61	1525.62
467.829	1462.62
468.049	1476.62
468.268	1442.62
468.488	1497.62
468.707	1503.62
468.927	1503.62
469.146	1483.62
469.365	1534.62
469.585	1475.62
469.804	1495.62
470.023	1541.62
470.243	1526.62
470.462	1529.62
470.681	1535.62
470.901	1550.62
471.12	1506.62
471.339	1535.62
471.558	1528.62
471.777	1509.62
471.997	1548.62
472.216	1539.62
472.435	1524.62
472.654	1508.62
472.873	1511.62
473.092	1516.62
473.311	1534.62
473.53	1532.62
473.749	1478.62
473.968	1475.62
474.187	1508.62
474.406	1530.62
474.625	1505.62
474.844	1509.62
475.063	1541.62
475.282	1535.62
475.501	1555.62
475.72	1553.62
475.939	1568.62
476.158	1562.62
476.377	1607.62
476.596	1592.62
476.814	1618.62
477.033	1588.62
477.252	1613.62
477.471	1661.62
477.69	1648.62
477.908	1694.62
478.127	1700.62
478.346	1688.62
478.564	1762.62
478.783	1739.62
479.002	1737.62
479.22	1751.62
479.439	1800.62
479.658	1790.62
479.876	1788.62
480.095	1734.62
480.313	1814.62
480.532	1799.62
480.751	1771.62
480.969	1772.62
481.188	1728.62
481.406	1777.62
481.624	1791.62
481.843	1767.62
482.061	1735.62
482.28	1753.62
482.498	1755.62
482.717	1776.62
482.935	1794.62
483.153	1839.62
483.372	1841.62
483.59	1842.62
483.808	1804.62
484.027	1795.62
484.245	1804.62
484.463	1805.62
484.681	1820.62
484.9	1804.62
485.118	1833.62
485.336	1815.62
485.554	1828.62
485.772	1804.62
485.99	1782.62
486.209	1775.62
486.427	1798.62
486.645	1853.62
486.863	1826.62
487.081	1835.62
487.299	1824.62
487.517	1818.62
487.735	1863.62
487.953	1875.62
488.171	1883.62
488.389	1868.62
488.607	1888.62
488.825	1858.62
489.043	1809.62
489.261	1826.62
489.479	1841.62
489.696	1845.62
489.914	1838.62
490.132	1843.62
490.35	1874.62
490.568	1908.62
490.786	1887.62
491.003	1868.62
491.221	1884.62
491.439	1927.62
