Data from Ni(NO3)2Standard.Agarose3%.GreenCap.LampEnergy5.5.E.O_HRD10591_14-42-38-188.txt Node
Date: Mon Jul 22 14:42:38 EDT 2019
User: cochatt
Spectrometer: HR+D1059
Trigger mode: 1
Integration Time (sec): 1.000000E-1
Scans to average: 1
Electric dark correction enabled: true
Nonlinearity correction enabled: false
Boxcar width: 0
XAxis mode: Wavelengths
Number of Pixels in Spectrum: 2048
>>>>>Begin Spectral Data<<<<<
223.165	-28
223.4	-28
223.635	-28
223.869	-17
224.104	-23
224.338	-8
224.573	-3
224.808	-15
225.042	-13
225.277	-16
225.511	0
225.746	-1
225.98	28
226.215	7
226.449	11
226.683	23
226.918	34
227.152	21
227.387	38
227.621	39
227.856	52
228.09	31
228.324	41
228.559	56
228.793	70
229.027	63
229.262	75
229.496	51
229.73	52
229.964	62
230.199	79
230.433	75
230.667	88
230.901	87
231.136	72
231.37	81
231.604	56
231.838	81
232.072	63
232.306	69
232.541	88
232.775	81
233.009	82
233.243	70
233.477	83
233.711	86
233.945	99
234.179	82
234.413	75
234.647	75
234.881	81
235.115	77
235.349	91
235.583	87
235.817	63
236.051	80
236.285	73
236.519	75
236.753	85
236.987	73
237.221	82
237.455	74
237.689	77
237.922	77
238.156	81
238.39	56
238.624	76
238.858	64
239.091	68
239.325	84
239.559	59
239.793	78
240.027	69
240.26	74
240.494	87
240.728	66
240.961	89
241.195	75
241.429	70
241.662	90
241.896	79
242.13	72
242.363	80
242.597	68
242.83	82
243.064	76
243.298	88
243.531	78
243.765	60
243.998	76
244.232	88
244.465	81
244.699	73
244.932	72
245.166	79
245.399	84
245.633	84
245.866	76
246.099	79
246.333	78
246.566	78
246.8	71
247.033	83
247.266	73
247.5	71
247.733	71
247.966	84
248.2	77
248.433	71
248.666	71
248.899	65
249.133	84
249.366	91
249.599	64
249.832	87
250.066	75
250.299	65
250.532	81
250.765	79
250.998	72
251.231	73
251.465	84
251.698	73
251.931	76
252.164	80
252.397	59
252.63	79
252.863	86
253.096	73
253.329	75
253.562	72
253.795	70
254.028	74
254.261	90
254.494	65
254.727	72
254.96	78
255.193	74
255.426	82
255.659	89
255.892	64
256.124	60
256.357	86
256.59	79
256.823	76
257.056	79
257.289	81
257.521	67
257.754	72
257.987	76
258.22	85
258.452	98
258.685	74
258.918	80
259.151	83
259.383	95
259.616	77
259.849	81
260.081	86
260.314	77
260.547	89
260.779	71
261.012	76
261.244	79
261.477	84
261.71	71
261.942	65
262.175	70
262.407	85
262.64	91
262.872	94
263.105	85
263.337	82
263.57	81
263.802	81
264.035	92
264.267	80
264.499	86
264.732	85
264.964	73
265.197	85
265.429	90
265.661	78
265.894	91
266.126	83
266.358	81
266.591	80
266.823	91
267.055	81
267.287	85
267.52	83
267.752	85
267.984	82
268.216	90
268.448	84
268.681	84
268.913	77
269.145	91
269.377	84
269.609	81
269.841	81
270.073	63
270.306	95
270.538	76
270.77	63
271.002	87
271.234	86
271.466	78
271.698	86
271.93	81
272.162	89
272.394	91
272.626	78
272.858	70
273.09	74
273.322	82
273.553	72
273.785	75
274.017	85
274.249	82
274.481	94
274.713	81
274.945	88
275.176	86
275.408	85
275.64	77
275.872	101
276.104	63
276.335	72
276.567	88
276.799	78
277.031	77
277.262	92
277.494	84
277.726	75
277.957	78
278.189	83
278.421	101
278.652	73
278.884	85
279.115	75
279.347	72
279.579	88
279.81	83
280.042	69
280.273	80
280.505	83
280.736	83
280.968	78
281.199	72
281.431	81
281.662	89
281.894	83
282.125	87
282.356	80
282.588	75
282.819	81
283.051	63
283.282	92
283.513	80
283.745	89
283.976	80
284.207	99
284.439	97
284.67	86
284.901	84
285.132	96
285.364	78
285.595	85
285.826	84
286.057	69
286.288	75
286.52	81
286.751	85
286.982	70
287.213	81
287.444	83
287.675	92
287.906	84
288.138	78
288.369	87
288.6	76
288.831	78
289.062	76
289.293	87
289.524	73
289.755	81
289.986	90
290.217	89
290.448	99
290.679	97
290.91	89
291.141	92
291.371	79
291.602	100
291.833	78
292.064	78
292.295	90
292.526	85
292.757	77
292.987	81
293.218	77
293.449	86
293.68	92
293.91	85
294.141	82
294.372	85
294.603	77
294.833	94
295.064	91
295.295	87
295.525	73
295.756	90
295.987	68
296.217	91
296.448	71
296.679	73
296.909	76
297.14	89
297.37	89
297.601	84
297.831	81
298.062	88
298.292	82
298.523	86
298.753	85
298.984	72
299.214	88
299.445	92
299.675	93
299.905	71
300.136	89
300.366	89
300.597	91
300.827	73
301.057	83
301.288	90
301.518	89
301.748	62
301.979	89
302.209	89
302.439	88
302.669	77
302.9	87
303.13	87
303.36	85
303.59	103
303.82	85
304.051	81
304.281	86
304.511	89
304.741	81
304.971	76
305.201	79
305.431	66
305.661	77
305.891	92
306.121	72
306.352	83
306.582	86
306.812	86
307.042	84
307.272	80
307.502	96
307.731	87
307.961	100
308.191	88
308.421	88
308.651	81
308.881	75
309.111	87
309.341	99
309.571	97
309.8	90
310.03	87
310.26	73
310.49	95
310.72	74
310.949	86
311.179	90
311.409	93
311.639	88
311.868	85
312.098	84
312.328	75
312.557	83
312.787	92
313.017	84
313.246	82
313.476	83
313.706	77
313.935	76
314.165	78
314.394	80
314.624	99
314.853	91
315.083	79
315.312	84
315.542	96
315.771	85
316.001	98
316.23	91
316.46	87
316.689	64
316.919	89
317.148	77
317.377	87
317.607	99
317.836	91
318.065	84
318.295	100
318.524	86
318.753	95
318.983	80
319.212	75
319.441	82
319.67	102
319.9	82
320.129	94
320.358	84
320.587	82
320.816	72
321.046	87
321.275	87
321.504	85
321.733	95
321.962	80
322.191	84
322.42	92
322.649	75
322.878	76
323.108	92
323.337	89
323.566	92
323.795	92
324.024	90
324.253	82
324.482	76
324.71	92
324.939	87
325.168	82
325.397	75
325.626	85
325.855	78
326.084	88
326.313	76
326.542	87
326.77	90
326.999	82
327.228	82
327.457	100
327.686	97
327.914	95
328.143	95
328.372	72
328.6	77
328.829	97
329.058	89
329.287	84
329.515	79
329.744	76
329.972	93
330.201	87
330.43	95
330.658	74
330.887	86
331.115	97
331.344	92
331.572	82
331.801	81
332.03	89
332.258	88
332.486	98
332.715	84
332.943	74
333.172	88
333.4	81
333.629	75
333.857	92
334.085	95
334.314	82
334.542	87
334.771	89
334.999	89
335.227	87
335.455	91
335.684	81
335.912	90
336.14	74
336.369	89
336.597	93
336.825	82
337.053	86
337.281	78
337.51	83
337.738	80
337.966	83
338.194	73
338.422	95
338.65	86
338.878	97
339.106	77
339.334	82
339.562	79
339.79	83
340.018	87
340.246	72
340.474	84
340.702	81
340.93	82
341.158	74
341.386	83
341.614	80
341.842	85
342.07	85
342.298	84
342.526	76
342.754	94
342.981	86
343.209	87
343.437	81
343.665	105
343.893	96
344.12	77
344.348	82
344.576	89
344.804	85
345.031	76
345.259	77
345.487	87
345.714	91
345.942	73
346.17	87
346.397	86
346.625	95
346.853	69
347.08	87
347.308	68
347.535	79
347.763	75
347.99	88
348.218	83
348.445	74
348.673	76
348.9	86
349.128	88
349.355	83
349.583	92
349.81	83
350.037	96
350.265	77
350.492	92
350.72	95
350.947	92
351.174	68
351.402	74
351.629	84
351.856	83
352.083	93
352.311	80
352.538	75
352.765	88
352.992	83
353.22	91
353.447	80
353.674	86
353.901	76
354.128	84
354.355	90
354.583	81
354.81	94
355.037	80
355.264	77
355.491	88
355.718	80
355.945	89
356.172	89
356.399	88
356.626	74
356.853	92
357.08	72
357.307	81
357.534	97
357.761	85
357.988	83
358.215	87
358.441	79
358.668	84
358.895	77
359.122	86
359.349	81
359.576	81
359.802	76
360.029	98
360.256	88
360.483	79
360.709	88
360.936	80
361.163	93
361.39	79
361.616	82
361.843	81
362.07	81
362.296	87
362.523	88
362.749	76
362.976	75
363.203	67
363.429	88
363.656	83
363.882	90
364.109	91
364.335	89
364.562	97
364.788	85
365.015	76
365.241	77
365.468	83
365.694	77
365.92	84
366.147	68
366.373	74
366.599	95
366.826	88
367.052	79
367.278	93
367.505	86
367.731	88
367.957	76
368.184	82
368.41	94
368.636	89
368.862	89
369.089	73
369.315	77
369.541	78
369.767	83
369.993	78
370.219	81
370.445	85
370.672	103
370.898	81
371.124	92
371.35	80
371.576	85
371.802	97
372.028	100
372.254	75
372.48	87
372.706	92
372.932	95
373.158	86
373.384	79
373.61	87
373.835	78
374.061	87
374.287	84
374.513	75
374.739	87
374.965	81
375.191	79
375.416	92
375.642	74
375.868	99
376.094	71
376.319	75
376.545	88
376.771	84
376.997	77
377.222	77
377.448	87
377.674	81
377.899	88
378.125	76
378.35	87
378.576	83
378.802	87
379.027	87
379.253	83
379.478	93
379.704	71
379.929	76
380.155	71
380.38	78
380.606	84
380.831	79
381.057	80
381.282	73
381.507	79
381.733	69
381.958	62
382.184	80
382.409	82
382.634	90
382.86	94
383.085	79
383.31	82
383.535	83
383.761	94
383.986	94
384.211	74
384.436	75
384.662	88
384.887	85
385.112	72
385.337	83
385.562	82
385.787	76
386.013	97
386.238	98
386.463	89
386.688	86
386.913	74
387.138	92
387.363	80
387.588	84
387.813	90
388.038	95
388.263	89
388.488	84
388.713	91
388.938	86
389.163	74
389.387	84
389.612	78
389.837	84
390.062	95
390.287	78
390.512	84
390.736	89
390.961	85
391.186	84
391.411	80
391.636	83
391.86	88
392.085	84
392.31	84
392.534	79
392.759	84
392.984	94
393.208	79
393.433	79
393.658	80
393.882	80
394.107	88
394.331	82
394.556	80
394.78	87
395.005	92
395.229	70
395.454	69
395.678	80
395.903	78
396.127	91
396.352	79
396.576	89
396.801	86
397.025	81
397.249	72
397.474	84
397.698	86
397.922	84
398.147	80
398.371	91
398.595	92
398.82	87
399.044	80
399.268	100
399.492	84
399.717	88
399.941	87
400.165	96
400.389	89
400.613	106
400.837	89
401.062	81
401.286	71
401.51	83
401.734	81
401.958	91
402.182	84
402.406	83
402.63	85
402.854	70
403.078	75
403.302	90
403.526	87
403.75	78
403.974	103
404.198	78
404.422	90
404.645	86
404.869	99
405.093	85
405.317	90
405.541	83
405.765	79
405.988	84
406.212	77
406.436	71
406.66	94
406.883	86
407.107	93
407.331	76
407.555	95
407.778	82
408.002	91
408.226	96
408.449	92
408.673	91
408.896	76
409.12	96
409.344	83
409.567	90
409.791	83
410.014	81
410.238	85
410.461	82
410.685	86
410.908	78
411.132	96
411.355	84
411.578	81
411.802	92
412.025	79
412.249	87
412.472	78
412.695	83
412.919	82
413.142	78
413.365	82
413.589	85
413.812	82
414.035	91
414.258	86
414.482	89
414.705	89
414.928	86
415.151	91
415.374	93
415.597	80
415.821	98
416.044	85
416.267	91
416.49	68
416.713	78
416.936	80
417.159	95
417.382	96
417.605	79
417.828	90
418.051	90
418.274	98
418.497	89
418.72	92
418.943	99
419.166	81
419.389	85
419.611	87
419.834	94
420.057	83
420.28	95
420.503	88
420.726	80
420.948	87
421.171	92
421.394	78
421.617	85
421.839	85
422.062	83
422.285	80
422.507	83
422.73	88
422.953	84
423.175	65
423.398	84
423.621	82
423.843	82
424.066	88
424.288	93
424.511	86
424.733	81
424.956	88
425.178	89
425.401	87
425.623	71
425.846	84
426.068	81
426.291	95
426.513	80
426.735	77
426.958	78
427.18	81
427.402	74
427.625	67
427.847	83
428.069	77
428.292	82
428.514	73
428.736	94
428.958	101
429.181	83
429.403	90
429.625	85
429.847	72
430.069	85
430.292	93
430.514	99
430.736	81
430.958	78
431.18	89
431.402	83
431.624	79
431.846	81
432.068	87
432.29	79
432.512	80
432.734	67
432.956	76
433.178	85
433.4	97
433.622	97
433.844	84
434.066	80
434.287	83
434.509	91
434.731	84
434.953	92
435.175	81
435.397	90
435.618	95
435.84	94
436.062	77
436.284	90
436.505	108
436.727	90
436.949	89
437.17	75
437.392	84
437.614	80
437.835	87
438.057	85
438.278	86
438.5	85
438.721	84
438.943	81
439.165	78
439.386	72
439.608	88
439.829	81
440.05	81
440.272	77
440.493	91
440.715	93
440.936	86
441.158	92
441.379	90
441.6	92
441.822	82
442.043	85
442.264	85
442.486	82
442.707	83
442.928	84
443.149	83
443.371	87
443.592	78
443.813	69
444.034	83
444.255	100
444.476	80
444.698	80
444.919	77
445.14	192
445.361	143
445.582	73
445.803	92
446.024	79
446.245	90
446.466	96
446.687	88
446.908	84
447.129	84
447.35	84
447.571	83
447.792	98
448.013	86
448.234	101
448.455	79
448.675	84
448.896	78
449.117	72
449.338	86
449.559	91
449.779	77
450	73
450.221	77
450.442	78
450.662	80
450.883	82
451.104	92
451.324	75
451.545	79
451.766	65
451.986	84
452.207	93
452.428	83
452.648	89
452.869	88
453.089	80
453.31	102
453.53	87
453.751	86
453.971	74
454.192	98
454.412	92
454.633	92
454.853	71
455.073	84
455.294	85
455.514	96
455.734	77
455.955	74
456.175	97
456.395	87
456.616	71
456.836	85
457.056	91
457.276	77
457.497	71
457.717	76
457.937	74
458.157	83
458.377	80
458.598	87
458.818	96
459.038	85
459.258	75
459.478	84
459.698	73
459.918	75
460.138	93
460.358	79
460.578	72
460.798	87
461.018	101
461.238	87
461.458	87
461.678	99
461.898	75
462.118	87
462.338	94
462.558	104
462.777	85
462.997	86
463.217	89
463.437	93
463.657	81
463.876	96
464.096	84
464.316	91
464.536	78
464.755	92
464.975	74
465.195	92
465.414	88
465.634	92
465.854	88
466.073	85
466.293	94
466.512	84
466.732	89
466.951	90
467.171	82
467.391	85
467.61	74
467.829	90
468.049	77
468.268	82
468.488	84
468.707	85
468.927	89
469.146	73
469.365	80
469.585	92
469.804	86
470.023	88
470.243	93
470.462	73
470.681	90
470.901	83
471.12	82
471.339	87
471.558	91
471.777	82
471.997	90
472.216	92
472.435	72
472.654	91
472.873	87
473.092	87
473.311	84
473.53	95
473.749	74
473.968	73
474.187	84
474.406	81
474.625	90
474.844	93
475.063	90
475.282	75
475.501	80
475.72	94
475.939	93
476.158	81
476.377	85
476.596	80
476.814	96
477.033	86
477.252	86
477.471	90
477.69	80
477.908	74
478.127	92
478.346	101
478.564	91
478.783	98
479.002	76
479.22	78
479.439	81
479.658	100
479.876	83
480.095	97
480.313	95
480.532	76
480.751	90
480.969	91
481.188	91
481.406	82
481.624	87
481.843	85
482.061	78
482.28	94
482.498	98
482.717	85
482.935	79
483.153	86
483.372	104
483.59	86
483.808	90
484.027	86
484.245	81
484.463	86
484.681	108
484.9	91
485.118	81
485.336	95
485.554	92
485.772	93
485.99	93
486.209	80
486.427	97
486.645	103
486.863	90
487.081	93
487.299	97
487.517	92
487.735	80
487.953	102
488.171	91
488.389	70
488.607	91
488.825	67
489.043	79
489.261	90
489.479	96
489.696	74
489.914	76
490.132	88
490.35	102
490.568	99
490.786	95
491.003	93
491.221	89
491.439	87
491.657	94
491.874	101
492.092	106
492.31	93
492.527	99
492.745	101
492.963	102
493.18	90
493.398	87
493.615	102
493.833	89
494.05	95
494.268	90
494.485	105
494.703	106
494.92	83
495.138	92
495.355	101
495.573	79
495.79	84
496.008	100
496.225	97
496.442	99
496.66	101
496.877	95
497.094	83
497.312	87
497.529	80
497.746	97
497.963	87
498.181	95
498.398	109
498.615	99
498.832	99
499.049	87
499.267	96
499.484	99
499.701	107
499.918	116
500.135	105
500.352	119
500.569	117
500.786	131
501.003	119
501.22	117
501.437	85
501.654	108
501.871	100
502.088	98
502.305	103
502.522	98
502.739	95
502.956	80
503.172	100
503.389	81
503.606	96
503.823	97
504.04	91
504.256	88
504.473	88
504.69	89
504.907	89
505.123	101
505.34	89
505.557	82
505.773	83
505.99	83
506.207	92
506.423	95
506.64	88
506.856	99
507.073	90
507.289	85
507.506	105
507.722	90
507.939	93
508.155	96
508.372	105
508.588	101
508.805	95
509.021	95
509.238	84
509.454	93
509.67	77
509.887	98
510.103	96
510.319	88
510.536	76
510.752	87
510.968	93
511.184	89
511.401	95
511.617	89
511.833	90
512.049	86
512.265	101
512.481	88
512.698	94
512.914	94
513.13	100
513.346	104
513.562	85
513.778	87
513.994	98
514.21	88
514.426	84
514.642	81
514.858	89
515.074	85
515.29	80
515.506	99
515.721	88
515.937	81
516.153	88
516.369	90
516.585	85
516.801	98
517.016	79
517.232	99
517.448	90
517.664	86
517.879	97
518.095	82
518.311	91
518.527	77
518.742	89
518.958	85
519.173	98
519.389	94
519.605	90
519.82	78
520.036	92
520.251	83
520.467	92
520.682	83
520.898	93
521.113	85
521.329	92
521.544	88
521.76	90
521.975	92
522.19	82
522.406	100
522.621	94
522.836	96
523.052	93
523.267	83
523.482	88
523.698	86
523.913	86
524.128	88
524.343	86
524.559	91
524.774	87
524.989	68
525.204	97
525.419	83
525.634	94
525.849	91
526.064	96
526.28	84
526.495	78
526.71	99
526.925	80
527.14	86
527.355	85
527.57	80
527.785	97
527.999	87
528.214	88
528.429	89
528.644	84
528.859	101
529.074	96
529.289	95
529.503	103
529.718	71
529.933	85
530.148	80
530.363	98
530.577	102
530.792	88
531.007	87
531.221	82
531.436	84
531.651	77
531.865	90
532.08	77
532.295	91
532.509	96
532.724	83
532.938	84
533.153	100
533.367	92
533.582	86
533.796	84
534.011	77
534.225	88
534.44	96
534.654	89
534.868	89
535.083	96
535.297	84
535.511	99
535.726	90
535.94	90
536.154	102
536.369	89
536.583	80
536.797	98
537.011	83
537.225	83
537.44	92
537.654	86
537.868	101
538.082	102
538.296	96
538.51	93
538.724	82
538.938	81
539.153	93
539.367	88
539.581	80
539.795	86
540.009	85
540.222	93
540.436	80
540.65	87
540.864	94
541.078	95
541.292	81
541.506	91
541.72	98
541.934	85
542.147	98
542.361	97
542.575	87
542.789	92
543.002	97
543.216	91
543.43	99
543.644	90
543.857	84
544.071	77
544.285	86
544.498	71
544.712	100
544.925	84
545.139	87
545.352	97
545.566	79
545.779	88
545.993	83
546.206	97
546.42	87
546.633	95
546.847	98
547.06	90
547.274	92
547.487	97
547.7	78
547.914	90
548.127	82
548.34	98
548.554	82
548.767	90
548.98	91
549.193	96
549.407	103
549.62	84
549.833	74
550.046	85
550.259	95
550.473	91
550.686	97
550.899	89
551.112	89
551.325	92
551.538	100
551.751	109
551.964	81
552.177	94
552.39	90
552.603	96
552.816	98
553.029	78
553.242	74
553.455	87
553.667	90
553.88	93
554.093	78
554.306	94
554.519	88
554.732	80
554.944	109
555.157	87
555.37	87
555.583	89
555.795	95
556.008	91
556.221	94
556.433	81
556.646	83
556.859	100
557.071	95
557.284	87
557.496	81
557.709	81
557.921	93
558.134	96
558.346	93
558.559	79
558.771	87
558.984	90
559.196	95
559.409	78
559.621	97
559.833	80
560.046	88
560.258	80
560.47	86
560.683	89
560.895	97
561.107	95
561.32	107
561.532	91
561.744	93
561.956	90
562.168	88
562.381	96
562.593	90
562.805	98
563.017	96
563.229	98
563.441	83
563.653	91
563.865	83
564.077	75
564.289	92
564.501	89
564.713	93
564.925	90
565.137	92
565.349	87
565.561	90
565.773	91
565.985	84
566.197	76
566.408	92
566.62	86
566.832	103
567.044	88
567.255	77
567.467	84
567.679	80
567.891	87
568.102	84
568.314	105
568.526	111
568.737	99
568.949	77
569.161	83
569.372	93
569.584	95
569.795	102
570.007	90
570.218	99
570.43	85
570.641	85
570.853	84
571.064	108
571.276	92
571.487	91
571.698	94
571.91	86
572.121	77
572.333	90
572.544	74
572.755	87
572.966	91
573.178	83
573.389	89
573.6	89
573.811	74
574.023	81
574.234	81
574.445	103
574.656	100
574.867	89
575.078	97
575.289	77
575.501	81
575.712	89
575.923	95
576.134	99
576.345	88
576.556	75
576.767	88
576.978	83
577.188	83
577.399	95
577.61	80
577.821	71
578.032	87
578.243	81
578.454	97
578.665	90
578.875	95
579.086	89
579.297	104
579.508	92
579.718	95
579.929	81
580.14	91
580.35	93
580.561	86
580.772	77
580.982	95
581.193	85
581.403	95
581.614	82
581.825	85
582.035	92
582.246	89
582.456	89
582.667	86
582.877	92
583.087	83
583.298	69
583.508	80
583.719	91
583.929	88
584.139	86
584.35	87
584.56	95
584.77	78
584.981	81
585.191	87
585.401	86
585.611	80
585.821	94
586.032	96
586.242	83
586.452	81
586.662	79
586.872	97
587.082	87
587.292	88
587.502	99
587.713	97
587.923	79
588.133	98
588.343	83
588.553	88
