Data from Ni(NO3)2Standard.Agarose3%.GreenCap.LampEnergy5.5.E.O_HRD10591_14-40-54-188.txt Node
Date: Mon Jul 22 14:40:54 EDT 2019
User: cochatt
Spectrometer: HR+D1059
Trigger mode: 1
Integration Time (sec): 1.000000E-1
Scans to average: 1
Electric dark correction enabled: true
Nonlinearity correction enabled: false
Boxcar width: 0
XAxis mode: Wavelengths
Number of Pixels in Spectrum: 2048
>>>>>Begin Spectral Data<<<<<
223.165	-16.38
223.4	-16.38
223.635	-16.38
223.869	-24.38
224.104	-11.38
224.338	-15.38
224.573	-16.38
224.808	-9.38
225.042	0.62
225.277	-16.38
225.511	-8.38
225.746	3.62
225.98	9.62
226.215	21.62
226.449	11.62
226.683	10.62
226.918	26.62
227.152	33.62
227.387	29.62
227.621	28.62
227.856	45.62
228.09	46.62
228.324	41.62
228.559	50.62
228.793	48.62
229.027	57.62
229.262	69.62
229.496	67.62
229.73	81.62
229.964	71.62
230.199	57.62
230.433	68.62
230.667	82.62
230.901	74.62
231.136	77.62
231.37	68.62
231.604	81.62
231.838	80.62
232.072	89.62
232.306	65.62
232.541	93.62
232.775	79.62
233.009	73.62
233.243	72.62
233.477	84.62
233.711	78.62
233.945	76.62
234.179	94.62
234.413	94.62
234.647	79.62
234.881	79.62
235.115	78.62
235.349	68.62
235.583	69.62
235.817	79.62
236.051	70.62
236.285	74.62
236.519	77.62
236.753	66.62
236.987	74.62
237.221	61.62
237.455	76.62
237.689	69.62
237.922	65.62
238.156	57.62
238.39	62.62
238.624	68.62
238.858	75.62
239.091	74.62
239.325	68.62
239.559	83.62
239.793	74.62
240.027	76.62
240.26	68.62
240.494	87.62
240.728	64.62
240.961	67.62
241.195	68.62
241.429	93.62
241.662	74.62
241.896	64.62
242.13	59.62
242.363	69.62
242.597	71.62
242.83	70.62
243.064	68.62
243.298	81.62
243.531	79.62
243.765	73.62
243.998	80.62
244.232	69.62
244.465	85.62
244.699	79.62
244.932	75.62
245.166	79.62
245.399	64.62
245.633	67.62
245.866	80.62
246.099	74.62
246.333	82.62
246.566	82.62
246.8	67.62
247.033	67.62
247.266	72.62
247.5	72.62
247.733	82.62
247.966	65.62
248.2	77.62
248.433	81.62
248.666	76.62
248.899	78.62
249.133	72.62
249.366	78.62
249.599	80.62
249.832	57.62
250.066	87.62
250.299	68.62
250.532	102.62
250.765	86.62
250.998	69.62
251.231	74.62
251.465	69.62
251.698	89.62
251.931	59.62
252.164	62.62
252.397	77.62
252.63	74.62
252.863	84.62
253.096	80.62
253.329	83.62
253.562	67.62
253.795	80.62
254.028	70.62
254.261	72.62
254.494	81.62
254.727	71.62
254.96	75.62
255.193	62.62
255.426	88.62
255.659	91.62
255.892	80.62
256.124	79.62
256.357	80.62
256.59	81.62
256.823	79.62
257.056	80.62
257.289	72.62
257.521	82.62
257.754	82.62
257.987	74.62
258.22	75.62
258.452	78.62
258.685	78.62
258.918	74.62
259.151	78.62
259.383	68.62
259.616	70.62
259.849	76.62
260.081	82.62
260.314	67.62
260.547	66.62
260.779	93.62
261.012	79.62
261.244	88.62
261.477	85.62
261.71	76.62
261.942	90.62
262.175	88.62
262.407	84.62
262.64	77.62
262.872	96.62
263.105	75.62
263.337	79.62
263.57	74.62
263.802	73.62
264.035	83.62
264.267	84.62
264.499	78.62
264.732	82.62
264.964	87.62
265.197	68.62
265.429	83.62
265.661	78.62
265.894	72.62
266.126	74.62
266.358	77.62
266.591	80.62
266.823	68.62
267.055	71.62
267.287	87.62
267.52	70.62
267.752	81.62
267.984	87.62
268.216	78.62
268.448	88.62
268.681	73.62
268.913	85.62
269.145	83.62
269.377	85.62
269.609	77.62
269.841	75.62
270.073	79.62
270.306	80.62
270.538	85.62
270.77	84.62
271.002	85.62
271.234	78.62
271.466	80.62
271.698	83.62
271.93	92.62
272.162	79.62
272.394	96.62
272.626	80.62
272.858	82.62
273.09	83.62
273.322	78.62
273.553	73.62
273.785	60.62
274.017	88.62
274.249	87.62
274.481	88.62
274.713	81.62
274.945	77.62
275.176	73.62
275.408	90.62
275.64	100.62
275.872	82.62
276.104	89.62
276.335	69.62
276.567	78.62
276.799	73.62
277.031	71.62
277.262	85.62
277.494	83.62
277.726	78.62
277.957	78.62
278.189	78.62
278.421	78.62
278.652	71.62
278.884	96.62
279.115	92.62
279.347	87.62
279.579	79.62
279.81	80.62
280.042	90.62
280.273	86.62
280.505	73.62
280.736	68.62
280.968	73.62
281.199	84.62
281.431	84.62
281.662	77.62
281.894	64.62
282.125	79.62
282.356	80.62
282.588	75.62
282.819	75.62
283.051	83.62
283.282	81.62
283.513	81.62
283.745	81.62
283.976	74.62
284.207	89.62
284.439	82.62
284.67	86.62
284.901	78.62
285.132	73.62
285.364	82.62
285.595	81.62
285.826	79.62
286.057	84.62
286.288	67.62
286.52	78.62
286.751	78.62
286.982	72.62
287.213	65.62
287.444	82.62
287.675	80.62
287.906	81.62
288.138	87.62
288.369	81.62
288.6	92.62
288.831	84.62
289.062	74.62
289.293	94.62
289.524	66.62
289.755	87.62
289.986	96.62
290.217	92.62
290.448	72.62
290.679	86.62
290.91	87.62
291.141	77.62
291.371	89.62
291.602	88.62
291.833	82.62
292.064	97.62
292.295	80.62
292.526	77.62
292.757	70.62
292.987	97.62
293.218	84.62
293.449	76.62
293.68	82.62
293.91	71.62
294.141	93.62
294.372	83.62
294.603	88.62
294.833	78.62
295.064	84.62
295.295	79.62
295.525	86.62
295.756	82.62
295.987	73.62
296.217	75.62
296.448	84.62
296.679	86.62
296.909	78.62
297.14	80.62
297.37	82.62
297.601	88.62
297.831	81.62
298.062	71.62
298.292	82.62
298.523	85.62
298.753	77.62
298.984	90.62
299.214	88.62
299.445	77.62
299.675	87.62
299.905	64.62
300.136	93.62
300.366	91.62
300.597	81.62
300.827	90.62
301.057	78.62
301.288	85.62
301.518	95.62
301.748	81.62
301.979	86.62
302.209	78.62
302.439	84.62
302.669	79.62
302.9	87.62
303.13	85.62
303.36	77.62
303.59	79.62
303.82	82.62
304.051	75.62
304.281	81.62
304.511	73.62
304.741	73.62
304.971	77.62
305.201	75.62
305.431	103.62
305.661	75.62
305.891	71.62
306.121	74.62
306.352	85.62
306.582	77.62
306.812	80.62
307.042	82.62
307.272	81.62
307.502	68.62
307.731	82.62
307.961	85.62
308.191	63.62
308.421	84.62
308.651	81.62
308.881	86.62
309.111	81.62
309.341	80.62
309.571	81.62
309.8	83.62
310.03	77.62
310.26	77.62
310.49	77.62
310.72	74.62
310.949	84.62
311.179	77.62
311.409	69.62
311.639	96.62
311.868	78.62
312.098	86.62
312.328	71.62
312.557	78.62
312.787	74.62
313.017	73.62
313.246	96.62
313.476	76.62
313.706	80.62
313.935	62.62
314.165	87.62
314.394	111.62
314.624	93.62
314.853	80.62
315.083	78.62
315.312	75.62
315.542	71.62
315.771	75.62
316.001	66.62
316.23	97.62
316.46	79.62
316.689	87.62
316.919	78.62
317.148	74.62
317.377	78.62
317.607	90.62
317.836	93.62
318.065	80.62
318.295	73.62
318.524	90.62
318.753	82.62
318.983	87.62
319.212	80.62
319.441	89.62
319.67	82.62
319.9	85.62
320.129	96.62
320.358	73.62
320.587	87.62
320.816	80.62
321.046	85.62
321.275	85.62
321.504	87.62
321.733	73.62
321.962	95.62
322.191	77.62
322.42	88.62
322.649	77.62
322.878	69.62
323.108	86.62
323.337	93.62
323.566	75.62
323.795	90.62
324.024	86.62
324.253	89.62
324.482	88.62
324.71	88.62
324.939	94.62
325.168	81.62
325.397	72.62
325.626	72.62
325.855	53.62
326.084	74.62
326.313	78.62
326.542	80.62
326.77	85.62
326.999	97.62
327.228	80.62
327.457	83.62
327.686	90.62
327.914	81.62
328.143	82.62
328.372	94.62
328.6	86.62
328.829	83.62
329.058	78.62
329.287	95.62
329.515	80.62
329.744	82.62
329.972	75.62
330.201	89.62
330.43	90.62
330.658	78.62
330.887	85.62
331.115	70.62
331.344	82.62
331.572	93.62
331.801	84.62
332.03	86.62
332.258	100.62
332.486	76.62
332.715	92.62
332.943	77.62
333.172	84.62
333.4	77.62
333.629	85.62
333.857	84.62
334.085	75.62
334.314	82.62
334.542	79.62
334.771	76.62
334.999	83.62
335.227	84.62
335.455	84.62
335.684	80.62
335.912	89.62
336.14	89.62
336.369	104.62
336.597	71.62
336.825	84.62
337.053	79.62
337.281	97.62
337.51	104.62
337.738	89.62
337.966	87.62
338.194	89.62
338.422	86.62
338.65	79.62
338.878	81.62
339.106	73.62
339.334	91.62
339.562	76.62
339.79	77.62
340.018	86.62
340.246	77.62
340.474	92.62
340.702	95.62
340.93	84.62
341.158	84.62
341.386	98.62
341.614	93.62
341.842	67.62
342.07	79.62
342.298	82.62
342.526	95.62
342.754	68.62
342.981	82.62
343.209	82.62
343.437	84.62
343.665	85.62
343.893	85.62
344.12	89.62
344.348	82.62
344.576	93.62
344.804	88.62
345.031	88.62
345.259	98.62
345.487	97.62
345.714	89.62
345.942	68.62
346.17	94.62
346.397	76.62
346.625	75.62
346.853	98.62
347.08	71.62
347.308	66.62
347.535	98.62
347.763	93.62
347.99	80.62
348.218	83.62
348.445	89.62
348.673	94.62
348.9	95.62
349.128	79.62
349.355	79.62
349.583	81.62
349.81	79.62
350.037	94.62
350.265	90.62
350.492	94.62
350.72	65.62
350.947	83.62
351.174	89.62
351.402	69.62
351.629	85.62
351.856	86.62
352.083	82.62
352.311	72.62
352.538	81.62
352.765	85.62
352.992	79.62
353.22	79.62
353.447	76.62
353.674	82.62
353.901	72.62
354.128	82.62
354.355	71.62
354.583	77.62
354.81	88.62
355.037	91.62
355.264	82.62
355.491	67.62
355.718	81.62
355.945	82.62
356.172	72.62
356.399	76.62
356.626	86.62
356.853	77.62
357.08	70.62
357.307	88.62
357.534	80.62
357.761	73.62
357.988	77.62
358.215	80.62
358.441	65.62
358.668	83.62
358.895	91.62
359.122	104.62
359.349	88.62
359.576	88.62
359.802	71.62
360.029	73.62
360.256	80.62
360.483	80.62
360.709	89.62
360.936	85.62
361.163	81.62
361.39	77.62
361.616	86.62
361.843	88.62
362.07	89.62
362.296	79.62
362.523	85.62
362.749	91.62
362.976	78.62
363.203	89.62
363.429	85.62
363.656	79.62
363.882	89.62
364.109	89.62
364.335	84.62
364.562	80.62
364.788	87.62
365.015	88.62
365.241	82.62
365.468	94.62
365.694	79.62
365.92	74.62
366.147	87.62
366.373	78.62
366.599	72.62
366.826	84.62
367.052	106.62
367.278	85.62
367.505	88.62
367.731	86.62
367.957	73.62
368.184	89.62
368.41	80.62
368.636	83.62
368.862	89.62
369.089	75.62
369.315	65.62
369.541	92.62
369.767	83.62
369.993	72.62
370.219	83.62
370.445	77.62
370.672	84.62
370.898	84.62
371.124	85.62
371.35	86.62
371.576	76.62
371.802	83.62
372.028	76.62
372.254	96.62
372.48	72.62
372.706	93.62
372.932	76.62
373.158	81.62
373.384	77.62
373.61	77.62
373.835	78.62
374.061	74.62
374.287	78.62
374.513	66.62
374.739	87.62
374.965	89.62
375.191	73.62
375.416	76.62
375.642	87.62
375.868	79.62
376.094	75.62
376.319	89.62
376.545	77.62
376.771	76.62
376.997	84.62
377.222	78.62
377.448	80.62
377.674	78.62
377.899	80.62
378.125	76.62
378.35	84.62
378.576	72.62
378.802	85.62
379.027	73.62
379.253	76.62
379.478	66.62
379.704	77.62
379.929	73.62
380.155	81.62
380.38	93.62
380.606	80.62
380.831	88.62
381.057	76.62
381.282	77.62
381.507	65.62
381.733	82.62
381.958	84.62
382.184	68.62
382.409	74.62
382.634	77.62
382.86	90.62
383.085	89.62
383.31	84.62
383.535	70.62
383.761	79.62
383.986	86.62
384.211	82.62
384.436	94.62
384.662	76.62
384.887	82.62
385.112	72.62
385.337	91.62
385.562	82.62
385.787	92.62
386.013	82.62
386.238	79.62
386.463	80.62
386.688	74.62
386.913	71.62
387.138	57.62
387.363	94.62
387.588	77.62
387.813	69.62
388.038	92.62
388.263	81.62
388.488	80.62
388.713	75.62
388.938	72.62
389.163	80.62
389.387	80.62
389.612	75.62
389.837	87.62
390.062	78.62
390.287	78.62
390.512	81.62
390.736	86.62
390.961	81.62
391.186	82.62
391.411	71.62
391.636	88.62
391.86	89.62
392.085	91.62
392.31	78.62
392.534	78.62
392.759	83.62
392.984	73.62
393.208	75.62
393.433	82.62
393.658	65.62
393.882	86.62
394.107	83.62
394.331	79.62
394.556	70.62
394.78	98.62
395.005	79.62
395.229	89.62
395.454	93.62
395.678	81.62
395.903	73.62
396.127	88.62
396.352	80.62
396.576	83.62
396.801	89.62
397.025	79.62
397.249	88.62
397.474	85.62
397.698	85.62
397.922	82.62
398.147	89.62
398.371	82.62
398.595	97.62
398.82	78.62
399.044	88.62
399.268	84.62
399.492	85.62
399.717	80.62
399.941	75.62
400.165	96.62
400.389	85.62
400.613	93.62
400.837	81.62
401.062	77.62
401.286	70.62
401.51	87.62
401.734	85.62
401.958	82.62
402.182	81.62
402.406	91.62
402.63	87.62
402.854	80.62
403.078	80.62
403.302	73.62
403.526	86.62
403.75	84.62
403.974	83.62
404.198	84.62
404.422	76.62
404.645	79.62
404.869	73.62
405.093	73.62
405.317	78.62
405.541	87.62
405.765	69.62
405.988	81.62
406.212	87.62
406.436	83.62
406.66	86.62
406.883	85.62
407.107	86.62
407.331	78.62
407.555	90.62
407.778	74.62
408.002	82.62
408.226	74.62
408.449	69.62
408.673	81.62
408.896	69.62
409.12	74.62
409.344	84.62
409.567	92.62
409.791	72.62
410.014	96.62
410.238	75.62
410.461	96.62
410.685	80.62
410.908	85.62
411.132	82.62
411.355	82.62
411.578	77.62
411.802	86.62
412.025	92.62
412.249	93.62
412.472	76.62
412.695	75.62
412.919	77.62
413.142	71.62
413.365	78.62
413.589	78.62
413.812	78.62
414.035	73.62
414.258	81.62
414.482	80.62
414.705	84.62
414.928	88.62
415.151	86.62
415.374	80.62
415.597	82.62
415.821	93.62
416.044	80.62
416.267	84.62
416.49	62.62
416.713	83.62
416.936	75.62
417.159	78.62
417.382	89.62
417.605	90.62
417.828	62.62
418.051	83.62
418.274	82.62
418.497	83.62
418.72	97.62
418.943	81.62
419.166	88.62
419.389	89.62
419.611	73.62
419.834	74.62
420.057	84.62
420.28	82.62
420.503	75.62
420.726	96.62
420.948	96.62
421.171	89.62
421.394	84.62
421.617	73.62
421.839	73.62
422.062	75.62
422.285	82.62
422.507	84.62
422.73	75.62
422.953	83.62
423.175	77.62
423.398	82.62
423.621	77.62
423.843	78.62
424.066	89.62
424.288	79.62
424.511	78.62
424.733	76.62
424.956	72.62
425.178	100.62
425.401	86.62
425.623	82.62
425.846	78.62
426.068	74.62
426.291	92.62
426.513	76.62
426.735	79.62
426.958	87.62
427.18	90.62
427.402	78.62
427.625	72.62
427.847	82.62
428.069	89.62
428.292	69.62
428.514	74.62
428.736	64.62
428.958	73.62
429.181	87.62
429.403	65.62
429.625	85.62
429.847	82.62
430.069	81.62
430.292	86.62
430.514	68.62
430.736	97.62
430.958	84.62
431.18	74.62
431.402	89.62
431.624	84.62
431.846	92.62
432.068	76.62
432.29	76.62
432.512	74.62
432.734	72.62
432.956	89.62
433.178	84.62
433.4	93.62
433.622	86.62
433.844	90.62
434.066	79.62
434.287	70.62
434.509	71.62
434.731	69.62
434.953	83.62
435.175	95.62
435.397	84.62
435.618	94.62
435.84	75.62
436.062	84.62
436.284	81.62
436.505	79.62
436.727	94.62
436.949	82.62
437.17	77.62
437.392	92.62
437.614	74.62
437.835	72.62
438.057	76.62
438.278	73.62
438.5	91.62
438.721	68.62
438.943	88.62
439.165	81.62
439.386	76.62
439.608	88.62
439.829	80.62
440.05	73.62
440.272	73.62
440.493	95.62
440.715	82.62
440.936	62.62
441.158	70.62
441.379	72.62
441.6	74.62
441.822	80.62
442.043	75.62
442.264	101.62
442.486	87.62
442.707	81.62
442.928	93.62
443.149	87.62
443.371	82.62
443.592	81.62
443.813	86.62
444.034	68.62
444.255	65.62
444.476	81.62
444.698	81.62
444.919	80.62
445.14	220.62
445.361	156.62
445.582	94.62
445.803	73.62
446.024	79.62
446.245	87.62
446.466	79.62
446.687	76.62
446.908	91.62
447.129	89.62
447.35	73.62
447.571	78.62
447.792	86.62
448.013	70.62
448.234	72.62
448.455	82.62
448.675	70.62
448.896	74.62
449.117	83.62
449.338	85.62
449.559	72.62
449.779	89.62
450	81.62
450.221	86.62
450.442	72.62
450.662	73.62
450.883	83.62
451.104	78.62
451.324	84.62
451.545	80.62
451.766	82.62
451.986	87.62
452.207	81.62
452.428	86.62
452.648	83.62
452.869	82.62
453.089	84.62
453.31	77.62
453.53	80.62
453.751	80.62
453.971	83.62
454.192	90.62
454.412	83.62
454.633	74.62
454.853	78.62
455.073	82.62
455.294	69.62
455.514	72.62
455.734	81.62
455.955	64.62
456.175	85.62
456.395	85.62
456.616	88.62
456.836	79.62
457.056	89.62
457.276	80.62
457.497	73.62
457.717	70.62
457.937	78.62
458.157	67.62
458.377	68.62
458.598	75.62
458.818	84.62
459.038	88.62
459.258	68.62
459.478	74.62
459.698	82.62
459.918	73.62
460.138	88.62
460.358	95.62
460.578	87.62
460.798	73.62
461.018	89.62
461.238	75.62
461.458	80.62
461.678	86.62
461.898	88.62
462.118	78.62
462.338	79.62
462.558	89.62
462.777	72.62
462.997	100.62
463.217	77.62
463.437	72.62
463.657	80.62
463.876	81.62
464.096	91.62
464.316	79.62
464.536	94.62
464.755	94.62
464.975	93.62
465.195	88.62
465.414	87.62
465.634	85.62
465.854	89.62
466.073	73.62
466.293	80.62
466.512	94.62
466.732	97.62
466.951	78.62
467.171	79.62
467.391	79.62
467.61	83.62
467.829	82.62
468.049	89.62
468.268	72.62
468.488	100.62
468.707	91.62
468.927	86.62
469.146	78.62
469.365	86.62
469.585	86.62
469.804	83.62
470.023	84.62
470.243	80.62
470.462	105.62
470.681	77.62
470.901	85.62
471.12	76.62
471.339	76.62
471.558	93.62
471.777	86.62
471.997	94.62
472.216	81.62
472.435	84.62
472.654	81.62
472.873	84.62
473.092	85.62
473.311	84.62
473.53	78.62
473.749	74.62
473.968	83.62
474.187	69.62
474.406	65.62
474.625	78.62
474.844	91.62
475.063	81.62
475.282	61.62
475.501	75.62
475.72	98.62
475.939	91.62
476.158	87.62
476.377	82.62
476.596	92.62
476.814	86.62
477.033	87.62
477.252	77.62
477.471	80.62
477.69	73.62
477.908	105.62
478.127	75.62
478.346	87.62
478.564	78.62
478.783	77.62
479.002	86.62
479.22	73.62
479.439	80.62
479.658	68.62
479.876	90.62
480.095	85.62
480.313	84.62
480.532	79.62
480.751	83.62
480.969	82.62
481.188	83.62
481.406	93.62
481.624	78.62
481.843	78.62
482.061	79.62
482.28	90.62
482.498	92.62
482.717	79.62
482.935	80.62
483.153	85.62
483.372	86.62
483.59	84.62
483.808	92.62
484.027	88.62
484.245	94.62
484.463	86.62
484.681	83.62
484.9	94.62
485.118	92.62
485.336	77.62
485.554	95.62
485.772	88.62
485.99	96.62
486.209	83.62
486.427	85.62
486.645	84.62
486.863	84.62
487.081	85.62
487.299	88.62
487.517	97.62
487.735	79.62
487.953	84.62
488.171	94.62
488.389	88.62
488.607	88.62
488.825	96.62
489.043	80.62
489.261	83.62
489.479	86.62
489.696	84.62
489.914	75.62
490.132	95.62
490.35	92.62
490.568	78.62
490.786	92.62
491.003	82.62
491.221	81.62
491.439	81.62
491.657	104.62
491.874	93.62
492.092	87.62
492.31	89.62
492.527	85.62
492.745	97.62
492.963	88.62
493.18	90.62
493.398	100.62
493.615	88.62
493.833	82.62
494.05	98.62
494.268	100.62
494.485	83.62
494.703	93.62
494.92	93.62
495.138	98.62
495.355	85.62
495.573	82.62
495.79	98.62
496.008	102.62
496.225	83.62
496.442	89.62
496.66	105.62
496.877	82.62
497.094	98.62
497.312	83.62
497.529	90.62
497.746	94.62
497.963	85.62
498.181	92.62
498.398	92.62
498.615	95.62
498.832	85.62
499.049	84.62
499.267	102.62
499.484	116.62
499.701	88.62
499.918	97.62
500.135	107.62
500.352	109.62
500.569	112.62
500.786	107.62
501.003	92.62
501.22	101.62
501.437	99.62
501.654	99.62
501.871	78.62
502.088	95.62
502.305	95.62
502.522	85.62
502.739	89.62
502.956	80.62
503.172	109.62
503.389	82.62
503.606	106.62
503.823	96.62
504.04	95.62
504.256	94.62
504.473	92.62
504.69	92.62
504.907	96.62
505.123	98.62
505.34	104.62
505.557	101.62
505.773	71.62
505.99	118.62
506.207	95.62
506.423	81.62
506.64	85.62
506.856	83.62
507.073	88.62
507.289	91.62
507.506	83.62
507.722	77.62
507.939	93.62
508.155	84.62
508.372	64.62
508.588	77.62
508.805	94.62
509.021	96.62
509.238	97.62
509.454	87.62
509.67	90.62
509.887	96.62
510.103	81.62
510.319	92.62
510.536	97.62
510.752	83.62
510.968	80.62
511.184	83.62
511.401	87.62
511.617	89.62
511.833	91.62
512.049	72.62
512.265	85.62
512.481	81.62
512.698	96.62
512.914	93.62
513.13	78.62
513.346	81.62
513.562	93.62
513.778	80.62
513.994	76.62
514.21	89.62
514.426	86.62
514.642	92.62
514.858	76.62
515.074	93.62
515.29	90.62
515.506	84.62
515.721	88.62
515.937	96.62
516.153	78.62
516.369	82.62
516.585	93.62
516.801	90.62
517.016	102.62
517.232	98.62
517.448	98.62
517.664	90.62
517.879	83.62
518.095	80.62
518.311	98.62
518.527	92.62
518.742	93.62
518.958	96.62
