Data from Ni(NO3)2@0.125M.TitratingCurve.Agarose3%dH2O.NegLispCup.LampEnergy10.LIBS07252019_HRD10591_18-08-28-567.txt Node
Date: Thu Jul 25 18:08:28 EDT 2019
User: cochatt
Spectrometer: HR+D1059
Trigger mode: 1
Integration Time (sec): 1.000000E-1
Scans to average: 1
Electric dark correction enabled: true
Nonlinearity correction enabled: false
Boxcar width: 0
XAxis mode: Wavelengths
Number of Pixels in Spectrum: 2048
>>>>>Begin Spectral Data<<<<<
223.165	-9.25
223.4	-9.25
223.635	-9.25
223.869	-14.25
224.104	-26.25
224.338	-13.25
224.573	-17.25
224.808	-9.25
225.042	-21.25
225.277	10.75
225.511	-9.25
225.746	-4.25
225.98	5.75
226.215	5.75
226.449	39.75
226.683	9.75
226.918	23.75
227.152	28.75
227.387	38.75
227.621	40.75
227.856	40.75
228.09	37.75
228.324	61.75
228.559	55.75
228.793	73.75
229.027	136.75
229.262	118.75
229.496	126.75
229.73	139.75
229.964	138.75
230.199	144.75
230.433	169.75
230.667	150.75
230.901	157.75
231.136	171.75
231.37	142.75
231.604	157.75
231.838	155.75
232.072	179.75
232.306	173.75
232.541	164.75
232.775	169.75
233.009	179.75
233.243	166.75
233.477	139.75
233.711	151.75
233.945	181.75
234.179	166.75
234.413	172.75
234.647	164.75
234.881	183.75
235.115	155.75
235.349	165.75
235.583	171.75
235.817	173.75
236.051	179.75
236.285	187.75
236.519	180.75
236.753	173.75
236.987	185.75
237.221	169.75
237.455	169.75
237.689	167.75
237.922	180.75
238.156	190.75
238.39	182.75
238.624	179.75
238.858	212.75
239.091	188.75
239.325	189.75
239.559	215.75
239.793	205.75
240.027	193.75
240.26	222.75
240.494	213.75
240.728	201.75
240.961	207.75
241.195	205.75
241.429	209.75
241.662	223.75
241.896	207.75
242.13	219.75
242.363	228.75
242.597	234.75
242.83	219.75
243.064	205.75
243.298	215.75
243.531	238.75
243.765	245.75
243.998	246.75
244.232	227.75
244.465	243.75
244.699	258.75
244.932	248.75
245.166	268.75
245.399	255.75
245.633	244.75
245.866	254.75
246.099	259.75
246.333	257.75
246.566	267.75
246.8	252.75
247.033	281.75
247.266	262.75
247.5	269.75
247.733	261.75
247.966	264.75
248.2	264.75
248.433	279.75
248.666	285.75
248.899	280.75
249.133	294.75
249.366	290.75
249.599	293.75
249.832	266.75
250.066	282.75
250.299	292.75
250.532	284.75
250.765	306.75
250.998	310.75
251.231	307.75
251.465	337.75
251.698	319.75
251.931	318.75
252.164	307.75
252.397	322.75
252.63	328.75
252.863	329.75
253.096	334.75
253.329	322.75
253.562	325.75
253.795	322.75
254.028	317.75
254.261	343.75
254.494	330.75
254.727	315.75
254.96	339.75
255.193	362.75
255.426	348.75
255.659	363.75
255.892	353.75
256.124	351.75
256.357	348.75
256.59	343.75
256.823	345.75
257.056	357.75
257.289	333.75
257.521	353.75
257.754	345.75
257.987	360.75
258.22	364.75
258.452	383.75
258.685	399.75
258.918	381.75
259.151	379.75
259.383	391.75
259.616	371.75
259.849	399.75
260.081	403.75
260.314	396.75
260.547	398.75
260.779	398.75
261.012	396.75
261.244	406.75
261.477	423.75
261.71	406.75
261.942	411.75
262.175	395.75
262.407	409.75
262.64	388.75
262.872	415.75
263.105	419.75
263.337	411.75
263.57	429.75
263.802	406.75
264.035	430.75
264.267	406.75
264.499	421.75
264.732	430.75
264.964	442.75
265.197	428.75
265.429	431.75
265.661	454.75
265.894	441.75
266.126	449.75
266.358	446.75
266.591	439.75
266.823	458.75
267.055	449.75
267.287	451.75
267.52	455.75
267.752	445.75
267.984	439.75
268.216	470.75
268.448	478.75
268.681	442.75
268.913	454.75
269.145	449.75
269.377	466.75
269.609	473.75
269.841	469.75
270.073	466.75
270.306	479.75
270.538	456.75
270.77	470.75
271.002	459.75
271.234	454.75
271.466	468.75
271.698	483.75
271.93	475.75
272.162	490.75
272.394	503.75
272.626	472.75
272.858	486.75
273.09	485.75
273.322	499.75
273.553	503.75
273.785	480.75
274.017	492.75
274.249	509.75
274.481	511.75
274.713	487.75
274.945	508.75
275.176	522.75
275.408	495.75
275.64	513.75
275.872	501.75
276.104	507.75
276.335	505.75
276.567	514.75
276.799	543.75
277.031	523.75
277.262	521.75
277.494	517.75
277.726	537.75
277.957	525.75
278.189	527.75
278.421	541.75
278.652	537.75
278.884	543.75
279.115	535.75
279.347	554.75
279.579	537.75
279.81	544.75
280.042	531.75
280.273	563.75
280.505	583.75
280.736	549.75
280.968	551.75
281.199	573.75
281.431	586.75
281.662	571.75
281.894	578.75
282.125	579.75
282.356	574.75
282.588	573.75
282.819	560.75
283.051	587.75
283.282	577.75
283.513	565.75
283.745	589.75
283.976	580.75
284.207	585.75
284.439	616.75
284.67	599.75
284.901	587.75
285.132	590.75
285.364	605.75
285.595	617.75
285.826	588.75
286.057	617.75
286.288	597.75
286.52	607.75
286.751	617.75
286.982	614.75
287.213	602.75
287.444	600.75
287.675	609.75
287.906	597.75
288.138	651.75
288.369	640.75
288.6	607.75
288.831	637.75
289.062	631.75
289.293	636.75
289.524	645.75
289.755	647.75
289.986	634.75
290.217	612.75
290.448	633.75
290.679	655.75
290.91	653.75
291.141	628.75
291.371	649.75
291.602	667.75
291.833	627.75
292.064	637.75
292.295	643.75
292.526	651.75
292.757	619.75
292.987	631.75
293.218	635.75
293.449	650.75
293.68	628.75
293.91	659.75
294.141	661.75
294.372	636.75
294.603	648.75
294.833	637.75
295.064	638.75
295.295	625.75
295.525	647.75
295.756	671.75
295.987	665.75
296.217	645.75
296.448	681.75
296.679	684.75
296.909	668.75
297.14	650.75
297.37	671.75
297.601	678.75
297.831	679.75
298.062	681.75
298.292	682.75
298.523	701.75
298.753	695.75
298.984	692.75
299.214	703.75
299.445	691.75
299.675	679.75
299.905	710.75
300.136	728.75
300.366	711.75
300.597	705.75
300.827	735.75
301.057	722.75
301.288	721.75
301.518	739.75
301.748	755.75
301.979	739.75
302.209	738.75
302.439	745.75
302.669	738.75
302.9	723.75
303.13	696.75
303.36	744.75
303.59	738.75
303.82	714.75
304.051	717.75
304.281	732.75
304.511	728.75
304.741	728.75
304.971	747.75
305.201	723.75
305.431	753.75
305.661	724.75
305.891	726.75
306.121	718.75
306.352	703.75
306.582	719.75
306.812	699.75
307.042	727.75
307.272	712.75
307.502	685.75
307.731	699.75
307.961	720.75
308.191	710.75
308.421	705.75
308.651	706.75
308.881	691.75
309.111	719.75
309.341	694.75
309.571	718.75
309.8	726.75
310.03	735.75
310.26	702.75
310.49	710.75
310.72	739.75
310.949	715.75
311.179	733.75
311.409	701.75
311.639	721.75
311.868	730.75
312.098	729.75
312.328	741.75
312.557	773.75
312.787	725.75
313.017	757.75
313.246	755.75
313.476	802.75
313.706	785.75
313.935	796.75
314.165	797.75
314.394	786.75
314.624	777.75
314.853	786.75
315.083	753.75
315.312	789.75
315.542	780.75
315.771	781.75
316.001	749.75
316.23	759.75
316.46	758.75
316.689	780.75
316.919	762.75
317.148	809.75
317.377	762.75
317.607	762.75
317.836	765.75
318.065	759.75
318.295	774.75
318.524	766.75
318.753	754.75
318.983	763.75
319.212	774.75
319.441	746.75
319.67	777.75
319.9	782.75
320.129	763.75
320.358	759.75
320.587	748.75
320.816	783.75
321.046	759.75
321.275	758.75
321.504	784.75
321.733	803.75
321.962	782.75
322.191	782.75
322.42	773.75
322.649	798.75
322.878	813.75
323.108	787.75
323.337	798.75
323.566	796.75
323.795	791.75
324.024	806.75
324.253	821.75
324.482	806.75
324.71	819.75
324.939	823.75
325.168	819.75
325.397	845.75
325.626	805.75
325.855	827.75
326.084	857.75
326.313	865.75
326.542	857.75
326.77	876.75
326.999	859.75
327.228	828.75
327.457	871.75
327.686	870.75
327.914	864.75
328.143	860.75
328.372	858.75
328.6	861.75
328.829	842.75
329.058	870.75
329.287	879.75
329.515	874.75
329.744	914.75
329.972	899.75
330.201	897.75
330.43	945.75
330.658	899.75
330.887	905.75
331.115	917.75
331.344	919.75
331.572	953.75
331.801	959.75
332.03	962.75
332.258	1001.75
332.486	1020.75
332.715	1059.75
332.943	1123.75
333.172	1157.75
333.4	1204.75
333.629	1246.75
333.857	1252.75
334.085	1250.75
334.314	1191.75
334.542	1173.75
334.771	1150.75
334.999	1135.75
335.227	1131.75
335.455	1113.75
335.684	1116.75
335.912	1083.75
336.14	1092.75
336.369	1086.75
336.597	1097.75
336.825	1095.75
337.053	1114.75
337.281	1040.75
337.51	1032.75
337.738	1004.75
337.966	1023.75
338.194	1036.75
338.422	1003.75
338.65	990.75
338.878	987.75
339.106	985.75
339.334	1018.75
339.562	988.75
339.79	952.75
340.018	942.75
340.246	913.75
340.474	956.75
340.702	939.75
340.93	958.75
341.158	940.75
341.386	953.75
341.614	980.75
341.842	953.75
342.07	939.75
342.298	940.75
342.526	938.75
342.754	920.75
342.981	928.75
343.209	963.75
343.437	1005.75
343.665	1063.75
343.893	1153.75
344.12	1197.75
344.348	1156.75
344.576	1057.75
344.804	1050.75
345.031	987.75
345.259	984.75
345.487	954.75
345.714	955.75
345.942	952.75
346.17	946.75
346.397	943.75
346.625	934.75
346.853	921.75
347.08	927.75
347.308	903.75
347.535	940.75
347.763	922.75
347.99	896.75
348.218	937.75
348.445	917.75
348.673	917.75
348.9	915.75
349.128	900.75
349.355	910.75
349.583	912.75
349.81	905.75
350.037	868.75
350.265	915.75
350.492	894.75
350.72	883.75
350.947	876.75
351.174	887.75
351.402	875.75
351.629	871.75
351.856	867.75
352.083	879.75
352.311	897.75
352.538	886.75
352.765	887.75
352.992	853.75
353.22	875.75
353.447	854.75
353.674	857.75
353.901	846.75
354.128	853.75
354.355	841.75
354.583	870.75
354.81	854.75
355.037	846.75
355.264	858.75
355.491	887.75
355.718	873.75
355.945	851.75
356.172	859.75
356.399	860.75
356.626	904.75
356.853	897.75
357.08	881.75
357.307	867.75
357.534	875.75
357.761	895.75
357.988	887.75
358.215	887.75
358.441	862.75
358.668	840.75
358.895	866.75
359.122	826.75
359.349	859.75
359.576	840.75
359.802	884.75
360.029	869.75
360.256	903.75
360.483	878.75
360.709	870.75
360.936	872.75
361.163	881.75
361.39	870.75
361.616	848.75
361.843	885.75
362.07	883.75
362.296	891.75
362.523	892.75
362.749	853.75
362.976	878.75
363.203	841.75
363.429	844.75
363.656	863.75
363.882	859.75
364.109	841.75
364.335	866.75
364.562	834.75
364.788	834.75
365.015	859.75
365.241	846.75
365.468	850.75
365.694	851.75
365.92	829.75
366.147	838.75
366.373	845.75
366.599	871.75
366.826	854.75
367.052	853.75
367.278	866.75
367.505	882.75
367.731	854.75
367.957	852.75
368.184	881.75
368.41	844.75
368.636	853.75
368.862	854.75
369.089	865.75
369.315	885.75
369.541	911.75
369.767	887.75
369.993	860.75
370.219	864.75
370.445	909.75
370.672	925.75
370.898	891.75
371.124	904.75
371.35	946.75
371.576	959.75
371.802	910.75
372.028	918.75
372.254	928.75
372.48	929.75
372.706	958.75
372.932	983.75
373.158	972.75
373.384	947.75
373.61	937.75
373.835	920.75
374.061	947.75
374.287	918.75
374.513	971.75
374.739	988.75
374.965	1019.75
375.191	1025.75
375.416	1039.75
375.642	1003.75
375.868	961.75
376.094	998.75
376.319	957.75
376.545	942.75
376.771	957.75
376.997	940.75
377.222	924.75
377.448	905.75
377.674	933.75
377.899	914.75
378.125	918.75
378.35	913.75
378.576	931.75
378.802	882.75
379.027	932.75
379.253	910.75
379.478	913.75
379.704	909.75
379.929	909.75
380.155	896.75
380.38	906.75
380.606	893.75
380.831	925.75
381.057	905.75
381.282	893.75
381.507	923.75
381.733	911.75
381.958	912.75
382.184	926.75
382.409	942.75
382.634	935.75
382.86	940.75
383.085	953.75
383.31	969.75
383.535	1004.75
383.761	995.75
383.986	1012.75
384.211	1056.75
384.436	1055.75
384.662	1120.75
384.887	1086.75
385.112	1107.75
385.337	1109.75
385.562	1125.75
385.787	1134.75
386.013	1159.75
386.238	1085.75
386.463	1141.75
386.688	1131.75
386.913	1094.75
387.138	1094.75
387.363	1090.75
387.588	1082.75
387.813	1060.75
388.038	1103.75
388.263	1103.75
388.488	1086.75
388.713	1097.75
388.938	1055.75
389.163	1059.75
389.387	1054.75
389.612	1079.75
389.837	1073.75
390.062	1061.75
390.287	1035.75
390.512	1068.75
390.736	1086.75
390.961	1105.75
391.186	1131.75
391.411	1166.75
391.636	1191.75
391.86	1270.75
392.085	1269.75
392.31	1225.75
392.534	1225.75
392.759	1166.75
392.984	1191.75
393.208	1191.75
393.433	1177.75
393.658	1194.75
393.882	1198.75
394.107	1204.75
394.331	1185.75
394.556	1190.75
394.78	1178.75
395.005	1191.75
395.229	1189.75
395.454	1230.75
395.678	1228.75
395.903	1254.75
396.127	1221.75
396.352	1178.75
396.576	1157.75
396.801	1173.75
397.025	1193.75
397.249	1199.75
397.474	1233.75
397.698	1227.75
397.922	1246.75
398.147	1232.75
398.371	1249.75
398.595	1286.75
398.82	1393.75
399.044	1482.75
399.268	1612.75
399.492	1941.75
399.717	2177.75
399.941	2185.75
400.165	1933.75
400.389	1680.75
400.613	1585.75
400.837	1512.75
401.062	1450.75
401.286	1391.75
401.51	1394.75
401.734	1403.75
401.958	1443.75
402.182	1441.75
402.406	1468.75
402.63	1457.75
402.854	1489.75
403.078	1490.75
403.302	1565.75
403.526	1600.75
403.75	1599.75
403.974	1648.75
404.198	1637.75
404.422	1653.75
404.645	1642.75
404.869	1640.75
405.093	1641.75
405.317	1590.75
405.541	1572.75
405.765	1532.75
405.988	1567.75
406.212	1554.75
406.436	1545.75
406.66	1575.75
406.883	1608.75
407.107	1720.75
407.331	1773.75
407.555	1936.75
407.778	1836.75
408.002	1781.75
408.226	1738.75
408.449	1682.75
408.673	1616.75
408.896	1594.75
409.12	1609.75
409.344	1602.75
409.567	1585.75
409.791	1591.75
410.014	1578.75
410.238	1574.75
410.461	1558.75
410.685	1532.75
410.908	1496.75
411.132	1467.75
411.355	1426.75
411.578	1437.75
411.802	1435.75
412.025	1442.75
412.249	1495.75
412.472	1489.75
412.695	1446.75
412.919	1393.75
413.142	1409.75
413.365	1398.75
413.589	1419.75
413.812	1430.75
414.035	1396.75
414.258	1380.75
414.482	1393.75
414.705	1426.75
414.928	1460.75
415.151	1446.75
415.374	1417.75
415.597	1408.75
415.821	1340.75
416.044	1376.75
416.267	1362.75
416.49	1349.75
416.713	1393.75
416.936	1397.75
417.159	1409.75
417.382	1379.75
417.605	1387.75
417.828	1395.75
418.051	1436.75
418.274	1430.75
418.497	1425.75
418.72	1458.75
418.943	1437.75
419.166	1521.75
419.389	1630.75
419.611	1618.75
419.834	1546.75
420.057	1467.75
420.28	1444.75
420.503	1396.75
420.726	1386.75
420.948	1386.75
421.171	1411.75
421.394	1402.75
421.617	1385.75
421.839	1403.75
422.062	1417.75
422.285	1425.75
422.507	1421.75
422.73	1438.75
422.953	1454.75
423.175	1519.75
423.398	1477.75
423.621	1523.75
423.843	1499.75
424.066	1535.75
424.288	1510.75
424.511	1516.75
424.733	1462.75
424.956	1470.75
425.178	1444.75
425.401	1453.75
425.623	1415.75
425.846	1380.75
426.068	1407.75
426.291	1364.75
426.513	1335.75
426.735	1344.75
426.958	1337.75
427.18	1304.75
427.402	1292.75
427.625	1281.75
427.847	1245.75
428.069	1250.75
428.292	1253.75
428.514	1271.75
428.736	1215.75
428.958	1256.75
429.181	1244.75
429.403	1237.75
429.625	1241.75
429.847	1209.75
430.069	1225.75
430.292	1234.75
430.514	1195.75
430.736	1258.75
430.958	1219.75
431.18	1221.75
431.402	1235.75
431.624	1260.75
431.846	1291.75
432.068	1317.75
432.29	1299.75
432.512	1250.75
432.734	1278.75
432.956	1281.75
433.178	1283.75
433.4	1290.75
433.622	1262.75
433.844	1271.75
434.066	1271.75
434.287	1304.75
434.509	1361.75
434.731	1371.75
434.953	1436.75
435.175	1471.75
435.397	1420.75
435.618	1327.75
435.84	1298.75
436.062	1256.75
436.284	1245.75
436.505	1273.75
436.727	1307.75
436.949	1269.75
437.17	1251.75
437.392	1234.75
437.614	1238.75
437.835	1230.75
438.057	1217.75
438.278	1174.75
438.5	1195.75
438.721	1192.75
438.943	1239.75
439.165	1209.75
439.386	1219.75
439.608	1260.75
439.829	1261.75
440.05	1263.75
440.272	1283.75
440.493	1284.75
440.715	1314.75
440.936	1274.75
441.158	1337.75
441.379	1387.75
441.6	1441.75
441.822	1478.75
442.043	1440.75
442.264	1429.75
442.486	1395.75
442.707	1435.75
442.928	1417.75
443.149	1412.75
443.371	1389.75
443.592	1460.75
443.813	1459.75
444.034	1447.75
444.255	1494.75
444.476	1580.75
444.698	1661.75
444.919	1739.75
445.14	1844.75
445.361	1681.75
445.582	1534.75
445.803	1445.75
446.024	1346.75
446.245	1329.75
446.466	1354.75
446.687	1262.75
446.908	1290.75
447.129	1225.75
447.35	1223.75
447.571	1236.75
447.792	1197.75
448.013	1211.75
448.234	1198.75
448.455	1151.75
448.675	1183.75
448.896	1179.75
449.117	1138.75
449.338	1165.75
449.559	1126.75
449.779	1145.75
450	1137.75
450.221	1151.75
450.442	1133.75
450.662	1143.75
450.883	1176.75
451.104	1237.75
451.324	1195.75
451.545	1189.75
451.766	1206.75
451.986	1180.75
452.207	1155.75
452.428	1159.75
452.648	1195.75
452.869	1134.75
453.089	1133.75
453.31	1185.75
453.53	1132.75
453.751	1142.75
453.971	1095.75
454.192	1135.75
454.412	1135.75
454.633	1086.75
454.853	1123.75
455.073	1085.75
455.294	1103.75
455.514	1092.75
455.734	1092.75
455.955	1093.75
456.175	1079.75
456.395	1075.75
456.616	1082.75
456.836	1086.75
457.056	1042.75
457.276	1048.75
457.497	1077.75
457.717	1087.75
457.937	1119.75
458.157	1101.75
458.377	1105.75
458.598	1169.75
458.818	1159.75
459.038	1181.75
459.258	1232.75
459.478	1284.75
459.698	1338.75
459.918	1373.75
460.138	1444.75
460.358	1483.75
460.578	1527.75
460.798	1545.75
461.018	1543.75
461.238	1531.75
461.458	1469.75
461.678	1475.75
461.898	1533.75
462.118	1530.75
462.338	1648.75
462.558	1665.75
462.777	1735.75
462.997	1881.75
463.217	2078.75
463.437	2129.75
463.657	1940.75
463.876	1854.75
464.096	1810.75
464.316	1793.75
464.536	1817.75
464.755	1740.75
464.975	1683.75
465.195	1559.75
465.414	1509.75
465.634	1379.75
465.854	1339.75
466.073	1303.75
466.293	1289.75
466.512	1254.75
466.732	1231.75
466.951	1223.75
467.171	1205.75
467.391	1214.75
467.61	1227.75
467.829	1210.75
468.049	1212.75
468.268	1141.75
468.488	1146.75
468.707	1151.75
468.927	1141.75
469.146	1153.75
469.365	1172.75
469.585	1198.75
469.804	1239.75
470.023	1275.75
470.243	1252.75
470.462	1262.75
470.681	1266.75
470.901	1283.75
471.12	1266.75
471.339	1243.75
471.558	1183.75
471.777	1196.75
471.997	1157.75
472.216	1158.75
472.435	1180.75
472.654	1158.75
472.873	1164.75
473.092	1148.75
473.311	1114.75
473.53	1145.75
473.749	1114.75
473.968	1129.75
474.187	1115.75
474.406	1149.75
474.625	1126.75
474.844	1126.75
475.063	1146.75
475.282	1134.75
475.501	1173.75
475.72	1141.75
475.939	1158.75
476.158	1163.75
476.377	1211.75
476.596	1170.75
476.814	1167.75
477.033	1194.75
477.252	1213.75
477.471	1281.75
477.69	1267.75
477.908	1325.75
478.127	1327.75
478.346	1377.75
478.564	1401.75
478.783	1412.75
479.002	1449.75
479.22	1438.75
479.439	1421.75
479.658	1401.75
479.876	1446.75
480.095	1449.75
480.313	1498.75
480.532	1552.75
480.751	1557.75
480.969	1492.75
481.188	1442.75
481.406	1395.75
481.624	1327.75
481.843	1299.75
482.061	1325.75
482.28	1297.75
482.498	1281.75
482.717	1282.75
482.935	1320.75
483.153	1282.75
483.372	1293.75
483.59	1321.75
483.808	1310.75
484.027	1288.75
484.245	1286.75
484.463	1258.75
484.681	1309.75
484.9	1315.75
485.118	1335.75
485.336	1335.75
485.554	1343.75
485.772	1353.75
485.99	1355.75
486.209	1347.75
486.427	1365.75
486.645	1391.75
486.863	1388.75
487.081	1367.75
487.299	1378.75
487.517	1357.75
487.735	1360.75
487.953	1349.75
488.171	1358.75
488.389	1338.75
488.607	1338.75
488.825	1314.75
489.043	1325.75
489.261	1333.75
489.479	1336.75
489.696	1351.75
489.914	1363.75
490.132	1367.75
490.35	1377.75
490.568	1338.75
490.786	1372.75
491.003	1391.75
491.221	1366.75
491.439	1359.75
491.657	1370.75
491.874	1378.75
492.092	1414.75
492.31	1395.75
492.527	1382.75
492.745	1429.75
492.963	1425.75
493.18	1402.75
493.398	1419.75
493.615	1411.75
493.833	1410.75
494.05	1419.75
494.268	1441.75
