Data from Ni(NO3)2@0.125M.TitratingCurve.Agarose3%dH2O.NegLispCup.LampEnergy10.LIBS07252019_HRD10591_18-09-45-568.txt Node
Date: Thu Jul 25 18:09:45 EDT 2019
User: cochatt
Spectrometer: HR+D1059
Trigger mode: 1
Integration Time (sec): 1.000000E-1
Scans to average: 1
Electric dark correction enabled: true
Nonlinearity correction enabled: false
Boxcar width: 0
XAxis mode: Wavelengths
Number of Pixels in Spectrum: 2048
>>>>>Begin Spectral Data<<<<<
223.165	-22.31
223.4	-22.31
223.635	-22.31
223.869	-11.31
224.104	-2.31
224.338	-7.31
224.573	-14.31
224.808	-11.31
225.042	-17.31
225.277	-7.31
225.511	-7.31
225.746	-5.31
225.98	15.69
226.215	14.69
226.449	16.69
226.683	16.69
226.918	14.69
227.152	27.69
227.387	24.69
227.621	28.69
227.856	50.69
228.09	51.69
228.324	52.69
228.559	63.69
228.793	74.69
229.027	84.69
229.262	79.69
229.496	105.69
229.73	109.69
229.964	126.69
230.199	119.69
230.433	124.69
230.667	127.69
230.901	115.69
231.136	107.69
231.37	117.69
231.604	125.69
231.838	131.69
232.072	125.69
232.306	142.69
232.541	123.69
232.775	121.69
233.009	111.69
233.243	117.69
233.477	127.69
233.711	126.69
233.945	117.69
234.179	117.69
234.413	131.69
234.647	143.69
234.881	133.69
235.115	146.69
235.349	129.69
235.583	125.69
235.817	125.69
236.051	119.69
236.285	113.69
236.519	123.69
236.753	130.69
236.987	129.69
237.221	139.69
237.455	131.69
237.689	146.69
237.922	139.69
238.156	143.69
238.39	151.69
238.624	132.69
238.858	135.69
239.091	133.69
239.325	132.69
239.559	154.69
239.793	141.69
240.027	149.69
240.26	155.69
240.494	146.69
240.728	138.69
240.961	159.69
241.195	142.69
241.429	128.69
241.662	136.69
241.896	153.69
242.13	162.69
242.363	149.69
242.597	149.69
242.83	154.69
243.064	175.69
243.298	155.69
243.531	144.69
243.765	154.69
243.998	164.69
244.232	163.69
244.465	167.69
244.699	156.69
244.932	158.69
245.166	177.69
245.399	159.69
245.633	183.69
245.866	179.69
246.099	155.69
246.333	175.69
246.566	163.69
246.8	155.69
247.033	170.69
247.266	173.69
247.5	186.69
247.733	189.69
247.966	181.69
248.2	181.69
248.433	191.69
248.666	170.69
248.899	193.69
249.133	177.69
249.366	173.69
249.599	185.69
249.832	187.69
250.066	180.69
250.299	188.69
250.532	208.69
250.765	202.69
250.998	201.69
251.231	190.69
251.465	192.69
251.698	203.69
251.931	189.69
252.164	202.69
252.397	212.69
252.63	198.69
252.863	209.69
253.096	217.69
253.329	202.69
253.562	208.69
253.795	213.69
254.028	199.69
254.261	228.69
254.494	211.69
254.727	232.69
254.96	204.69
255.193	218.69
255.426	225.69
255.659	218.69
255.892	239.69
256.124	217.69
256.357	209.69
256.59	212.69
256.823	232.69
257.056	230.69
257.289	229.69
257.521	212.69
257.754	227.69
257.987	213.69
258.22	230.69
258.452	230.69
258.685	232.69
258.918	253.69
259.151	250.69
259.383	242.69
259.616	242.69
259.849	244.69
260.081	267.69
260.314	241.69
260.547	257.69
260.779	247.69
261.012	242.69
261.244	254.69
261.477	243.69
261.71	245.69
261.942	260.69
262.175	267.69
262.407	233.69
262.64	242.69
262.872	241.69
263.105	237.69
263.337	266.69
263.57	241.69
263.802	257.69
264.035	271.69
264.267	281.69
264.499	249.69
264.732	274.69
264.964	256.69
265.197	264.69
265.429	277.69
265.661	271.69
265.894	257.69
266.126	266.69
266.358	261.69
266.591	273.69
266.823	275.69
267.055	281.69
267.287	293.69
267.52	286.69
267.752	293.69
267.984	289.69
268.216	296.69
268.448	292.69
268.681	294.69
268.913	286.69
269.145	290.69
269.377	288.69
269.609	275.69
269.841	283.69
270.073	309.69
270.306	282.69
270.538	277.69
270.77	281.69
271.002	294.69
271.234	285.69
271.466	291.69
271.698	295.69
271.93	292.69
272.162	299.69
272.394	284.69
272.626	294.69
272.858	295.69
273.09	299.69
273.322	287.69
273.553	296.69
273.785	309.69
274.017	285.69
274.249	320.69
274.481	299.69
274.713	310.69
274.945	309.69
275.176	316.69
275.408	317.69
275.64	331.69
275.872	324.69
276.104	310.69
276.335	311.69
276.567	292.69
276.799	309.69
277.031	316.69
277.262	319.69
277.494	302.69
277.726	329.69
277.957	332.69
278.189	320.69
278.421	301.69
278.652	320.69
278.884	290.69
279.115	315.69
279.347	335.69
279.579	322.69
279.81	322.69
280.042	323.69
280.273	323.69
280.505	330.69
280.736	320.69
280.968	339.69
281.199	308.69
281.431	329.69
281.662	340.69
281.894	349.69
282.125	353.69
282.356	353.69
282.588	359.69
282.819	352.69
283.051	336.69
283.282	341.69
283.513	353.69
283.745	348.69
283.976	360.69
284.207	347.69
284.439	343.69
284.67	377.69
284.901	363.69
285.132	378.69
285.364	365.69
285.595	363.69
285.826	378.69
286.057	375.69
286.288	383.69
286.52	370.69
286.751	407.69
286.982	361.69
287.213	391.69
287.444	382.69
287.675	375.69
287.906	380.69
288.138	381.69
288.369	355.69
288.6	399.69
288.831	377.69
289.062	424.69
289.293	383.69
289.524	406.69
289.755	379.69
289.986	413.69
290.217	382.69
290.448	386.69
290.679	383.69
290.91	407.69
291.141	389.69
291.371	378.69
291.602	384.69
291.833	383.69
292.064	385.69
292.295	378.69
292.526	388.69
292.757	400.69
292.987	393.69
293.218	399.69
293.449	402.69
293.68	397.69
293.91	403.69
294.141	417.69
294.372	397.69
294.603	413.69
294.833	412.69
295.064	387.69
295.295	382.69
295.525	399.69
295.756	413.69
295.987	402.69
296.217	396.69
296.448	394.69
296.679	424.69
296.909	433.69
297.14	403.69
297.37	419.69
297.601	407.69
297.831	427.69
298.062	412.69
298.292	426.69
298.523	432.69
298.753	446.69
298.984	433.69
299.214	419.69
299.445	404.69
299.675	425.69
299.905	403.69
300.136	431.69
300.366	442.69
300.597	437.69
300.827	443.69
301.057	460.69
301.288	427.69
301.518	453.69
301.748	451.69
301.979	446.69
302.209	453.69
302.439	453.69
302.669	431.69
302.9	433.69
303.13	428.69
303.36	439.69
303.59	420.69
303.82	429.69
304.051	450.69
304.281	422.69
304.511	430.69
304.741	423.69
304.971	422.69
305.201	430.69
305.431	438.69
305.661	434.69
305.891	427.69
306.121	436.69
306.352	437.69
306.582	436.69
306.812	434.69
307.042	412.69
307.272	426.69
307.502	425.69
307.731	424.69
307.961	430.69
308.191	425.69
308.421	428.69
308.651	426.69
308.881	434.69
309.111	432.69
309.341	408.69
309.571	433.69
309.8	429.69
310.03	412.69
310.26	426.69
310.49	433.69
310.72	435.69
310.949	433.69
311.179	433.69
311.409	432.69
311.639	447.69
311.868	458.69
312.098	418.69
312.328	457.69
312.557	461.69
312.787	442.69
313.017	458.69
313.246	444.69
313.476	460.69
313.706	445.69
313.935	469.69
314.165	469.69
314.394	449.69
314.624	446.69
314.853	444.69
315.083	443.69
315.312	449.69
315.542	454.69
315.771	451.69
316.001	435.69
316.23	456.69
316.46	459.69
316.689	458.69
316.919	454.69
317.148	446.69
317.377	435.69
317.607	478.69
317.836	448.69
318.065	430.69
318.295	458.69
318.524	452.69
318.753	450.69
318.983	449.69
319.212	462.69
319.441	430.69
319.67	472.69
319.9	435.69
320.129	440.69
320.358	451.69
320.587	410.69
320.816	457.69
321.046	444.69
321.275	452.69
321.504	443.69
321.733	453.69
321.962	458.69
322.191	453.69
322.42	434.69
322.649	452.69
322.878	475.69
323.108	463.69
323.337	467.69
323.566	448.69
323.795	460.69
324.024	466.69
324.253	449.69
324.482	466.69
324.71	466.69
324.939	472.69
325.168	481.69
325.397	472.69
325.626	482.69
325.855	453.69
326.084	507.69
326.313	493.69
326.542	515.69
326.77	514.69
326.999	495.69
327.228	481.69
327.457	489.69
327.686	502.69
327.914	490.69
328.143	490.69
328.372	508.69
328.6	478.69
328.829	478.69
329.058	493.69
329.287	490.69
329.515	510.69
329.744	505.69
329.972	507.69
330.201	524.69
330.43	506.69
330.658	525.69
330.887	517.69
331.115	535.69
331.344	522.69
331.572	512.69
331.801	542.69
332.03	540.69
332.258	556.69
332.486	577.69
332.715	598.69
332.943	648.69
333.172	679.69
333.4	692.69
333.629	693.69
333.857	697.69
334.085	679.69
334.314	659.69
334.542	634.69
334.771	670.69
334.999	645.69
335.227	631.69
335.455	619.69
335.684	627.69
335.912	600.69
336.14	593.69
336.369	601.69
336.597	608.69
336.825	603.69
337.053	589.69
337.281	589.69
337.51	579.69
337.738	572.69
337.966	570.69
338.194	560.69
338.422	551.69
338.65	548.69
338.878	545.69
339.106	563.69
339.334	558.69
339.562	542.69
339.79	530.69
340.018	531.69
340.246	516.69
340.474	521.69
340.702	524.69
340.93	532.69
341.158	550.69
341.386	542.69
341.614	524.69
341.842	540.69
342.07	511.69
342.298	513.69
342.526	518.69
342.754	522.69
342.981	526.69
343.209	536.69
343.437	579.69
343.665	609.69
343.893	639.69
344.12	653.69
344.348	625.69
344.576	610.69
344.804	606.69
345.031	549.69
345.259	540.69
345.487	550.69
345.714	551.69
345.942	523.69
346.17	530.69
346.397	521.69
346.625	526.69
346.853	530.69
347.08	527.69
347.308	533.69
347.535	515.69
347.763	541.69
347.99	536.69
348.218	540.69
348.445	522.69
348.673	527.69
348.9	511.69
349.128	500.69
349.355	499.69
349.583	515.69
349.81	515.69
350.037	504.69
350.265	484.69
350.492	488.69
350.72	491.69
350.947	471.69
351.174	508.69
351.402	472.69
351.629	506.69
351.856	505.69
352.083	477.69
352.311	490.69
352.538	486.69
352.765	480.69
352.992	495.69
353.22	492.69
353.447	493.69
353.674	482.69
353.901	502.69
354.128	501.69
354.355	497.69
354.583	516.69
354.81	516.69
355.037	509.69
355.264	505.69
355.491	488.69
355.718	501.69
355.945	482.69
356.172	495.69
356.399	505.69
356.626	493.69
356.853	490.69
357.08	537.69
357.307	501.69
357.534	509.69
357.761	494.69
357.988	501.69
358.215	497.69
358.441	485.69
358.668	485.69
358.895	487.69
359.122	498.69
359.349	515.69
359.576	471.69
359.802	481.69
360.029	490.69
360.256	497.69
360.483	493.69
360.709	491.69
360.936	501.69
361.163	501.69
361.39	504.69
361.616	495.69
361.843	503.69
362.07	499.69
362.296	493.69
362.523	495.69
362.749	486.69
362.976	507.69
363.203	513.69
363.429	474.69
363.656	481.69
363.882	476.69
364.109	486.69
364.335	467.69
364.562	466.69
364.788	479.69
365.015	483.69
365.241	478.69
365.468	478.69
365.694	471.69
365.92	494.69
366.147	477.69
366.373	492.69
366.599	474.69
366.826	490.69
367.052	495.69
367.278	470.69
367.505	501.69
367.731	528.69
367.957	479.69
368.184	487.69
368.41	495.69
368.636	482.69
368.862	500.69
369.089	518.69
369.315	504.69
369.541	518.69
369.767	503.69
369.993	493.69
370.219	505.69
370.445	508.69
370.672	541.69
370.898	531.69
371.124	547.69
371.35	553.69
371.576	532.69
371.802	534.69
372.028	521.69
372.254	537.69
372.48	539.69
372.706	566.69
372.932	571.69
373.158	566.69
373.384	525.69
373.61	546.69
373.835	520.69
374.061	530.69
374.287	537.69
374.513	551.69
374.739	574.69
374.965	584.69
375.191	591.69
375.416	598.69
375.642	581.69
375.868	569.69
376.094	581.69
376.319	524.69
376.545	561.69
376.771	551.69
376.997	531.69
377.222	533.69
377.448	532.69
377.674	539.69
377.899	506.69
378.125	541.69
378.35	523.69
378.576	534.69
378.802	526.69
379.027	532.69
379.253	513.69
379.478	532.69
379.704	523.69
379.929	526.69
380.155	548.69
380.38	543.69
380.606	524.69
380.831	523.69
381.057	537.69
381.282	563.69
381.507	531.69
381.733	545.69
381.958	570.69
382.184	535.69
382.409	550.69
382.634	569.69
382.86	558.69
383.085	574.69
383.31	600.69
383.535	597.69
383.761	614.69
383.986	620.69
384.211	615.69
384.436	622.69
384.662	642.69
384.887	648.69
385.112	644.69
385.337	634.69
385.562	644.69
385.787	633.69
386.013	647.69
386.238	638.69
386.463	653.69
386.688	655.69
386.913	645.69
387.138	646.69
387.363	621.69
387.588	615.69
387.813	642.69
388.038	597.69
388.263	629.69
388.488	637.69
388.713	623.69
388.938	613.69
389.163	629.69
389.387	607.69
389.612	612.69
389.837	642.69
390.062	591.69
390.287	625.69
390.512	626.69
390.736	612.69
390.961	650.69
391.186	650.69
391.411	686.69
391.636	679.69
391.86	724.69
392.085	724.69
392.31	728.69
392.534	708.69
392.759	701.69
392.984	667.69
393.208	693.69
393.433	660.69
393.658	666.69
393.882	680.69
394.107	694.69
394.331	677.69
394.556	680.69
394.78	701.69
395.005	706.69
395.229	681.69
395.454	695.69
395.678	712.69
395.903	731.69
396.127	702.69
396.352	676.69
396.576	650.69
396.801	655.69
397.025	674.69
397.249	691.69
397.474	686.69
397.698	694.69
397.922	707.69
398.147	710.69
398.371	703.69
398.595	746.69
398.82	762.69
399.044	850.69
399.268	909.69
399.492	1103.69
399.717	1223.69
399.941	1232.69
400.165	1070.69
400.389	952.69
400.613	897.69
400.837	815.69
401.062	798.69
401.286	788.69
401.51	813.69
401.734	799.69
401.958	798.69
402.182	804.69
402.406	819.69
402.63	827.69
402.854	868.69
403.078	891.69
403.302	905.69
403.526	899.69
403.75	938.69
403.974	967.69
404.198	951.69
404.422	965.69
404.645	959.69
404.869	952.69
405.093	921.69
405.317	921.69
405.541	888.69
405.765	876.69
405.988	873.69
406.212	878.69
406.436	867.69
406.66	899.69
406.883	917.69
407.107	949.69
407.331	1004.69
407.555	1050.69
407.778	1040.69
408.002	999.69
408.226	989.69
408.449	953.69
408.673	922.69
408.896	892.69
409.12	921.69
409.344	940.69
409.567	920.69
409.791	970.69
410.014	969.69
410.238	927.69
410.461	901.69
410.685	895.69
410.908	885.69
411.132	885.69
411.355	848.69
411.578	868.69
411.802	808.69
412.025	842.69
412.249	843.69
412.472	853.69
412.695	829.69
412.919	810.69
413.142	839.69
413.365	780.69
413.589	830.69
413.812	804.69
414.035	797.69
414.258	804.69
414.482	807.69
414.705	817.69
414.928	855.69
415.151	813.69
415.374	797.69
415.597	809.69
415.821	822.69
416.044	808.69
416.267	789.69
416.49	765.69
416.713	813.69
416.936	817.69
417.159	780.69
417.382	798.69
417.605	781.69
417.828	803.69
418.051	815.69
418.274	822.69
418.497	822.69
418.72	834.69
418.943	839.69
419.166	909.69
419.389	939.69
419.611	902.69
419.834	873.69
420.057	858.69
420.28	821.69
420.503	787.69
420.726	791.69
420.948	813.69
421.171	814.69
421.394	814.69
421.617	789.69
421.839	793.69
422.062	807.69
422.285	801.69
422.507	833.69
422.73	815.69
422.953	820.69
423.175	834.69
423.398	883.69
423.621	835.69
423.843	901.69
424.066	886.69
424.288	905.69
424.511	867.69
424.733	846.69
424.956	873.69
425.178	826.69
425.401	818.69
425.623	807.69
425.846	810.69
426.068	769.69
426.291	791.69
426.513	744.69
426.735	742.69
426.958	731.69
427.18	769.69
427.402	760.69
427.625	725.69
427.847	733.69
428.069	711.69
428.292	723.69
428.514	693.69
428.736	686.69
428.958	727.69
429.181	697.69
429.403	715.69
429.625	710.69
429.847	705.69
430.069	705.69
430.292	716.69
430.514	687.69
430.736	709.69
430.958	707.69
431.18	715.69
431.402	703.69
431.624	697.69
431.846	726.69
432.068	729.69
432.29	738.69
432.512	697.69
432.734	742.69
432.956	684.69
433.178	724.69
433.4	713.69
433.622	741.69
433.844	759.69
434.066	713.69
434.287	726.69
434.509	773.69
434.731	815.69
434.953	815.69
435.175	854.69
435.397	835.69
435.618	759.69
435.84	749.69
436.062	737.69
436.284	704.69
436.505	726.69
436.727	723.69
436.949	729.69
437.17	717.69
437.392	723.69
437.614	707.69
437.835	701.69
438.057	680.69
438.278	698.69
438.5	697.69
438.721	701.69
438.943	707.69
439.165	716.69
439.386	717.69
439.608	741.69
439.829	761.69
440.05	719.69
440.272	753.69
440.493	740.69
440.715	755.69
440.936	744.69
441.158	802.69
441.379	783.69
441.6	842.69
441.822	846.69
442.043	875.69
442.264	835.69
442.486	806.69
442.707	814.69
442.928	811.69
443.149	836.69
443.371	829.69
443.592	807.69
443.813	830.69
444.034	843.69
444.255	855.69
444.476	897.69
444.698	980.69
444.919	1022.69
445.14	1098.69
445.361	906.69
445.582	860.69
445.803	823.69
446.024	797.69
446.245	769.69
446.466	777.69
446.687	759.69
446.908	737.69
447.129	725.69
447.35	719.69
447.571	713.69
447.792	716.69
448.013	709.69
448.234	697.69
448.455	682.69
448.675	689.69
448.896	669.69
449.117	677.69
449.338	666.69
449.559	665.69
449.779	669.69
450	686.69
450.221	675.69
450.442	696.69
450.662	691.69
450.883	714.69
451.104	743.69
451.324	699.69
451.545	703.69
451.766	711.69
451.986	712.69
452.207	719.69
452.428	677.69
452.648	683.69
452.869	678.69
453.089	679.69
453.31	656.69
453.53	658.69
453.751	690.69
453.971	667.69
454.192	650.69
454.412	630.69
454.633	656.69
454.853	660.69
455.073	660.69
455.294	647.69
455.514	652.69
455.734	643.69
455.955	623.69
456.175	641.69
456.395	637.69
456.616	644.69
456.836	637.69
457.056	645.69
457.276	631.69
457.497	624.69
457.717	633.69
457.937	629.69
458.157	637.69
458.377	646.69
458.598	642.69
458.818	667.69
459.038	693.69
459.258	725.69
459.478	739.69
459.698	764.69
459.918	781.69
460.138	828.69
460.358	865.69
460.578	888.69
460.798	875.69
461.018	881.69
461.238	860.69
461.458	858.69
461.678	857.69
461.898	851.69
462.118	849.69
462.338	942.69
462.558	955.69
462.777	1002.69
462.997	1098.69
463.217	1221.69
463.437	1207.69
463.657	1108.69
463.876	1038.69
464.096	1020.69
464.316	1057.69
464.536	1075.69
464.755	1004.69
464.975	969.69
465.195	895.69
465.414	858.69
465.634	796.69
465.854	789.69
466.073	753.69
466.293	717.69
466.512	723.69
466.732	727.69
466.951	719.69
467.171	723.69
467.391	722.69
467.61	700.69
467.829	702.69
468.049	713.69
468.268	701.69
468.488	702.69
468.707	693.69
468.927	687.69
469.146	700.69
469.365	686.69
469.585	702.69
469.804	714.69
470.023	735.69
470.243	725.69
470.462	743.69
470.681	770.69
470.901	731.69
471.12	735.69
471.339	746.69
471.558	710.69
471.777	709.69
471.997	692.69
472.216	663.69
472.435	693.69
472.654	640.69
472.873	649.69
473.092	660.69
473.311	637.69
473.53	659.69
473.749	675.69
473.968	665.69
474.187	648.69
474.406	654.69
474.625	651.69
474.844	639.69
475.063	658.69
475.282	663.69
475.501	671.69
475.72	670.69
475.939	691.69
476.158	687.69
476.377	675.69
476.596	689.69
476.814	690.69
477.033	689.69
477.252	705.69
477.471	743.69
477.69	743.69
477.908	758.69
478.127	807.69
478.346	792.69
478.564	808.69
478.783	835.69
479.002	834.69
479.22	853.69
479.439	821.69
479.658	797.69
479.876	829.69
480.095	840.69
480.313	849.69
480.532	904.69
480.751	887.69
480.969	855.69
481.188	839.69
481.406	781.69
481.624	781.69
481.843	773.69
482.061	758.69
482.28	741.69
482.498	747.69
482.717	736.69
482.935	745.69
483.153	726.69
483.372	765.69
483.59	779.69
483.808	767.69
484.027	783.69
484.245	738.69
484.463	742.69
484.681	757.69
484.9	791.69
485.118	778.69
485.336	768.69
485.554	799.69
485.772	803.69
485.99	805.69
486.209	795.69
486.427	829.69
486.645	799.69
486.863	822.69
487.081	836.69
487.299	791.69
487.517	819.69
487.735	819.69
487.953	791.69
488.171	805.69
488.389	766.69
488.607	800.69
488.825	763.69
489.043	763.69
489.261	775.69
489.479	766.69
489.696	779.69
489.914	795.69
490.132	788.69
490.35	809.69
490.568	791.69
490.786	801.69
491.003	808.69
491.221	811.69
491.439	796.69
491.657	821.69
491.874	808.69
492.092	801.69
492.31	823.69
492.527	830.69
492.745	828.69
492.963	842.69
493.18	820.69
493.398	845.69
493.615	810.69
493.833	831.69
494.05	875.69
494.268	872.69
494.485	863.69
494.703	861.69
494.92	841.69
495.138	846.69
495.355	862.69
495.573	861.69
495.79	846.69
496.008	842.69
496.225	845.69
496.442	865.69
496.66	872.69
496.877	897.69
497.094	899.69
497.312	907.69
497.529	926.69
497.746	940.69
497.963	975.69
498.181	987.69
498.398	1041.69
498.615	1093.69
498.832	1194.69
499.049	1251.69
499.267	1347.69
499.484	1541.69
499.701	1721.69
499.918	1893.69
500.135	2190.69
500.352	2582.69
500.569	2736.69
500.786	2728.69
501.003	2453.69
501.22	2153.69
