Data from Ni(NO3)2@0.25M.TitratingCurve.Agarose3%dH2O.NegLispCup.LampEnergy10.LIBS07252019_HRD10591_18-05-14-567.txt Node
Date: Thu Jul 25 18:05:14 EDT 2019
User: cochatt
Spectrometer: HR+D1059
Trigger mode: 1
Integration Time (sec): 1.000000E-1
Scans to average: 1
Electric dark correction enabled: true
Nonlinearity correction enabled: false
Boxcar width: 0
XAxis mode: Wavelengths
Number of Pixels in Spectrum: 2048
>>>>>Begin Spectral Data<<<<<
223.165	6
223.4	6
223.635	6
223.869	-12
224.104	-30
224.338	-12
224.573	-16
224.808	2
225.042	-12
225.277	-12
225.511	3
225.746	4
225.98	5
226.215	10
226.449	14
226.683	11
226.918	24
227.152	15
227.387	19
227.621	44
227.856	47
228.09	53
228.324	45
228.559	61
228.793	67
229.027	88
229.262	88
229.496	103
229.73	109
229.964	115
230.199	113
230.433	123
230.667	99
230.901	125
231.136	117
231.37	115
231.604	134
231.838	144
232.072	126
232.306	127
232.541	133
232.775	127
233.009	130
233.243	142
233.477	143
233.711	148
233.945	128
234.179	129
234.413	136
234.647	131
234.881	147
235.115	115
235.349	122
235.583	126
235.817	137
236.051	123
236.285	153
236.519	149
236.753	148
236.987	126
237.221	125
237.455	143
237.689	146
237.922	134
238.156	143
238.39	143
238.624	141
238.858	144
239.091	130
239.325	142
239.559	144
239.793	152
240.027	154
240.26	142
240.494	162
240.728	162
240.961	158
241.195	158
241.429	151
241.662	153
241.896	150
242.13	158
242.363	148
242.597	158
242.83	174
243.064	181
243.298	162
243.531	154
243.765	164
243.998	181
244.232	166
244.465	152
244.699	184
244.932	194
245.166	175
245.399	176
245.633	171
245.866	173
246.099	175
246.333	182
246.566	186
246.8	185
247.033	165
247.266	196
247.5	180
247.733	183
247.966	194
248.2	197
248.433	188
248.666	199
248.899	204
249.133	184
249.366	205
249.599	214
249.832	209
250.066	233
250.299	216
250.532	219
250.765	219
250.998	227
251.231	233
251.465	246
251.698	228
251.931	247
252.164	247
252.397	244
252.63	239
252.863	262
253.096	269
253.329	262
253.562	272
253.795	275
254.028	253
254.261	265
254.494	272
254.727	267
254.96	279
255.193	276
255.426	294
255.659	291
255.892	283
256.124	290
256.357	296
256.59	306
256.823	275
257.056	292
257.289	296
257.521	320
257.754	296
257.987	306
258.22	318
258.452	299
258.685	312
258.918	296
259.151	345
259.383	324
259.616	312
259.849	330
260.081	312
260.314	330
260.547	332
260.779	324
261.012	321
261.244	337
261.477	363
261.71	344
261.942	346
262.175	337
262.407	349
262.64	342
262.872	354
263.105	354
263.337	350
263.57	343
263.802	349
264.035	359
264.267	366
264.499	357
264.732	351
264.964	353
265.197	361
265.429	382
265.661	371
265.894	364
266.126	382
266.358	366
266.591	376
266.823	390
267.055	373
267.287	364
267.52	404
267.752	380
267.984	368
268.216	382
268.448	393
268.681	378
268.913	380
269.145	396
269.377	378
269.609	401
269.841	367
270.073	378
270.306	384
270.538	411
270.77	392
271.002	389
271.234	392
271.466	410
271.698	390
271.93	397
272.162	404
272.394	408
272.626	392
272.858	413
273.09	412
273.322	408
273.553	397
273.785	423
274.017	439
274.249	410
274.481	413
274.713	415
274.945	412
275.176	416
275.408	427
275.64	419
275.872	424
276.104	416
276.335	413
276.567	432
276.799	435
277.031	442
277.262	426
277.494	442
277.726	437
277.957	423
278.189	456
278.421	436
278.652	430
278.884	449
279.115	446
279.347	436
279.579	426
279.81	436
280.042	445
280.273	460
280.505	471
280.736	454
280.968	443
281.199	455
281.431	455
281.662	456
281.894	430
282.125	456
282.356	464
282.588	463
282.819	468
283.051	470
283.282	460
283.513	443
283.745	454
283.976	465
284.207	457
284.439	474
284.67	470
284.901	464
285.132	468
285.364	450
285.595	451
285.826	478
286.057	468
286.288	471
286.52	468
286.751	484
286.982	468
287.213	459
287.444	470
287.675	472
287.906	439
288.138	459
288.369	488
288.6	478
288.831	497
289.062	473
289.293	476
289.524	494
289.755	488
289.986	474
290.217	481
290.448	467
290.679	479
290.91	462
291.141	494
291.371	481
291.602	490
291.833	479
292.064	492
292.295	471
292.526	482
292.757	481
292.987	489
293.218	460
293.449	490
293.68	514
293.91	494
294.141	485
294.372	483
294.603	476
294.833	482
295.064	477
295.295	501
295.525	492
295.756	498
295.987	486
296.217	501
296.448	489
296.679	506
296.909	499
297.14	515
297.37	503
297.601	486
297.831	522
298.062	516
298.292	509
298.523	517
298.753	519
298.984	508
299.214	524
299.445	519
299.675	511
299.905	558
300.136	518
300.366	542
300.597	541
300.827	531
301.057	528
301.288	562
301.518	538
301.748	538
301.979	532
302.209	538
302.439	520
302.669	556
302.9	552
303.13	554
303.36	543
303.59	558
303.82	538
304.051	565
304.281	548
304.511	543
304.741	547
304.971	562
305.201	558
305.431	578
305.661	564
305.891	554
306.121	568
306.352	546
306.582	550
306.812	559
307.042	528
307.272	540
307.502	555
307.731	558
307.961	547
308.191	554
308.421	552
308.651	546
308.881	562
309.111	538
309.341	551
309.571	568
309.8	575
310.03	564
310.26	579
310.49	586
310.72	587
310.949	583
311.179	573
311.409	578
311.639	611
311.868	581
312.098	583
312.328	581
312.557	591
312.787	615
313.017	598
313.246	606
313.476	615
313.706	632
313.935	632
314.165	621
314.394	646
314.624	650
314.853	615
315.083	621
315.312	631
315.542	635
315.771	633
316.001	637
316.23	641
316.46	659
316.689	641
316.919	659
317.148	643
317.377	665
317.607	657
317.836	675
318.065	668
318.295	618
318.524	650
318.753	653
318.983	664
319.212	666
319.441	695
319.67	696
319.9	672
320.129	665
320.358	691
320.587	670
320.816	666
321.046	685
321.275	704
321.504	702
321.733	696
321.962	712
322.191	701
322.42	698
322.649	716
322.878	724
323.108	702
323.337	733
323.566	727
323.795	735
324.024	729
324.253	737
324.482	749
324.71	742
324.939	757
325.168	774
325.397	805
325.626	776
325.855	758
326.084	807
326.313	799
326.542	804
326.77	831
326.999	831
327.228	782
327.457	791
327.686	798
327.914	826
328.143	826
328.372	805
328.6	804
328.829	829
329.058	840
329.287	823
329.515	818
329.744	822
329.972	818
330.201	837
330.43	883
330.658	857
330.887	862
331.115	851
331.344	876
331.572	883
331.801	924
332.03	932
332.258	924
332.486	922
332.715	930
332.943	948
333.172	992
333.4	983
333.629	1002
333.857	1058
334.085	1030
334.314	1046
334.542	1038
334.771	1047
334.999	1053
335.227	1072
335.455	1069
335.684	1082
335.912	1039
336.14	1039
336.369	1051
336.597	1037
336.825	1062
337.053	1077
337.281	1046
337.51	1025
337.738	1032
337.966	977
338.194	1020
338.422	1005
338.65	981
338.878	944
339.106	994
339.334	1007
339.562	1007
339.79	957
340.018	961
340.246	922
340.474	907
340.702	932
340.93	922
341.158	967
341.386	951
341.614	958
341.842	963
342.07	929
342.298	932
342.526	961
342.754	965
342.981	943
343.209	967
343.437	982
343.665	980
343.893	1064
344.12	1096
344.348	1063
344.576	1036
344.804	1073
345.031	1002
345.259	995
345.487	972
345.714	982
345.942	1007
346.17	998
346.397	970
346.625	935
346.853	894
347.08	912
347.308	917
347.535	922
347.763	911
347.99	886
348.218	902
348.445	906
348.673	876
348.9	884
349.128	868
349.355	914
349.583	926
349.81	902
350.037	882
350.265	892
350.492	874
350.72	865
350.947	896
351.174	900
351.402	941
351.629	939
351.856	946
352.083	910
352.311	937
352.538	922
352.765	896
352.992	900
353.22	884
353.447	871
353.674	871
353.901	862
354.128	879
354.355	871
354.583	859
354.81	878
355.037	879
355.264	890
355.491	869
355.718	850
355.945	877
356.172	875
356.399	875
356.626	895
356.853	886
357.08	882
357.307	863
357.534	876
357.761	892
357.988	873
358.215	864
358.441	874
358.668	859
358.895	847
359.122	892
359.349	874
359.576	860
359.802	860
360.029	880
360.256	875
360.483	893
360.709	883
360.936	874
361.163	879
361.39	886
361.616	877
361.843	880
362.07	928
362.296	922
362.523	891
362.749	873
362.976	884
363.203	872
363.429	848
363.656	891
363.882	860
364.109	894
364.335	861
364.562	860
364.788	875
365.015	895
365.241	821
365.468	839
365.694	838
365.92	856
366.147	867
366.373	866
366.599	865
366.826	848
367.052	851
367.278	868
367.505	865
367.731	866
367.957	848
368.184	859
368.41	885
368.636	874
368.862	859
369.089	873
369.315	899
369.541	880
369.767	866
369.993	878
370.219	874
370.445	887
370.672	894
370.898	867
371.124	890
371.35	894
371.576	922
371.802	882
372.028	896
372.254	912
372.48	910
372.706	899
372.932	910
373.158	938
373.384	936
373.61	883
373.835	928
374.061	890
374.287	923
374.513	902
374.739	929
374.965	934
375.191	964
375.416	962
375.642	924
375.868	916
376.094	910
376.319	908
376.545	897
376.771	912
376.997	897
377.222	893
377.448	902
377.674	836
377.899	878
378.125	877
378.35	888
378.576	860
378.802	845
379.027	869
379.253	874
379.478	880
379.704	878
379.929	873
380.155	847
380.38	891
380.606	875
380.831	849
381.057	875
381.282	877
381.507	855
381.733	885
381.958	900
382.184	902
382.409	885
382.634	907
382.86	922
383.085	923
383.31	939
383.535	914
383.761	902
383.986	928
384.211	969
384.436	934
384.662	948
384.887	943
385.112	964
385.337	1024
385.562	987
385.787	1002
386.013	1053
386.238	1012
386.463	993
386.688	1026
386.913	988
387.138	1030
387.363	1051
387.588	1030
387.813	1026
388.038	1026
388.263	1005
388.488	1034
388.713	1026
388.938	1006
389.163	1023
389.387	1004
389.612	1036
389.837	1045
390.062	1030
390.287	1027
390.512	1018
390.736	1041
390.961	1042
391.186	1057
391.411	1096
391.636	1079
391.86	1066
392.085	1106
392.31	1088
392.534	1076
392.759	1115
392.984	1123
393.208	1097
393.433	1110
393.658	1089
393.882	1078
394.107	1063
394.331	1088
394.556	1101
394.78	1080
395.005	1113
395.229	1103
395.454	1112
395.678	1139
395.903	1168
396.127	1154
396.352	1128
396.576	1120
396.801	1110
397.025	1115
397.249	1154
397.474	1169
397.698	1136
397.922	1183
398.147	1197
398.371	1224
398.595	1230
398.82	1317
399.044	1341
399.268	1383
399.492	1484
399.717	1573
399.941	1605
400.165	1584
400.389	1506
400.613	1450
400.837	1436
401.062	1361
401.286	1315
401.51	1310
401.734	1310
401.958	1310
402.182	1314
402.406	1346
402.63	1309
402.854	1310
403.078	1277
403.302	1302
403.526	1280
403.75	1315
403.974	1335
404.198	1340
404.422	1335
404.645	1323
404.869	1306
405.093	1361
405.317	1356
405.541	1335
405.765	1353
405.988	1384
406.212	1389
406.436	1394
406.66	1412
406.883	1419
407.107	1459
407.331	1510
407.555	1548
407.778	1575
408.002	1545
408.226	1548
408.449	1526
408.673	1465
408.896	1464
409.12	1461
409.344	1445
409.567	1396
409.791	1427
410.014	1409
410.238	1397
410.461	1421
410.685	1370
410.908	1389
411.132	1378
411.355	1349
411.578	1354
411.802	1352
412.025	1339
412.249	1386
412.472	1381
412.695	1334
412.919	1343
413.142	1324
413.365	1316
413.589	1359
413.812	1354
414.035	1318
414.258	1322
414.482	1332
414.705	1344
414.928	1327
415.151	1316
415.374	1342
415.597	1306
415.821	1285
416.044	1254
416.267	1287
416.49	1301
416.713	1290
416.936	1316
417.159	1330
417.382	1284
417.605	1267
417.828	1317
418.051	1291
418.274	1259
418.497	1304
418.72	1263
418.943	1318
419.166	1366
419.389	1494
419.611	1472
419.834	1405
420.057	1360
420.28	1359
420.503	1281
420.726	1255
420.948	1292
421.171	1244
421.394	1297
421.617	1284
421.839	1303
422.062	1318
422.285	1269
422.507	1331
422.73	1297
422.953	1299
423.175	1314
423.398	1318
423.621	1304
423.843	1292
424.066	1325
424.288	1306
424.511	1319
424.733	1296
424.956	1285
425.178	1307
425.401	1306
425.623	1300
425.846	1292
426.068	1322
426.291	1304
426.513	1301
426.735	1285
426.958	1302
427.18	1236
427.402	1280
427.625	1255
427.847	1241
428.069	1280
428.292	1244
428.514	1250
428.736	1237
428.958	1284
429.181	1204
429.403	1256
429.625	1250
429.847	1242
430.069	1248
430.292	1251
430.514	1214
430.736	1251
430.958	1246
431.18	1235
431.402	1245
431.624	1228
431.846	1255
432.068	1222
432.29	1276
432.512	1234
432.734	1278
432.956	1268
433.178	1276
433.4	1281
433.622	1298
433.844	1322
434.066	1314
434.287	1302
434.509	1311
434.731	1343
434.953	1321
435.175	1385
435.397	1373
435.618	1326
435.84	1309
436.062	1287
436.284	1278
436.505	1263
436.727	1274
436.949	1248
437.17	1212
437.392	1236
437.614	1242
437.835	1238
438.057	1237
438.278	1205
438.5	1199
438.721	1204
438.943	1231
439.165	1221
439.386	1260
439.608	1269
439.829	1256
440.05	1256
440.272	1248
440.493	1278
440.715	1272
440.936	1278
441.158	1276
441.379	1304
441.6	1330
441.822	1356
442.043	1346
442.264	1356
442.486	1337
442.707	1372
442.928	1327
443.149	1331
443.371	1341
443.592	1351
443.813	1364
444.034	1343
444.255	1378
444.476	1395
444.698	1438
444.919	1464
445.14	1583
445.361	1469
445.582	1416
445.803	1390
446.024	1348
446.245	1341
446.466	1331
446.687	1330
446.908	1278
447.129	1279
447.35	1210
447.571	1242
447.792	1225
448.013	1219
448.234	1214
448.455	1178
448.675	1187
448.896	1189
449.117	1157
449.338	1167
449.559	1154
449.779	1166
450	1168
450.221	1143
450.442	1129
450.662	1148
450.883	1131
451.104	1167
451.324	1151
451.545	1148
451.766	1154
451.986	1135
452.207	1140
452.428	1140
452.648	1153
452.869	1127
453.089	1114
453.31	1103
453.53	1094
453.751	1121
453.971	1123
454.192	1093
454.412	1087
454.633	1088
454.853	1107
455.073	1088
455.294	1105
455.514	1088
455.734	1102
455.955	1064
456.175	1080
456.395	1073
456.616	1084
456.836	1089
457.056	1097
457.276	1087
457.497	1138
457.717	1132
457.937	1122
458.157	1092
458.377	1146
458.598	1154
458.818	1156
459.038	1170
459.258	1238
459.478	1275
459.698	1294
459.918	1294
460.138	1310
460.358	1358
460.578	1375
460.798	1401
461.018	1394
461.238	1419
461.458	1449
461.678	1415
461.898	1442
462.118	1462
462.338	1542
462.558	1570
462.777	1581
462.997	1664
463.217	1675
463.437	1698
463.657	1647
463.876	1592
464.096	1644
464.316	1598
464.536	1587
464.755	1548
464.975	1527
465.195	1470
465.414	1391
465.634	1366
465.854	1315
466.073	1326
466.293	1259
466.512	1267
466.732	1231
466.951	1262
467.171	1246
467.391	1235
467.61	1202
467.829	1238
468.049	1239
468.268	1214
468.488	1187
468.707	1181
468.927	1193
469.146	1230
469.365	1190
469.585	1196
469.804	1231
470.023	1195
470.243	1232
470.462	1250
470.681	1209
470.901	1256
471.12	1222
471.339	1237
471.558	1224
471.777	1248
471.997	1191
472.216	1178
472.435	1180
472.654	1174
472.873	1179
473.092	1168
473.311	1166
473.53	1174
473.749	1168
473.968	1197
474.187	1173
474.406	1155
474.625	1199
474.844	1205
475.063	1206
475.282	1205
475.501	1178
475.72	1238
475.939	1214
476.158	1197
476.377	1230
476.596	1220
476.814	1259
477.033	1265
477.252	1250
477.471	1253
477.69	1323
477.908	1317
478.127	1366
478.346	1371
478.564	1397
478.783	1398
479.002	1407
479.22	1422
479.439	1447
479.658	1431
479.876	1441
480.095	1442
480.313	1470
480.532	1485
480.751	1472
480.969	1412
481.188	1395
481.406	1394
481.624	1402
481.843	1368
482.061	1368
482.28	1382
482.498	1359
482.717	1348
482.935	1359
483.153	1384
483.372	1377
483.59	1371
483.808	1384
484.027	1342
484.245	1397
484.463	1386
484.681	1397
484.9	1410
485.118	1405
485.336	1386
485.554	1384
485.772	1426
485.99	1404
486.209	1418
486.427	1387
486.645	1394
486.863	1392
487.081	1408
487.299	1423
487.517	1426
487.735	1418
487.953	1443
488.171	1444
488.389	1438
488.607	1411
488.825	1405
489.043	1391
489.261	1414
489.479	1405
489.696	1374
489.914	1428
490.132	1438
490.35	1432
490.568	1456
490.786	1447
491.003	1489
491.221	1506
491.439	1447
491.657	1462
491.874	1493
492.092	1468
492.31	1500
492.527	1504
492.745	1494
492.963	1478
493.18	1477
493.398	1531
493.615	1529
493.833	1495
494.05	1522
494.268	1533
494.485	1566
494.703	1544
494.92	1518
495.138	1551
495.355	1585
495.573	1599
495.79	1566
496.008	1627
496.225	1655
496.442	1671
496.66	1673
496.877	1690
497.094	1729
497.312	1765
497.529	1788
497.746	1844
497.963	1875
498.181	1963
498.398	1988
498.615	2104
498.832	2173
499.049	2313
499.267	2394
499.484	2555
499.701	2712
499.918	2840
500.135	3008
500.352	3086
500.569	3153
500.786	3101
501.003	3130
501.22	2986
501.437	2847
501.654	2668
501.871	2549
502.088	2460
502.305	2287
502.522	2190
502.739	2110
502.956	2063
503.172	2020
503.389	1926
503.606	1886
503.823	1826
504.04	1842
504.256	1807
504.473	1791
504.69	1775
504.907	1714
505.123	1710
505.34	1652
505.557	1600
505.773	1586
505.99	1531
506.207	1517
506.423	1483
506.64	1431
506.856	1422
507.073	1435
507.289	1412
507.506	1396
507.722	1420
507.939	1375
508.155	1343
508.372	1343
508.588	1362
508.805	1310
509.021	1295
509.238	1288
509.454	1293
509.67	1276
509.887	1260
510.103	1270
510.319	1238
510.536	1271
510.752	1252
510.968	1294
511.184	1251
511.401	1232
511.617	1262
511.833	1237
512.049	1254
512.265	1253
512.481	1245
512.698	1251
512.914	1272
513.13	1258
513.346	1252
513.562	1224
513.778	1251
513.994	1245
514.21	1262
514.426	1236
514.642	1257
514.858	1302
515.074	1295
515.29	1340
515.506	1316
515.721	1332
515.937	1371
516.153	1356
516.369	1371
516.585	1390
516.801	1399
517.016	1458
517.232	1508
517.448	1514
517.664	1525
517.879	1498
518.095	1510
518.311	1487
518.527	1477
518.742	1456
518.958	1430
519.173	1412
519.389	1419
519.605	1367
519.82	1370
520.036	1310
520.251	1276
520.467	1282
520.682	1275
520.898	1259
521.113	1251
521.329	1232
521.544	1218
521.76	1181
521.975	1209
522.19	1191
522.406	1170
522.621	1176
522.836	1162
523.052	1186
523.267	1138
523.482	1178
523.698	1203
523.913	1168
524.128	1166
524.343	1124
524.559	1147
524.774	1131
524.989	1147
525.204	1158
525.419	1107
525.634	1163
525.849	1140
526.064	1145
526.28	1150
526.495	1127
526.71	1123
526.925	1119
527.14	1104
527.355	1083
527.57	1093
527.785	1106
527.999	1106
528.214	1105
528.429	1111
528.644	1101
528.859	1115
529.074	1115
529.289	1109
529.503	1127
529.718	1134
529.933	1119
530.148	1075
530.363	1114
530.577	1100
530.792	1093
531.007	1101
531.221	1104
531.436	1094
531.651	1120
531.865	1114
532.08	1080
532.295	1093
532.509	1103
532.724	1105
532.938	1096
533.153	1103
533.367	1051
533.582	1104
533.796	1093
534.011	1087
534.225	1079
534.44	1036
534.654	1081
534.868	1044
535.083	1047
535.297	1035
535.511	1052
535.726	1054
535.94	1053
536.154	1036
536.369	1071
536.583	1049
536.797	1038
537.011	1018
537.225	1020
537.44	1004
537.654	1036
537.868	1029
538.082	1060
538.296	1010
538.51	975
538.724	1020
538.938	1043
539.153	1001
539.367	1024
539.581	975
539.795	986
540.009	1024
540.222	1006
540.436	1003
540.65	977
540.864	1007
541.078	987
541.292	1000
541.506	1026
541.72	1020
541.934	1006
542.147	978
542.361	1002
542.575	988
542.789	997
543.002	977
543.216	1003
543.43	983
543.644	979
543.857	979
544.071	1044
544.285	1005
544.498	1015
544.712	1003
544.925	995
545.139	969
545.352	1002
545.566	997
545.779	1015
545.993	1041
546.206	1029
546.42	1023
546.633	995
546.847	1001
547.06	1020
547.274	1015
547.487	1007
547.7	999
547.914	1011
548.127	1017
548.34	997
548.554	998
548.767	1029
548.98	996
549.193	993
549.407	1021
549.62	1040
549.833	1004
550.046	1009
550.259	1015
550.473	998
550.686	1036
550.899	1013
