Data from Ni(NO3)2Standard.Agarose3%.GreenCap.LampEnergy5.5.E.O_HRD10591_14-42-52-188.txt Node
Date: Mon Jul 22 14:42:52 EDT 2019
User: cochatt
Spectrometer: HR+D1059
Trigger mode: 1
Integration Time (sec): 1.000000E-1
Scans to average: 1
Electric dark correction enabled: true
Nonlinearity correction enabled: false
Boxcar width: 0
XAxis mode: Wavelengths
Number of Pixels in Spectrum: 2048
>>>>>Begin Spectral Data<<<<<
223.165	-12.06
223.4	-12.06
223.635	-12.06
223.869	-9.06
224.104	-25.06
224.338	-8.06
224.573	-16.06
224.808	-6.06
225.042	-2.06
225.277	-16.06
225.511	2.94
225.746	-15.06
225.98	-0.06
226.215	5.94
226.449	16.94
226.683	25.94
226.918	27.94
227.152	29.94
227.387	33.94
227.621	28.94
227.856	52.94
228.09	51.94
228.324	41.94
228.559	71.94
228.793	47.94
229.027	65.94
229.262	68.94
229.496	61.94
229.73	70.94
229.964	73.94
230.199	60.94
230.433	65.94
230.667	84.94
230.901	64.94
231.136	67.94
231.37	75.94
231.604	76.94
231.838	87.94
232.072	94.94
232.306	95.94
232.541	86.94
232.775	70.94
233.009	85.94
233.243	85.94
233.477	95.94
233.711	71.94
233.945	71.94
234.179	86.94
234.413	79.94
234.647	95.94
234.881	79.94
235.115	83.94
235.349	93.94
235.583	84.94
235.817	93.94
236.051	73.94
236.285	88.94
236.519	76.94
236.753	88.94
236.987	75.94
237.221	89.94
237.455	79.94
237.689	83.94
237.922	88.94
238.156	82.94
238.39	76.94
238.624	72.94
238.858	84.94
239.091	77.94
239.325	89.94
239.559	78.94
239.793	84.94
240.027	83.94
240.26	89.94
240.494	89.94
240.728	76.94
240.961	82.94
241.195	98.94
241.429	84.94
241.662	84.94
241.896	91.94
242.13	92.94
242.363	85.94
242.597	72.94
242.83	82.94
243.064	71.94
243.298	78.94
243.531	74.94
243.765	91.94
243.998	85.94
244.232	87.94
244.465	76.94
244.699	71.94
244.932	72.94
245.166	77.94
245.399	78.94
245.633	82.94
245.866	84.94
246.099	91.94
246.333	79.94
246.566	86.94
246.8	93.94
247.033	88.94
247.266	79.94
247.5	82.94
247.733	74.94
247.966	80.94
248.2	79.94
248.433	71.94
248.666	76.94
248.899	71.94
249.133	74.94
249.366	67.94
249.599	67.94
249.832	79.94
250.066	74.94
250.299	85.94
250.532	80.94
250.765	85.94
250.998	91.94
251.231	78.94
251.465	73.94
251.698	79.94
251.931	74.94
252.164	61.94
252.397	89.94
252.63	87.94
252.863	74.94
253.096	81.94
253.329	88.94
253.562	79.94
253.795	88.94
254.028	81.94
254.261	71.94
254.494	77.94
254.727	75.94
254.96	82.94
255.193	80.94
255.426	72.94
255.659	87.94
255.892	83.94
256.124	72.94
256.357	87.94
256.59	78.94
256.823	89.94
257.056	77.94
257.289	86.94
257.521	78.94
257.754	72.94
257.987	81.94
258.22	91.94
258.452	88.94
258.685	88.94
258.918	85.94
259.151	85.94
259.383	81.94
259.616	82.94
259.849	93.94
260.081	81.94
260.314	82.94
260.547	73.94
260.779	83.94
261.012	72.94
261.244	90.94
261.477	76.94
261.71	79.94
261.942	91.94
262.175	94.94
262.407	82.94
262.64	88.94
262.872	74.94
263.105	88.94
263.337	88.94
263.57	88.94
263.802	82.94
264.035	81.94
264.267	87.94
264.499	88.94
264.732	96.94
264.964	73.94
265.197	82.94
265.429	81.94
265.661	82.94
265.894	69.94
266.126	82.94
266.358	79.94
266.591	75.94
266.823	92.94
267.055	75.94
267.287	87.94
267.52	91.94
267.752	79.94
267.984	91.94
268.216	83.94
268.448	94.94
268.681	95.94
268.913	90.94
269.145	85.94
269.377	87.94
269.609	76.94
269.841	88.94
270.073	80.94
270.306	78.94
270.538	85.94
270.77	78.94
271.002	83.94
271.234	84.94
271.466	81.94
271.698	86.94
271.93	88.94
272.162	88.94
272.394	86.94
272.626	103.94
272.858	86.94
273.09	93.94
273.322	89.94
273.553	82.94
273.785	75.94
274.017	82.94
274.249	97.94
274.481	96.94
274.713	76.94
274.945	89.94
275.176	79.94
275.408	80.94
275.64	91.94
275.872	85.94
276.104	90.94
276.335	91.94
276.567	92.94
276.799	97.94
277.031	89.94
277.262	89.94
277.494	74.94
277.726	78.94
277.957	70.94
278.189	72.94
278.421	86.94
278.652	97.94
278.884	78.94
279.115	97.94
279.347	95.94
279.579	81.94
279.81	105.94
280.042	79.94
280.273	65.94
280.505	67.94
280.736	76.94
280.968	95.94
281.199	79.94
281.431	91.94
281.662	76.94
281.894	85.94
282.125	88.94
282.356	80.94
282.588	77.94
282.819	81.94
283.051	79.94
283.282	87.94
283.513	85.94
283.745	78.94
283.976	85.94
284.207	94.94
284.439	95.94
284.67	82.94
284.901	84.94
285.132	87.94
285.364	87.94
285.595	101.94
285.826	85.94
286.057	89.94
286.288	93.94
286.52	96.94
286.751	108.94
286.982	84.94
287.213	81.94
287.444	93.94
287.675	81.94
287.906	81.94
288.138	81.94
288.369	92.94
288.6	84.94
288.831	91.94
289.062	92.94
289.293	89.94
289.524	86.94
289.755	80.94
289.986	85.94
290.217	76.94
290.448	86.94
290.679	70.94
290.91	86.94
291.141	78.94
291.371	90.94
291.602	86.94
291.833	92.94
292.064	94.94
292.295	92.94
292.526	100.94
292.757	95.94
292.987	80.94
293.218	79.94
293.449	88.94
293.68	92.94
293.91	89.94
294.141	100.94
294.372	94.94
294.603	82.94
294.833	80.94
295.064	89.94
295.295	100.94
295.525	87.94
295.756	108.94
295.987	82.94
296.217	85.94
296.448	80.94
296.679	100.94
296.909	78.94
297.14	92.94
297.37	79.94
297.601	99.94
297.831	83.94
298.062	99.94
298.292	73.94
298.523	86.94
298.753	90.94
298.984	89.94
299.214	93.94
299.445	100.94
299.675	91.94
299.905	79.94
300.136	88.94
300.366	88.94
300.597	96.94
300.827	90.94
301.057	99.94
301.288	81.94
301.518	100.94
301.748	84.94
301.979	88.94
302.209	91.94
302.439	77.94
302.669	89.94
302.9	82.94
303.13	80.94
303.36	89.94
303.59	96.94
303.82	84.94
304.051	92.94
304.281	83.94
304.511	100.94
304.741	90.94
304.971	77.94
305.201	104.94
305.431	72.94
305.661	80.94
305.891	92.94
306.121	92.94
306.352	80.94
306.582	87.94
306.812	87.94
307.042	94.94
307.272	77.94
307.502	103.94
307.731	92.94
307.961	91.94
308.191	86.94
308.421	102.94
308.651	95.94
308.881	82.94
309.111	86.94
309.341	81.94
309.571	90.94
309.8	93.94
310.03	78.94
310.26	96.94
310.49	90.94
310.72	79.94
310.949	91.94
311.179	95.94
311.409	84.94
311.639	91.94
311.868	86.94
312.098	87.94
312.328	78.94
312.557	79.94
312.787	81.94
313.017	108.94
313.246	84.94
313.476	96.94
313.706	79.94
313.935	90.94
314.165	88.94
314.394	71.94
314.624	88.94
314.853	80.94
315.083	78.94
315.312	76.94
315.542	90.94
315.771	88.94
316.001	73.94
316.23	91.94
316.46	77.94
316.689	67.94
316.919	89.94
317.148	85.94
317.377	104.94
317.607	87.94
317.836	88.94
318.065	92.94
318.295	75.94
318.524	93.94
318.753	91.94
318.983	101.94
319.212	92.94
319.441	89.94
319.67	86.94
319.9	72.94
320.129	80.94
320.358	87.94
320.587	92.94
320.816	92.94
321.046	93.94
321.275	99.94
321.504	97.94
321.733	78.94
321.962	84.94
322.191	95.94
322.42	80.94
322.649	90.94
322.878	96.94
323.108	106.94
323.337	79.94
323.566	96.94
323.795	80.94
324.024	88.94
324.253	89.94
324.482	98.94
324.71	99.94
324.939	86.94
325.168	88.94
325.397	80.94
325.626	94.94
325.855	94.94
326.084	92.94
326.313	95.94
326.542	86.94
326.77	94.94
326.999	82.94
327.228	98.94
327.457	89.94
327.686	95.94
327.914	78.94
328.143	87.94
328.372	109.94
328.6	85.94
328.829	91.94
329.058	89.94
329.287	91.94
329.515	97.94
329.744	87.94
329.972	99.94
330.201	93.94
330.43	91.94
330.658	92.94
330.887	88.94
331.115	86.94
331.344	84.94
331.572	96.94
331.801	93.94
332.03	79.94
332.258	88.94
332.486	93.94
332.715	98.94
332.943	96.94
333.172	96.94
333.4	90.94
333.629	106.94
333.857	82.94
334.085	93.94
334.314	103.94
334.542	99.94
334.771	101.94
334.999	102.94
335.227	84.94
335.455	89.94
335.684	83.94
335.912	96.94
336.14	89.94
336.369	96.94
336.597	95.94
336.825	84.94
337.053	91.94
337.281	85.94
337.51	83.94
337.738	101.94
337.966	93.94
338.194	89.94
338.422	96.94
338.65	97.94
338.878	96.94
339.106	80.94
339.334	87.94
339.562	84.94
339.79	104.94
340.018	85.94
340.246	99.94
340.474	85.94
340.702	92.94
340.93	85.94
341.158	88.94
341.386	93.94
341.614	89.94
341.842	80.94
342.07	87.94
342.298	102.94
342.526	107.94
342.754	91.94
342.981	87.94
343.209	88.94
343.437	94.94
343.665	94.94
343.893	80.94
344.12	91.94
344.348	84.94
344.576	83.94
344.804	79.94
345.031	90.94
345.259	87.94
345.487	101.94
345.714	100.94
345.942	94.94
346.17	99.94
346.397	75.94
346.625	101.94
346.853	80.94
347.08	87.94
347.308	81.94
347.535	88.94
347.763	104.94
347.99	100.94
348.218	88.94
348.445	96.94
348.673	94.94
348.9	81.94
349.128	88.94
349.355	83.94
349.583	80.94
349.81	101.94
350.037	94.94
350.265	101.94
350.492	94.94
350.72	89.94
350.947	94.94
351.174	91.94
351.402	83.94
351.629	91.94
351.856	88.94
352.083	86.94
352.311	92.94
352.538	88.94
352.765	96.94
352.992	109.94
353.22	87.94
353.447	93.94
353.674	106.94
353.901	105.94
354.128	82.94
354.355	102.94
354.583	98.94
354.81	88.94
355.037	88.94
355.264	90.94
355.491	95.94
355.718	104.94
355.945	89.94
356.172	88.94
356.399	103.94
356.626	94.94
356.853	92.94
357.08	92.94
357.307	93.94
357.534	90.94
357.761	81.94
357.988	86.94
358.215	89.94
358.441	97.94
358.668	70.94
358.895	81.94
359.122	97.94
359.349	109.94
359.576	80.94
359.802	77.94
360.029	92.94
360.256	91.94
360.483	90.94
360.709	90.94
360.936	91.94
361.163	98.94
361.39	91.94
361.616	77.94
361.843	83.94
362.07	87.94
362.296	92.94
362.523	95.94
362.749	95.94
362.976	81.94
363.203	97.94
363.429	89.94
363.656	88.94
363.882	92.94
364.109	93.94
364.335	96.94
364.562	108.94
364.788	88.94
365.015	79.94
365.241	81.94
365.468	89.94
365.694	91.94
365.92	89.94
366.147	95.94
366.373	76.94
366.599	81.94
366.826	86.94
367.052	89.94
367.278	91.94
367.505	85.94
367.731	84.94
367.957	91.94
368.184	103.94
368.41	92.94
368.636	86.94
368.862	81.94
369.089	87.94
369.315	76.94
369.541	92.94
369.767	107.94
369.993	82.94
370.219	86.94
370.445	74.94
370.672	80.94
370.898	93.94
371.124	104.94
371.35	90.94
371.576	90.94
371.802	79.94
372.028	100.94
372.254	94.94
372.48	100.94
372.706	93.94
372.932	92.94
373.158	94.94
373.384	93.94
373.61	85.94
373.835	86.94
374.061	79.94
374.287	85.94
374.513	89.94
374.739	90.94
374.965	81.94
375.191	83.94
375.416	85.94
375.642	95.94
375.868	83.94
376.094	96.94
376.319	88.94
376.545	96.94
376.771	80.94
376.997	86.94
377.222	94.94
377.448	74.94
377.674	86.94
377.899	85.94
378.125	87.94
378.35	78.94
378.576	76.94
378.802	75.94
379.027	79.94
379.253	89.94
379.478	80.94
379.704	78.94
379.929	102.94
380.155	88.94
380.38	84.94
380.606	82.94
380.831	93.94
381.057	86.94
381.282	80.94
381.507	70.94
381.733	99.94
381.958	84.94
382.184	86.94
382.409	91.94
382.634	96.94
382.86	87.94
383.085	86.94
383.31	78.94
383.535	88.94
383.761	95.94
383.986	99.94
384.211	92.94
384.436	92.94
384.662	106.94
384.887	80.94
385.112	90.94
385.337	96.94
385.562	87.94
385.787	70.94
386.013	101.94
386.238	89.94
386.463	97.94
386.688	99.94
386.913	87.94
387.138	70.94
387.363	75.94
387.588	94.94
387.813	94.94
388.038	91.94
388.263	85.94
388.488	99.94
388.713	98.94
388.938	88.94
389.163	81.94
389.387	96.94
389.612	93.94
389.837	93.94
390.062	112.94
390.287	99.94
390.512	75.94
390.736	91.94
390.961	103.94
391.186	88.94
391.411	83.94
391.636	91.94
391.86	89.94
392.085	86.94
392.31	88.94
392.534	76.94
392.759	83.94
392.984	83.94
393.208	88.94
393.433	78.94
393.658	88.94
393.882	78.94
394.107	91.94
394.331	93.94
394.556	88.94
394.78	84.94
395.005	63.94
395.229	74.94
395.454	75.94
395.678	72.94
395.903	94.94
396.127	87.94
396.352	102.94
396.576	100.94
396.801	93.94
397.025	87.94
397.249	85.94
397.474	91.94
397.698	89.94
397.922	83.94
398.147	100.94
398.371	85.94
398.595	102.94
398.82	93.94
399.044	97.94
399.268	82.94
399.492	97.94
399.717	82.94
399.941	80.94
400.165	89.94
400.389	100.94
400.613	89.94
400.837	88.94
401.062	92.94
401.286	85.94
401.51	79.94
401.734	95.94
401.958	89.94
402.182	88.94
402.406	88.94
402.63	88.94
402.854	90.94
403.078	81.94
403.302	92.94
403.526	92.94
403.75	92.94
403.974	91.94
404.198	103.94
404.422	79.94
404.645	103.94
404.869	85.94
405.093	90.94
405.317	82.94
405.541	76.94
405.765	90.94
405.988	89.94
406.212	98.94
406.436	104.94
406.66	91.94
406.883	69.94
407.107	93.94
407.331	94.94
407.555	89.94
407.778	93.94
408.002	92.94
408.226	87.94
408.449	85.94
408.673	79.94
408.896	83.94
409.12	81.94
409.344	87.94
409.567	104.94
409.791	76.94
410.014	107.94
410.238	78.94
410.461	94.94
410.685	82.94
410.908	93.94
411.132	81.94
411.355	78.94
411.578	91.94
411.802	82.94
412.025	89.94
412.249	100.94
412.472	97.94
412.695	87.94
412.919	89.94
413.142	94.94
413.365	89.94
413.589	88.94
413.812	90.94
414.035	99.94
414.258	89.94
414.482	84.94
414.705	87.94
414.928	96.94
415.151	81.94
415.374	77.94
415.597	94.94
415.821	95.94
416.044	79.94
416.267	86.94
416.49	91.94
416.713	79.94
416.936	96.94
417.159	101.94
417.382	94.94
417.605	94.94
417.828	90.94
418.051	92.94
418.274	81.94
418.497	82.94
418.72	93.94
418.943	80.94
419.166	90.94
419.389	89.94
419.611	87.94
419.834	87.94
420.057	94.94
420.28	93.94
420.503	93.94
420.726	83.94
420.948	94.94
421.171	92.94
421.394	82.94
421.617	95.94
421.839	93.94
422.062	90.94
422.285	88.94
422.507	82.94
422.73	88.94
422.953	71.94
423.175	105.94
423.398	96.94
423.621	92.94
423.843	88.94
424.066	86.94
424.288	101.94
424.511	88.94
424.733	89.94
424.956	87.94
425.178	86.94
425.401	90.94
425.623	81.94
425.846	93.94
426.068	90.94
426.291	95.94
426.513	93.94
426.735	90.94
426.958	69.94
427.18	89.94
427.402	91.94
427.625	82.94
427.847	81.94
428.069	92.94
428.292	95.94
428.514	84.94
428.736	83.94
428.958	92.94
429.181	77.94
429.403	93.94
429.625	88.94
429.847	85.94
430.069	92.94
430.292	79.94
430.514	94.94
430.736	91.94
430.958	77.94
431.18	86.94
431.402	84.94
431.624	87.94
431.846	85.94
432.068	83.94
432.29	86.94
432.512	88.94
432.734	97.94
432.956	80.94
433.178	96.94
433.4	91.94
433.622	92.94
433.844	97.94
434.066	102.94
434.287	87.94
434.509	79.94
434.731	97.94
434.953	91.94
435.175	92.94
435.397	87.94
435.618	81.94
435.84	90.94
436.062	89.94
436.284	88.94
436.505	92.94
436.727	85.94
436.949	84.94
437.17	78.94
437.392	101.94
437.614	78.94
437.835	92.94
438.057	104.94
438.278	74.94
438.5	79.94
438.721	93.94
438.943	79.94
439.165	89.94
439.386	84.94
439.608	82.94
439.829	88.94
440.05	75.94
440.272	84.94
440.493	85.94
440.715	81.94
440.936	93.94
441.158	82.94
441.379	88.94
441.6	98.94
441.822	74.94
442.043	91.94
442.264	91.94
442.486	77.94
442.707	83.94
442.928	86.94
443.149	86.94
443.371	88.94
443.592	89.94
443.813	94.94
444.034	93.94
444.255	81.94
444.476	81.94
444.698	85.94
444.919	83.94
445.14	220.94
445.361	142.94
445.582	105.94
445.803	102.94
446.024	103.94
446.245	84.94
446.466	93.94
446.687	80.94
446.908	109.94
447.129	77.94
447.35	81.94
447.571	95.94
447.792	92.94
448.013	91.94
448.234	85.94
448.455	88.94
448.675	92.94
448.896	91.94
449.117	97.94
449.338	93.94
449.559	80.94
449.779	79.94
450	103.94
450.221	87.94
450.442	89.94
450.662	87.94
450.883	97.94
451.104	96.94
451.324	85.94
451.545	81.94
451.766	104.94
451.986	77.94
452.207	85.94
452.428	85.94
452.648	99.94
452.869	89.94
453.089	85.94
453.31	92.94
453.53	77.94
453.751	89.94
453.971	99.94
454.192	88.94
454.412	91.94
454.633	92.94
454.853	97.94
455.073	106.94
455.294	87.94
455.514	89.94
455.734	88.94
455.955	85.94
456.175	90.94
456.395	76.94
456.616	94.94
456.836	96.94
457.056	99.94
457.276	94.94
457.497	85.94
457.717	85.94
457.937	92.94
458.157	85.94
458.377	87.94
458.598	96.94
458.818	95.94
459.038	87.94
459.258	100.94
459.478	96.94
459.698	90.94
459.918	94.94
460.138	89.94
460.358	70.94
460.578	84.94
460.798	81.94
461.018	87.94
461.238	101.94
461.458	96.94
461.678	92.94
461.898	99.94
462.118	85.94
462.338	102.94
462.558	94.94
462.777	90.94
462.997	70.94
463.217	92.94
463.437	96.94
463.657	110.94
463.876	99.94
464.096	79.94
464.316	84.94
464.536	79.94
464.755	81.94
464.975	96.94
465.195	98.94
465.414	94.94
465.634	101.94
465.854	93.94
466.073	78.94
466.293	89.94
466.512	77.94
466.732	100.94
466.951	82.94
467.171	93.94
467.391	73.94
467.61	89.94
467.829	89.94
468.049	111.94
468.268	99.94
468.488	99.94
468.707	95.94
468.927	92.94
469.146	88.94
469.365	73.94
469.585	76.94
469.804	98.94
470.023	91.94
470.243	100.94
470.462	99.94
470.681	90.94
470.901	79.94
471.12	83.94
471.339	105.94
471.558	89.94
471.777	105.94
471.997	103.94
472.216	92.94
472.435	85.94
472.654	82.94
472.873	96.94
473.092	91.94
473.311	102.94
473.53	79.94
473.749	93.94
473.968	92.94
474.187	89.94
474.406	87.94
474.625	101.94
474.844	83.94
475.063	94.94
475.282	99.94
475.501	81.94
475.72	89.94
475.939	87.94
476.158	90.94
476.377	89.94
476.596	94.94
476.814	86.94
477.033	92.94
477.252	83.94
477.471	101.94
477.69	87.94
477.908	97.94
478.127	85.94
478.346	84.94
478.564	84.94
478.783	103.94
479.002	81.94
479.22	101.94
479.439	108.94
479.658	88.94
479.876	92.94
480.095	110.94
480.313	88.94
480.532	85.94
480.751	98.94
480.969	97.94
481.188	98.94
481.406	105.94
481.624	95.94
481.843	89.94
482.061	94.94
482.28	99.94
482.498	94.94
482.717	88.94
482.935	89.94
483.153	96.94
483.372	97.94
483.59	85.94
483.808	105.94
484.027	92.94
484.245	88.94
484.463	89.94
484.681	108.94
484.9	97.94
485.118	106.94
485.336	86.94
485.554	84.94
485.772	95.94
485.99	88.94
486.209	87.94
486.427	90.94
486.645	96.94
486.863	76.94
487.081	98.94
487.299	108.94
487.517	89.94
487.735	95.94
487.953	88.94
488.171	109.94
488.389	92.94
488.607	100.94
488.825	93.94
489.043	85.94
489.261	88.94
489.479	96.94
489.696	94.94
489.914	91.94
490.132	84.94
490.35	97.94
490.568	96.94
490.786	104.94
491.003	106.94
491.221	102.94
491.439	102.94
491.657	96.94
491.874	100.94
492.092	85.94
492.31	113.94
492.527	105.94
492.745	89.94
492.963	107.94
493.18	107.94
493.398	92.94
493.615	107.94
493.833	99.94
494.05	114.94
494.268	95.94
494.485	107.94
494.703	93.94
494.92	96.94
495.138	88.94
495.355	108.94
495.573	101.94
495.79	94.94
496.008	98.94
496.225	99.94
496.442	89.94
496.66	84.94
496.877	100.94
497.094	115.94
497.312	91.94
497.529	95.94
497.746	102.94
497.963	80.94
498.181	92.94
498.398	89.94
498.615	100.94
498.832	104.94
499.049	99.94
499.267	104.94
499.484	105.94
499.701	117.94
499.918	122.94
500.135	102.94
500.352	126.94
500.569	114.94
500.786	127.94
501.003	113.94
501.22	115.94
501.437	126.94
501.654	108.94
501.871	107.94
502.088	106.94
502.305	106.94
502.522	86.94
502.739	101.94
502.956	100.94
503.172	96.94
503.389	105.94
503.606	107.94
503.823	104.94
504.04	100.94
504.256	105.94
504.473	90.94
504.69	91.94
504.907	110.94
505.123	98.94
505.34	109.94
505.557	116.94
505.773	98.94
505.99	97.94
506.207	87.94
506.423	93.94
506.64	102.94
506.856	92.94
507.073	99.94
507.289	86.94
507.506	94.94
507.722	81.94
507.939	101.94
508.155	106.94
508.372	111.94
508.588	94.94
508.805	103.94
509.021	93.94
509.238	96.94
509.454	95.94
509.67	79.94
509.887	91.94
510.103	70.94
510.319	90.94
510.536	96.94
510.752	93.94
510.968	105.94
511.184	78.94
511.401	89.94
511.617	96.94
511.833	92.94
512.049	99.94
512.265	96.94
512.481	90.94
512.698	90.94
512.914	95.94
513.13	87.94
513.346	101.94
513.562	96.94
513.778	93.94
513.994	95.94
514.21	84.94
514.426	87.94
514.642	85.94
514.858	89.94
515.074	106.94
515.29	91.94
515.506	96.94
515.721	94.94
515.937	96.94
516.153	99.94
516.369	89.94
516.585	97.94
516.801	102.94
517.016	94.94
517.232	90.94
