Data from Ni(NO3)2Standard.Agarose3%.GreenCap.LampEnergy5.5.E.O_HRD10591_14-40-47-188.txt Node
Date: Mon Jul 22 14:40:47 EDT 2019
User: cochatt
Spectrometer: HR+D1059
Trigger mode: 1
Integration Time (sec): 1.000000E-1
Scans to average: 1
Electric dark correction enabled: true
Nonlinearity correction enabled: false
Boxcar width: 0
XAxis mode: Wavelengths
Number of Pixels in Spectrum: 2048
>>>>>Begin Spectral Data<<<<<
223.165	-8.88
223.4	-8.88
223.635	-8.88
223.869	-20.88
224.104	-31.88
224.338	-18.88
224.573	2.12
224.808	-20.88
225.042	1.12
225.277	-1.88
225.511	-3.88
225.746	7.12
225.98	11.12
226.215	4.12
226.449	11.12
226.683	33.12
226.918	13.12
227.152	24.12
227.387	36.12
227.621	34.12
227.856	40.12
228.09	44.12
228.324	39.12
228.559	54.12
228.793	65.12
229.027	60.12
229.262	62.12
229.496	53.12
229.73	72.12
229.964	60.12
230.199	58.12
230.433	74.12
230.667	79.12
230.901	83.12
231.136	67.12
231.37	85.12
231.604	71.12
231.838	81.12
232.072	78.12
232.306	84.12
232.541	79.12
232.775	80.12
233.009	85.12
233.243	87.12
233.477	84.12
233.711	91.12
233.945	79.12
234.179	89.12
234.413	64.12
234.647	74.12
234.881	78.12
235.115	84.12
235.349	76.12
235.583	87.12
235.817	68.12
236.051	78.12
236.285	84.12
236.519	63.12
236.753	74.12
236.987	79.12
237.221	75.12
237.455	72.12
237.689	86.12
237.922	76.12
238.156	76.12
238.39	78.12
238.624	78.12
238.858	81.12
239.091	93.12
239.325	76.12
239.559	69.12
239.793	64.12
240.027	72.12
240.26	78.12
240.494	66.12
240.728	72.12
240.961	79.12
241.195	82.12
241.429	79.12
241.662	74.12
241.896	60.12
242.13	69.12
242.363	71.12
242.597	82.12
242.83	87.12
243.064	80.12
243.298	63.12
243.531	71.12
243.765	72.12
243.998	87.12
244.232	83.12
244.465	69.12
244.699	67.12
244.932	84.12
245.166	78.12
245.399	83.12
245.633	70.12
245.866	78.12
246.099	76.12
246.333	85.12
246.566	86.12
246.8	58.12
247.033	96.12
247.266	78.12
247.5	84.12
247.733	97.12
247.966	87.12
248.2	94.12
248.433	80.12
248.666	71.12
248.899	82.12
249.133	80.12
249.366	80.12
249.599	80.12
249.832	85.12
250.066	83.12
250.299	67.12
250.532	65.12
250.765	84.12
250.998	82.12
251.231	76.12
251.465	78.12
251.698	78.12
251.931	83.12
252.164	93.12
252.397	75.12
252.63	84.12
252.863	81.12
253.096	88.12
253.329	83.12
253.562	74.12
253.795	84.12
254.028	78.12
254.261	88.12
254.494	87.12
254.727	79.12
254.96	84.12
255.193	75.12
255.426	75.12
255.659	73.12
255.892	81.12
256.124	86.12
256.357	84.12
256.59	78.12
256.823	80.12
257.056	74.12
257.289	74.12
257.521	81.12
257.754	74.12
257.987	80.12
258.22	84.12
258.452	90.12
258.685	85.12
258.918	76.12
259.151	96.12
259.383	90.12
259.616	80.12
259.849	77.12
260.081	80.12
260.314	94.12
260.547	91.12
260.779	84.12
261.012	90.12
261.244	93.12
261.477	77.12
261.71	88.12
261.942	86.12
262.175	84.12
262.407	78.12
262.64	78.12
262.872	74.12
263.105	72.12
263.337	91.12
263.57	85.12
263.802	77.12
264.035	86.12
264.267	100.12
264.499	93.12
264.732	85.12
264.964	92.12
265.197	80.12
265.429	72.12
265.661	83.12
265.894	86.12
266.126	80.12
266.358	83.12
266.591	72.12
266.823	85.12
267.055	92.12
267.287	100.12
267.52	80.12
267.752	73.12
267.984	76.12
268.216	96.12
268.448	82.12
268.681	78.12
268.913	86.12
269.145	73.12
269.377	73.12
269.609	77.12
269.841	84.12
270.073	86.12
270.306	83.12
270.538	83.12
270.77	71.12
271.002	81.12
271.234	94.12
271.466	78.12
271.698	72.12
271.93	88.12
272.162	89.12
272.394	89.12
272.626	76.12
272.858	67.12
273.09	79.12
273.322	94.12
273.553	85.12
273.785	89.12
274.017	79.12
274.249	88.12
274.481	77.12
274.713	82.12
274.945	98.12
275.176	89.12
275.408	93.12
275.64	85.12
275.872	78.12
276.104	93.12
276.335	71.12
276.567	85.12
276.799	84.12
277.031	76.12
277.262	82.12
277.494	78.12
277.726	102.12
277.957	91.12
278.189	83.12
278.421	86.12
278.652	82.12
278.884	86.12
279.115	82.12
279.347	86.12
279.579	71.12
279.81	79.12
280.042	74.12
280.273	69.12
280.505	90.12
280.736	91.12
280.968	84.12
281.199	93.12
281.431	98.12
281.662	66.12
281.894	99.12
282.125	107.12
282.356	79.12
282.588	85.12
282.819	92.12
283.051	77.12
283.282	80.12
283.513	86.12
283.745	92.12
283.976	86.12
284.207	88.12
284.439	78.12
284.67	96.12
284.901	88.12
285.132	90.12
285.364	83.12
285.595	83.12
285.826	81.12
286.057	84.12
286.288	85.12
286.52	82.12
286.751	88.12
286.982	78.12
287.213	72.12
287.444	98.12
287.675	84.12
287.906	98.12
288.138	99.12
288.369	83.12
288.6	86.12
288.831	92.12
289.062	94.12
289.293	104.12
289.524	74.12
289.755	81.12
289.986	76.12
290.217	89.12
290.448	82.12
290.679	103.12
290.91	90.12
291.141	82.12
291.371	92.12
291.602	87.12
291.833	72.12
292.064	74.12
292.295	92.12
292.526	84.12
292.757	90.12
292.987	98.12
293.218	86.12
293.449	73.12
293.68	91.12
293.91	91.12
294.141	86.12
294.372	79.12
294.603	90.12
294.833	89.12
295.064	89.12
295.295	80.12
295.525	71.12
295.756	79.12
295.987	68.12
296.217	84.12
296.448	93.12
296.679	89.12
296.909	80.12
297.14	90.12
297.37	105.12
297.601	89.12
297.831	72.12
298.062	78.12
298.292	94.12
298.523	82.12
298.753	93.12
298.984	92.12
299.214	91.12
299.445	81.12
299.675	86.12
299.905	92.12
300.136	81.12
300.366	92.12
300.597	94.12
300.827	75.12
301.057	85.12
301.288	87.12
301.518	82.12
301.748	76.12
301.979	83.12
302.209	78.12
302.439	76.12
302.669	87.12
302.9	100.12
303.13	97.12
303.36	89.12
303.59	84.12
303.82	80.12
304.051	83.12
304.281	77.12
304.511	84.12
304.741	89.12
304.971	86.12
305.201	79.12
305.431	98.12
305.661	90.12
305.891	85.12
306.121	88.12
306.352	90.12
306.582	86.12
306.812	96.12
307.042	86.12
307.272	92.12
307.502	83.12
307.731	92.12
307.961	83.12
308.191	79.12
308.421	64.12
308.651	90.12
308.881	100.12
309.111	102.12
309.341	75.12
309.571	86.12
309.8	77.12
310.03	82.12
310.26	80.12
310.49	91.12
310.72	71.12
310.949	82.12
311.179	86.12
311.409	86.12
311.639	93.12
311.868	86.12
312.098	90.12
312.328	82.12
312.557	104.12
312.787	77.12
313.017	97.12
313.246	96.12
313.476	92.12
313.706	91.12
313.935	82.12
314.165	75.12
314.394	87.12
314.624	89.12
314.853	74.12
315.083	78.12
315.312	81.12
315.542	84.12
315.771	88.12
316.001	69.12
316.23	90.12
316.46	75.12
316.689	88.12
316.919	84.12
317.148	91.12
317.377	94.12
317.607	85.12
317.836	68.12
318.065	88.12
318.295	88.12
318.524	93.12
318.753	81.12
318.983	76.12
319.212	82.12
319.441	76.12
319.67	84.12
319.9	92.12
320.129	93.12
320.358	95.12
320.587	82.12
320.816	75.12
321.046	80.12
321.275	80.12
321.504	96.12
321.733	84.12
321.962	73.12
322.191	87.12
322.42	88.12
322.649	93.12
322.878	91.12
323.108	104.12
323.337	85.12
323.566	96.12
323.795	88.12
324.024	84.12
324.253	88.12
324.482	84.12
324.71	86.12
324.939	92.12
325.168	83.12
325.397	78.12
325.626	89.12
325.855	80.12
326.084	82.12
326.313	83.12
326.542	79.12
326.77	80.12
326.999	83.12
327.228	94.12
327.457	82.12
327.686	81.12
327.914	79.12
328.143	82.12
328.372	93.12
328.6	85.12
328.829	92.12
329.058	85.12
329.287	91.12
329.515	89.12
329.744	94.12
329.972	81.12
330.201	80.12
330.43	98.12
330.658	85.12
330.887	84.12
331.115	81.12
331.344	87.12
331.572	77.12
331.801	78.12
332.03	84.12
332.258	96.12
332.486	90.12
332.715	81.12
332.943	76.12
333.172	91.12
333.4	88.12
333.629	93.12
333.857	81.12
334.085	86.12
334.314	81.12
334.542	94.12
334.771	80.12
334.999	75.12
335.227	95.12
335.455	97.12
335.684	88.12
335.912	84.12
336.14	90.12
336.369	90.12
336.597	97.12
336.825	92.12
337.053	86.12
337.281	89.12
337.51	97.12
337.738	75.12
337.966	63.12
338.194	91.12
338.422	99.12
338.65	101.12
338.878	85.12
339.106	80.12
339.334	77.12
339.562	92.12
339.79	95.12
340.018	86.12
340.246	86.12
340.474	73.12
340.702	86.12
340.93	96.12
341.158	93.12
341.386	106.12
341.614	84.12
341.842	96.12
342.07	82.12
342.298	86.12
342.526	79.12
342.754	84.12
342.981	89.12
343.209	78.12
343.437	101.12
343.665	81.12
343.893	89.12
344.12	78.12
344.348	84.12
344.576	87.12
344.804	81.12
345.031	91.12
345.259	98.12
345.487	90.12
345.714	81.12
345.942	90.12
346.17	84.12
346.397	86.12
346.625	86.12
346.853	89.12
347.08	82.12
347.308	94.12
347.535	88.12
347.763	80.12
347.99	100.12
348.218	101.12
348.445	104.12
348.673	92.12
348.9	81.12
349.128	82.12
349.355	84.12
349.583	98.12
349.81	87.12
350.037	100.12
350.265	93.12
350.492	93.12
350.72	88.12
350.947	94.12
351.174	101.12
351.402	89.12
351.629	94.12
351.856	96.12
352.083	87.12
352.311	92.12
352.538	88.12
352.765	95.12
352.992	98.12
353.22	98.12
353.447	84.12
353.674	77.12
353.901	90.12
354.128	83.12
354.355	93.12
354.583	103.12
354.81	96.12
355.037	81.12
355.264	86.12
355.491	80.12
355.718	74.12
355.945	72.12
356.172	85.12
356.399	79.12
356.626	83.12
356.853	76.12
357.08	76.12
357.307	72.12
357.534	84.12
357.761	93.12
357.988	107.12
358.215	89.12
358.441	89.12
358.668	80.12
358.895	72.12
359.122	83.12
359.349	78.12
359.576	88.12
359.802	90.12
360.029	89.12
360.256	80.12
360.483	85.12
360.709	96.12
360.936	91.12
361.163	92.12
361.39	90.12
361.616	94.12
361.843	84.12
362.07	90.12
362.296	95.12
362.523	78.12
362.749	92.12
362.976	88.12
363.203	79.12
363.429	87.12
363.656	92.12
363.882	98.12
364.109	86.12
364.335	105.12
364.562	82.12
364.788	101.12
365.015	85.12
365.241	88.12
365.468	96.12
365.694	99.12
365.92	89.12
366.147	88.12
366.373	95.12
366.599	83.12
366.826	90.12
367.052	99.12
367.278	76.12
367.505	81.12
367.731	81.12
367.957	98.12
368.184	88.12
368.41	86.12
368.636	76.12
368.862	91.12
369.089	76.12
369.315	90.12
369.541	77.12
369.767	81.12
369.993	83.12
370.219	76.12
370.445	90.12
370.672	81.12
370.898	84.12
371.124	95.12
371.35	78.12
371.576	85.12
371.802	68.12
372.028	94.12
372.254	97.12
372.48	84.12
372.706	84.12
372.932	85.12
373.158	94.12
373.384	94.12
373.61	91.12
373.835	96.12
374.061	83.12
374.287	80.12
374.513	81.12
374.739	92.12
374.965	89.12
375.191	76.12
375.416	93.12
375.642	97.12
375.868	78.12
376.094	85.12
376.319	82.12
376.545	84.12
376.771	80.12
376.997	92.12
377.222	84.12
377.448	94.12
377.674	95.12
377.899	88.12
378.125	90.12
378.35	78.12
378.576	88.12
378.802	89.12
379.027	88.12
379.253	93.12
379.478	88.12
379.704	91.12
379.929	96.12
380.155	87.12
380.38	66.12
380.606	84.12
380.831	84.12
381.057	88.12
381.282	86.12
381.507	106.12
381.733	93.12
381.958	86.12
382.184	72.12
382.409	90.12
382.634	88.12
382.86	71.12
383.085	81.12
383.31	84.12
383.535	86.12
383.761	80.12
383.986	81.12
384.211	86.12
384.436	87.12
384.662	93.12
384.887	78.12
385.112	77.12
385.337	87.12
385.562	86.12
385.787	97.12
386.013	86.12
386.238	84.12
386.463	85.12
386.688	87.12
386.913	89.12
387.138	84.12
387.363	92.12
387.588	90.12
387.813	84.12
388.038	81.12
388.263	82.12
388.488	97.12
388.713	80.12
388.938	97.12
389.163	83.12
389.387	99.12
389.612	92.12
389.837	66.12
390.062	86.12
390.287	68.12
390.512	72.12
390.736	84.12
390.961	90.12
391.186	80.12
391.411	85.12
391.636	73.12
391.86	75.12
392.085	77.12
392.31	81.12
392.534	83.12
392.759	98.12
392.984	97.12
393.208	82.12
393.433	68.12
393.658	86.12
393.882	67.12
394.107	84.12
394.331	101.12
394.556	70.12
394.78	75.12
395.005	66.12
395.229	84.12
395.454	76.12
395.678	88.12
395.903	86.12
396.127	78.12
396.352	82.12
396.576	76.12
396.801	84.12
397.025	87.12
397.249	86.12
397.474	86.12
397.698	77.12
397.922	87.12
398.147	82.12
398.371	82.12
398.595	86.12
398.82	86.12
399.044	90.12
399.268	74.12
399.492	79.12
399.717	80.12
399.941	92.12
400.165	86.12
400.389	85.12
400.613	88.12
400.837	90.12
401.062	75.12
401.286	88.12
401.51	82.12
401.734	83.12
401.958	77.12
402.182	84.12
402.406	90.12
402.63	90.12
402.854	84.12
403.078	75.12
403.302	84.12
403.526	73.12
403.75	90.12
403.974	79.12
404.198	69.12
404.422	85.12
404.645	73.12
404.869	96.12
405.093	87.12
405.317	85.12
405.541	85.12
405.765	92.12
405.988	110.12
406.212	92.12
406.436	92.12
406.66	90.12
406.883	93.12
407.107	97.12
407.331	87.12
407.555	90.12
407.778	91.12
408.002	84.12
408.226	91.12
408.449	103.12
408.673	93.12
408.896	85.12
409.12	83.12
409.344	82.12
409.567	90.12
409.791	76.12
410.014	87.12
410.238	88.12
410.461	88.12
410.685	90.12
410.908	93.12
411.132	80.12
411.355	87.12
411.578	92.12
411.802	91.12
412.025	82.12
412.249	96.12
412.472	81.12
412.695	67.12
412.919	87.12
413.142	90.12
413.365	78.12
413.589	82.12
413.812	89.12
414.035	88.12
414.258	77.12
414.482	87.12
414.705	84.12
414.928	99.12
415.151	78.12
415.374	87.12
415.597	81.12
415.821	87.12
416.044	91.12
416.267	84.12
416.49	85.12
416.713	91.12
416.936	70.12
417.159	90.12
417.382	87.12
417.605	76.12
417.828	79.12
418.051	96.12
418.274	82.12
418.497	73.12
418.72	81.12
418.943	88.12
419.166	80.12
419.389	85.12
419.611	85.12
419.834	105.12
420.057	92.12
420.28	76.12
420.503	88.12
420.726	89.12
420.948	98.12
421.171	96.12
421.394	87.12
421.617	72.12
421.839	94.12
422.062	90.12
422.285	84.12
422.507	86.12
422.73	93.12
422.953	77.12
423.175	85.12
423.398	86.12
423.621	104.12
423.843	84.12
424.066	91.12
424.288	89.12
424.511	88.12
424.733	81.12
424.956	89.12
425.178	90.12
425.401	80.12
425.623	86.12
425.846	91.12
426.068	79.12
426.291	74.12
426.513	82.12
426.735	92.12
426.958	91.12
427.18	94.12
427.402	85.12
427.625	97.12
427.847	93.12
428.069	87.12
428.292	71.12
428.514	82.12
428.736	77.12
428.958	83.12
429.181	86.12
429.403	93.12
429.625	86.12
429.847	85.12
430.069	93.12
430.292	91.12
430.514	101.12
430.736	79.12
430.958	78.12
431.18	86.12
431.402	92.12
431.624	78.12
431.846	88.12
432.068	78.12
432.29	67.12
432.512	85.12
432.734	88.12
432.956	99.12
433.178	91.12
433.4	89.12
433.622	85.12
433.844	92.12
434.066	91.12
434.287	86.12
434.509	71.12
434.731	90.12
434.953	78.12
435.175	82.12
435.397	89.12
435.618	91.12
435.84	78.12
436.062	88.12
436.284	89.12
436.505	86.12
436.727	72.12
436.949	81.12
437.17	85.12
437.392	88.12
437.614	80.12
437.835	79.12
438.057	76.12
438.278	88.12
438.5	97.12
438.721	86.12
438.943	85.12
439.165	91.12
439.386	89.12
439.608	86.12
439.829	72.12
440.05	84.12
440.272	76.12
440.493	86.12
440.715	81.12
440.936	96.12
441.158	97.12
441.379	96.12
441.6	93.12
441.822	84.12
442.043	98.12
442.264	88.12
442.486	86.12
442.707	97.12
442.928	75.12
443.149	71.12
443.371	96.12
443.592	101.12
443.813	100.12
444.034	97.12
444.255	90.12
444.476	92.12
444.698	97.12
444.919	94.12
445.14	199.12
445.361	131.12
445.582	86.12
445.803	94.12
446.024	84.12
446.245	106.12
446.466	84.12
446.687	88.12
446.908	87.12
447.129	85.12
447.35	80.12
447.571	79.12
447.792	86.12
448.013	88.12
448.234	84.12
448.455	86.12
448.675	71.12
448.896	97.12
449.117	90.12
449.338	86.12
449.559	82.12
449.779	78.12
450	84.12
450.221	83.12
450.442	88.12
450.662	72.12
450.883	84.12
451.104	89.12
451.324	102.12
451.545	88.12
451.766	100.12
451.986	82.12
452.207	90.12
452.428	84.12
452.648	73.12
452.869	75.12
453.089	104.12
453.31	86.12
453.53	82.12
453.751	85.12
453.971	83.12
454.192	80.12
454.412	74.12
454.633	87.12
454.853	89.12
455.073	82.12
455.294	70.12
455.514	84.12
455.734	97.12
455.955	90.12
456.175	82.12
456.395	84.12
456.616	97.12
456.836	85.12
457.056	89.12
457.276	88.12
457.497	78.12
457.717	77.12
457.937	75.12
458.157	85.12
458.377	94.12
458.598	84.12
458.818	105.12
459.038	67.12
459.258	97.12
459.478	86.12
459.698	77.12
459.918	81.12
460.138	84.12
460.358	102.12
460.578	98.12
460.798	83.12
461.018	78.12
461.238	93.12
461.458	77.12
461.678	68.12
461.898	86.12
462.118	84.12
462.338	103.12
462.558	107.12
462.777	84.12
462.997	94.12
463.217	101.12
463.437	90.12
463.657	93.12
463.876	84.12
464.096	83.12
464.316	87.12
464.536	97.12
464.755	103.12
464.975	96.12
465.195	96.12
465.414	94.12
465.634	81.12
465.854	90.12
466.073	92.12
466.293	82.12
466.512	96.12
466.732	75.12
466.951	89.12
467.171	73.12
467.391	84.12
467.61	77.12
467.829	77.12
468.049	82.12
468.268	84.12
468.488	86.12
468.707	78.12
468.927	77.12
469.146	82.12
469.365	90.12
469.585	82.12
469.804	90.12
470.023	78.12
470.243	90.12
470.462	101.12
470.681	98.12
470.901	82.12
471.12	90.12
471.339	85.12
471.558	88.12
471.777	87.12
471.997	79.12
472.216	86.12
472.435	87.12
472.654	90.12
472.873	80.12
473.092	82.12
473.311	88.12
473.53	91.12
473.749	105.12
473.968	94.12
474.187	87.12
474.406	96.12
474.625	93.12
474.844	92.12
475.063	98.12
475.282	98.12
475.501	81.12
475.72	89.12
475.939	97.12
476.158	95.12
476.377	97.12
476.596	82.12
476.814	85.12
477.033	78.12
477.252	79.12
477.471	78.12
477.69	83.12
477.908	95.12
478.127	78.12
478.346	92.12
478.564	86.12
478.783	90.12
479.002	87.12
479.22	85.12
479.439	89.12
479.658	94.12
479.876	90.12
480.095	87.12
480.313	85.12
480.532	101.12
480.751	101.12
480.969	81.12
481.188	81.12
481.406	82.12
481.624	96.12
481.843	77.12
482.061	99.12
482.28	86.12
482.498	90.12
482.717	104.12
482.935	85.12
483.153	104.12
483.372	98.12
483.59	103.12
483.808	93.12
484.027	95.12
484.245	83.12
484.463	106.12
484.681	101.12
484.9	88.12
485.118	109.12
485.336	93.12
485.554	93.12
485.772	85.12
485.99	103.12
486.209	94.12
486.427	88.12
486.645	73.12
486.863	100.12
487.081	90.12
487.299	105.12
487.517	94.12
487.735	80.12
487.953	101.12
488.171	98.12
488.389	106.12
488.607	92.12
488.825	76.12
489.043	86.12
489.261	98.12
489.479	90.12
489.696	89.12
489.914	81.12
490.132	93.12
490.35	98.12
490.568	85.12
490.786	96.12
491.003	104.12
491.221	79.12
491.439	99.12
491.657	90.12
491.874	105.12
492.092	101.12
492.31	91.12
492.527	89.12
492.745	93.12
492.963	106.12
493.18	96.12
493.398	91.12
493.615	114.12
493.833	94.12
494.05	102.12
494.268	94.12
494.485	109.12
494.703	89.12
494.92	89.12
495.138	88.12
495.355	102.12
495.573	101.12
495.79	99.12
496.008	99.12
496.225	105.12
496.442	97.12
496.66	98.12
496.877	105.12
497.094	96.12
497.312	96.12
497.529	113.12
497.746	86.12
497.963	97.12
498.181	97.12
498.398	103.12
498.615	85.12
498.832	92.12
499.049	98.12
499.267	91.12
499.484	92.12
499.701	93.12
499.918	101.12
500.135	110.12
500.352	104.12
500.569	103.12
500.786	108.12
501.003	117.12
501.22	103.12
501.437	120.12
501.654	108.12
501.871	100.12
502.088	113.12
502.305	104.12
502.522	107.12
502.739	96.12
502.956	104.12
503.172	103.12
503.389	99.12
503.606	105.12
503.823	105.12
504.04	99.12
504.256	98.12
504.473	109.12
504.69	100.12
504.907	108.12
505.123	90.12
505.34	105.12
505.557	94.12
505.773	89.12
505.99	98.12
506.207	97.12
506.423	88.12
506.64	91.12
506.856	105.12
507.073	86.12
507.289	105.12
507.506	88.12
507.722	86.12
507.939	109.12
508.155	93.12
508.372	94.12
508.588	98.12
508.805	86.12
509.021	83.12
509.238	87.12
509.454	95.12
509.67	85.12
509.887	101.12
510.103	90.12
510.319	89.12
510.536	83.12
510.752	96.12
510.968	93.12
511.184	94.12
511.401	89.12
511.617	88.12
511.833	91.12
512.049	97.12
512.265	97.12
512.481	112.12
512.698	109.12
512.914	83.12
513.13	88.12
513.346	101.12
513.562	88.12
513.778	96.12
513.994	96.12
514.21	85.12
514.426	100.12
514.642	99.12
514.858	91.12
515.074	97.12
515.29	91.12
515.506	84.12
515.721	85.12
515.937	75.12
516.153	99.12
516.369	98.12
516.585	105.12
516.801	84.12
517.016	86.12
517.232	95.12
517.448	87.12
517.664	81.12
517.879	94.12
518.095	94.12
