Data from Ni(NO3)2@0.25M.TitratingCurve.Agarose3%dH2O.NegLispCup.LampEnergy10.LIBS07252019_HRD10591_18-04-05-565.txt Node
Date: Thu Jul 25 18:04:05 EDT 2019
User: cochatt
Spectrometer: HR+D1059
Trigger mode: 1
Integration Time (sec): 1.000000E-1
Scans to average: 1
Electric dark correction enabled: true
Nonlinearity correction enabled: false
Boxcar width: 0
XAxis mode: Wavelengths
Number of Pixels in Spectrum: 2048
>>>>>Begin Spectral Data<<<<<
223.165	-2.12
223.4	-2.12
223.635	-2.12
223.869	-34.12
224.104	-18.12
224.338	-0.12
224.573	-15.12
224.808	-1.12
225.042	-12.12
225.277	-6.12
225.511	-6.12
225.746	-0.12
225.98	6.88
226.215	7.88
226.449	9.88
226.683	20.88
226.918	17.88
227.152	31.88
227.387	23.88
227.621	43.88
227.856	27.88
228.09	47.88
228.324	52.88
228.559	42.88
228.793	58.88
229.027	75.88
229.262	93.88
229.496	74.88
229.73	91.88
229.964	67.88
230.199	90.88
230.433	91.88
230.667	87.88
230.901	95.88
231.136	105.88
231.37	94.88
231.604	107.88
231.838	113.88
232.072	96.88
232.306	100.88
232.541	105.88
232.775	106.88
233.009	108.88
233.243	117.88
233.477	108.88
233.711	108.88
233.945	110.88
234.179	96.88
234.413	101.88
234.647	99.88
234.881	116.88
235.115	107.88
235.349	98.88
235.583	107.88
235.817	99.88
236.051	81.88
236.285	90.88
236.519	83.88
236.753	99.88
236.987	101.88
237.221	82.88
237.455	106.88
237.689	98.88
237.922	103.88
238.156	120.88
238.39	97.88
238.624	103.88
238.858	106.88
239.091	96.88
239.325	100.88
239.559	103.88
239.793	123.88
240.027	111.88
240.26	102.88
240.494	93.88
240.728	99.88
240.961	105.88
241.195	103.88
241.429	115.88
241.662	113.88
241.896	127.88
242.13	97.88
242.363	118.88
242.597	90.88
242.83	115.88
243.064	121.88
243.298	110.88
243.531	121.88
243.765	112.88
243.998	117.88
244.232	126.88
244.465	119.88
244.699	110.88
244.932	123.88
245.166	121.88
245.399	129.88
245.633	127.88
245.866	117.88
246.099	127.88
246.333	117.88
246.566	134.88
246.8	123.88
247.033	119.88
247.266	135.88
247.5	128.88
247.733	120.88
247.966	127.88
248.2	138.88
248.433	139.88
248.666	141.88
248.899	135.88
249.133	133.88
249.366	145.88
249.599	145.88
249.832	141.88
250.066	159.88
250.299	149.88
250.532	162.88
250.765	133.88
250.998	135.88
251.231	176.88
251.465	161.88
251.698	146.88
251.931	146.88
252.164	170.88
252.397	158.88
252.63	159.88
252.863	152.88
253.096	169.88
253.329	170.88
253.562	157.88
253.795	176.88
254.028	179.88
254.261	157.88
254.494	177.88
254.727	180.88
254.96	176.88
255.193	179.88
255.426	180.88
255.659	179.88
255.892	196.88
256.124	168.88
256.357	199.88
256.59	189.88
256.823	187.88
257.056	180.88
257.289	182.88
257.521	179.88
257.754	196.88
257.987	198.88
258.22	209.88
258.452	184.88
258.685	200.88
258.918	183.88
259.151	194.88
259.383	224.88
259.616	219.88
259.849	218.88
260.081	210.88
260.314	207.88
260.547	209.88
260.779	203.88
261.012	207.88
261.244	218.88
261.477	214.88
261.71	204.88
261.942	215.88
262.175	220.88
262.407	229.88
262.64	226.88
262.872	245.88
263.105	215.88
263.337	232.88
263.57	211.88
263.802	229.88
264.035	207.88
264.267	211.88
264.499	223.88
264.732	224.88
264.964	236.88
265.197	223.88
265.429	221.88
265.661	230.88
265.894	223.88
266.126	237.88
266.358	218.88
266.591	235.88
266.823	226.88
267.055	227.88
267.287	237.88
267.52	221.88
267.752	237.88
267.984	241.88
268.216	246.88
268.448	233.88
268.681	231.88
268.913	230.88
269.145	226.88
269.377	253.88
269.609	237.88
269.841	237.88
270.073	238.88
270.306	239.88
270.538	251.88
270.77	238.88
271.002	234.88
271.234	253.88
271.466	222.88
271.698	237.88
271.93	259.88
272.162	253.88
272.394	264.88
272.626	235.88
272.858	242.88
273.09	258.88
273.322	256.88
273.553	243.88
273.785	253.88
274.017	285.88
274.249	265.88
274.481	255.88
274.713	246.88
274.945	254.88
275.176	269.88
275.408	273.88
275.64	262.88
275.872	257.88
276.104	257.88
276.335	256.88
276.567	255.88
276.799	254.88
277.031	263.88
277.262	259.88
277.494	259.88
277.726	278.88
277.957	263.88
278.189	275.88
278.421	257.88
278.652	257.88
278.884	272.88
279.115	253.88
279.347	252.88
279.579	270.88
279.81	286.88
280.042	273.88
280.273	279.88
280.505	260.88
280.736	272.88
280.968	281.88
281.199	265.88
281.431	270.88
281.662	271.88
281.894	257.88
282.125	305.88
282.356	266.88
282.588	283.88
282.819	261.88
283.051	265.88
283.282	272.88
283.513	276.88
283.745	289.88
283.976	288.88
284.207	291.88
284.439	264.88
284.67	267.88
284.901	273.88
285.132	293.88
285.364	289.88
285.595	259.88
285.826	286.88
286.057	268.88
286.288	287.88
286.52	277.88
286.751	295.88
286.982	289.88
287.213	277.88
287.444	287.88
287.675	292.88
287.906	271.88
288.138	280.88
288.369	290.88
288.6	287.88
288.831	274.88
289.062	296.88
289.293	282.88
289.524	290.88
289.755	285.88
289.986	290.88
290.217	288.88
290.448	297.88
290.679	304.88
290.91	298.88
291.141	279.88
291.371	293.88
291.602	285.88
291.833	290.88
292.064	297.88
292.295	275.88
292.526	306.88
292.757	288.88
292.987	289.88
293.218	295.88
293.449	295.88
293.68	298.88
293.91	298.88
294.141	290.88
294.372	281.88
294.603	283.88
294.833	291.88
295.064	309.88
295.295	294.88
295.525	304.88
295.756	281.88
295.987	292.88
296.217	299.88
296.448	297.88
296.679	298.88
296.909	285.88
297.14	294.88
297.37	307.88
297.601	289.88
297.831	294.88
298.062	305.88
298.292	287.88
298.523	318.88
298.753	301.88
298.984	314.88
299.214	326.88
299.445	313.88
299.675	323.88
299.905	320.88
300.136	306.88
300.366	319.88
300.597	328.88
300.827	337.88
301.057	311.88
301.288	306.88
301.518	334.88
301.748	335.88
301.979	334.88
302.209	326.88
302.439	311.88
302.669	325.88
302.9	308.88
303.13	320.88
303.36	336.88
303.59	321.88
303.82	317.88
304.051	348.88
304.281	352.88
304.511	334.88
304.741	338.88
304.971	338.88
305.201	335.88
305.431	352.88
305.661	323.88
305.891	335.88
306.121	311.88
306.352	316.88
306.582	314.88
306.812	324.88
307.042	351.88
307.272	326.88
307.502	312.88
307.731	314.88
307.961	343.88
308.191	319.88
308.421	320.88
308.651	356.88
308.881	330.88
309.111	315.88
309.341	348.88
309.571	350.88
309.8	338.88
310.03	345.88
310.26	333.88
310.49	353.88
310.72	349.88
310.949	341.88
311.179	342.88
311.409	337.88
311.639	344.88
311.868	359.88
312.098	355.88
312.328	354.88
312.557	360.88
312.787	369.88
313.017	339.88
313.246	354.88
313.476	377.88
313.706	379.88
313.935	373.88
314.165	382.88
314.394	365.88
314.624	388.88
314.853	381.88
315.083	371.88
315.312	383.88
315.542	406.88
315.771	387.88
316.001	361.88
316.23	365.88
316.46	389.88
316.689	374.88
316.919	366.88
317.148	402.88
317.377	391.88
317.607	389.88
317.836	372.88
318.065	385.88
318.295	377.88
318.524	386.88
318.753	389.88
318.983	384.88
319.212	392.88
319.441	408.88
319.67	398.88
319.9	398.88
320.129	415.88
320.358	400.88
320.587	425.88
320.816	426.88
321.046	429.88
321.275	429.88
321.504	428.88
321.733	407.88
321.962	405.88
322.191	422.88
322.42	430.88
322.649	429.88
322.878	413.88
323.108	445.88
323.337	439.88
323.566	440.88
323.795	436.88
324.024	444.88
324.253	432.88
324.482	419.88
324.71	455.88
324.939	476.88
325.168	486.88
325.397	465.88
325.626	467.88
325.855	466.88
326.084	485.88
326.313	493.88
326.542	490.88
326.77	475.88
326.999	469.88
327.228	477.88
327.457	494.88
327.686	495.88
327.914	484.88
328.143	514.88
328.372	498.88
328.6	489.88
328.829	495.88
329.058	493.88
329.287	517.88
329.515	507.88
329.744	497.88
329.972	530.88
330.201	522.88
330.43	521.88
330.658	513.88
330.887	539.88
331.115	529.88
331.344	566.88
331.572	566.88
331.801	543.88
332.03	563.88
332.258	581.88
332.486	555.88
332.715	599.88
332.943	613.88
333.172	603.88
333.4	625.88
333.629	635.88
333.857	646.88
334.085	624.88
334.314	656.88
334.542	634.88
334.771	645.88
334.999	610.88
335.227	641.88
335.455	633.88
335.684	647.88
335.912	639.88
336.14	624.88
336.369	633.88
336.597	628.88
336.825	625.88
337.053	631.88
337.281	651.88
337.51	628.88
337.738	605.88
337.966	618.88
338.194	613.88
338.422	616.88
338.65	582.88
338.878	582.88
339.106	612.88
339.334	582.88
339.562	603.88
339.79	595.88
340.018	585.88
340.246	584.88
340.474	558.88
340.702	562.88
340.93	578.88
341.158	600.88
341.386	603.88
341.614	624.88
341.842	613.88
342.07	575.88
342.298	577.88
342.526	574.88
342.754	587.88
342.981	584.88
343.209	599.88
343.437	598.88
343.665	605.88
343.893	632.88
344.12	652.88
344.348	646.88
344.576	638.88
344.804	609.88
345.031	629.88
345.259	585.88
345.487	613.88
345.714	600.88
345.942	607.88
346.17	617.88
346.397	603.88
346.625	570.88
346.853	575.88
347.08	573.88
347.308	586.88
347.535	583.88
347.763	569.88
347.99	558.88
348.218	575.88
348.445	572.88
348.673	579.88
348.9	537.88
349.128	560.88
349.355	574.88
349.583	549.88
349.81	554.88
350.037	570.88
350.265	580.88
350.492	556.88
350.72	538.88
350.947	544.88
351.174	581.88
351.402	580.88
351.629	585.88
351.856	561.88
352.083	537.88
352.311	544.88
352.538	570.88
352.765	577.88
352.992	546.88
353.22	532.88
353.447	543.88
353.674	531.88
353.901	545.88
354.128	545.88
354.355	539.88
354.583	548.88
354.81	539.88
355.037	550.88
355.264	534.88
355.491	542.88
355.718	551.88
355.945	531.88
356.172	528.88
356.399	548.88
356.626	572.88
356.853	548.88
357.08	554.88
357.307	545.88
357.534	529.88
357.761	535.88
357.988	554.88
358.215	539.88
358.441	524.88
358.668	544.88
358.895	530.88
359.122	532.88
359.349	526.88
359.576	542.88
359.802	547.88
360.029	529.88
360.256	540.88
360.483	546.88
360.709	524.88
360.936	535.88
361.163	532.88
361.39	537.88
361.616	549.88
361.843	534.88
362.07	581.88
362.296	578.88
362.523	527.88
362.749	536.88
362.976	553.88
363.203	536.88
363.429	555.88
363.656	537.88
363.882	515.88
364.109	557.88
364.335	528.88
364.562	537.88
364.788	522.88
365.015	519.88
365.241	513.88
365.468	532.88
365.694	545.88
365.92	533.88
366.147	533.88
366.373	523.88
366.599	529.88
366.826	549.88
367.052	520.88
367.278	526.88
367.505	533.88
367.731	555.88
367.957	530.88
368.184	521.88
368.41	545.88
368.636	547.88
368.862	523.88
369.089	532.88
369.315	529.88
369.541	531.88
369.767	545.88
369.993	539.88
370.219	534.88
370.445	543.88
370.672	555.88
370.898	579.88
371.124	547.88
371.35	554.88
371.576	558.88
371.802	554.88
372.028	551.88
372.254	573.88
372.48	553.88
372.706	560.88
372.932	537.88
373.158	548.88
373.384	568.88
373.61	565.88
373.835	541.88
374.061	544.88
374.287	542.88
374.513	569.88
374.739	562.88
374.965	549.88
375.191	572.88
375.416	580.88
375.642	560.88
375.868	567.88
376.094	565.88
376.319	544.88
376.545	557.88
376.771	559.88
376.997	544.88
377.222	550.88
377.448	527.88
377.674	522.88
377.899	538.88
378.125	533.88
378.35	518.88
378.576	529.88
378.802	529.88
379.027	530.88
379.253	521.88
379.478	525.88
379.704	519.88
379.929	535.88
380.155	534.88
380.38	528.88
380.606	536.88
380.831	537.88
381.057	539.88
381.282	536.88
381.507	525.88
381.733	537.88
381.958	539.88
382.184	538.88
382.409	535.88
382.634	545.88
382.86	537.88
383.085	559.88
383.31	549.88
383.535	575.88
383.761	566.88
383.986	562.88
384.211	563.88
384.436	575.88
384.662	587.88
384.887	570.88
385.112	584.88
385.337	607.88
385.562	619.88
385.787	597.88
386.013	616.88
386.238	599.88
386.463	609.88
386.688	619.88
386.913	589.88
387.138	600.88
387.363	605.88
387.588	602.88
387.813	600.88
388.038	605.88
388.263	608.88
388.488	606.88
388.713	586.88
388.938	583.88
389.163	616.88
389.387	602.88
389.612	627.88
389.837	608.88
390.062	601.88
390.287	600.88
390.512	618.88
390.736	615.88
390.961	596.88
391.186	637.88
391.411	647.88
391.636	642.88
391.86	639.88
392.085	656.88
392.31	675.88
392.534	660.88
392.759	639.88
392.984	651.88
393.208	639.88
393.433	631.88
393.658	654.88
393.882	619.88
394.107	635.88
394.331	639.88
394.556	644.88
394.78	643.88
395.005	631.88
395.229	647.88
395.454	674.88
395.678	669.88
395.903	666.88
396.127	685.88
396.352	661.88
396.576	648.88
396.801	657.88
397.025	660.88
397.249	697.88
397.474	713.88
397.698	686.88
397.922	689.88
398.147	708.88
398.371	699.88
398.595	713.88
398.82	757.88
399.044	781.88
399.268	824.88
399.492	897.88
399.717	932.88
399.941	933.88
400.165	897.88
400.389	864.88
400.613	828.88
400.837	805.88
401.062	781.88
401.286	740.88
401.51	735.88
401.734	764.88
401.958	774.88
402.182	742.88
402.406	758.88
402.63	753.88
402.854	756.88
403.078	772.88
403.302	746.88
403.526	807.88
403.75	779.88
403.974	788.88
404.198	817.88
404.422	804.88
404.645	808.88
404.869	802.88
405.093	793.88
405.317	809.88
405.541	833.88
405.765	829.88
405.988	772.88
406.212	839.88
406.436	811.88
406.66	838.88
406.883	865.88
407.107	882.88
407.331	898.88
407.555	938.88
407.778	919.88
408.002	901.88
408.226	890.88
408.449	884.88
408.673	839.88
408.896	871.88
409.12	839.88
409.344	808.88
409.567	836.88
409.791	847.88
410.014	851.88
410.238	855.88
410.461	846.88
410.685	829.88
410.908	823.88
411.132	822.88
411.355	812.88
411.578	814.88
411.802	792.88
412.025	807.88
412.249	793.88
412.472	837.88
412.695	782.88
412.919	779.88
413.142	805.88
413.365	797.88
413.589	801.88
413.812	829.88
414.035	785.88
414.258	799.88
414.482	791.88
414.705	793.88
414.928	792.88
415.151	797.88
415.374	790.88
415.597	791.88
415.821	791.88
416.044	783.88
416.267	776.88
416.49	767.88
416.713	754.88
416.936	775.88
417.159	755.88
417.382	759.88
417.605	764.88
417.828	762.88
418.051	796.88
418.274	782.88
418.497	793.88
418.72	796.88
418.943	781.88
419.166	835.88
419.389	902.88
419.611	891.88
419.834	835.88
420.057	839.88
420.28	835.88
420.503	805.88
420.726	794.88
420.948	790.88
421.171	771.88
421.394	787.88
421.617	765.88
421.839	790.88
422.062	796.88
422.285	764.88
422.507	801.88
422.73	791.88
422.953	804.88
423.175	803.88
423.398	808.88
423.621	833.88
423.843	831.88
424.066	844.88
424.288	819.88
424.511	824.88
424.733	830.88
424.956	829.88
425.178	798.88
425.401	822.88
425.623	820.88
425.846	807.88
426.068	790.88
426.291	754.88
426.513	806.88
426.735	795.88
426.958	776.88
427.18	765.88
427.402	776.88
427.625	772.88
427.847	752.88
428.069	751.88
428.292	751.88
428.514	756.88
428.736	788.88
428.958	771.88
429.181	777.88
429.403	732.88
429.625	755.88
429.847	777.88
430.069	762.88
430.292	744.88
430.514	749.88
430.736	765.88
430.958	753.88
431.18	746.88
431.402	791.88
431.624	771.88
431.846	787.88
432.068	756.88
432.29	773.88
432.512	774.88
432.734	783.88
432.956	800.88
433.178	789.88
433.4	775.88
433.622	795.88
433.844	799.88
434.066	785.88
434.287	791.88
434.509	769.88
434.731	821.88
434.953	815.88
435.175	862.88
435.397	865.88
435.618	808.88
435.84	806.88
436.062	779.88
436.284	791.88
436.505	773.88
436.727	805.88
436.949	783.88
437.17	775.88
437.392	746.88
437.614	741.88
437.835	745.88
438.057	745.88
438.278	734.88
438.5	751.88
438.721	763.88
438.943	766.88
439.165	731.88
439.386	783.88
439.608	803.88
439.829	806.88
440.05	785.88
440.272	797.88
440.493	801.88
440.715	813.88
440.936	799.88
441.158	838.88
441.379	815.88
441.6	862.88
441.822	837.88
442.043	837.88
442.264	849.88
442.486	843.88
442.707	834.88
442.928	859.88
443.149	846.88
443.371	865.88
443.592	852.88
443.813	852.88
444.034	847.88
444.255	842.88
444.476	886.88
444.698	881.88
444.919	934.88
445.14	1001.88
445.361	923.88
445.582	868.88
445.803	875.88
446.024	838.88
446.245	845.88
446.466	817.88
446.687	811.88
446.908	799.88
447.129	824.88
447.35	800.88
447.571	784.88
447.792	757.88
448.013	758.88
448.234	727.88
448.455	727.88
448.675	742.88
448.896	728.88
449.117	766.88
449.338	742.88
449.559	735.88
449.779	728.88
450	720.88
450.221	750.88
450.442	738.88
450.662	720.88
450.883	726.88
451.104	752.88
451.324	751.88
451.545	727.88
451.766	727.88
451.986	729.88
452.207	709.88
452.428	720.88
452.648	725.88
452.869	714.88
453.089	702.88
453.31	710.88
453.53	694.88
453.751	689.88
453.971	705.88
454.192	676.88
454.412	683.88
454.633	703.88
454.853	685.88
455.073	702.88
455.294	691.88
455.514	679.88
455.734	690.88
455.955	683.88
456.175	695.88
456.395	671.88
456.616	693.88
456.836	707.88
457.056	681.88
457.276	685.88
457.497	688.88
457.717	694.88
457.937	687.88
458.157	690.88
458.377	721.88
458.598	766.88
458.818	745.88
459.038	734.88
459.258	757.88
459.478	784.88
459.698	797.88
459.918	799.88
460.138	820.88
460.358	865.88
460.578	861.88
460.798	887.88
461.018	888.88
461.238	892.88
461.458	863.88
461.678	871.88
461.898	888.88
462.118	893.88
462.338	950.88
462.558	951.88
462.777	969.88
462.997	1015.88
463.217	1034.88
463.437	1036.88
463.657	1038.88
463.876	960.88
464.096	982.88
464.316	992.88
464.536	975.88
464.755	970.88
464.975	919.88
465.195	902.88
465.414	867.88
465.634	848.88
465.854	810.88
466.073	819.88
466.293	793.88
466.512	785.88
466.732	778.88
466.951	787.88
467.171	779.88
467.391	775.88
467.61	761.88
467.829	750.88
468.049	768.88
468.268	740.88
468.488	737.88
468.707	757.88
468.927	772.88
469.146	755.88
469.365	772.88
469.585	771.88
469.804	767.88
470.023	769.88
470.243	772.88
470.462	801.88
470.681	766.88
470.901	786.88
471.12	780.88
471.339	771.88
471.558	763.88
471.777	766.88
471.997	758.88
472.216	713.88
472.435	734.88
472.654	730.88
472.873	731.88
473.092	722.88
473.311	732.88
473.53	761.88
473.749	763.88
473.968	740.88
474.187	734.88
474.406	718.88
474.625	741.88
474.844	752.88
475.063	757.88
475.282	739.88
475.501	751.88
475.72	770.88
475.939	752.88
476.158	762.88
476.377	774.88
476.596	791.88
476.814	778.88
477.033	769.88
477.252	789.88
477.471	787.88
477.69	832.88
477.908	850.88
478.127	856.88
478.346	877.88
478.564	859.88
478.783	843.88
479.002	927.88
479.22	861.88
479.439	883.88
479.658	898.88
479.876	894.88
480.095	886.88
480.313	918.88
480.532	924.88
480.751	912.88
480.969	863.88
481.188	844.88
481.406	870.88
481.624	879.88
481.843	857.88
482.061	866.88
482.28	855.88
482.498	839.88
482.717	841.88
482.935	859.88
483.153	859.88
483.372	862.88
483.59	853.88
483.808	854.88
484.027	867.88
484.245	860.88
484.463	854.88
484.681	894.88
484.9	886.88
485.118	870.88
485.336	868.88
485.554	870.88
485.772	889.88
485.99	873.88
486.209	862.88
486.427	885.88
486.645	856.88
486.863	864.88
487.081	881.88
487.299	906.88
487.517	859.88
487.735	902.88
487.953	910.88
488.171	920.88
488.389	897.88
488.607	883.88
488.825	873.88
489.043	865.88
489.261	882.88
489.479	868.88
489.696	885.88
489.914	890.88
490.132	906.88
490.35	926.88
490.568	930.88
490.786	930.88
491.003	924.88
491.221	918.88
491.439	930.88
491.657	940.88
491.874	925.88
492.092	962.88
492.31	971.88
492.527	938.88
492.745	974.88
492.963	991.88
493.18	952.88
493.398	940.88
493.615	961.88
493.833	944.88
494.05	944.88
494.268	977.88
494.485	992.88
494.703	962.88
494.92	965.88
495.138	965.88
495.355	981.88
495.573	997.88
495.79	1011.88
496.008	1024.88
496.225	1020.88
496.442	1005.88
496.66	1047.88
496.877	1043.88
497.094	1024.88
497.312	1070.88
497.529	1096.88
497.746	1106.88
497.963	1109.88
498.181	1139.88
498.398	1195.88
498.615	1231.88
498.832	1302.88
499.049	1354.88
499.267	1411.88
499.484	1514.88
499.701	1625.88
499.918	1711.88
500.135	1840.88
500.352	1981.88
500.569	2001.88
500.786	1967.88
501.003	1893.88
501.22	1796.88
501.437	1682.88
501.654	1597.88
