Data from Ni(NO3)2Standard.Agarose3%.GreenCap.LampEnergy5.5.E.O_HRD10591_14-42-44-188.txt Node
Date: Mon Jul 22 14:42:44 EDT 2019
User: cochatt
Spectrometer: HR+D1059
Trigger mode: 1
Integration Time (sec): 1.000000E-1
Scans to average: 1
Electric dark correction enabled: true
Nonlinearity correction enabled: false
Boxcar width: 0
XAxis mode: Wavelengths
Number of Pixels in Spectrum: 2048
>>>>>Begin Spectral Data<<<<<
223.165	-25.69
223.4	-25.69
223.635	-25.69
223.869	-21.69
224.104	-26.69
224.338	-21.69
224.573	-9.69
224.808	-14.69
225.042	3.31
225.277	-3.69
225.511	-1.69
225.746	15.31
225.98	0.31
226.215	12.31
226.449	18.31
226.683	16.31
226.918	25.31
227.152	34.31
227.387	37.31
227.621	41.31
227.856	39.31
228.09	35.31
228.324	54.31
228.559	40.31
228.793	40.31
229.027	59.31
229.262	55.31
229.496	65.31
229.73	52.31
229.964	67.31
230.199	90.31
230.433	92.31
230.667	73.31
230.901	65.31
231.136	88.31
231.37	86.31
231.604	80.31
231.838	85.31
232.072	80.31
232.306	92.31
232.541	71.31
232.775	72.31
233.009	83.31
233.243	75.31
233.477	83.31
233.711	89.31
233.945	75.31
234.179	82.31
234.413	80.31
234.647	76.31
234.881	83.31
235.115	79.31
235.349	80.31
235.583	83.31
235.817	84.31
236.051	74.31
236.285	67.31
236.519	70.31
236.753	54.31
236.987	65.31
237.221	84.31
237.455	81.31
237.689	79.31
237.922	73.31
238.156	70.31
238.39	82.31
238.624	79.31
238.858	79.31
239.091	74.31
239.325	78.31
239.559	72.31
239.793	86.31
240.027	74.31
240.26	67.31
240.494	66.31
240.728	66.31
240.961	80.31
241.195	82.31
241.429	71.31
241.662	64.31
241.896	76.31
242.13	77.31
242.363	90.31
242.597	62.31
242.83	71.31
243.064	74.31
243.298	72.31
243.531	76.31
243.765	83.31
243.998	82.31
244.232	71.31
244.465	62.31
244.699	70.31
244.932	72.31
245.166	59.31
245.399	76.31
245.633	77.31
245.866	88.31
246.099	75.31
246.333	74.31
246.566	73.31
246.8	62.31
247.033	76.31
247.266	79.31
247.5	81.31
247.733	82.31
247.966	94.31
248.2	81.31
248.433	85.31
248.666	82.31
248.899	75.31
249.133	79.31
249.366	75.31
249.599	90.31
249.832	66.31
250.066	84.31
250.299	80.31
250.532	93.31
250.765	59.31
250.998	88.31
251.231	93.31
251.465	83.31
251.698	78.31
251.931	88.31
252.164	78.31
252.397	62.31
252.63	81.31
252.863	60.31
253.096	88.31
253.329	79.31
253.562	77.31
253.795	98.31
254.028	85.31
254.261	81.31
254.494	89.31
254.727	84.31
254.96	70.31
255.193	78.31
255.426	88.31
255.659	87.31
255.892	97.31
256.124	81.31
256.357	77.31
256.59	91.31
256.823	90.31
257.056	95.31
257.289	79.31
257.521	76.31
257.754	76.31
257.987	90.31
258.22	82.31
258.452	85.31
258.685	78.31
258.918	93.31
259.151	71.31
259.383	70.31
259.616	78.31
259.849	84.31
260.081	81.31
260.314	85.31
260.547	82.31
260.779	79.31
261.012	82.31
261.244	88.31
261.477	78.31
261.71	80.31
261.942	80.31
262.175	73.31
262.407	82.31
262.64	78.31
262.872	71.31
263.105	92.31
263.337	78.31
263.57	84.31
263.802	89.31
264.035	90.31
264.267	87.31
264.499	98.31
264.732	85.31
264.964	81.31
265.197	79.31
265.429	79.31
265.661	84.31
265.894	84.31
266.126	75.31
266.358	84.31
266.591	69.31
266.823	80.31
267.055	76.31
267.287	90.31
267.52	80.31
267.752	74.31
267.984	91.31
268.216	73.31
268.448	84.31
268.681	84.31
268.913	77.31
269.145	88.31
269.377	93.31
269.609	88.31
269.841	91.31
270.073	78.31
270.306	84.31
270.538	90.31
270.77	89.31
271.002	85.31
271.234	75.31
271.466	74.31
271.698	77.31
271.93	79.31
272.162	84.31
272.394	87.31
272.626	80.31
272.858	90.31
273.09	85.31
273.322	91.31
273.553	80.31
273.785	80.31
274.017	79.31
274.249	86.31
274.481	68.31
274.713	78.31
274.945	92.31
275.176	71.31
275.408	83.31
275.64	79.31
275.872	73.31
276.104	86.31
276.335	90.31
276.567	91.31
276.799	75.31
277.031	93.31
277.262	88.31
277.494	84.31
277.726	75.31
277.957	80.31
278.189	86.31
278.421	71.31
278.652	93.31
278.884	75.31
279.115	81.31
279.347	91.31
279.579	90.31
279.81	91.31
280.042	79.31
280.273	65.31
280.505	77.31
280.736	86.31
280.968	75.31
281.199	81.31
281.431	83.31
281.662	87.31
281.894	82.31
282.125	69.31
282.356	84.31
282.588	85.31
282.819	92.31
283.051	88.31
283.282	91.31
283.513	90.31
283.745	84.31
283.976	91.31
284.207	79.31
284.439	83.31
284.67	80.31
284.901	99.31
285.132	79.31
285.364	82.31
285.595	80.31
285.826	102.31
286.057	90.31
286.288	88.31
286.52	82.31
286.751	71.31
286.982	76.31
287.213	89.31
287.444	86.31
287.675	81.31
287.906	71.31
288.138	84.31
288.369	83.31
288.6	83.31
288.831	95.31
289.062	76.31
289.293	81.31
289.524	73.31
289.755	85.31
289.986	74.31
290.217	89.31
290.448	77.31
290.679	80.31
290.91	92.31
291.141	90.31
291.371	91.31
291.602	78.31
291.833	71.31
292.064	91.31
292.295	79.31
292.526	73.31
292.757	81.31
292.987	83.31
293.218	75.31
293.449	74.31
293.68	95.31
293.91	100.31
294.141	68.31
294.372	65.31
294.603	84.31
294.833	84.31
295.064	95.31
295.295	97.31
295.525	87.31
295.756	71.31
295.987	98.31
296.217	64.31
296.448	87.31
296.679	80.31
296.909	81.31
297.14	80.31
297.37	87.31
297.601	91.31
297.831	79.31
298.062	76.31
298.292	88.31
298.523	87.31
298.753	82.31
298.984	77.31
299.214	97.31
299.445	85.31
299.675	86.31
299.905	81.31
300.136	75.31
300.366	84.31
300.597	88.31
300.827	81.31
301.057	84.31
301.288	84.31
301.518	99.31
301.748	83.31
301.979	76.31
302.209	83.31
302.439	88.31
302.669	87.31
302.9	76.31
303.13	70.31
303.36	86.31
303.59	71.31
303.82	81.31
304.051	84.31
304.281	85.31
304.511	98.31
304.741	89.31
304.971	85.31
305.201	78.31
305.431	94.31
305.661	83.31
305.891	85.31
306.121	84.31
306.352	76.31
306.582	76.31
306.812	91.31
307.042	72.31
307.272	86.31
307.502	86.31
307.731	86.31
307.961	78.31
308.191	83.31
308.421	89.31
308.651	93.31
308.881	81.31
309.111	86.31
309.341	77.31
309.571	71.31
309.8	87.31
310.03	101.31
310.26	91.31
310.49	88.31
310.72	79.31
310.949	81.31
311.179	90.31
311.409	89.31
311.639	88.31
311.868	90.31
312.098	97.31
312.328	87.31
312.557	96.31
312.787	109.31
313.017	90.31
313.246	84.31
313.476	84.31
313.706	85.31
313.935	87.31
314.165	77.31
314.394	79.31
314.624	95.31
314.853	94.31
315.083	91.31
315.312	102.31
315.542	73.31
315.771	84.31
316.001	84.31
316.23	91.31
316.46	91.31
316.689	92.31
316.919	86.31
317.148	99.31
317.377	75.31
317.607	88.31
317.836	79.31
318.065	79.31
318.295	81.31
318.524	93.31
318.753	88.31
318.983	87.31
319.212	86.31
319.441	95.31
319.67	82.31
319.9	92.31
320.129	99.31
320.358	97.31
320.587	83.31
320.816	92.31
321.046	77.31
321.275	94.31
321.504	91.31
321.733	86.31
321.962	79.31
322.191	82.31
322.42	67.31
322.649	79.31
322.878	90.31
323.108	83.31
323.337	73.31
323.566	86.31
323.795	73.31
324.024	70.31
324.253	86.31
324.482	76.31
324.71	83.31
324.939	94.31
325.168	85.31
325.397	93.31
325.626	88.31
325.855	84.31
326.084	82.31
326.313	92.31
326.542	82.31
326.77	80.31
326.999	72.31
327.228	94.31
327.457	74.31
327.686	79.31
327.914	94.31
328.143	79.31
328.372	82.31
328.6	76.31
328.829	84.31
329.058	92.31
329.287	79.31
329.515	76.31
329.744	82.31
329.972	96.31
330.201	90.31
330.43	87.31
330.658	83.31
330.887	83.31
331.115	87.31
331.344	84.31
331.572	83.31
331.801	80.31
332.03	83.31
332.258	68.31
332.486	83.31
332.715	72.31
332.943	74.31
333.172	83.31
333.4	89.31
333.629	90.31
333.857	96.31
334.085	89.31
334.314	89.31
334.542	79.31
334.771	71.31
334.999	96.31
335.227	89.31
335.455	95.31
335.684	78.31
335.912	92.31
336.14	92.31
336.369	75.31
336.597	73.31
336.825	91.31
337.053	92.31
337.281	90.31
337.51	84.31
337.738	89.31
337.966	79.31
338.194	88.31
338.422	89.31
338.65	80.31
338.878	90.31
339.106	84.31
339.334	89.31
339.562	84.31
339.79	86.31
340.018	97.31
340.246	76.31
340.474	100.31
340.702	87.31
340.93	85.31
341.158	86.31
341.386	95.31
341.614	84.31
341.842	94.31
342.07	79.31
342.298	90.31
342.526	83.31
342.754	88.31
342.981	96.31
343.209	72.31
343.437	90.31
343.665	97.31
343.893	97.31
344.12	88.31
344.348	89.31
344.576	98.31
344.804	82.31
345.031	93.31
345.259	75.31
345.487	83.31
345.714	78.31
345.942	95.31
346.17	91.31
346.397	87.31
346.625	93.31
346.853	90.31
347.08	90.31
347.308	90.31
347.535	85.31
347.763	88.31
347.99	77.31
348.218	75.31
348.445	83.31
348.673	89.31
348.9	79.31
349.128	73.31
349.355	76.31
349.583	90.31
349.81	90.31
350.037	92.31
350.265	89.31
350.492	95.31
350.72	91.31
350.947	74.31
351.174	78.31
351.402	79.31
351.629	81.31
351.856	92.31
352.083	85.31
352.311	91.31
352.538	78.31
352.765	92.31
352.992	71.31
353.22	96.31
353.447	72.31
353.674	77.31
353.901	88.31
354.128	96.31
354.355	85.31
354.583	83.31
354.81	77.31
355.037	72.31
355.264	85.31
355.491	83.31
355.718	85.31
355.945	86.31
356.172	67.31
356.399	89.31
356.626	83.31
356.853	87.31
357.08	76.31
357.307	75.31
357.534	88.31
357.761	78.31
357.988	86.31
358.215	90.31
358.441	79.31
358.668	79.31
358.895	84.31
359.122	78.31
359.349	78.31
359.576	90.31
359.802	76.31
360.029	81.31
360.256	79.31
360.483	88.31
360.709	83.31
360.936	78.31
361.163	92.31
361.39	83.31
361.616	89.31
361.843	85.31
362.07	74.31
362.296	79.31
362.523	76.31
362.749	96.31
362.976	76.31
363.203	68.31
363.429	82.31
363.656	95.31
363.882	82.31
364.109	77.31
364.335	85.31
364.562	79.31
364.788	90.31
365.015	79.31
365.241	84.31
365.468	85.31
365.694	86.31
365.92	93.31
366.147	86.31
366.373	91.31
366.599	94.31
366.826	62.31
367.052	83.31
367.278	84.31
367.505	79.31
367.731	80.31
367.957	85.31
368.184	80.31
368.41	76.31
368.636	86.31
368.862	89.31
369.089	81.31
369.315	86.31
369.541	77.31
369.767	93.31
369.993	86.31
370.219	86.31
370.445	81.31
370.672	79.31
370.898	78.31
371.124	90.31
371.35	90.31
371.576	73.31
371.802	81.31
372.028	79.31
372.254	75.31
372.48	74.31
372.706	91.31
372.932	79.31
373.158	87.31
373.384	94.31
373.61	95.31
373.835	84.31
374.061	73.31
374.287	77.31
374.513	106.31
374.739	78.31
374.965	74.31
375.191	88.31
375.416	84.31
375.642	82.31
375.868	90.31
376.094	86.31
376.319	75.31
376.545	88.31
376.771	75.31
376.997	73.31
377.222	80.31
377.448	75.31
377.674	75.31
377.899	80.31
378.125	87.31
378.35	79.31
378.576	104.31
378.802	89.31
379.027	60.31
379.253	76.31
379.478	98.31
379.704	96.31
379.929	102.31
380.155	82.31
380.38	96.31
380.606	75.31
380.831	86.31
381.057	84.31
381.282	75.31
381.507	88.31
381.733	86.31
381.958	80.31
382.184	77.31
382.409	74.31
382.634	88.31
382.86	80.31
383.085	95.31
383.31	73.31
383.535	96.31
383.761	91.31
383.986	88.31
384.211	87.31
384.436	95.31
384.662	82.31
384.887	81.31
385.112	77.31
385.337	76.31
385.562	84.31
385.787	79.31
386.013	88.31
386.238	73.31
386.463	83.31
386.688	76.31
386.913	80.31
387.138	88.31
387.363	82.31
387.588	95.31
387.813	80.31
388.038	96.31
388.263	81.31
388.488	80.31
388.713	92.31
388.938	79.31
389.163	73.31
389.387	74.31
389.612	79.31
389.837	75.31
390.062	79.31
390.287	90.31
390.512	86.31
390.736	86.31
390.961	79.31
391.186	92.31
391.411	67.31
391.636	88.31
391.86	80.31
392.085	99.31
392.31	97.31
392.534	86.31
392.759	88.31
392.984	78.31
393.208	73.31
393.433	90.31
393.658	91.31
393.882	90.31
394.107	87.31
394.331	90.31
394.556	85.31
394.78	107.31
395.005	74.31
395.229	81.31
395.454	90.31
395.678	75.31
395.903	87.31
396.127	81.31
396.352	95.31
396.576	75.31
396.801	72.31
397.025	78.31
397.249	81.31
397.474	80.31
397.698	84.31
397.922	76.31
398.147	90.31
398.371	91.31
398.595	90.31
398.82	79.31
399.044	82.31
399.268	79.31
399.492	87.31
399.717	89.31
399.941	91.31
400.165	94.31
400.389	92.31
400.613	79.31
400.837	79.31
401.062	84.31
401.286	65.31
401.51	84.31
401.734	75.31
401.958	72.31
402.182	97.31
402.406	96.31
402.63	79.31
402.854	79.31
403.078	78.31
403.302	79.31
403.526	85.31
403.75	69.31
403.974	76.31
404.198	96.31
404.422	82.31
404.645	82.31
404.869	89.31
405.093	76.31
405.317	79.31
405.541	78.31
405.765	89.31
405.988	81.31
406.212	92.31
406.436	88.31
406.66	87.31
406.883	91.31
407.107	100.31
407.331	79.31
407.555	95.31
407.778	84.31
408.002	80.31
408.226	71.31
408.449	77.31
408.673	85.31
408.896	97.31
409.12	84.31
409.344	83.31
409.567	97.31
409.791	86.31
410.014	66.31
410.238	86.31
410.461	70.31
410.685	64.31
410.908	87.31
411.132	84.31
411.355	75.31
411.578	96.31
411.802	91.31
412.025	80.31
412.249	81.31
412.472	88.31
412.695	79.31
412.919	80.31
413.142	93.31
413.365	85.31
413.589	68.31
413.812	90.31
414.035	79.31
414.258	84.31
414.482	85.31
414.705	84.31
414.928	84.31
415.151	88.31
415.374	70.31
415.597	80.31
415.821	87.31
416.044	82.31
416.267	76.31
416.49	86.31
416.713	79.31
416.936	91.31
417.159	92.31
417.382	81.31
417.605	93.31
417.828	85.31
418.051	89.31
418.274	83.31
418.497	84.31
418.72	83.31
418.943	68.31
419.166	77.31
419.389	78.31
419.611	87.31
419.834	91.31
420.057	86.31
420.28	75.31
420.503	91.31
420.726	71.31
420.948	96.31
421.171	80.31
421.394	81.31
421.617	94.31
421.839	83.31
422.062	80.31
422.285	91.31
422.507	85.31
422.73	83.31
422.953	63.31
423.175	66.31
423.398	69.31
423.621	79.31
423.843	78.31
424.066	81.31
424.288	93.31
424.511	90.31
424.733	83.31
424.956	74.31
425.178	75.31
425.401	87.31
425.623	77.31
425.846	99.31
426.068	83.31
426.291	90.31
426.513	88.31
426.735	72.31
426.958	64.31
427.18	65.31
427.402	94.31
427.625	70.31
427.847	82.31
428.069	76.31
428.292	97.31
428.514	78.31
428.736	84.31
428.958	71.31
429.181	88.31
429.403	88.31
429.625	101.31
429.847	80.31
430.069	82.31
430.292	79.31
430.514	81.31
430.736	76.31
430.958	74.31
431.18	83.31
431.402	82.31
431.624	85.31
431.846	94.31
432.068	79.31
432.29	80.31
432.512	77.31
432.734	76.31
432.956	73.31
433.178	94.31
433.4	83.31
433.622	97.31
433.844	74.31
434.066	94.31
434.287	71.31
434.509	87.31
434.731	78.31
434.953	85.31
435.175	96.31
435.397	77.31
435.618	71.31
435.84	72.31
436.062	89.31
436.284	83.31
436.505	87.31
436.727	80.31
436.949	91.31
437.17	86.31
437.392	82.31
437.614	72.31
437.835	82.31
438.057	80.31
438.278	73.31
438.5	98.31
438.721	87.31
438.943	89.31
439.165	72.31
439.386	85.31
439.608	87.31
439.829	81.31
440.05	86.31
440.272	88.31
440.493	74.31
440.715	86.31
440.936	69.31
441.158	91.31
441.379	86.31
441.6	76.31
441.822	82.31
442.043	87.31
442.264	81.31
442.486	82.31
442.707	92.31
442.928	90.31
443.149	76.31
443.371	86.31
443.592	93.31
443.813	85.31
444.034	87.31
444.255	80.31
444.476	66.31
444.698	88.31
444.919	75.31
445.14	180.31
445.361	119.31
445.582	81.31
445.803	72.31
446.024	83.31
446.245	90.31
446.466	80.31
446.687	86.31
446.908	75.31
447.129	86.31
447.35	77.31
447.571	87.31
447.792	90.31
448.013	85.31
448.234	82.31
448.455	78.31
448.675	87.31
448.896	87.31
449.117	86.31
449.338	72.31
449.559	84.31
449.779	79.31
450	83.31
450.221	79.31
450.442	91.31
450.662	94.31
450.883	77.31
451.104	80.31
451.324	85.31
451.545	91.31
451.766	97.31
451.986	81.31
452.207	76.31
452.428	80.31
452.648	81.31
452.869	67.31
453.089	84.31
453.31	77.31
453.53	80.31
453.751	91.31
453.971	90.31
454.192	90.31
454.412	75.31
454.633	77.31
454.853	84.31
455.073	81.31
455.294	89.31
455.514	67.31
455.734	74.31
455.955	74.31
456.175	84.31
456.395	97.31
456.616	76.31
456.836	74.31
457.056	64.31
457.276	83.31
457.497	79.31
457.717	98.31
457.937	79.31
458.157	81.31
458.377	81.31
458.598	85.31
458.818	78.31
459.038	87.31
459.258	90.31
459.478	84.31
459.698	92.31
459.918	88.31
460.138	83.31
460.358	94.31
460.578	75.31
460.798	75.31
461.018	86.31
461.238	77.31
461.458	95.31
461.678	79.31
461.898	89.31
462.118	79.31
462.338	79.31
462.558	91.31
462.777	75.31
462.997	93.31
463.217	84.31
463.437	94.31
463.657	87.31
463.876	76.31
464.096	83.31
464.316	74.31
464.536	95.31
464.755	92.31
464.975	86.31
465.195	102.31
465.414	96.31
465.634	76.31
465.854	96.31
466.073	95.31
466.293	81.31
466.512	81.31
466.732	90.31
466.951	88.31
467.171	77.31
467.391	82.31
467.61	98.31
467.829	85.31
468.049	95.31
468.268	80.31
468.488	87.31
468.707	84.31
468.927	91.31
469.146	86.31
469.365	102.31
469.585	88.31
469.804	95.31
470.023	95.31
470.243	76.31
470.462	87.31
470.681	89.31
470.901	83.31
471.12	81.31
471.339	87.31
471.558	89.31
471.777	85.31
471.997	98.31
472.216	77.31
472.435	83.31
472.654	80.31
472.873	96.31
473.092	89.31
473.311	89.31
473.53	75.31
473.749	78.31
473.968	86.31
474.187	88.31
474.406	82.31
474.625	75.31
474.844	85.31
475.063	92.31
475.282	86.31
475.501	78.31
475.72	80.31
475.939	77.31
476.158	82.31
476.377	81.31
476.596	85.31
476.814	76.31
477.033	81.31
477.252	69.31
477.471	71.31
477.69	72.31
477.908	87.31
478.127	82.31
478.346	82.31
478.564	85.31
478.783	82.31
479.002	74.31
479.22	100.31
479.439	87.31
479.658	86.31
479.876	92.31
480.095	87.31
480.313	97.31
480.532	83.31
480.751	98.31
480.969	93.31
481.188	89.31
481.406	86.31
481.624	76.31
481.843	88.31
482.061	89.31
482.28	100.31
482.498	91.31
482.717	95.31
482.935	76.31
483.153	93.31
483.372	72.31
483.59	92.31
483.808	97.31
484.027	93.31
484.245	79.31
484.463	82.31
484.681	91.31
484.9	81.31
485.118	97.31
485.336	108.31
485.554	87.31
485.772	85.31
485.99	81.31
486.209	91.31
486.427	97.31
486.645	93.31
486.863	87.31
487.081	94.31
487.299	102.31
487.517	90.31
487.735	86.31
487.953	88.31
488.171	91.31
488.389	98.31
488.607	79.31
488.825	94.31
489.043	91.31
489.261	95.31
489.479	78.31
489.696	81.31
489.914	89.31
490.132	92.31
490.35	95.31
490.568	105.31
490.786	86.31
491.003	88.31
491.221	94.31
491.439	93.31
491.657	101.31
491.874	92.31
492.092	83.31
492.31	106.31
492.527	87.31
492.745	85.31
492.963	89.31
493.18	94.31
493.398	84.31
493.615	71.31
493.833	91.31
494.05	101.31
494.268	89.31
494.485	88.31
494.703	89.31
494.92	95.31
495.138	85.31
495.355	111.31
495.573	71.31
495.79	100.31
496.008	86.31
496.225	91.31
496.442	101.31
496.66	110.31
496.877	94.31
497.094	102.31
497.312	81.31
497.529	95.31
497.746	90.31
497.963	75.31
498.181	99.31
498.398	91.31
498.615	98.31
498.832	98.31
499.049	97.31
499.267	94.31
499.484	105.31
499.701	97.31
499.918	92.31
500.135	100.31
500.352	101.31
500.569	106.31
500.786	96.31
501.003	92.31
501.22	100.31
501.437	103.31
501.654	115.31
501.871	113.31
502.088	91.31
502.305	91.31
502.522	92.31
502.739	96.31
502.956	88.31
503.172	95.31
503.389	83.31
503.606	86.31
503.823	84.31
504.04	96.31
504.256	102.31
504.473	92.31
504.69	85.31
504.907	110.31
505.123	92.31
505.34	86.31
505.557	90.31
505.773	79.31
505.99	98.31
506.207	89.31
506.423	87.31
506.64	102.31
506.856	90.31
507.073	94.31
507.289	106.31
507.506	88.31
507.722	90.31
507.939	81.31
508.155	92.31
508.372	101.31
508.588	84.31
508.805	101.31
509.021	98.31
509.238	91.31
509.454	82.31
509.67	83.31
509.887	99.31
510.103	97.31
510.319	82.31
510.536	90.31
510.752	93.31
510.968	86.31
511.184	84.31
511.401	83.31
511.617	97.31
511.833	84.31
512.049	88.31
512.265	78.31
512.481	89.31
512.698	94.31
512.914	87.31
513.13	87.31
513.346	106.31
513.562	91.31
513.778	97.31
513.994	92.31
514.21	95.31
514.426	90.31
514.642	86.31
514.858	86.31
515.074	81.31
515.29	87.31
515.506	86.31
515.721	105.31
515.937	99.31
516.153	98.31
516.369	96.31
516.585	104.31
516.801	92.31
517.016	107.31
517.232	81.31
517.448	94.31
517.664	87.31
517.879	99.31
518.095	93.31
518.311	88.31
518.527	98.31
518.742	88.31
