Data from Ni(NO3)2@0.5M.TitratingCurve.Agarose3%dH2O.NegLispCup.LampEnergy10.LIBS07252019_HRD10591_17-57-55-564.txt Node
Date: Thu Jul 25 17:57:55 EDT 2019
User: cochatt
Spectrometer: HR+D1059
Trigger mode: 1
Integration Time (sec): 1.000000E-1
Scans to average: 1
Electric dark correction enabled: true
Nonlinearity correction enabled: false
Boxcar width: 0
XAxis mode: Wavelengths
Number of Pixels in Spectrum: 2048
>>>>>Begin Spectral Data<<<<<
223.165	-18.81
223.4	-18.81
223.635	-18.81
223.869	-19.81
224.104	-11.81
224.338	-15.81
224.573	-10.81
224.808	-15.81
225.042	-9.81
225.277	-12.81
225.511	12.19
225.746	5.19
225.98	7.19
226.215	4.19
226.449	9.19
226.683	11.19
226.918	32.19
227.152	34.19
227.387	25.19
227.621	40.19
227.856	51.19
228.09	29.19
228.324	48.19
228.559	59.19
228.793	91.19
229.027	125.19
229.262	147.19
229.496	143.19
229.73	163.19
229.964	185.19
230.199	220.19
230.433	230.19
230.667	221.19
230.901	192.19
231.136	176.19
231.37	179.19
231.604	191.19
231.838	217.19
232.072	228.19
232.306	196.19
232.541	187.19
232.775	177.19
233.009	181.19
233.243	165.19
233.477	162.19
233.711	170.19
233.945	193.19
234.179	182.19
234.413	186.19
234.647	178.19
234.881	190.19
235.115	185.19
235.349	185.19
235.583	156.19
235.817	173.19
236.051	167.19
236.285	159.19
236.519	151.19
236.753	174.19
236.987	184.19
237.221	168.19
237.455	181.19
237.689	189.19
237.922	196.19
238.156	205.19
238.39	186.19
238.624	175.19
238.858	181.19
239.091	186.19
239.325	191.19
239.559	204.19
239.793	239.19
240.027	253.19
240.26	216.19
240.494	192.19
240.728	208.19
240.961	206.19
241.195	213.19
241.429	215.19
241.662	207.19
241.896	263.19
242.13	284.19
242.363	231.19
242.597	220.19
242.83	208.19
243.064	235.19
243.298	227.19
243.531	211.19
243.765	215.19
243.998	219.19
244.232	251.19
244.465	239.19
244.699	211.19
244.932	217.19
245.166	213.19
245.399	232.19
245.633	239.19
245.866	237.19
246.099	241.19
246.333	235.19
246.566	250.19
246.8	247.19
247.033	248.19
247.266	261.19
247.5	256.19
247.733	254.19
247.966	253.19
248.2	245.19
248.433	272.19
248.666	259.19
248.899	269.19
249.133	276.19
249.366	280.19
249.599	276.19
249.832	292.19
250.066	285.19
250.299	286.19
250.532	305.19
250.765	299.19
250.998	316.19
251.231	327.19
251.465	351.19
251.698	346.19
251.931	309.19
252.164	314.19
252.397	309.19
252.63	320.19
252.863	323.19
253.096	335.19
253.329	328.19
253.562	325.19
253.795	325.19
254.028	326.19
254.261	322.19
254.494	346.19
254.727	343.19
254.96	324.19
255.193	340.19
255.426	362.19
255.659	351.19
255.892	355.19
256.124	357.19
256.357	354.19
256.59	391.19
256.823	362.19
257.056	360.19
257.289	381.19
257.521	376.19
257.754	376.19
257.987	373.19
258.22	371.19
258.452	368.19
258.685	375.19
258.918	376.19
259.151	380.19
259.383	380.19
259.616	381.19
259.849	382.19
260.081	393.19
260.314	411.19
260.547	415.19
260.779	411.19
261.012	420.19
261.244	420.19
261.477	429.19
261.71	432.19
261.942	402.19
262.175	428.19
262.407	425.19
262.64	445.19
262.872	428.19
263.105	436.19
263.337	432.19
263.57	426.19
263.802	440.19
264.035	440.19
264.267	443.19
264.499	439.19
264.732	436.19
264.964	429.19
265.197	451.19
265.429	430.19
265.661	423.19
265.894	455.19
266.126	442.19
266.358	471.19
266.591	458.19
266.823	454.19
267.055	468.19
267.287	472.19
267.52	460.19
267.752	458.19
267.984	474.19
268.216	461.19
268.448	476.19
268.681	468.19
268.913	487.19
269.145	491.19
269.377	493.19
269.609	484.19
269.841	494.19
270.073	476.19
270.306	478.19
270.538	473.19
270.77	500.19
271.002	476.19
271.234	487.19
271.466	488.19
271.698	501.19
271.93	492.19
272.162	519.19
272.394	504.19
272.626	507.19
272.858	495.19
273.09	494.19
273.322	526.19
273.553	504.19
273.785	509.19
274.017	508.19
274.249	496.19
274.481	511.19
274.713	507.19
274.945	547.19
275.176	539.19
275.408	553.19
275.64	522.19
275.872	529.19
276.104	535.19
276.335	547.19
276.567	543.19
276.799	538.19
277.031	548.19
277.262	522.19
277.494	559.19
277.726	544.19
277.957	546.19
278.189	543.19
278.421	544.19
278.652	547.19
278.884	560.19
279.115	544.19
279.347	575.19
279.579	581.19
279.81	584.19
280.042	570.19
280.273	567.19
280.505	574.19
280.736	580.19
280.968	571.19
281.199	572.19
281.431	566.19
281.662	569.19
281.894	588.19
282.125	571.19
282.356	589.19
282.588	577.19
282.819	576.19
283.051	594.19
283.282	571.19
283.513	599.19
283.745	563.19
283.976	605.19
284.207	599.19
284.439	594.19
284.67	612.19
284.901	599.19
285.132	584.19
285.364	612.19
285.595	611.19
285.826	593.19
286.057	611.19
286.288	611.19
286.52	615.19
286.751	606.19
286.982	615.19
287.213	601.19
287.444	637.19
287.675	597.19
287.906	595.19
288.138	603.19
288.369	603.19
288.6	601.19
288.831	637.19
289.062	617.19
289.293	611.19
289.524	649.19
289.755	638.19
289.986	617.19
290.217	624.19
290.448	613.19
290.679	627.19
290.91	644.19
291.141	634.19
291.371	632.19
291.602	639.19
291.833	636.19
292.064	629.19
292.295	652.19
292.526	626.19
292.757	643.19
292.987	640.19
293.218	628.19
293.449	664.19
293.68	638.19
293.91	627.19
294.141	635.19
294.372	638.19
294.603	624.19
294.833	638.19
295.064	618.19
295.295	641.19
295.525	638.19
295.756	647.19
295.987	634.19
296.217	629.19
296.448	631.19
296.679	651.19
296.909	639.19
297.14	632.19
297.37	664.19
297.601	676.19
297.831	659.19
298.062	654.19
298.292	670.19
298.523	688.19
298.753	681.19
298.984	678.19
299.214	649.19
299.445	668.19
299.675	672.19
299.905	687.19
300.136	705.19
300.366	727.19
300.597	756.19
300.827	728.19
301.057	699.19
301.288	735.19
301.518	714.19
301.748	687.19
301.979	713.19
302.209	710.19
302.439	678.19
302.669	693.19
302.9	693.19
303.13	682.19
303.36	706.19
303.59	696.19
303.82	704.19
304.051	726.19
304.281	727.19
304.511	715.19
304.741	728.19
304.971	741.19
305.201	756.19
305.431	773.19
305.661	763.19
305.891	727.19
306.121	744.19
306.352	731.19
306.582	713.19
306.812	720.19
307.042	726.19
307.272	715.19
307.502	743.19
307.731	721.19
307.961	749.19
308.191	738.19
308.421	721.19
308.651	733.19
308.881	721.19
309.111	744.19
309.341	737.19
309.571	770.19
309.8	757.19
310.03	805.19
310.26	818.19
310.49	814.19
310.72	768.19
310.949	758.19
311.179	773.19
311.409	756.19
311.639	771.19
311.868	764.19
312.098	762.19
312.328	786.19
312.557	772.19
312.787	781.19
313.017	797.19
313.246	808.19
313.476	834.19
313.706	839.19
313.935	840.19
314.165	817.19
314.394	782.19
314.624	801.19
314.853	766.19
315.083	798.19
315.312	819.19
315.542	821.19
315.771	841.19
316.001	835.19
316.23	828.19
316.46	848.19
316.689	831.19
316.919	843.19
317.148	824.19
317.377	825.19
317.607	843.19
317.836	829.19
318.065	853.19
318.295	864.19
318.524	892.19
318.753	860.19
318.983	847.19
319.212	860.19
319.441	854.19
319.67	886.19
319.9	880.19
320.129	890.19
320.358	899.19
320.587	911.19
320.816	892.19
321.046	881.19
321.275	901.19
321.504	908.19
321.733	909.19
321.962	919.19
322.191	894.19
322.42	890.19
322.649	925.19
322.878	944.19
323.108	934.19
323.337	940.19
323.566	933.19
323.795	933.19
324.024	943.19
324.253	951.19
324.482	939.19
324.71	929.19
324.939	977.19
325.168	981.19
325.397	957.19
325.626	940.19
325.855	956.19
326.084	987.19
326.313	982.19
326.542	992.19
326.77	996.19
326.999	968.19
327.228	958.19
327.457	988.19
327.686	956.19
327.914	1019.19
328.143	983.19
328.372	999.19
328.6	984.19
328.829	995.19
329.058	982.19
329.287	977.19
329.515	1004.19
329.744	1013.19
329.972	992.19
330.201	1025.19
330.43	1011.19
330.658	998.19
330.887	1025.19
331.115	1019.19
331.344	1008.19
331.572	1026.19
331.801	1054.19
332.03	1058.19
332.258	1038.19
332.486	1073.19
332.715	1035.19
332.943	1051.19
333.172	1043.19
333.4	1037.19
333.629	1097.19
333.857	1083.19
334.085	1081.19
334.314	1078.19
334.542	1101.19
334.771	1111.19
334.999	1085.19
335.227	1091.19
335.455	1093.19
335.684	1111.19
335.912	1141.19
336.14	1109.19
336.369	1132.19
336.597	1123.19
336.825	1140.19
337.053	1174.19
337.281	1180.19
337.51	1118.19
337.738	1125.19
337.966	1111.19
338.194	1152.19
338.422	1123.19
338.65	1117.19
338.878	1097.19
339.106	1084.19
339.334	1127.19
339.562	1090.19
339.79	1101.19
340.018	1108.19
340.246	1071.19
340.474	1060.19
340.702	1103.19
340.93	1118.19
341.158	1118.19
341.386	1156.19
341.614	1188.19
341.842	1157.19
342.07	1092.19
342.298	1093.19
342.526	1115.19
342.754	1085.19
342.981	1043.19
343.209	1075.19
343.437	1103.19
343.665	1136.19
343.893	1118.19
344.12	1135.19
344.348	1110.19
344.576	1137.19
344.804	1133.19
345.031	1113.19
345.259	1092.19
345.487	1108.19
345.714	1105.19
345.942	1137.19
346.17	1179.19
346.397	1134.19
346.625	1079.19
346.853	1071.19
347.08	1080.19
347.308	1065.19
347.535	1083.19
347.763	1059.19
347.99	1056.19
348.218	1065.19
348.445	1039.19
348.673	1070.19
348.9	1063.19
349.128	1074.19
349.355	1084.19
349.583	1108.19
349.81	1074.19
350.037	1035.19
350.265	1072.19
350.492	1068.19
350.72	1031.19
350.947	1073.19
351.174	1099.19
351.402	1143.19
351.629	1129.19
351.856	1084.19
352.083	1099.19
352.311	1117.19
352.538	1169.19
352.765	1153.19
352.992	1063.19
353.22	1012.19
353.447	1043.19
353.674	1006.19
353.901	1020.19
354.128	1039.19
354.355	1028.19
354.583	1030.19
354.81	1067.19
355.037	1037.19
355.264	1048.19
355.491	1027.19
355.718	1026.19
355.945	1017.19
356.172	1046.19
356.399	1080.19
356.626	1040.19
356.853	1118.19
357.08	1069.19
357.307	1077.19
357.534	1030.19
357.761	1046.19
357.988	1026.19
358.215	1025.19
358.441	1029.19
358.668	1035.19
358.895	1055.19
359.122	1018.19
359.349	1052.19
359.576	1038.19
359.802	1047.19
360.029	1039.19
360.256	1050.19
360.483	1037.19
360.709	1023.19
360.936	1033.19
361.163	1060.19
361.39	1056.19
361.616	1062.19
361.843	1102.19
362.07	1151.19
362.296	1118.19
362.523	1078.19
362.749	1047.19
362.976	1054.19
363.203	1041.19
363.429	1023.19
363.656	1064.19
363.882	1055.19
364.109	1061.19
364.335	1059.19
364.562	1049.19
364.788	1059.19
365.015	1043.19
365.241	1045.19
365.468	1078.19
365.694	1058.19
365.92	1061.19
366.147	1041.19
366.373	1027.19
366.599	1044.19
366.826	1044.19
367.052	1034.19
367.278	1053.19
367.505	1053.19
367.731	1035.19
367.957	1031.19
368.184	1083.19
368.41	1061.19
368.636	1069.19
368.862	1089.19
369.089	1048.19
369.315	1072.19
369.541	1070.19
369.767	1057.19
369.993	1076.19
370.219	1066.19
370.445	1041.19
370.672	1062.19
370.898	1063.19
371.124	1069.19
371.35	1060.19
371.576	1079.19
371.802	1080.19
372.028	1075.19
372.254	1068.19
372.48	1081.19
372.706	1094.19
372.932	1085.19
373.158	1071.19
373.384	1041.19
373.61	1058.19
373.835	1102.19
374.061	1096.19
374.287	1085.19
374.513	1086.19
374.739	1072.19
374.965	1105.19
375.191	1090.19
375.416	1091.19
375.642	1071.19
375.868	1082.19
376.094	1091.19
376.319	1077.19
376.545	1064.19
376.771	1037.19
376.997	1054.19
377.222	1059.19
377.448	1084.19
377.674	1067.19
377.899	1039.19
378.125	1071.19
378.35	1054.19
378.576	1090.19
378.802	1068.19
379.027	1031.19
379.253	1046.19
379.478	1052.19
379.704	1044.19
379.929	1046.19
380.155	1040.19
380.38	1065.19
380.606	1040.19
380.831	1064.19
381.057	1060.19
381.282	1057.19
381.507	1029.19
381.733	1050.19
381.958	1074.19
382.184	1062.19
382.409	1061.19
382.634	1068.19
382.86	1041.19
383.085	1064.19
383.31	1081.19
383.535	1049.19
383.761	1099.19
383.986	1069.19
384.211	1089.19
384.436	1109.19
384.662	1108.19
384.887	1099.19
385.112	1091.19
385.337	1144.19
385.562	1129.19
385.787	1113.19
386.013	1162.19
386.238	1118.19
386.463	1120.19
386.688	1106.19
386.913	1138.19
387.138	1131.19
387.363	1149.19
387.588	1133.19
387.813	1141.19
388.038	1102.19
388.263	1125.19
388.488	1134.19
388.713	1134.19
388.938	1117.19
389.163	1111.19
389.387	1137.19
389.612	1138.19
389.837	1125.19
390.062	1140.19
390.287	1101.19
390.512	1134.19
390.736	1167.19
390.961	1150.19
391.186	1128.19
391.411	1130.19
391.636	1116.19
391.86	1162.19
392.085	1153.19
392.31	1128.19
392.534	1175.19
392.759	1123.19
392.984	1165.19
393.208	1140.19
393.433	1158.19
393.658	1177.19
393.882	1132.19
394.107	1153.19
394.331	1145.19
394.556	1164.19
394.78	1148.19
395.005	1165.19
395.229	1155.19
395.454	1157.19
395.678	1157.19
395.903	1155.19
396.127	1143.19
396.352	1168.19
396.576	1183.19
396.801	1190.19
397.025	1176.19
397.249	1165.19
397.474	1196.19
397.698	1177.19
397.922	1205.19
398.147	1194.19
398.371	1211.19
398.595	1195.19
398.82	1225.19
399.044	1230.19
399.268	1258.19
399.492	1310.19
399.717	1309.19
399.941	1304.19
400.165	1302.19
400.389	1296.19
400.613	1288.19
400.837	1233.19
401.062	1242.19
401.286	1240.19
401.51	1236.19
401.734	1261.19
401.958	1242.19
402.182	1261.19
402.406	1289.19
402.63	1233.19
402.854	1229.19
403.078	1244.19
403.302	1241.19
403.526	1260.19
403.75	1251.19
403.974	1264.19
404.198	1219.19
404.422	1209.19
404.645	1249.19
404.869	1257.19
405.093	1286.19
405.317	1251.19
405.541	1261.19
405.765	1271.19
405.988	1285.19
406.212	1267.19
406.436	1285.19
406.66	1295.19
406.883	1260.19
407.107	1316.19
407.331	1321.19
407.555	1349.19
407.778	1342.19
408.002	1343.19
408.226	1356.19
408.449	1348.19
408.673	1325.19
408.896	1307.19
409.12	1320.19
409.344	1317.19
409.567	1347.19
409.791	1300.19
410.014	1308.19
410.238	1307.19
410.461	1295.19
410.685	1307.19
410.908	1291.19
411.132	1275.19
411.355	1294.19
411.578	1338.19
411.802	1270.19
412.025	1251.19
412.249	1279.19
412.472	1279.19
412.695	1257.19
412.919	1265.19
413.142	1275.19
413.365	1257.19
413.589	1276.19
413.812	1272.19
414.035	1245.19
414.258	1271.19
414.482	1259.19
414.705	1232.19
414.928	1241.19
415.151	1236.19
415.374	1229.19
415.597	1223.19
415.821	1231.19
416.044	1220.19
416.267	1235.19
416.49	1224.19
416.713	1168.19
416.936	1216.19
417.159	1218.19
417.382	1222.19
417.605	1220.19
417.828	1202.19
418.051	1226.19
418.274	1224.19
418.497	1198.19
418.72	1192.19
418.943	1179.19
419.166	1252.19
419.389	1350.19
419.611	1309.19
419.834	1262.19
420.057	1242.19
420.28	1207.19
420.503	1178.19
420.726	1170.19
420.948	1213.19
421.171	1174.19
421.394	1205.19
421.617	1187.19
421.839	1198.19
422.062	1237.19
422.285	1206.19
422.507	1219.19
422.73	1209.19
422.953	1182.19
423.175	1212.19
423.398	1224.19
423.621	1226.19
423.843	1224.19
424.066	1210.19
424.288	1186.19
424.511	1204.19
424.733	1209.19
424.956	1185.19
425.178	1212.19
425.401	1197.19
425.623	1229.19
425.846	1205.19
426.068	1223.19
426.291	1211.19
426.513	1196.19
426.735	1166.19
426.958	1193.19
427.18	1186.19
427.402	1204.19
427.625	1196.19
427.847	1187.19
428.069	1192.19
428.292	1198.19
428.514	1189.19
428.736	1175.19
428.958	1232.19
429.181	1171.19
429.403	1162.19
429.625	1182.19
429.847	1187.19
430.069	1188.19
430.292	1185.19
430.514	1187.19
430.736	1189.19
430.958	1183.19
431.18	1182.19
431.402	1196.19
431.624	1167.19
431.846	1169.19
432.068	1161.19
432.29	1204.19
432.512	1161.19
432.734	1224.19
432.956	1222.19
433.178	1247.19
433.4	1234.19
433.622	1261.19
433.844	1256.19
434.066	1241.19
434.287	1206.19
434.509	1214.19
434.731	1248.19
434.953	1215.19
435.175	1265.19
435.397	1272.19
435.618	1229.19
435.84	1215.19
436.062	1220.19
436.284	1232.19
436.505	1216.19
436.727	1216.19
436.949	1188.19
437.17	1233.19
437.392	1219.19
437.614	1182.19
437.835	1151.19
438.057	1177.19
438.278	1185.19
438.5	1180.19
438.721	1187.19
438.943	1211.19
439.165	1162.19
439.386	1199.19
439.608	1209.19
439.829	1209.19
440.05	1170.19
440.272	1206.19
440.493	1215.19
440.715	1222.19
440.936	1230.19
441.158	1228.19
441.379	1206.19
441.6	1216.19
441.822	1240.19
442.043	1240.19
442.264	1226.19
442.486	1244.19
442.707	1234.19
442.928	1231.19
443.149	1212.19
443.371	1244.19
443.592	1301.19
443.813	1286.19
444.034	1253.19
444.255	1256.19
444.476	1263.19
444.698	1268.19
444.919	1315.19
445.14	1379.19
445.361	1330.19
445.582	1257.19
445.803	1222.19
446.024	1208.19
446.245	1199.19
446.466	1189.19
446.687	1204.19
446.908	1187.19
447.129	1184.19
447.35	1155.19
447.571	1177.19
447.792	1157.19
448.013	1157.19
448.234	1124.19
448.455	1111.19
448.675	1147.19
448.896	1129.19
449.117	1135.19
449.338	1115.19
449.559	1124.19
449.779	1120.19
450	1121.19
450.221	1131.19
450.442	1120.19
450.662	1115.19
450.883	1160.19
451.104	1159.19
451.324	1118.19
451.545	1108.19
451.766	1134.19
451.986	1093.19
452.207	1087.19
452.428	1108.19
452.648	1100.19
452.869	1102.19
453.089	1125.19
453.31	1139.19
453.53	1094.19
453.751	1086.19
453.971	1081.19
454.192	1132.19
454.412	1127.19
454.633	1127.19
454.853	1109.19
455.073	1054.19
455.294	1099.19
455.514	1098.19
455.734	1148.19
455.955	1167.19
456.175	1140.19
456.395	1093.19
456.616	1055.19
456.836	1087.19
457.056	1092.19
457.276	1098.19
457.497	1107.19
457.717	1127.19
457.937	1117.19
458.157	1117.19
458.377	1105.19
458.598	1095.19
458.818	1093.19
459.038	1123.19
459.258	1156.19
459.478	1213.19
459.698	1312.19
459.918	1311.19
460.138	1286.19
460.358	1262.19
460.578	1248.19
460.798	1300.19
461.018	1307.19
461.238	1274.19
461.458	1242.19
461.678	1197.19
461.898	1231.19
462.118	1243.19
462.338	1240.19
462.558	1257.19
462.777	1336.19
462.997	1365.19
463.217	1329.19
463.437	1406.19
463.657	1358.19
463.876	1335.19
464.096	1295.19
464.316	1293.19
464.536	1306.19
464.755	1249.19
464.975	1251.19
465.195	1240.19
465.414	1226.19
465.634	1203.19
465.854	1196.19
466.073	1179.19
466.293	1208.19
466.512	1188.19
466.732	1174.19
466.951	1186.19
467.171	1183.19
467.391	1181.19
467.61	1156.19
467.829	1168.19
468.049	1176.19
468.268	1142.19
468.488	1217.19
468.707	1141.19
468.927	1181.19
469.146	1164.19
469.365	1182.19
469.585	1186.19
469.804	1195.19
470.023	1178.19
470.243	1183.19
470.462	1177.19
470.681	1171.19
470.901	1201.19
471.12	1178.19
471.339	1179.19
471.558	1165.19
471.777	1188.19
471.997	1147.19
472.216	1177.19
472.435	1157.19
472.654	1159.19
472.873	1154.19
473.092	1162.19
473.311	1190.19
473.53	1196.19
473.749	1188.19
473.968	1185.19
474.187	1167.19
474.406	1185.19
474.625	1189.19
474.844	1175.19
475.063	1224.19
475.282	1229.19
475.501	1239.19
475.72	1217.19
475.939	1245.19
476.158	1232.19
476.377	1234.19
476.596	1221.19
476.814	1271.19
477.033	1231.19
477.252	1264.19
477.471	1253.19
477.69	1288.19
477.908	1319.19
478.127	1297.19
478.346	1287.19
478.564	1343.19
478.783	1383.19
479.002	1406.19
479.22	1449.19
479.439	1409.19
479.658	1367.19
479.876	1376.19
480.095	1366.19
480.313	1370.19
480.532	1395.19
480.751	1391.19
480.969	1365.19
481.188	1382.19
481.406	1358.19
481.624	1378.19
481.843	1345.19
482.061	1365.19
482.28	1356.19
482.498	1370.19
482.717	1355.19
482.935	1422.19
483.153	1431.19
483.372	1475.19
483.59	1487.19
483.808	1440.19
484.027	1436.19
484.245	1415.19
484.463	1435.19
484.681	1457.19
484.9	1412.19
485.118	1450.19
485.336	1384.19
485.554	1413.19
485.772	1449.19
485.99	1402.19
486.209	1439.19
486.427	1441.19
486.645	1420.19
486.863	1481.19
487.081	1417.19
487.299	1454.19
487.517	1461.19
487.735	1480.19
487.953	1528.19
488.171	1487.19
488.389	1456.19
488.607	1440.19
488.825	1443.19
489.043	1404.19
489.261	1437.19
489.479	1386.19
489.696	1431.19
489.914	1411.19
490.132	1434.19
490.35	1441.19
490.568	1465.19
490.786	1473.19
491.003	1469.19
491.221	1464.19
491.439	1477.19
491.657	1475.19
