Data from Ni(NO3)2@0.0625M.TitratingCurve.Agarose3%dH2O.NegLispCup.LampEnergy10.LIBS07252019_HRD10591_18-14-53-570.txt Node
Date: Thu Jul 25 18:14:53 EDT 2019
User: cochatt
Spectrometer: HR+D1059
Trigger mode: 1
Integration Time (sec): 1.000000E-1
Scans to average: 1
Electric dark correction enabled: true
Nonlinearity correction enabled: false
Boxcar width: 0
XAxis mode: Wavelengths
Number of Pixels in Spectrum: 2048
>>>>>Begin Spectral Data<<<<<
223.165	-6.44
223.4	-6.44
223.635	-6.44
223.869	-6.44
224.104	-31.44
224.338	-15.44
224.573	-11.44
224.808	-0.44
225.042	-18.44
225.277	-13.44
225.511	-0.44
225.746	-0.44
225.98	6.56
226.215	9.56
226.449	20.56
226.683	19.56
226.918	18.56
227.152	29.56
227.387	35.56
227.621	35.56
227.856	43.56
228.09	41.56
228.324	56.56
228.559	54.56
228.793	61.56
229.027	77.56
229.262	102.56
229.496	102.56
229.73	91.56
229.964	105.56
230.199	127.56
230.433	125.56
230.667	124.56
230.901	121.56
231.136	116.56
231.37	120.56
231.604	135.56
231.838	125.56
232.072	129.56
232.306	129.56
232.541	124.56
232.775	126.56
233.009	126.56
233.243	135.56
233.477	126.56
233.711	127.56
233.945	119.56
234.179	121.56
234.413	132.56
234.647	149.56
234.881	121.56
235.115	136.56
235.349	124.56
235.583	118.56
235.817	153.56
236.051	129.56
236.285	126.56
236.519	137.56
236.753	125.56
236.987	134.56
237.221	122.56
237.455	146.56
237.689	125.56
237.922	144.56
238.156	133.56
238.39	136.56
238.624	149.56
238.858	136.56
239.091	146.56
239.325	139.56
239.559	133.56
239.793	142.56
240.027	137.56
240.26	129.56
240.494	138.56
240.728	143.56
240.961	137.56
241.195	153.56
241.429	140.56
241.662	155.56
241.896	157.56
242.13	158.56
242.363	155.56
242.597	151.56
242.83	149.56
243.064	152.56
243.298	159.56
243.531	150.56
243.765	154.56
243.998	161.56
244.232	158.56
244.465	144.56
244.699	174.56
244.932	165.56
245.166	175.56
245.399	174.56
245.633	167.56
245.866	178.56
246.099	158.56
246.333	168.56
246.566	170.56
246.8	168.56
247.033	174.56
247.266	172.56
247.5	181.56
247.733	159.56
247.966	195.56
248.2	170.56
248.433	181.56
248.666	183.56
248.899	181.56
249.133	179.56
249.366	179.56
249.599	193.56
249.832	196.56
250.066	189.56
250.299	163.56
250.532	192.56
250.765	171.56
250.998	189.56
251.231	203.56
251.465	206.56
251.698	185.56
251.931	205.56
252.164	216.56
252.397	196.56
252.63	207.56
252.863	213.56
253.096	199.56
253.329	205.56
253.562	213.56
253.795	204.56
254.028	211.56
254.261	211.56
254.494	207.56
254.727	210.56
254.96	201.56
255.193	211.56
255.426	225.56
255.659	218.56
255.892	212.56
256.124	201.56
256.357	207.56
256.59	235.56
256.823	236.56
257.056	229.56
257.289	220.56
257.521	222.56
257.754	220.56
257.987	228.56
258.22	231.56
258.452	232.56
258.685	217.56
258.918	230.56
259.151	217.56
259.383	205.56
259.616	210.56
259.849	229.56
260.081	220.56
260.314	229.56
260.547	234.56
260.779	227.56
261.012	236.56
261.244	236.56
261.477	244.56
261.71	241.56
261.942	237.56
262.175	230.56
262.407	238.56
262.64	244.56
262.872	255.56
263.105	229.56
263.337	253.56
263.57	244.56
263.802	248.56
264.035	245.56
264.267	260.56
264.499	247.56
264.732	253.56
264.964	244.56
265.197	253.56
265.429	264.56
265.661	249.56
265.894	253.56
266.126	269.56
266.358	269.56
266.591	265.56
266.823	266.56
267.055	254.56
267.287	262.56
267.52	262.56
267.752	257.56
267.984	277.56
268.216	262.56
268.448	273.56
268.681	264.56
268.913	250.56
269.145	270.56
269.377	267.56
269.609	268.56
269.841	263.56
270.073	261.56
270.306	268.56
270.538	273.56
270.77	295.56
271.002	297.56
271.234	276.56
271.466	269.56
271.698	275.56
271.93	284.56
272.162	274.56
272.394	267.56
272.626	293.56
272.858	276.56
273.09	282.56
273.322	294.56
273.553	287.56
273.785	292.56
274.017	265.56
274.249	284.56
274.481	282.56
274.713	297.56
274.945	291.56
275.176	272.56
275.408	299.56
275.64	290.56
275.872	287.56
276.104	303.56
276.335	301.56
276.567	310.56
276.799	290.56
277.031	285.56
277.262	324.56
277.494	306.56
277.726	277.56
277.957	299.56
278.189	313.56
278.421	312.56
278.652	310.56
278.884	328.56
279.115	307.56
279.347	311.56
279.579	313.56
279.81	307.56
280.042	332.56
280.273	315.56
280.505	320.56
280.736	327.56
280.968	329.56
281.199	315.56
281.431	325.56
281.662	334.56
281.894	338.56
282.125	339.56
282.356	321.56
282.588	344.56
282.819	343.56
283.051	338.56
283.282	331.56
283.513	333.56
283.745	315.56
283.976	333.56
284.207	341.56
284.439	345.56
284.67	345.56
284.901	312.56
285.132	355.56
285.364	347.56
285.595	351.56
285.826	347.56
286.057	331.56
286.288	335.56
286.52	349.56
286.751	351.56
286.982	367.56
287.213	356.56
287.444	344.56
287.675	375.56
287.906	356.56
288.138	357.56
288.369	365.56
288.6	363.56
288.831	357.56
289.062	374.56
289.293	357.56
289.524	365.56
289.755	337.56
289.986	367.56
290.217	361.56
290.448	379.56
290.679	385.56
290.91	381.56
291.141	376.56
291.371	365.56
291.602	366.56
291.833	365.56
292.064	388.56
292.295	373.56
292.526	362.56
292.757	373.56
292.987	373.56
293.218	359.56
293.449	384.56
293.68	397.56
293.91	366.56
294.141	393.56
294.372	375.56
294.603	379.56
294.833	386.56
295.064	374.56
295.295	376.56
295.525	385.56
295.756	377.56
295.987	377.56
296.217	393.56
296.448	382.56
296.679	384.56
296.909	391.56
297.14	382.56
297.37	390.56
297.601	425.56
297.831	395.56
298.062	403.56
298.292	418.56
298.523	410.56
298.753	416.56
298.984	406.56
299.214	418.56
299.445	411.56
299.675	414.56
299.905	411.56
300.136	422.56
300.366	411.56
300.597	429.56
300.827	439.56
301.057	454.56
301.288	438.56
301.518	451.56
301.748	429.56
301.979	445.56
302.209	389.56
302.439	445.56
302.669	463.56
302.9	426.56
303.13	428.56
303.36	392.56
303.59	429.56
303.82	437.56
304.051	421.56
304.281	415.56
304.511	407.56
304.741	430.56
304.971	438.56
305.201	422.56
305.431	453.56
305.661	436.56
305.891	427.56
306.121	412.56
306.352	427.56
306.582	409.56
306.812	408.56
307.042	421.56
307.272	446.56
307.502	417.56
307.731	414.56
307.961	404.56
308.191	421.56
308.421	405.56
308.651	407.56
308.881	405.56
309.111	428.56
309.341	393.56
309.571	431.56
309.8	422.56
310.03	418.56
310.26	453.56
310.49	437.56
310.72	429.56
310.949	427.56
311.179	413.56
311.409	419.56
311.639	446.56
311.868	421.56
312.098	425.56
312.328	428.56
312.557	435.56
312.787	417.56
313.017	401.56
313.246	425.56
313.476	444.56
313.706	455.56
313.935	470.56
314.165	452.56
314.394	456.56
314.624	441.56
314.853	452.56
315.083	449.56
315.312	451.56
315.542	444.56
315.771	450.56
316.001	433.56
316.23	441.56
316.46	446.56
316.689	450.56
316.919	438.56
317.148	436.56
317.377	426.56
317.607	427.56
317.836	431.56
318.065	437.56
318.295	453.56
318.524	433.56
318.753	407.56
318.983	452.56
319.212	422.56
319.441	433.56
319.67	427.56
319.9	434.56
320.129	422.56
320.358	432.56
320.587	426.56
320.816	439.56
321.046	453.56
321.275	427.56
321.504	430.56
321.733	444.56
321.962	441.56
322.191	449.56
322.42	452.56
322.649	442.56
322.878	452.56
323.108	436.56
323.337	456.56
323.566	440.56
323.795	461.56
324.024	454.56
324.253	459.56
324.482	455.56
324.71	431.56
324.939	467.56
325.168	464.56
325.397	459.56
325.626	469.56
325.855	472.56
326.084	465.56
326.313	474.56
326.542	469.56
326.77	513.56
326.999	492.56
327.228	471.56
327.457	482.56
327.686	473.56
327.914	478.56
328.143	490.56
328.372	469.56
328.6	467.56
328.829	482.56
329.058	475.56
329.287	465.56
329.515	463.56
329.744	490.56
329.972	498.56
330.201	490.56
330.43	497.56
330.658	462.56
330.887	492.56
331.115	494.56
331.344	505.56
331.572	510.56
331.801	499.56
332.03	518.56
332.258	542.56
332.486	541.56
332.715	552.56
332.943	582.56
333.172	601.56
333.4	611.56
333.629	630.56
333.857	615.56
334.085	625.56
334.314	642.56
334.542	614.56
334.771	597.56
334.999	595.56
335.227	573.56
335.455	594.56
335.684	595.56
335.912	595.56
336.14	599.56
336.369	576.56
336.597	603.56
336.825	575.56
337.053	578.56
337.281	554.56
337.51	558.56
337.738	571.56
337.966	550.56
338.194	561.56
338.422	552.56
338.65	533.56
338.878	519.56
339.106	517.56
339.334	537.56
339.562	537.56
339.79	512.56
340.018	501.56
340.246	514.56
340.474	519.56
340.702	537.56
340.93	485.56
341.158	506.56
341.386	525.56
341.614	550.56
341.842	537.56
342.07	493.56
342.298	494.56
342.526	510.56
342.754	511.56
342.981	509.56
343.209	521.56
343.437	552.56
343.665	575.56
343.893	619.56
344.12	628.56
344.348	583.56
344.576	558.56
344.804	581.56
345.031	542.56
345.259	524.56
345.487	527.56
345.714	504.56
345.942	523.56
346.17	547.56
346.397	525.56
346.625	526.56
346.853	490.56
347.08	494.56
347.308	517.56
347.535	525.56
347.763	513.56
347.99	522.56
348.218	530.56
348.445	504.56
348.673	514.56
348.9	521.56
349.128	487.56
349.355	516.56
349.583	519.56
349.81	499.56
350.037	481.56
350.265	474.56
350.492	455.56
350.72	450.56
350.947	482.56
351.174	494.56
351.402	530.56
351.629	520.56
351.856	500.56
352.083	482.56
352.311	489.56
352.538	535.56
352.765	505.56
352.992	477.56
353.22	446.56
353.447	473.56
353.674	474.56
353.901	497.56
354.128	458.56
354.355	458.56
354.583	473.56
354.81	467.56
355.037	469.56
355.264	500.56
355.491	490.56
355.718	473.56
355.945	486.56
356.172	466.56
356.399	471.56
356.626	492.56
356.853	499.56
357.08	492.56
357.307	482.56
357.534	485.56
357.761	474.56
357.988	493.56
358.215	478.56
358.441	458.56
358.668	463.56
358.895	483.56
359.122	470.56
359.349	501.56
359.576	471.56
359.802	491.56
360.029	493.56
360.256	475.56
360.483	478.56
360.709	492.56
360.936	499.56
361.163	500.56
361.39	479.56
361.616	484.56
361.843	468.56
362.07	509.56
362.296	522.56
362.523	479.56
362.749	477.56
362.976	465.56
363.203	474.56
363.429	466.56
363.656	475.56
363.882	477.56
364.109	475.56
364.335	463.56
364.562	473.56
364.788	479.56
365.015	484.56
365.241	453.56
365.468	470.56
365.694	462.56
365.92	489.56
366.147	489.56
366.373	483.56
366.599	468.56
366.826	463.56
367.052	459.56
367.278	472.56
367.505	493.56
367.731	466.56
367.957	471.56
368.184	498.56
368.41	469.56
368.636	475.56
368.862	493.56
369.089	495.56
369.315	515.56
369.541	515.56
369.767	506.56
369.993	486.56
370.219	487.56
370.445	511.56
370.672	506.56
370.898	533.56
371.124	503.56
371.35	512.56
371.576	504.56
371.802	523.56
372.028	537.56
372.254	535.56
372.48	524.56
372.706	524.56
372.932	540.56
373.158	542.56
373.384	525.56
373.61	530.56
373.835	514.56
374.061	518.56
374.287	539.56
374.513	528.56
374.739	547.56
374.965	557.56
375.191	573.56
375.416	571.56
375.642	557.56
375.868	558.56
376.094	525.56
376.319	522.56
376.545	521.56
376.771	533.56
376.997	531.56
377.222	514.56
377.448	518.56
377.674	517.56
377.899	516.56
378.125	492.56
378.35	518.56
378.576	518.56
378.802	523.56
379.027	509.56
379.253	512.56
379.478	504.56
379.704	510.56
379.929	519.56
380.155	522.56
380.38	514.56
380.606	505.56
380.831	510.56
381.057	525.56
381.282	491.56
381.507	505.56
381.733	539.56
381.958	516.56
382.184	533.56
382.409	537.56
382.634	548.56
382.86	539.56
383.085	545.56
383.31	571.56
383.535	564.56
383.761	549.56
383.986	574.56
384.211	587.56
384.436	596.56
384.662	608.56
384.887	622.56
385.112	617.56
385.337	627.56
385.562	632.56
385.787	584.56
386.013	631.56
386.238	633.56
386.463	632.56
386.688	594.56
386.913	608.56
387.138	621.56
387.363	611.56
387.588	617.56
387.813	619.56
388.038	619.56
388.263	628.56
388.488	599.56
388.713	611.56
388.938	595.56
389.163	592.56
389.387	573.56
389.612	597.56
389.837	588.56
390.062	597.56
390.287	610.56
390.512	607.56
390.736	614.56
390.961	629.56
391.186	628.56
391.411	643.56
391.636	656.56
391.86	688.56
392.085	686.56
392.31	679.56
392.534	663.56
392.759	663.56
392.984	665.56
393.208	643.56
393.433	651.56
393.658	644.56
393.882	636.56
394.107	672.56
394.331	655.56
394.556	661.56
394.78	662.56
395.005	676.56
395.229	646.56
395.454	654.56
395.678	681.56
395.903	671.56
396.127	681.56
396.352	662.56
396.576	646.56
396.801	644.56
397.025	647.56
397.249	651.56
397.474	677.56
397.698	683.56
397.922	689.56
398.147	651.56
398.371	683.56
398.595	715.56
398.82	731.56
399.044	788.56
399.268	858.56
399.492	985.56
399.717	1115.56
399.941	1138.56
400.165	1013.56
400.389	909.56
400.613	830.56
400.837	780.56
401.062	757.56
401.286	749.56
401.51	740.56
401.734	740.56
401.958	763.56
402.182	768.56
402.406	773.56
402.63	771.56
402.854	794.56
403.078	823.56
403.302	832.56
403.526	849.56
403.75	886.56
403.974	870.56
404.198	859.56
404.422	889.56
404.645	895.56
404.869	860.56
405.093	853.56
405.317	807.56
405.541	842.56
405.765	820.56
405.988	834.56
406.212	842.56
406.436	817.56
406.66	827.56
406.883	862.56
407.107	921.56
407.331	964.56
407.555	1012.56
407.778	967.56
408.002	961.56
408.226	919.56
408.449	899.56
408.673	868.56
408.896	869.56
409.12	875.56
409.344	883.56
409.567	848.56
409.791	893.56
410.014	848.56
410.238	873.56
410.461	859.56
410.685	833.56
410.908	831.56
411.132	819.56
411.355	759.56
411.578	774.56
411.802	795.56
412.025	791.56
412.249	804.56
412.472	805.56
412.695	754.56
412.919	778.56
413.142	751.56
413.365	748.56
413.589	772.56
413.812	754.56
414.035	739.56
414.258	750.56
414.482	753.56
414.705	785.56
414.928	770.56
415.151	809.56
415.374	777.56
415.597	757.56
415.821	730.56
416.044	733.56
416.267	726.56
416.49	724.56
416.713	717.56
416.936	742.56
417.159	726.56
417.382	749.56
417.605	737.56
417.828	735.56
418.051	758.56
418.274	777.56
418.497	766.56
418.72	761.56
418.943	774.56
419.166	821.56
419.389	866.56
419.611	857.56
419.834	817.56
420.057	803.56
420.28	763.56
420.503	751.56
420.726	759.56
420.948	729.56
421.171	733.56
421.394	737.56
421.617	747.56
421.839	748.56
422.062	742.56
422.285	734.56
422.507	747.56
422.73	750.56
422.953	746.56
423.175	782.56
423.398	798.56
423.621	749.56
423.843	801.56
424.066	800.56
424.288	801.56
424.511	760.56
424.733	761.56
424.956	760.56
425.178	762.56
425.401	740.56
425.623	759.56
425.846	717.56
426.068	739.56
426.291	756.56
426.513	733.56
426.735	703.56
426.958	705.56
427.18	698.56
427.402	685.56
427.625	694.56
427.847	654.56
428.069	668.56
428.292	694.56
428.514	673.56
428.736	659.56
428.958	677.56
429.181	647.56
429.403	660.56
429.625	645.56
429.847	641.56
430.069	669.56
430.292	689.56
430.514	655.56
430.736	660.56
430.958	671.56
431.18	661.56
431.402	655.56
431.624	681.56
431.846	689.56
432.068	683.56
432.29	707.56
432.512	667.56
432.734	663.56
432.956	684.56
433.178	698.56
433.4	690.56
433.622	681.56
433.844	719.56
434.066	695.56
434.287	701.56
434.509	690.56
434.731	730.56
434.953	761.56
435.175	805.56
435.397	756.56
435.618	737.56
435.84	713.56
436.062	701.56
436.284	696.56
436.505	678.56
436.727	686.56
436.949	685.56
437.17	684.56
437.392	683.56
437.614	685.56
437.835	657.56
438.057	645.56
438.278	660.56
438.5	639.56
438.721	644.56
438.943	690.56
439.165	687.56
439.386	696.56
439.608	697.56
439.829	705.56
440.05	701.56
440.272	680.56
440.493	677.56
440.715	689.56
440.936	714.56
441.158	718.56
441.379	749.56
441.6	799.56
441.822	790.56
442.043	772.56
442.264	742.56
442.486	730.56
442.707	725.56
442.928	774.56
443.149	726.56
443.371	759.56
443.592	743.56
443.813	774.56
444.034	777.56
444.255	804.56
444.476	835.56
444.698	875.56
444.919	914.56
445.14	965.56
445.361	859.56
445.582	815.56
445.803	739.56
446.024	723.56
446.245	721.56
446.466	710.56
446.687	666.56
446.908	684.56
447.129	665.56
447.35	667.56
447.571	660.56
447.792	670.56
448.013	645.56
448.234	625.56
448.455	608.56
448.675	637.56
448.896	630.56
449.117	587.56
449.338	610.56
449.559	621.56
449.779	611.56
450	632.56
450.221	614.56
450.442	661.56
450.662	637.56
450.883	662.56
451.104	663.56
451.324	636.56
451.545	662.56
451.766	630.56
451.986	618.56
452.207	620.56
452.428	618.56
452.648	624.56
452.869	638.56
453.089	621.56
453.31	643.56
453.53	642.56
453.751	618.56
453.971	621.56
454.192	621.56
454.412	618.56
454.633	602.56
454.853	603.56
455.073	604.56
455.294	599.56
455.514	618.56
455.734	580.56
455.955	603.56
456.175	600.56
456.395	582.56
456.616	585.56
456.836	592.56
457.056	579.56
457.276	575.56
457.497	574.56
457.717	588.56
457.937	617.56
458.157	607.56
458.377	586.56
458.598	606.56
458.818	627.56
459.038	665.56
459.258	689.56
459.478	709.56
459.698	727.56
459.918	761.56
460.138	743.56
460.358	807.56
460.578	804.56
460.798	797.56
461.018	812.56
461.238	813.56
461.458	801.56
461.678	813.56
461.898	825.56
462.118	795.56
462.338	838.56
462.558	861.56
462.777	877.56
462.997	968.56
463.217	1059.56
463.437	1103.56
463.657	1014.56
463.876	953.56
464.096	943.56
464.316	941.56
464.536	971.56
464.755	922.56
464.975	878.56
465.195	817.56
465.414	788.56
465.634	757.56
465.854	716.56
466.073	704.56
466.293	685.56
466.512	688.56
466.732	673.56
466.951	674.56
467.171	662.56
467.391	704.56
467.61	659.56
467.829	674.56
468.049	673.56
468.268	630.56
468.488	622.56
468.707	635.56
468.927	648.56
469.146	655.56
469.365	656.56
469.585	647.56
469.804	675.56
470.023	705.56
470.243	690.56
470.462	697.56
470.681	673.56
470.901	697.56
471.12	670.56
471.339	668.56
471.558	653.56
471.777	647.56
471.997	620.56
472.216	639.56
472.435	605.56
472.654	627.56
472.873	633.56
473.092	630.56
473.311	635.56
473.53	635.56
473.749	636.56
473.968	636.56
474.187	642.56
474.406	613.56
474.625	601.56
474.844	635.56
475.063	609.56
475.282	607.56
475.501	657.56
475.72	637.56
475.939	631.56
476.158	669.56
476.377	639.56
476.596	651.56
476.814	685.56
477.033	654.56
477.252	670.56
477.471	705.56
477.69	695.56
477.908	727.56
478.127	714.56
478.346	754.56
478.564	731.56
478.783	747.56
479.002	787.56
479.22	804.56
479.439	777.56
479.658	773.56
479.876	779.56
480.095	771.56
480.313	807.56
480.532	835.56
480.751	823.56
480.969	784.56
481.188	777.56
481.406	771.56
481.624	740.56
481.843	719.56
482.061	753.56
482.28	708.56
482.498	726.56
482.717	731.56
482.935	716.56
483.153	713.56
483.372	695.56
483.59	719.56
483.808	738.56
484.027	718.56
484.245	745.56
484.463	738.56
484.681	764.56
484.9	761.56
485.118	761.56
485.336	757.56
485.554	774.56
485.772	786.56
485.99	810.56
486.209	782.56
486.427	800.56
486.645	787.56
486.863	791.56
487.081	789.56
487.299	784.56
487.517	777.56
487.735	779.56
487.953	798.56
488.171	756.56
488.389	778.56
488.607	777.56
488.825	762.56
489.043	771.56
489.261	760.56
489.479	741.56
489.696	767.56
489.914	747.56
490.132	775.56
490.35	743.56
490.568	738.56
490.786	769.56
491.003	753.56
491.221	732.56
491.439	766.56
491.657	752.56
491.874	755.56
492.092	744.56
492.31	775.56
492.527	746.56
492.745	769.56
492.963	777.56
493.18	778.56
493.398	757.56
493.615	763.56
493.833	799.56
494.05	796.56
494.268	789.56
494.485	798.56
494.703	811.56
494.92	795.56
495.138	774.56
495.355	804.56
495.573	787.56
495.79	802.56
496.008	795.56
496.225	821.56
496.442	823.56
496.66	814.56
496.877	845.56
497.094	819.56
497.312	855.56
497.529	851.56
497.746	881.56
497.963	903.56
498.181	928.56
498.398	954.56
498.615	1043.56
498.832	1086.56
499.049	1174.56
499.267	1272.56
499.484	1361.56
499.701	1512.56
499.918	1665.56
500.135	1922.56
500.352	2217.56
500.569	2258.56
500.786	2211.56
501.003	2101.56
501.22	1890.56
