Data from Ni(NO3)2@0.5M.TitratingCurve.Agarose3%dH2O.NegLispCup.LampEnergy10.LIBS07252019_HRD10591_17-59-46-564.txt Node
Date: Thu Jul 25 17:59:46 EDT 2019
User: cochatt
Spectrometer: HR+D1059
Trigger mode: 1
Integration Time (sec): 1.000000E-1
Scans to average: 1
Electric dark correction enabled: true
Nonlinearity correction enabled: false
Boxcar width: 0
XAxis mode: Wavelengths
Number of Pixels in Spectrum: 2048
>>>>>Begin Spectral Data<<<<<
223.165	-11.12
223.4	-11.12
223.635	-11.12
223.869	-14.12
224.104	-17.12
224.338	-12.12
224.573	-18.12
224.808	-30.12
225.042	-4.12
225.277	4.88
225.511	-4.12
225.746	5.88
225.98	13.88
226.215	18.88
226.449	3.88
226.683	19.88
226.918	15.88
227.152	27.88
227.387	43.88
227.621	39.88
227.856	41.88
228.09	40.88
228.324	47.88
228.559	38.88
228.793	49.88
229.027	91.88
229.262	98.88
229.496	100.88
229.73	100.88
229.964	121.88
230.199	133.88
230.433	123.88
230.667	141.88
230.901	132.88
231.136	134.88
231.37	127.88
231.604	133.88
231.838	143.88
232.072	148.88
232.306	124.88
232.541	130.88
232.775	124.88
233.009	123.88
233.243	129.88
233.477	102.88
233.711	126.88
233.945	125.88
234.179	123.88
234.413	134.88
234.647	135.88
234.881	130.88
235.115	130.88
235.349	114.88
235.583	121.88
235.817	116.88
236.051	115.88
236.285	128.88
236.519	122.88
236.753	123.88
236.987	127.88
237.221	126.88
237.455	118.88
237.689	129.88
237.922	139.88
238.156	147.88
238.39	119.88
238.624	116.88
238.858	118.88
239.091	110.88
239.325	139.88
239.559	149.88
239.793	157.88
240.027	139.88
240.26	147.88
240.494	120.88
240.728	139.88
240.961	131.88
241.195	136.88
241.429	133.88
241.662	147.88
241.896	147.88
242.13	149.88
242.363	150.88
242.597	144.88
242.83	147.88
243.064	136.88
243.298	140.88
243.531	128.88
243.765	125.88
243.998	144.88
244.232	155.88
244.465	155.88
244.699	143.88
244.932	140.88
245.166	149.88
245.399	145.88
245.633	146.88
245.866	156.88
246.099	165.88
246.333	149.88
246.566	137.88
246.8	139.88
247.033	147.88
247.266	138.88
247.5	165.88
247.733	160.88
247.966	164.88
248.2	148.88
248.433	144.88
248.666	168.88
248.899	167.88
249.133	159.88
249.366	163.88
249.599	171.88
249.832	145.88
250.066	155.88
250.299	161.88
250.532	164.88
250.765	161.88
250.998	163.88
251.231	186.88
251.465	181.88
251.698	178.88
251.931	182.88
252.164	172.88
252.397	175.88
252.63	170.88
252.863	165.88
253.096	189.88
253.329	191.88
253.562	185.88
253.795	179.88
254.028	177.88
254.261	194.88
254.494	181.88
254.727	210.88
254.96	186.88
255.193	183.88
255.426	180.88
255.659	181.88
255.892	191.88
256.124	181.88
256.357	191.88
256.59	191.88
256.823	180.88
257.056	190.88
257.289	181.88
257.521	188.88
257.754	194.88
257.987	189.88
258.22	191.88
258.452	207.88
258.685	210.88
258.918	190.88
259.151	214.88
259.383	207.88
259.616	191.88
259.849	222.88
260.081	212.88
260.314	221.88
260.547	215.88
260.779	188.88
261.012	201.88
261.244	202.88
261.477	219.88
261.71	199.88
261.942	220.88
262.175	217.88
262.407	198.88
262.64	226.88
262.872	205.88
263.105	224.88
263.337	209.88
263.57	218.88
263.802	199.88
264.035	222.88
264.267	204.88
264.499	245.88
264.732	226.88
264.964	223.88
265.197	221.88
265.429	219.88
265.661	215.88
265.894	227.88
266.126	227.88
266.358	241.88
266.591	245.88
266.823	227.88
267.055	236.88
267.287	244.88
267.52	228.88
267.752	235.88
267.984	215.88
268.216	241.88
268.448	233.88
268.681	250.88
268.913	255.88
269.145	246.88
269.377	234.88
269.609	234.88
269.841	244.88
270.073	249.88
270.306	251.88
270.538	254.88
270.77	235.88
271.002	246.88
271.234	246.88
271.466	262.88
271.698	250.88
271.93	257.88
272.162	255.88
272.394	277.88
272.626	254.88
272.858	257.88
273.09	262.88
273.322	255.88
273.553	259.88
273.785	245.88
274.017	277.88
274.249	253.88
274.481	255.88
274.713	245.88
274.945	260.88
275.176	258.88
275.408	264.88
275.64	275.88
275.872	266.88
276.104	282.88
276.335	266.88
276.567	271.88
276.799	286.88
277.031	265.88
277.262	278.88
277.494	257.88
277.726	270.88
277.957	275.88
278.189	276.88
278.421	297.88
278.652	255.88
278.884	282.88
279.115	272.88
279.347	283.88
279.579	295.88
279.81	289.88
280.042	267.88
280.273	282.88
280.505	280.88
280.736	281.88
280.968	288.88
281.199	285.88
281.431	293.88
281.662	298.88
281.894	289.88
282.125	300.88
282.356	286.88
282.588	291.88
282.819	265.88
283.051	290.88
283.282	283.88
283.513	303.88
283.745	311.88
283.976	308.88
284.207	302.88
284.439	303.88
284.67	305.88
284.901	300.88
285.132	316.88
285.364	294.88
285.595	301.88
285.826	299.88
286.057	301.88
286.288	319.88
286.52	309.88
286.751	303.88
286.982	325.88
287.213	316.88
287.444	301.88
287.675	311.88
287.906	314.88
288.138	309.88
288.369	309.88
288.6	306.88
288.831	315.88
289.062	302.88
289.293	327.88
289.524	323.88
289.755	311.88
289.986	314.88
290.217	315.88
290.448	313.88
290.679	307.88
290.91	308.88
291.141	330.88
291.371	330.88
291.602	308.88
291.833	300.88
292.064	320.88
292.295	338.88
292.526	334.88
292.757	330.88
292.987	342.88
293.218	309.88
293.449	312.88
293.68	326.88
293.91	332.88
294.141	330.88
294.372	328.88
294.603	322.88
294.833	314.88
295.064	314.88
295.295	308.88
295.525	326.88
295.756	342.88
295.987	324.88
296.217	331.88
296.448	333.88
296.679	318.88
296.909	324.88
297.14	335.88
297.37	334.88
297.601	349.88
297.831	343.88
298.062	351.88
298.292	354.88
298.523	354.88
298.753	351.88
298.984	335.88
299.214	358.88
299.445	362.88
299.675	354.88
299.905	349.88
300.136	342.88
300.366	403.88
300.597	370.88
300.827	356.88
301.057	361.88
301.288	361.88
301.518	375.88
301.748	364.88
301.979	369.88
302.209	375.88
302.439	387.88
302.669	361.88
302.9	364.88
303.13	384.88
303.36	373.88
303.59	363.88
303.82	357.88
304.051	370.88
304.281	367.88
304.511	374.88
304.741	383.88
304.971	372.88
305.201	395.88
305.431	402.88
305.661	381.88
305.891	381.88
306.121	370.88
306.352	367.88
306.582	348.88
306.812	345.88
307.042	365.88
307.272	360.88
307.502	351.88
307.731	358.88
307.961	357.88
308.191	381.88
308.421	369.88
308.651	364.88
308.881	370.88
309.111	364.88
309.341	385.88
309.571	383.88
309.8	379.88
310.03	381.88
310.26	392.88
310.49	389.88
310.72	378.88
310.949	388.88
311.179	358.88
311.409	379.88
311.639	387.88
311.868	388.88
312.098	389.88
312.328	385.88
312.557	402.88
312.787	389.88
313.017	399.88
313.246	392.88
313.476	395.88
313.706	405.88
313.935	426.88
314.165	383.88
314.394	385.88
314.624	397.88
314.853	404.88
315.083	387.88
315.312	392.88
315.542	380.88
315.771	391.88
316.001	396.88
316.23	423.88
316.46	413.88
316.689	421.88
316.919	398.88
317.148	414.88
317.377	410.88
317.607	399.88
317.836	386.88
318.065	406.88
318.295	399.88
318.524	412.88
318.753	414.88
318.983	392.88
319.212	407.88
319.441	419.88
319.67	391.88
319.9	412.88
320.129	406.88
320.358	417.88
320.587	389.88
320.816	422.88
321.046	395.88
321.275	417.88
321.504	413.88
321.733	413.88
321.962	443.88
322.191	440.88
322.42	423.88
322.649	424.88
322.878	449.88
323.108	413.88
323.337	427.88
323.566	426.88
323.795	430.88
324.024	431.88
324.253	426.88
324.482	436.88
324.71	435.88
324.939	430.88
325.168	443.88
325.397	437.88
325.626	428.88
325.855	430.88
326.084	429.88
326.313	427.88
326.542	448.88
326.77	465.88
326.999	445.88
327.228	434.88
327.457	443.88
327.686	450.88
327.914	471.88
328.143	472.88
328.372	433.88
328.6	460.88
328.829	449.88
329.058	449.88
329.287	458.88
329.515	462.88
329.744	447.88
329.972	465.88
330.201	460.88
330.43	458.88
330.658	459.88
330.887	451.88
331.115	479.88
331.344	483.88
331.572	447.88
331.801	495.88
332.03	481.88
332.258	499.88
332.486	493.88
332.715	483.88
332.943	494.88
333.172	507.88
333.4	515.88
333.629	513.88
333.857	505.88
334.085	501.88
334.314	513.88
334.542	522.88
334.771	528.88
334.999	522.88
335.227	535.88
335.455	525.88
335.684	524.88
335.912	507.88
336.14	512.88
336.369	559.88
336.597	538.88
336.825	522.88
337.053	542.88
337.281	520.88
337.51	517.88
337.738	525.88
337.966	498.88
338.194	521.88
338.422	515.88
338.65	486.88
338.878	484.88
339.106	498.88
339.334	509.88
339.562	498.88
339.79	493.88
340.018	472.88
340.246	509.88
340.474	486.88
340.702	478.88
340.93	478.88
341.158	506.88
341.386	502.88
341.614	520.88
341.842	517.88
342.07	483.88
342.298	477.88
342.526	483.88
342.754	489.88
342.981	479.88
343.209	494.88
343.437	490.88
343.665	510.88
343.893	534.88
344.12	519.88
344.348	528.88
344.576	522.88
344.804	529.88
345.031	536.88
345.259	498.88
345.487	502.88
345.714	506.88
345.942	500.88
346.17	517.88
346.397	505.88
346.625	493.88
346.853	487.88
347.08	476.88
347.308	458.88
347.535	479.88
347.763	469.88
347.99	486.88
348.218	477.88
348.445	468.88
348.673	489.88
348.9	473.88
349.128	478.88
349.355	468.88
349.583	507.88
349.81	474.88
350.037	456.88
350.265	463.88
350.492	473.88
350.72	463.88
350.947	477.88
351.174	487.88
351.402	501.88
351.629	512.88
351.856	468.88
352.083	479.88
352.311	500.88
352.538	486.88
352.765	499.88
352.992	504.88
353.22	455.88
353.447	453.88
353.674	470.88
353.901	433.88
354.128	452.88
354.355	448.88
354.583	449.88
354.81	461.88
355.037	441.88
355.264	440.88
355.491	456.88
355.718	449.88
355.945	459.88
356.172	456.88
356.399	469.88
356.626	479.88
356.853	476.88
357.08	468.88
357.307	448.88
357.534	464.88
357.761	466.88
357.988	449.88
358.215	470.88
358.441	459.88
358.668	456.88
358.895	470.88
359.122	473.88
359.349	474.88
359.576	454.88
359.802	476.88
360.029	471.88
360.256	459.88
360.483	463.88
360.709	451.88
360.936	446.88
361.163	464.88
361.39	483.88
361.616	461.88
361.843	488.88
362.07	491.88
362.296	472.88
362.523	471.88
362.749	483.88
362.976	478.88
363.203	464.88
363.429	483.88
363.656	458.88
363.882	432.88
364.109	469.88
364.335	453.88
364.562	459.88
364.788	471.88
365.015	477.88
365.241	458.88
365.468	473.88
365.694	475.88
365.92	473.88
366.147	464.88
366.373	466.88
366.599	462.88
366.826	458.88
367.052	470.88
367.278	478.88
367.505	469.88
367.731	459.88
367.957	461.88
368.184	454.88
368.41	488.88
368.636	483.88
368.862	468.88
369.089	468.88
369.315	489.88
369.541	476.88
369.767	491.88
369.993	483.88
370.219	481.88
370.445	489.88
370.672	489.88
370.898	468.88
371.124	465.88
371.35	499.88
371.576	490.88
371.802	500.88
372.028	490.88
372.254	503.88
372.48	480.88
372.706	515.88
372.932	545.88
373.158	511.88
373.384	506.88
373.61	503.88
373.835	499.88
374.061	481.88
374.287	490.88
374.513	502.88
374.739	502.88
374.965	514.88
375.191	533.88
375.416	509.88
375.642	516.88
375.868	526.88
376.094	479.88
376.319	510.88
376.545	510.88
376.771	497.88
376.997	508.88
377.222	504.88
377.448	498.88
377.674	491.88
377.899	489.88
378.125	508.88
378.35	486.88
378.576	505.88
378.802	488.88
379.027	513.88
379.253	517.88
379.478	495.88
379.704	482.88
379.929	482.88
380.155	519.88
380.38	485.88
380.606	506.88
380.831	489.88
381.057	492.88
381.282	485.88
381.507	505.88
381.733	490.88
381.958	469.88
382.184	487.88
382.409	513.88
382.634	516.88
382.86	503.88
383.085	508.88
383.31	535.88
383.535	515.88
383.761	522.88
383.986	523.88
384.211	546.88
384.436	534.88
384.662	532.88
384.887	543.88
385.112	551.88
385.337	540.88
385.562	541.88
385.787	538.88
386.013	565.88
386.238	575.88
386.463	570.88
386.688	537.88
386.913	551.88
387.138	565.88
387.363	553.88
387.588	556.88
387.813	567.88
388.038	565.88
388.263	577.88
388.488	556.88
388.713	564.88
388.938	567.88
389.163	556.88
389.387	561.88
389.612	551.88
389.837	561.88
390.062	564.88
390.287	570.88
390.512	565.88
390.736	563.88
390.961	557.88
391.186	581.88
391.411	574.88
391.636	578.88
391.86	593.88
392.085	584.88
392.31	602.88
392.534	608.88
392.759	565.88
392.984	572.88
393.208	596.88
393.433	583.88
393.658	567.88
393.882	570.88
394.107	593.88
394.331	595.88
394.556	601.88
394.78	596.88
395.005	635.88
395.229	593.88
395.454	607.88
395.678	601.88
395.903	595.88
396.127	603.88
396.352	602.88
396.576	604.88
396.801	584.88
397.025	601.88
397.249	620.88
397.474	620.88
397.698	619.88
397.922	618.88
398.147	643.88
398.371	643.88
398.595	651.88
398.82	661.88
399.044	697.88
399.268	720.88
399.492	769.88
399.717	739.88
399.941	753.88
400.165	765.88
400.389	723.88
400.613	698.88
400.837	692.88
401.062	662.88
401.286	657.88
401.51	648.88
401.734	675.88
401.958	674.88
402.182	669.88
402.406	656.88
402.63	651.88
402.854	681.88
403.078	651.88
403.302	684.88
403.526	657.88
403.75	666.88
403.974	661.88
404.198	681.88
404.422	708.88
404.645	668.88
404.869	671.88
405.093	677.88
405.317	671.88
405.541	659.88
405.765	682.88
405.988	693.88
406.212	686.88
406.436	699.88
406.66	726.88
406.883	715.88
407.107	734.88
407.331	759.88
407.555	803.88
407.778	746.88
408.002	734.88
408.226	754.88
408.449	757.88
408.673	726.88
408.896	709.88
409.12	716.88
409.344	721.88
409.567	701.88
409.791	680.88
410.014	724.88
410.238	701.88
410.461	705.88
410.685	694.88
410.908	700.88
411.132	694.88
411.355	677.88
411.578	671.88
411.802	682.88
412.025	686.88
412.249	698.88
412.472	675.88
412.695	684.88
412.919	668.88
413.142	678.88
413.365	643.88
413.589	697.88
413.812	671.88
414.035	647.88
414.258	646.88
414.482	664.88
414.705	650.88
414.928	661.88
415.151	677.88
415.374	654.88
415.597	648.88
415.821	643.88
416.044	652.88
416.267	638.88
416.49	627.88
416.713	622.88
416.936	661.88
417.159	647.88
417.382	653.88
417.605	621.88
417.828	631.88
418.051	644.88
418.274	620.88
418.497	623.88
418.72	637.88
418.943	634.88
419.166	687.88
419.389	696.88
419.611	669.88
419.834	671.88
420.057	684.88
420.28	648.88
420.503	641.88
420.726	638.88
420.948	635.88
421.171	608.88
421.394	645.88
421.617	649.88
421.839	638.88
422.062	653.88
422.285	617.88
422.507	636.88
422.73	641.88
422.953	640.88
423.175	652.88
423.398	649.88
423.621	630.88
423.843	639.88
424.066	654.88
424.288	639.88
424.511	653.88
424.733	651.88
424.956	640.88
425.178	636.88
425.401	649.88
425.623	631.88
425.846	632.88
426.068	638.88
426.291	640.88
426.513	634.88
426.735	620.88
426.958	637.88
427.18	614.88
427.402	628.88
427.625	625.88
427.847	603.88
428.069	594.88
428.292	600.88
428.514	602.88
428.736	608.88
428.958	610.88
429.181	613.88
429.403	613.88
429.625	607.88
429.847	599.88
430.069	597.88
430.292	621.88
430.514	619.88
430.736	619.88
430.958	618.88
431.18	605.88
431.402	617.88
431.624	618.88
431.846	603.88
432.068	603.88
432.29	614.88
432.512	613.88
432.734	631.88
432.956	596.88
433.178	641.88
433.4	643.88
433.622	645.88
433.844	635.88
434.066	645.88
434.287	635.88
434.509	653.88
434.731	643.88
434.953	628.88
435.175	668.88
435.397	663.88
435.618	653.88
435.84	625.88
436.062	633.88
436.284	618.88
436.505	639.88
436.727	612.88
436.949	637.88
437.17	631.88
437.392	605.88
437.614	615.88
437.835	587.88
438.057	603.88
438.278	602.88
438.5	584.88
438.721	597.88
438.943	595.88
439.165	590.88
439.386	604.88
439.608	622.88
439.829	606.88
440.05	620.88
440.272	628.88
440.493	604.88
440.715	629.88
440.936	618.88
441.158	617.88
441.379	629.88
441.6	652.88
441.822	659.88
442.043	657.88
442.264	638.88
442.486	620.88
442.707	612.88
442.928	630.88
443.149	661.88
443.371	644.88
443.592	705.88
443.813	669.88
444.034	663.88
444.255	666.88
444.476	679.88
444.698	681.88
444.919	715.88
445.14	817.88
445.361	721.88
445.582	675.88
445.803	651.88
446.024	611.88
446.245	605.88
446.466	619.88
446.687	627.88
446.908	634.88
447.129	614.88
447.35	609.88
447.571	584.88
447.792	604.88
448.013	575.88
448.234	579.88
448.455	577.88
448.675	569.88
448.896	581.88
449.117	566.88
449.338	566.88
449.559	586.88
449.779	567.88
450	558.88
450.221	549.88
450.442	564.88
450.662	541.88
450.883	565.88
451.104	600.88
451.324	558.88
451.545	555.88
451.766	553.88
451.986	552.88
452.207	548.88
452.428	575.88
452.648	548.88
452.869	551.88
453.089	558.88
453.31	546.88
453.53	543.88
453.751	549.88
453.971	549.88
454.192	557.88
454.412	567.88
454.633	556.88
454.853	543.88
455.073	532.88
455.294	557.88
455.514	555.88
455.734	545.88
455.955	548.88
456.175	572.88
456.395	543.88
456.616	523.88
456.836	541.88
457.056	542.88
457.276	532.88
457.497	538.88
457.717	565.88
457.937	592.88
458.157	540.88
458.377	542.88
458.598	583.88
458.818	554.88
459.038	577.88
459.258	609.88
459.478	630.88
459.698	687.88
459.918	674.88
460.138	649.88
460.358	641.88
460.578	651.88
460.798	668.88
461.018	692.88
461.238	676.88
461.458	667.88
461.678	637.88
461.898	669.88
462.118	658.88
462.338	680.88
462.558	712.88
462.777	723.88
462.997	764.88
463.217	788.88
463.437	809.88
463.657	785.88
463.876	739.88
464.096	704.88
464.316	724.88
464.536	691.88
464.755	685.88
464.975	715.88
465.195	649.88
465.414	656.88
465.634	643.88
465.854	607.88
466.073	604.88
466.293	601.88
466.512	614.88
466.732	598.88
466.951	607.88
467.171	614.88
467.391	589.88
467.61	579.88
467.829	612.88
468.049	574.88
468.268	571.88
468.488	590.88
468.707	595.88
468.927	602.88
469.146	579.88
469.365	600.88
469.585	567.88
469.804	601.88
470.023	587.88
470.243	570.88
470.462	595.88
470.681	609.88
470.901	601.88
471.12	589.88
471.339	591.88
471.558	592.88
471.777	606.88
471.997	586.88
472.216	595.88
472.435	595.88
472.654	577.88
472.873	555.88
473.092	579.88
473.311	550.88
473.53	584.88
473.749	584.88
473.968	557.88
474.187	584.88
474.406	561.88
474.625	589.88
474.844	603.88
475.063	592.88
475.282	599.88
475.501	594.88
475.72	602.88
475.939	606.88
476.158	608.88
476.377	599.88
476.596	601.88
476.814	631.88
477.033	610.88
477.252	629.88
477.471	624.88
477.69	662.88
477.908	642.88
478.127	681.88
478.346	663.88
478.564	662.88
478.783	670.88
479.002	724.88
479.22	715.88
479.439	706.88
479.658	697.88
479.876	687.88
480.095	700.88
480.313	720.88
480.532	692.88
480.751	708.88
480.969	700.88
481.188	666.88
481.406	686.88
481.624	683.88
481.843	651.88
482.061	695.88
482.28	691.88
482.498	685.88
482.717	691.88
482.935	712.88
483.153	697.88
483.372	745.88
483.59	768.88
483.808	721.88
484.027	716.88
484.245	702.88
484.463	717.88
484.681	723.88
484.9	709.88
485.118	734.88
485.336	737.88
485.554	715.88
485.772	685.88
485.99	714.88
486.209	716.88
486.427	711.88
486.645	718.88
486.863	728.88
487.081	720.88
487.299	723.88
487.517	719.88
487.735	716.88
487.953	754.88
488.171	726.88
488.389	740.88
488.607	754.88
488.825	709.88
489.043	690.88
489.261	714.88
489.479	719.88
489.696	729.88
489.914	737.88
490.132	715.88
490.35	741.88
490.568	740.88
490.786	737.88
491.003	734.88
491.221	734.88
491.439	740.88
491.657	719.88
491.874	723.88
492.092	743.88
492.31	737.88
492.527	736.88
492.745	740.88
492.963	755.88
493.18	733.88
493.398	740.88
493.615	741.88
493.833	720.88
494.05	732.88
494.268	734.88
494.485	745.88
494.703	732.88
494.92	755.88
495.138	761.88
495.355	745.88
495.573	739.88
495.79	755.88
496.008	771.88
496.225	774.88
496.442	770.88
496.66	794.88
496.877	783.88
497.094	779.88
497.312	791.88
497.529	782.88
497.746	822.88
497.963	810.88
498.181	848.88
498.398	846.88
498.615	906.88
498.832	925.88
499.049	941.88
499.267	991.88
499.484	1043.88
499.701	1076.88
499.918	1151.88
500.135	1222.88
500.352	1278.88
500.569	1321.88
500.786	1235.88
501.003	1243.88
501.22	1195.88
501.437	1151.88
