Data from Ni(NO3)2Standard.Agarose3%.GreenCap.LampEnergy5.5.E.O_HRD10591_14-42-59-188.txt Node
Date: Mon Jul 22 14:42:59 EDT 2019
User: cochatt
Spectrometer: HR+D1059
Trigger mode: 1
Integration Time (sec): 1.000000E-1
Scans to average: 1
Electric dark correction enabled: true
Nonlinearity correction enabled: false
Boxcar width: 0
XAxis mode: Wavelengths
Number of Pixels in Spectrum: 2048
>>>>>Begin Spectral Data<<<<<
223.165	-13.38
223.4	-13.38
223.635	-13.38
223.869	-21.38
224.104	-21.38
224.338	-12.38
224.573	-18.38
224.808	0.62
225.042	-19.38
225.277	-8.38
225.511	-1.38
225.746	8.62
225.98	8.62
226.215	5.62
226.449	15.62
226.683	15.62
226.918	29.62
227.152	31.62
227.387	46.62
227.621	31.62
227.856	51.62
228.09	50.62
228.324	41.62
228.559	47.62
228.793	55.62
229.027	56.62
229.262	69.62
229.496	70.62
229.73	57.62
229.964	69.62
230.199	92.62
230.433	81.62
230.667	69.62
230.901	79.62
231.136	78.62
231.37	59.62
231.604	93.62
231.838	87.62
232.072	89.62
232.306	71.62
232.541	81.62
232.775	76.62
233.009	82.62
233.243	84.62
233.477	77.62
233.711	86.62
233.945	86.62
234.179	93.62
234.413	95.62
234.647	88.62
234.881	75.62
235.115	69.62
235.349	84.62
235.583	70.62
235.817	77.62
236.051	79.62
236.285	81.62
236.519	84.62
236.753	84.62
236.987	76.62
237.221	75.62
237.455	82.62
237.689	96.62
237.922	78.62
238.156	82.62
238.39	75.62
238.624	81.62
238.858	75.62
239.091	90.62
239.325	87.62
239.559	80.62
239.793	78.62
240.027	73.62
240.26	83.62
240.494	78.62
240.728	75.62
240.961	76.62
241.195	71.62
241.429	88.62
241.662	79.62
241.896	71.62
242.13	73.62
242.363	66.62
242.597	63.62
242.83	85.62
243.064	85.62
243.298	81.62
243.531	74.62
243.765	88.62
243.998	80.62
244.232	78.62
244.465	73.62
244.699	92.62
244.932	79.62
245.166	90.62
245.399	73.62
245.633	84.62
245.866	89.62
246.099	71.62
246.333	82.62
246.566	75.62
246.8	95.62
247.033	98.62
247.266	74.62
247.5	80.62
247.733	80.62
247.966	88.62
248.2	55.62
248.433	82.62
248.666	84.62
248.899	76.62
249.133	80.62
249.366	101.62
249.599	75.62
249.832	79.62
250.066	91.62
250.299	86.62
250.532	100.62
250.765	86.62
250.998	80.62
251.231	78.62
251.465	83.62
251.698	84.62
251.931	93.62
252.164	69.62
252.397	68.62
252.63	87.62
252.863	77.62
253.096	94.62
253.329	85.62
253.562	99.62
253.795	87.62
254.028	85.62
254.261	74.62
254.494	82.62
254.727	70.62
254.96	78.62
255.193	82.62
255.426	85.62
255.659	76.62
255.892	81.62
256.124	74.62
256.357	94.62
256.59	73.62
256.823	86.62
257.056	79.62
257.289	86.62
257.521	78.62
257.754	81.62
257.987	76.62
258.22	87.62
258.452	90.62
258.685	93.62
258.918	75.62
259.151	82.62
259.383	87.62
259.616	92.62
259.849	81.62
260.081	90.62
260.314	94.62
260.547	77.62
260.779	86.62
261.012	83.62
261.244	77.62
261.477	81.62
261.71	85.62
261.942	88.62
262.175	90.62
262.407	80.62
262.64	75.62
262.872	79.62
263.105	90.62
263.337	84.62
263.57	77.62
263.802	74.62
264.035	89.62
264.267	87.62
264.499	74.62
264.732	84.62
264.964	75.62
265.197	83.62
265.429	72.62
265.661	104.62
265.894	91.62
266.126	84.62
266.358	91.62
266.591	78.62
266.823	80.62
267.055	82.62
267.287	99.62
267.52	72.62
267.752	84.62
267.984	85.62
268.216	75.62
268.448	99.62
268.681	77.62
268.913	84.62
269.145	77.62
269.377	96.62
269.609	82.62
269.841	76.62
270.073	80.62
270.306	88.62
270.538	80.62
270.77	79.62
271.002	63.62
271.234	81.62
271.466	84.62
271.698	84.62
271.93	86.62
272.162	98.62
272.394	75.62
272.626	88.62
272.858	79.62
273.09	91.62
273.322	78.62
273.553	97.62
273.785	79.62
274.017	88.62
274.249	88.62
274.481	103.62
274.713	78.62
274.945	91.62
275.176	86.62
275.408	70.62
275.64	91.62
275.872	88.62
276.104	74.62
276.335	76.62
276.567	93.62
276.799	88.62
277.031	84.62
277.262	71.62
277.494	77.62
277.726	98.62
277.957	90.62
278.189	84.62
278.421	77.62
278.652	97.62
278.884	93.62
279.115	81.62
279.347	88.62
279.579	91.62
279.81	83.62
280.042	89.62
280.273	91.62
280.505	87.62
280.736	88.62
280.968	87.62
281.199	87.62
281.431	86.62
281.662	81.62
281.894	87.62
282.125	92.62
282.356	94.62
282.588	84.62
282.819	83.62
283.051	95.62
283.282	75.62
283.513	85.62
283.745	78.62
283.976	92.62
284.207	91.62
284.439	81.62
284.67	92.62
284.901	90.62
285.132	95.62
285.364	86.62
285.595	83.62
285.826	84.62
286.057	91.62
286.288	84.62
286.52	90.62
286.751	84.62
286.982	96.62
287.213	85.62
287.444	94.62
287.675	74.62
287.906	99.62
288.138	90.62
288.369	93.62
288.6	82.62
288.831	81.62
289.062	91.62
289.293	98.62
289.524	81.62
289.755	84.62
289.986	83.62
290.217	79.62
290.448	102.62
290.679	77.62
290.91	100.62
291.141	94.62
291.371	79.62
291.602	89.62
291.833	76.62
292.064	87.62
292.295	92.62
292.526	93.62
292.757	87.62
292.987	82.62
293.218	98.62
293.449	97.62
293.68	100.62
293.91	95.62
294.141	87.62
294.372	73.62
294.603	88.62
294.833	81.62
295.064	84.62
295.295	79.62
295.525	88.62
295.756	93.62
295.987	88.62
296.217	92.62
296.448	84.62
296.679	80.62
296.909	98.62
297.14	96.62
297.37	98.62
297.601	99.62
297.831	96.62
298.062	92.62
298.292	93.62
298.523	89.62
298.753	93.62
298.984	85.62
299.214	92.62
299.445	77.62
299.675	98.62
299.905	82.62
300.136	82.62
300.366	97.62
300.597	82.62
300.827	83.62
301.057	90.62
301.288	78.62
301.518	95.62
301.748	87.62
301.979	85.62
302.209	89.62
302.439	83.62
302.669	86.62
302.9	83.62
303.13	96.62
303.36	96.62
303.59	77.62
303.82	95.62
304.051	87.62
304.281	92.62
304.511	91.62
304.741	106.62
304.971	82.62
305.201	86.62
305.431	101.62
305.661	83.62
305.891	92.62
306.121	102.62
306.352	98.62
306.582	84.62
306.812	86.62
307.042	87.62
307.272	90.62
307.502	99.62
307.731	96.62
307.961	89.62
308.191	90.62
308.421	94.62
308.651	93.62
308.881	77.62
309.111	83.62
309.341	90.62
309.571	83.62
309.8	81.62
310.03	79.62
310.26	78.62
310.49	95.62
310.72	93.62
310.949	79.62
311.179	83.62
311.409	93.62
311.639	85.62
311.868	74.62
312.098	91.62
312.328	86.62
312.557	87.62
312.787	99.62
313.017	92.62
313.246	90.62
313.476	90.62
313.706	79.62
313.935	63.62
314.165	84.62
314.394	84.62
314.624	91.62
314.853	80.62
315.083	85.62
315.312	84.62
315.542	86.62
315.771	98.62
316.001	90.62
316.23	81.62
316.46	87.62
316.689	94.62
316.919	93.62
317.148	90.62
317.377	89.62
317.607	99.62
317.836	96.62
318.065	75.62
318.295	95.62
318.524	84.62
318.753	92.62
318.983	90.62
319.212	84.62
319.441	84.62
319.67	75.62
319.9	83.62
320.129	89.62
320.358	81.62
320.587	96.62
320.816	76.62
321.046	89.62
321.275	85.62
321.504	81.62
321.733	88.62
321.962	89.62
322.191	89.62
322.42	75.62
322.649	87.62
322.878	95.62
323.108	90.62
323.337	83.62
323.566	82.62
323.795	94.62
324.024	75.62
324.253	96.62
324.482	82.62
324.71	78.62
324.939	91.62
325.168	79.62
325.397	104.62
325.626	83.62
325.855	88.62
326.084	96.62
326.313	88.62
326.542	92.62
326.77	87.62
326.999	78.62
327.228	88.62
327.457	91.62
327.686	89.62
327.914	77.62
328.143	86.62
328.372	84.62
328.6	81.62
328.829	86.62
329.058	96.62
329.287	87.62
329.515	74.62
329.744	95.62
329.972	78.62
330.201	84.62
330.43	94.62
330.658	88.62
330.887	82.62
331.115	94.62
331.344	96.62
331.572	95.62
331.801	69.62
332.03	84.62
332.258	92.62
332.486	87.62
332.715	95.62
332.943	97.62
333.172	88.62
333.4	89.62
333.629	89.62
333.857	90.62
334.085	93.62
334.314	90.62
334.542	87.62
334.771	99.62
334.999	82.62
335.227	92.62
335.455	82.62
335.684	86.62
335.912	90.62
336.14	85.62
336.369	85.62
336.597	84.62
336.825	87.62
337.053	91.62
337.281	90.62
337.51	84.62
337.738	90.62
337.966	94.62
338.194	97.62
338.422	98.62
338.65	91.62
338.878	79.62
339.106	91.62
339.334	83.62
339.562	82.62
339.79	84.62
340.018	80.62
340.246	73.62
340.474	86.62
340.702	91.62
340.93	78.62
341.158	85.62
341.386	87.62
341.614	84.62
341.842	92.62
342.07	79.62
342.298	88.62
342.526	89.62
342.754	97.62
342.981	85.62
343.209	85.62
343.437	83.62
343.665	82.62
343.893	100.62
344.12	92.62
344.348	103.62
344.576	83.62
344.804	85.62
345.031	85.62
345.259	81.62
345.487	70.62
345.714	73.62
345.942	83.62
346.17	97.62
346.397	87.62
346.625	96.62
346.853	87.62
347.08	90.62
347.308	90.62
347.535	86.62
347.763	80.62
347.99	85.62
348.218	93.62
348.445	81.62
348.673	87.62
348.9	97.62
349.128	93.62
349.355	85.62
349.583	91.62
349.81	90.62
350.037	88.62
350.265	93.62
350.492	95.62
350.72	97.62
350.947	106.62
351.174	90.62
351.402	83.62
351.629	85.62
351.856	83.62
352.083	77.62
352.311	91.62
352.538	96.62
352.765	85.62
352.992	101.62
353.22	99.62
353.447	100.62
353.674	93.62
353.901	102.62
354.128	95.62
354.355	85.62
354.583	84.62
354.81	83.62
355.037	100.62
355.264	94.62
355.491	75.62
355.718	84.62
355.945	81.62
356.172	87.62
356.399	89.62
356.626	94.62
356.853	80.62
357.08	95.62
357.307	79.62
357.534	100.62
357.761	97.62
357.988	86.62
358.215	80.62
358.441	62.62
358.668	92.62
358.895	91.62
359.122	80.62
359.349	80.62
359.576	84.62
359.802	89.62
360.029	88.62
360.256	91.62
360.483	87.62
360.709	84.62
360.936	90.62
361.163	100.62
361.39	92.62
361.616	84.62
361.843	92.62
362.07	97.62
362.296	86.62
362.523	87.62
362.749	82.62
362.976	94.62
363.203	87.62
363.429	94.62
363.656	105.62
363.882	85.62
364.109	95.62
364.335	80.62
364.562	91.62
364.788	85.62
365.015	83.62
365.241	89.62
365.468	87.62
365.694	89.62
365.92	93.62
366.147	101.62
366.373	99.62
366.599	89.62
366.826	90.62
367.052	84.62
367.278	74.62
367.505	91.62
367.731	90.62
367.957	78.62
368.184	79.62
368.41	84.62
368.636	91.62
368.862	77.62
369.089	95.62
369.315	73.62
369.541	89.62
369.767	89.62
369.993	87.62
370.219	90.62
370.445	78.62
370.672	99.62
370.898	83.62
371.124	87.62
371.35	91.62
371.576	93.62
371.802	84.62
372.028	93.62
372.254	94.62
372.48	88.62
372.706	90.62
372.932	89.62
373.158	82.62
373.384	84.62
373.61	86.62
373.835	96.62
374.061	83.62
374.287	73.62
374.513	91.62
374.739	95.62
374.965	103.62
375.191	95.62
375.416	73.62
375.642	74.62
375.868	86.62
376.094	89.62
376.319	92.62
376.545	81.62
376.771	86.62
376.997	84.62
377.222	98.62
377.448	92.62
377.674	92.62
377.899	91.62
378.125	84.62
378.35	86.62
378.576	87.62
378.802	80.62
379.027	92.62
379.253	84.62
379.478	98.62
379.704	91.62
379.929	95.62
380.155	79.62
380.38	78.62
380.606	85.62
380.831	83.62
381.057	99.62
381.282	93.62
381.507	90.62
381.733	79.62
381.958	90.62
382.184	82.62
382.409	93.62
382.634	84.62
382.86	85.62
383.085	80.62
383.31	91.62
383.535	88.62
383.761	84.62
383.986	79.62
384.211	89.62
384.436	100.62
384.662	96.62
384.887	103.62
385.112	92.62
385.337	98.62
385.562	84.62
385.787	81.62
386.013	85.62
386.238	84.62
386.463	92.62
386.688	77.62
386.913	80.62
387.138	64.62
387.363	105.62
387.588	75.62
387.813	84.62
388.038	96.62
388.263	96.62
388.488	89.62
388.713	84.62
388.938	91.62
389.163	90.62
389.387	90.62
389.612	76.62
389.837	85.62
390.062	88.62
390.287	75.62
390.512	82.62
390.736	81.62
390.961	87.62
391.186	86.62
391.411	91.62
391.636	75.62
391.86	84.62
392.085	91.62
392.31	73.62
392.534	70.62
392.759	96.62
392.984	88.62
393.208	85.62
393.433	76.62
393.658	80.62
393.882	89.62
394.107	83.62
394.331	82.62
394.556	68.62
394.78	75.62
395.005	75.62
395.229	82.62
395.454	83.62
395.678	80.62
395.903	86.62
396.127	78.62
396.352	92.62
396.576	86.62
396.801	90.62
397.025	87.62
397.249	89.62
397.474	95.62
397.698	94.62
397.922	71.62
398.147	84.62
398.371	87.62
398.595	84.62
398.82	100.62
399.044	93.62
399.268	90.62
399.492	82.62
399.717	88.62
399.941	92.62
400.165	92.62
400.389	93.62
400.613	84.62
400.837	77.62
401.062	94.62
401.286	87.62
401.51	77.62
401.734	91.62
401.958	90.62
402.182	79.62
402.406	91.62
402.63	88.62
402.854	87.62
403.078	93.62
403.302	83.62
403.526	89.62
403.75	98.62
403.974	88.62
404.198	80.62
404.422	104.62
404.645	95.62
404.869	81.62
405.093	95.62
405.317	86.62
405.541	78.62
405.765	82.62
405.988	86.62
406.212	80.62
406.436	78.62
406.66	101.62
406.883	79.62
407.107	81.62
407.331	100.62
407.555	90.62
407.778	91.62
408.002	93.62
408.226	87.62
408.449	79.62
408.673	88.62
408.896	83.62
409.12	90.62
409.344	97.62
409.567	87.62
409.791	88.62
410.014	80.62
410.238	86.62
410.461	77.62
410.685	88.62
410.908	88.62
411.132	85.62
411.355	84.62
411.578	90.62
411.802	83.62
412.025	82.62
412.249	81.62
412.472	94.62
412.695	81.62
412.919	81.62
413.142	84.62
413.365	100.62
413.589	73.62
413.812	88.62
414.035	102.62
414.258	85.62
414.482	88.62
414.705	85.62
414.928	91.62
415.151	88.62
415.374	96.62
415.597	89.62
415.821	73.62
416.044	84.62
416.267	96.62
416.49	76.62
416.713	80.62
416.936	87.62
417.159	80.62
417.382	85.62
417.605	92.62
417.828	88.62
418.051	90.62
418.274	70.62
418.497	83.62
418.72	89.62
418.943	74.62
419.166	85.62
419.389	85.62
419.611	84.62
419.834	79.62
420.057	90.62
420.28	91.62
420.503	73.62
420.726	78.62
420.948	95.62
421.171	91.62
421.394	87.62
421.617	86.62
421.839	94.62
422.062	71.62
422.285	96.62
422.507	84.62
422.73	92.62
422.953	80.62
423.175	94.62
423.398	75.62
423.621	100.62
423.843	83.62
424.066	86.62
424.288	116.62
424.511	88.62
424.733	92.62
424.956	103.62
425.178	79.62
425.401	76.62
425.623	90.62
425.846	90.62
426.068	100.62
426.291	87.62
426.513	83.62
426.735	94.62
426.958	93.62
427.18	66.62
427.402	94.62
427.625	85.62
427.847	91.62
428.069	91.62
428.292	86.62
428.514	97.62
428.736	97.62
428.958	81.62
429.181	95.62
429.403	84.62
429.625	93.62
429.847	86.62
430.069	89.62
430.292	89.62
430.514	105.62
430.736	91.62
430.958	81.62
431.18	88.62
431.402	89.62
431.624	80.62
431.846	89.62
432.068	95.62
432.29	87.62
432.512	88.62
432.734	103.62
432.956	100.62
433.178	82.62
433.4	85.62
433.622	96.62
433.844	89.62
434.066	84.62
434.287	95.62
434.509	87.62
434.731	87.62
434.953	85.62
435.175	87.62
435.397	86.62
435.618	86.62
435.84	82.62
436.062	74.62
436.284	80.62
436.505	85.62
436.727	71.62
436.949	88.62
437.17	90.62
437.392	88.62
437.614	92.62
437.835	95.62
438.057	81.62
438.278	88.62
438.5	81.62
438.721	90.62
438.943	82.62
439.165	92.62
439.386	79.62
439.608	96.62
439.829	80.62
440.05	88.62
440.272	88.62
440.493	88.62
440.715	82.62
440.936	79.62
441.158	86.62
441.379	77.62
441.6	99.62
441.822	87.62
442.043	79.62
442.264	88.62
442.486	83.62
442.707	91.62
442.928	82.62
443.149	93.62
443.371	91.62
443.592	81.62
443.813	80.62
444.034	76.62
444.255	82.62
444.476	77.62
444.698	93.62
444.919	80.62
445.14	208.62
445.361	151.62
445.582	90.62
445.803	89.62
446.024	75.62
446.245	79.62
446.466	87.62
446.687	94.62
446.908	83.62
447.129	101.62
447.35	91.62
447.571	92.62
447.792	79.62
448.013	90.62
448.234	85.62
448.455	84.62
448.675	84.62
448.896	80.62
449.117	91.62
449.338	85.62
449.559	91.62
449.779	97.62
450	72.62
450.221	96.62
450.442	82.62
450.662	80.62
450.883	78.62
451.104	87.62
451.324	87.62
451.545	81.62
451.766	86.62
451.986	94.62
452.207	77.62
452.428	91.62
452.648	84.62
452.869	79.62
453.089	90.62
453.31	88.62
453.53	74.62
453.751	91.62
453.971	65.62
454.192	85.62
454.412	97.62
454.633	77.62
454.853	92.62
455.073	96.62
455.294	71.62
455.514	85.62
455.734	87.62
455.955	92.62
456.175	75.62
456.395	92.62
456.616	89.62
456.836	87.62
457.056	93.62
457.276	90.62
457.497	76.62
457.717	92.62
457.937	87.62
458.157	86.62
458.377	98.62
458.598	84.62
458.818	83.62
459.038	80.62
459.258	76.62
459.478	82.62
459.698	91.62
459.918	87.62
460.138	92.62
460.358	87.62
460.578	92.62
460.798	98.62
461.018	96.62
461.238	76.62
461.458	82.62
461.678	93.62
461.898	91.62
462.118	93.62
462.338	95.62
462.558	90.62
462.777	88.62
462.997	90.62
463.217	83.62
463.437	83.62
463.657	80.62
463.876	91.62
464.096	86.62
464.316	74.62
464.536	91.62
464.755	99.62
464.975	73.62
465.195	96.62
465.414	89.62
465.634	84.62
465.854	87.62
466.073	87.62
466.293	80.62
466.512	85.62
466.732	80.62
466.951	90.62
467.171	82.62
467.391	87.62
467.61	91.62
467.829	84.62
468.049	89.62
468.268	97.62
468.488	89.62
468.707	75.62
468.927	92.62
469.146	96.62
469.365	88.62
469.585	100.62
469.804	108.62
470.023	84.62
470.243	93.62
470.462	103.62
470.681	90.62
470.901	86.62
471.12	89.62
471.339	84.62
471.558	79.62
471.777	94.62
471.997	101.62
472.216	92.62
472.435	92.62
472.654	87.62
472.873	85.62
473.092	84.62
473.311	74.62
473.53	82.62
473.749	91.62
473.968	94.62
474.187	86.62
474.406	90.62
474.625	92.62
474.844	92.62
475.063	98.62
475.282	84.62
475.501	99.62
475.72	98.62
475.939	93.62
476.158	90.62
476.377	93.62
476.596	75.62
476.814	81.62
477.033	87.62
477.252	83.62
477.471	90.62
477.69	106.62
477.908	80.62
478.127	96.62
478.346	94.62
478.564	107.62
478.783	86.62
479.002	82.62
479.22	99.62
479.439	99.62
479.658	89.62
479.876	85.62
480.095	80.62
480.313	98.62
480.532	94.62
480.751	94.62
480.969	85.62
481.188	87.62
481.406	93.62
481.624	81.62
481.843	95.62
482.061	86.62
482.28	78.62
482.498	99.62
482.717	92.62
482.935	79.62
483.153	77.62
483.372	95.62
483.59	99.62
483.808	88.62
484.027	97.62
484.245	92.62
484.463	91.62
484.681	90.62
484.9	107.62
485.118	99.62
485.336	90.62
485.554	88.62
485.772	93.62
485.99	78.62
486.209	90.62
486.427	105.62
486.645	100.62
486.863	99.62
487.081	81.62
487.299	79.62
487.517	88.62
487.735	101.62
487.953	108.62
488.171	101.62
488.389	92.62
488.607	85.62
488.825	96.62
489.043	98.62
489.261	100.62
489.479	87.62
489.696	86.62
489.914	88.62
490.132	87.62
490.35	104.62
490.568	103.62
490.786	88.62
491.003	84.62
491.221	103.62
491.439	93.62
491.657	97.62
491.874	97.62
492.092	102.62
492.31	101.62
492.527	87.62
492.745	81.62
492.963	99.62
493.18	103.62
493.398	86.62
493.615	78.62
493.833	98.62
494.05	109.62
494.268	101.62
494.485	101.62
494.703	99.62
494.92	93.62
495.138	84.62
495.355	88.62
495.573	104.62
495.79	108.62
496.008	85.62
496.225	100.62
496.442	101.62
496.66	98.62
496.877	96.62
497.094	83.62
497.312	84.62
497.529	88.62
497.746	115.62
497.963	108.62
498.181	91.62
498.398	90.62
498.615	108.62
498.832	108.62
499.049	110.62
499.267	92.62
499.484	105.62
499.701	96.62
499.918	112.62
500.135	95.62
500.352	109.62
500.569	117.62
500.786	122.62
501.003	105.62
501.22	108.62
501.437	103.62
501.654	110.62
501.871	104.62
502.088	107.62
502.305	102.62
502.522	110.62
502.739	99.62
502.956	94.62
503.172	105.62
503.389	98.62
503.606	101.62
503.823	100.62
504.04	81.62
504.256	102.62
504.473	78.62
504.69	83.62
504.907	107.62
505.123	108.62
505.34	88.62
505.557	102.62
505.773	103.62
505.99	90.62
506.207	84.62
506.423	99.62
506.64	104.62
506.856	85.62
507.073	89.62
507.289	90.62
507.506	102.62
507.722	95.62
507.939	95.62
508.155	91.62
508.372	87.62
508.588	89.62
508.805	102.62
509.021	88.62
509.238	89.62
509.454	98.62
509.67	88.62
509.887	89.62
510.103	91.62
510.319	91.62
510.536	91.62
510.752	92.62
510.968	97.62
511.184	83.62
511.401	113.62
511.617	95.62
511.833	88.62
512.049	108.62
512.265	89.62
512.481	77.62
512.698	89.62
512.914	77.62
513.13	102.62
513.346	90.62
513.562	92.62
513.778	94.62
513.994	93.62
514.21	95.62
514.426	89.62
514.642	93.62
514.858	96.62
515.074	100.62
515.29	90.62
515.506	87.62
515.721	100.62
515.937	103.62
516.153	88.62
516.369	91.62
516.585	75.62
516.801	95.62
517.016	92.62
517.232	86.62
517.448	89.62
517.664	94.62
517.879	100.62
518.095	94.62
