Data from Ni(NO3)2@0.5M.TitratingCurve.Agarose3%dH2O.NegLispCup.LampEnergy10.LIBS07252019_HRD10591_17-58-24-564.txt Node
Date: Thu Jul 25 17:58:24 EDT 2019
User: cochatt
Spectrometer: HR+D1059
Trigger mode: 1
Integration Time (sec): 1.000000E-1
Scans to average: 1
Electric dark correction enabled: true
Nonlinearity correction enabled: false
Boxcar width: 0
XAxis mode: Wavelengths
Number of Pixels in Spectrum: 2048
>>>>>Begin Spectral Data<<<<<
223.165	-7.5
223.4	-7.5
223.635	-7.5
223.869	-15.5
224.104	-25.5
224.338	-9.5
224.573	-14.5
224.808	-9.5
225.042	11.5
225.277	5.5
225.511	-16.5
225.746	-8.5
225.98	8.5
226.215	1.5
226.449	9.5
226.683	21.5
226.918	26.5
227.152	22.5
227.387	39.5
227.621	41.5
227.856	43.5
228.09	35.5
228.324	56.5
228.559	56.5
228.793	97.5
229.027	177.5
229.262	198.5
229.496	223.5
229.73	222.5
229.964	277.5
230.199	331.5
230.433	322.5
230.667	287.5
230.901	295.5
231.136	246.5
231.37	248.5
231.604	272.5
231.838	317.5
232.072	339.5
232.306	305.5
232.541	285.5
232.775	257.5
233.009	237.5
233.243	243.5
233.477	215.5
233.711	260.5
233.945	262.5
234.179	255.5
234.413	276.5
234.647	248.5
234.881	257.5
235.115	255.5
235.349	237.5
235.583	231.5
235.817	231.5
236.051	244.5
236.285	248.5
236.519	236.5
236.753	224.5
236.987	233.5
237.221	237.5
237.455	246.5
237.689	247.5
237.922	255.5
238.156	260.5
238.39	257.5
238.624	264.5
238.858	260.5
239.091	281.5
239.325	285.5
239.559	320.5
239.793	339.5
240.027	353.5
240.26	299.5
240.494	274.5
240.728	276.5
240.961	277.5
241.195	296.5
241.429	311.5
241.662	329.5
241.896	373.5
242.13	355.5
242.363	307.5
242.597	302.5
242.83	291.5
243.064	294.5
243.298	307.5
243.531	310.5
243.765	327.5
243.998	354.5
244.232	354.5
244.465	330.5
244.699	302.5
244.932	324.5
245.166	322.5
245.399	334.5
245.633	329.5
245.866	336.5
246.099	330.5
246.333	341.5
246.566	359.5
246.8	343.5
247.033	324.5
247.266	356.5
247.5	354.5
247.733	369.5
247.966	360.5
248.2	358.5
248.433	375.5
248.666	374.5
248.899	383.5
249.133	371.5
249.366	391.5
249.599	376.5
249.832	388.5
250.066	377.5
250.299	397.5
250.532	405.5
250.765	427.5
250.998	455.5
251.231	472.5
251.465	501.5
251.698	488.5
251.931	435.5
252.164	431.5
252.397	461.5
252.63	437.5
252.863	445.5
253.096	458.5
253.329	438.5
253.562	449.5
253.795	462.5
254.028	451.5
254.261	453.5
254.494	451.5
254.727	469.5
254.96	476.5
255.193	462.5
255.426	464.5
255.659	473.5
255.892	508.5
256.124	472.5
256.357	490.5
256.59	487.5
256.823	483.5
257.056	488.5
257.289	521.5
257.521	533.5
257.754	508.5
257.987	519.5
258.22	522.5
258.452	517.5
258.685	526.5
258.918	533.5
259.151	513.5
259.383	537.5
259.616	519.5
259.849	544.5
260.081	539.5
260.314	526.5
260.547	563.5
260.779	579.5
261.012	559.5
261.244	559.5
261.477	573.5
261.71	580.5
261.942	573.5
262.175	571.5
262.407	566.5
262.64	563.5
262.872	586.5
263.105	590.5
263.337	599.5
263.57	601.5
263.802	593.5
264.035	584.5
264.267	599.5
264.499	609.5
264.732	595.5
264.964	605.5
265.197	584.5
265.429	587.5
265.661	609.5
265.894	635.5
266.126	603.5
266.358	608.5
266.591	655.5
266.823	638.5
267.055	639.5
267.287	640.5
267.52	640.5
267.752	627.5
267.984	620.5
268.216	655.5
268.448	650.5
268.681	651.5
268.913	667.5
269.145	659.5
269.377	645.5
269.609	643.5
269.841	651.5
270.073	663.5
270.306	663.5
270.538	668.5
270.77	669.5
271.002	661.5
271.234	671.5
271.466	677.5
271.698	666.5
271.93	675.5
272.162	695.5
272.394	693.5
272.626	684.5
272.858	698.5
273.09	693.5
273.322	688.5
273.553	685.5
273.785	717.5
274.017	707.5
274.249	704.5
274.481	714.5
274.713	721.5
274.945	721.5
275.176	725.5
275.408	733.5
275.64	727.5
275.872	739.5
276.104	733.5
276.335	740.5
276.567	749.5
276.799	719.5
277.031	747.5
277.262	755.5
277.494	762.5
277.726	767.5
277.957	780.5
278.189	773.5
278.421	783.5
278.652	781.5
278.884	789.5
279.115	793.5
279.347	798.5
279.579	779.5
279.81	803.5
280.042	789.5
280.273	778.5
280.505	779.5
280.736	795.5
280.968	812.5
281.199	797.5
281.431	823.5
281.662	818.5
281.894	837.5
282.125	811.5
282.356	829.5
282.588	810.5
282.819	823.5
283.051	825.5
283.282	833.5
283.513	826.5
283.745	821.5
283.976	825.5
284.207	828.5
284.439	847.5
284.67	862.5
284.901	842.5
285.132	848.5
285.364	812.5
285.595	875.5
285.826	856.5
286.057	852.5
286.288	851.5
286.52	893.5
286.751	874.5
286.982	851.5
287.213	862.5
287.444	896.5
287.675	847.5
287.906	879.5
288.138	868.5
288.369	864.5
288.6	863.5
288.831	883.5
289.062	898.5
289.293	889.5
289.524	880.5
289.755	892.5
289.986	890.5
290.217	897.5
290.448	895.5
290.679	863.5
290.91	931.5
291.141	912.5
291.371	886.5
291.602	898.5
291.833	918.5
292.064	904.5
292.295	855.5
292.526	869.5
292.757	895.5
292.987	899.5
293.218	895.5
293.449	926.5
293.68	906.5
293.91	896.5
294.141	876.5
294.372	909.5
294.603	942.5
294.833	933.5
295.064	934.5
295.295	939.5
295.525	926.5
295.756	928.5
295.987	918.5
296.217	893.5
296.448	947.5
296.679	919.5
296.909	933.5
297.14	921.5
297.37	940.5
297.601	952.5
297.831	982.5
298.062	961.5
298.292	990.5
298.523	987.5
298.753	962.5
298.984	973.5
299.214	980.5
299.445	968.5
299.675	1002.5
299.905	983.5
300.136	1031.5
300.366	1046.5
300.597	1108.5
300.827	1068.5
301.057	1045.5
301.288	1035.5
301.518	1067.5
301.748	1034.5
301.979	1029.5
302.209	1019.5
302.439	1004.5
302.669	1013.5
302.9	1027.5
303.13	1037.5
303.36	1057.5
303.59	1044.5
303.82	1057.5
304.051	1079.5
304.281	1063.5
304.511	1047.5
304.741	1070.5
304.971	1066.5
305.201	1115.5
305.431	1137.5
305.661	1119.5
305.891	1091.5
306.121	1064.5
306.352	1080.5
306.582	1059.5
306.812	1068.5
307.042	1050.5
307.272	1092.5
307.502	1062.5
307.731	1064.5
307.961	1051.5
308.191	1072.5
308.421	1076.5
308.651	1077.5
308.881	1060.5
309.111	1071.5
309.341	1039.5
309.571	1064.5
309.8	1118.5
310.03	1157.5
310.26	1191.5
310.49	1176.5
310.72	1181.5
310.949	1064.5
311.179	1111.5
311.409	1112.5
311.639	1093.5
311.868	1139.5
312.098	1109.5
312.328	1152.5
312.557	1118.5
312.787	1136.5
313.017	1161.5
313.246	1164.5
313.476	1219.5
313.706	1193.5
313.935	1176.5
314.165	1150.5
314.394	1146.5
314.624	1189.5
314.853	1153.5
315.083	1137.5
315.312	1167.5
315.542	1188.5
315.771	1163.5
316.001	1153.5
316.23	1194.5
316.46	1155.5
316.689	1183.5
316.919	1187.5
317.148	1188.5
317.377	1208.5
317.607	1197.5
317.836	1215.5
318.065	1212.5
318.295	1217.5
318.524	1238.5
318.753	1224.5
318.983	1216.5
319.212	1210.5
319.441	1214.5
319.67	1224.5
319.9	1242.5
320.129	1250.5
320.358	1231.5
320.587	1262.5
320.816	1254.5
321.046	1273.5
321.275	1265.5
321.504	1256.5
321.733	1290.5
321.962	1273.5
322.191	1303.5
322.42	1302.5
322.649	1249.5
322.878	1267.5
323.108	1291.5
323.337	1333.5
323.566	1324.5
323.795	1294.5
324.024	1343.5
324.253	1336.5
324.482	1313.5
324.71	1299.5
324.939	1298.5
325.168	1326.5
325.397	1335.5
325.626	1310.5
325.855	1328.5
326.084	1348.5
326.313	1327.5
326.542	1311.5
326.77	1392.5
326.999	1349.5
327.228	1340.5
327.457	1329.5
327.686	1365.5
327.914	1354.5
328.143	1360.5
328.372	1359.5
328.6	1359.5
328.829	1331.5
329.058	1355.5
329.287	1386.5
329.515	1382.5
329.744	1387.5
329.972	1411.5
330.201	1390.5
330.43	1393.5
330.658	1375.5
330.887	1418.5
331.115	1427.5
331.344	1440.5
331.572	1454.5
331.801	1481.5
332.03	1462.5
332.258	1462.5
332.486	1461.5
332.715	1475.5
332.943	1476.5
333.172	1480.5
333.4	1477.5
333.629	1473.5
333.857	1504.5
334.085	1508.5
334.314	1547.5
334.542	1501.5
334.771	1498.5
334.999	1515.5
335.227	1548.5
335.455	1544.5
335.684	1535.5
335.912	1537.5
336.14	1578.5
336.369	1585.5
336.597	1567.5
336.825	1584.5
337.053	1639.5
337.281	1624.5
337.51	1577.5
337.738	1622.5
337.966	1578.5
338.194	1606.5
338.422	1594.5
338.65	1528.5
338.878	1564.5
339.106	1552.5
339.334	1628.5
339.562	1551.5
339.79	1513.5
340.018	1515.5
340.246	1509.5
340.474	1484.5
340.702	1525.5
340.93	1495.5
341.158	1504.5
341.386	1582.5
341.614	1621.5
341.842	1609.5
342.07	1509.5
342.298	1536.5
342.526	1552.5
342.754	1496.5
342.981	1496.5
343.209	1535.5
343.437	1567.5
343.665	1547.5
343.893	1556.5
344.12	1572.5
344.348	1569.5
344.576	1585.5
344.804	1629.5
345.031	1543.5
345.259	1545.5
345.487	1567.5
345.714	1599.5
345.942	1635.5
346.17	1703.5
346.397	1593.5
346.625	1514.5
346.853	1441.5
347.08	1484.5
347.308	1506.5
347.535	1518.5
347.763	1448.5
347.99	1435.5
348.218	1459.5
348.445	1489.5
348.673	1461.5
348.9	1462.5
349.128	1490.5
349.355	1509.5
349.583	1511.5
349.81	1448.5
350.037	1431.5
350.265	1437.5
350.492	1468.5
350.72	1454.5
350.947	1479.5
351.174	1504.5
351.402	1574.5
351.629	1586.5
351.856	1538.5
352.083	1516.5
352.311	1561.5
352.538	1582.5
352.765	1587.5
352.992	1459.5
353.22	1422.5
353.447	1419.5
353.674	1429.5
353.901	1381.5
354.128	1415.5
354.355	1398.5
354.583	1414.5
354.81	1408.5
355.037	1442.5
355.264	1409.5
355.491	1405.5
355.718	1420.5
355.945	1399.5
356.172	1428.5
356.399	1471.5
356.626	1469.5
356.853	1508.5
357.08	1458.5
357.307	1463.5
357.534	1457.5
357.761	1439.5
357.988	1412.5
358.215	1419.5
358.441	1408.5
358.668	1421.5
358.895	1407.5
359.122	1399.5
359.349	1421.5
359.576	1421.5
359.802	1428.5
360.029	1415.5
360.256	1452.5
360.483	1433.5
360.709	1423.5
360.936	1444.5
361.163	1460.5
361.39	1485.5
361.616	1495.5
361.843	1519.5
362.07	1564.5
362.296	1524.5
362.523	1472.5
362.749	1453.5
362.976	1425.5
363.203	1460.5
363.429	1399.5
363.656	1404.5
363.882	1428.5
364.109	1398.5
364.335	1440.5
364.562	1404.5
364.788	1404.5
365.015	1435.5
365.241	1437.5
365.468	1437.5
365.694	1443.5
365.92	1441.5
366.147	1447.5
366.373	1442.5
366.599	1464.5
366.826	1463.5
367.052	1449.5
367.278	1438.5
367.505	1432.5
367.731	1489.5
367.957	1451.5
368.184	1459.5
368.41	1437.5
368.636	1467.5
368.862	1470.5
369.089	1462.5
369.315	1492.5
369.541	1477.5
369.767	1513.5
369.993	1472.5
370.219	1481.5
370.445	1456.5
370.672	1486.5
370.898	1526.5
371.124	1519.5
371.35	1484.5
371.576	1500.5
371.802	1502.5
372.028	1484.5
372.254	1510.5
372.48	1512.5
372.706	1474.5
372.932	1476.5
373.158	1495.5
373.384	1500.5
373.61	1528.5
373.835	1485.5
374.061	1502.5
374.287	1518.5
374.513	1510.5
374.739	1506.5
374.965	1563.5
375.191	1539.5
375.416	1543.5
375.642	1509.5
375.868	1564.5
376.094	1445.5
376.319	1479.5
376.545	1476.5
376.771	1485.5
376.997	1469.5
377.222	1509.5
377.448	1472.5
377.674	1476.5
377.899	1497.5
378.125	1481.5
378.35	1469.5
378.576	1484.5
378.802	1478.5
379.027	1498.5
379.253	1483.5
379.478	1455.5
379.704	1486.5
379.929	1511.5
380.155	1445.5
380.38	1475.5
380.606	1504.5
380.831	1488.5
381.057	1473.5
381.282	1524.5
381.507	1486.5
381.733	1487.5
381.958	1484.5
382.184	1497.5
382.409	1480.5
382.634	1503.5
382.86	1508.5
383.085	1481.5
383.31	1561.5
383.535	1514.5
383.761	1558.5
383.986	1566.5
384.211	1510.5
384.436	1554.5
384.662	1562.5
384.887	1608.5
385.112	1571.5
385.337	1594.5
385.562	1580.5
385.787	1615.5
386.013	1624.5
386.238	1623.5
386.463	1634.5
386.688	1646.5
386.913	1601.5
387.138	1600.5
387.363	1659.5
387.588	1598.5
387.813	1629.5
388.038	1645.5
388.263	1608.5
388.488	1611.5
388.713	1657.5
388.938	1621.5
389.163	1632.5
389.387	1653.5
389.612	1609.5
389.837	1648.5
390.062	1630.5
390.287	1660.5
390.512	1596.5
390.736	1651.5
390.961	1658.5
391.186	1672.5
391.411	1666.5
391.636	1677.5
391.86	1676.5
392.085	1697.5
392.31	1667.5
392.534	1628.5
392.759	1663.5
392.984	1679.5
393.208	1677.5
393.433	1699.5
393.658	1694.5
393.882	1661.5
394.107	1679.5
394.331	1632.5
394.556	1627.5
394.78	1676.5
395.005	1649.5
395.229	1675.5
395.454	1700.5
395.678	1680.5
395.903	1673.5
396.127	1701.5
396.352	1724.5
396.576	1719.5
396.801	1701.5
397.025	1724.5
397.249	1757.5
397.474	1752.5
397.698	1710.5
397.922	1757.5
398.147	1772.5
398.371	1798.5
398.595	1801.5
398.82	1815.5
399.044	1852.5
399.268	1899.5
399.492	1914.5
399.717	1971.5
399.941	1989.5
400.165	1966.5
400.389	1974.5
400.613	1930.5
400.837	1880.5
401.062	1882.5
401.286	1873.5
401.51	1872.5
401.734	1802.5
401.958	1913.5
402.182	1846.5
402.406	1807.5
402.63	1806.5
402.854	1839.5
403.078	1825.5
403.302	1848.5
403.526	1829.5
403.75	1844.5
403.974	1843.5
404.198	1851.5
404.422	1884.5
404.645	1788.5
404.869	1841.5
405.093	1865.5
405.317	1838.5
405.541	1907.5
405.765	1861.5
405.988	1869.5
406.212	1904.5
406.436	1895.5
406.66	1930.5
406.883	1907.5
407.107	1974.5
407.331	1955.5
407.555	1988.5
407.778	1995.5
408.002	2005.5
408.226	2005.5
408.449	1999.5
408.673	1961.5
408.896	1919.5
409.12	1898.5
409.344	1964.5
409.567	1911.5
409.791	1941.5
410.014	1921.5
410.238	1878.5
410.461	1899.5
410.685	1907.5
410.908	1837.5
411.132	1925.5
411.355	1857.5
411.578	1877.5
411.802	1863.5
412.025	1849.5
412.249	1896.5
412.472	1859.5
412.695	1869.5
412.919	1830.5
413.142	1859.5
413.365	1881.5
413.589	1869.5
413.812	1823.5
414.035	1815.5
414.258	1812.5
414.482	1815.5
414.705	1810.5
414.928	1788.5
415.151	1818.5
415.374	1808.5
415.597	1765.5
415.821	1738.5
416.044	1737.5
416.267	1765.5
416.49	1771.5
416.713	1802.5
416.936	1722.5
417.159	1727.5
417.382	1758.5
417.605	1705.5
417.828	1733.5
418.051	1779.5
418.274	1748.5
418.497	1715.5
418.72	1771.5
418.943	1736.5
419.166	1823.5
419.389	1909.5
419.611	1869.5
419.834	1823.5
420.057	1783.5
420.28	1782.5
420.503	1733.5
420.726	1708.5
420.948	1719.5
421.171	1760.5
421.394	1742.5
421.617	1705.5
421.839	1755.5
422.062	1759.5
422.285	1709.5
422.507	1707.5
422.73	1776.5
422.953	1729.5
423.175	1710.5
423.398	1751.5
423.621	1709.5
423.843	1733.5
424.066	1756.5
424.288	1734.5
424.511	1709.5
424.733	1743.5
424.956	1724.5
425.178	1712.5
425.401	1711.5
425.623	1770.5
425.846	1712.5
426.068	1747.5
426.291	1755.5
426.513	1800.5
426.735	1751.5
426.958	1721.5
427.18	1728.5
427.402	1754.5
427.625	1750.5
427.847	1692.5
428.069	1701.5
428.292	1737.5
428.514	1657.5
428.736	1705.5
428.958	1702.5
429.181	1706.5
429.403	1674.5
429.625	1720.5
429.847	1681.5
430.069	1724.5
430.292	1711.5
430.514	1687.5
430.736	1692.5
430.958	1712.5
431.18	1669.5
431.402	1722.5
431.624	1665.5
431.846	1696.5
432.068	1689.5
432.29	1722.5
432.512	1682.5
432.734	1729.5
432.956	1735.5
433.178	1762.5
433.4	1809.5
433.622	1799.5
433.844	1792.5
434.066	1797.5
434.287	1784.5
434.509	1766.5
434.731	1752.5
434.953	1781.5
435.175	1833.5
435.397	1831.5
435.618	1767.5
435.84	1793.5
436.062	1740.5
436.284	1735.5
436.505	1736.5
436.727	1761.5
436.949	1772.5
437.17	1808.5
437.392	1746.5
437.614	1736.5
437.835	1692.5
438.057	1691.5
438.278	1649.5
438.5	1654.5
438.721	1669.5
438.943	1671.5
439.165	1643.5
439.386	1662.5
439.608	1687.5
439.829	1726.5
440.05	1676.5
440.272	1734.5
440.493	1755.5
440.715	1762.5
440.936	1756.5
441.158	1699.5
441.379	1770.5
441.6	1819.5
441.822	1800.5
442.043	1771.5
442.264	1735.5
442.486	1727.5
442.707	1756.5
442.928	1812.5
443.149	1802.5
443.371	1852.5
443.592	1934.5
443.813	1909.5
444.034	1817.5
444.255	1800.5
444.476	1809.5
444.698	1850.5
444.919	1927.5
445.14	1959.5
445.361	1945.5
445.582	1834.5
445.803	1784.5
446.024	1750.5
446.245	1755.5
446.466	1736.5
446.687	1697.5
446.908	1671.5
447.129	1661.5
447.35	1671.5
447.571	1638.5
447.792	1607.5
448.013	1615.5
448.234	1610.5
448.455	1605.5
448.675	1621.5
448.896	1574.5
449.117	1567.5
449.338	1564.5
449.559	1572.5
449.779	1575.5
450	1590.5
450.221	1597.5
450.442	1612.5
450.662	1599.5
450.883	1639.5
451.104	1644.5
451.324	1607.5
451.545	1539.5
451.766	1597.5
451.986	1551.5
452.207	1550.5
452.428	1553.5
452.648	1560.5
452.869	1560.5
453.089	1599.5
453.31	1635.5
453.53	1552.5
453.751	1550.5
453.971	1548.5
454.192	1581.5
454.412	1641.5
454.633	1579.5
454.853	1576.5
455.073	1531.5
455.294	1583.5
455.514	1579.5
455.734	1609.5
455.955	1653.5
456.175	1655.5
456.395	1580.5
456.616	1561.5
456.836	1578.5
457.056	1532.5
457.276	1552.5
457.497	1596.5
457.717	1627.5
457.937	1609.5
458.157	1574.5
458.377	1596.5
458.598	1599.5
458.818	1597.5
459.038	1636.5
459.258	1643.5
459.478	1799.5
459.698	1957.5
459.918	1937.5
460.138	1855.5
460.358	1869.5
460.578	1853.5
460.798	1921.5
461.018	1943.5
461.238	1814.5
461.458	1832.5
461.678	1781.5
461.898	1830.5
462.118	1763.5
462.338	1873.5
462.558	1914.5
462.777	1923.5
462.997	2013.5
463.217	1998.5
463.437	2120.5
463.657	2079.5
463.876	1943.5
464.096	1947.5
464.316	1904.5
464.536	1935.5
464.755	1893.5
464.975	1819.5
465.195	1829.5
465.414	1791.5
465.634	1731.5
465.854	1734.5
466.073	1703.5
466.293	1678.5
466.512	1678.5
466.732	1655.5
466.951	1695.5
467.171	1727.5
467.391	1724.5
467.61	1693.5
467.829	1635.5
468.049	1617.5
468.268	1611.5
468.488	1656.5
468.707	1667.5
468.927	1662.5
469.146	1668.5
469.365	1736.5
469.585	1657.5
469.804	1679.5
470.023	1688.5
470.243	1669.5
470.462	1644.5
470.681	1697.5
470.901	1695.5
471.12	1646.5
471.339	1701.5
471.558	1687.5
471.777	1691.5
471.997	1657.5
472.216	1635.5
472.435	1651.5
472.654	1653.5
472.873	1657.5
473.092	1661.5
473.311	1634.5
473.53	1685.5
473.749	1716.5
473.968	1708.5
474.187	1691.5
474.406	1692.5
474.625	1708.5
474.844	1706.5
475.063	1740.5
475.282	1736.5
475.501	1764.5
475.72	1750.5
475.939	1741.5
476.158	1737.5
476.377	1767.5
476.596	1717.5
476.814	1763.5
477.033	1759.5
477.252	1814.5
477.471	1838.5
477.69	1831.5
477.908	1899.5
478.127	1904.5
478.346	1874.5
478.564	1920.5
478.783	1933.5
479.002	2021.5
479.22	2112.5
479.439	2067.5
479.658	1951.5
479.876	1961.5
480.095	1974.5
480.313	1963.5
480.532	1987.5
480.751	1971.5
480.969	1971.5
481.188	1952.5
481.406	1979.5
481.624	1992.5
481.843	1949.5
482.061	1931.5
482.28	1994.5
482.498	1954.5
482.717	1965.5
482.935	2019.5
483.153	2029.5
483.372	2114.5
483.59	2160.5
483.808	2102.5
484.027	2046.5
484.245	2058.5
484.463	2025.5
484.681	2063.5
484.9	2048.5
485.118	2032.5
485.336	1993.5
485.554	2030.5
485.772	2046.5
485.99	2017.5
486.209	2017.5
486.427	2046.5
486.645	2022.5
486.863	2119.5
487.081	2074.5
487.299	2101.5
487.517	2074.5
487.735	2090.5
487.953	2136.5
488.171	2117.5
488.389	2111.5
488.607	2031.5
488.825	2052.5
489.043	2075.5
489.261	2052.5
489.479	2064.5
489.696	2063.5
489.914	2047.5
490.132	2092.5
490.35	2099.5
490.568	2086.5
490.786	2106.5
491.003	2094.5
491.221	2131.5
491.439	2086.5
491.657	2150.5
491.874	2112.5
492.092	2158.5
492.31	2109.5
492.527	2135.5
492.745	2094.5
492.963	2121.5
493.18	2148.5
493.398	2117.5
493.615	2133.5
493.833	2167.5
494.05	2117.5
494.268	2163.5
494.485	2145.5
494.703	2160.5
494.92	2152.5
495.138	2141.5
495.355	2179.5
495.573	2176.5
495.79	2183.5
496.008	2223.5
496.225	2163.5
496.442	2226.5
496.66	2217.5
496.877	2226.5
497.094	2261.5
497.312	2243.5
497.529	2296.5
497.746	2320.5
497.963	2333.5
498.181	2383.5
498.398	2436.5
498.615	2439.5
498.832	2514.5
499.049	2529.5
499.267	2567.5
499.484	2675.5
499.701	2744.5
499.918	2842.5
500.135	2877.5
500.352	2936.5
500.569	2915.5
500.786	2910.5
501.003	2945.5
501.22	2836.5
501.437	2851.5
501.654	2677.5
501.871	2705.5
502.088	2609.5
502.305	2581.5
502.522	2572.5
502.739	2513.5
502.956	2405.5
503.172	2363.5
503.389	2316.5
503.606	2335.5
503.823	2275.5
504.04	2262.5
504.256	2242.5
504.473	2213.5
504.69	2156.5
504.907	2179.5
505.123	2175.5
505.34	2100.5
505.557	2080.5
505.773	2053.5
505.99	2020.5
506.207	2006.5
