Data from Ni(NO3)2@0.5M.TitratingCurve.Agarose3%dH2O.NegLispCup.LampEnergy10.LIBS07252019_HRD10591_17-58-13-565.txt Node
Date: Thu Jul 25 17:58:13 EDT 2019
User: cochatt
Spectrometer: HR+D1059
Trigger mode: 1
Integration Time (sec): 1.000000E-1
Scans to average: 1
Electric dark correction enabled: true
Nonlinearity correction enabled: false
Boxcar width: 0
XAxis mode: Wavelengths
Number of Pixels in Spectrum: 2048
>>>>>Begin Spectral Data<<<<<
223.165	-5.56
223.4	-5.56
223.635	-5.56
223.869	-23.56
224.104	-6.56
224.338	-5.56
224.573	-13.56
224.808	-15.56
225.042	-29.56
225.277	-2.56
225.511	-18.56
225.746	-4.56
225.98	16.44
226.215	20.44
226.449	18.44
226.683	18.44
226.918	21.44
227.152	30.44
227.387	25.44
227.621	46.44
227.856	52.44
228.09	40.44
228.324	53.44
228.559	58.44
228.793	60.44
229.027	106.44
229.262	115.44
229.496	113.44
229.73	138.44
229.964	142.44
230.199	175.44
230.433	158.44
230.667	180.44
230.901	182.44
231.136	152.44
231.37	156.44
231.604	161.44
231.838	166.44
232.072	170.44
232.306	191.44
232.541	161.44
232.775	167.44
233.009	156.44
233.243	161.44
233.477	157.44
233.711	136.44
233.945	147.44
234.179	151.44
234.413	157.44
234.647	166.44
234.881	167.44
235.115	173.44
235.349	154.44
235.583	145.44
235.817	157.44
236.051	150.44
236.285	173.44
236.519	164.44
236.753	158.44
236.987	168.44
237.221	161.44
237.455	153.44
237.689	178.44
237.922	156.44
238.156	177.44
238.39	161.44
238.624	181.44
238.858	167.44
239.091	170.44
239.325	177.44
239.559	192.44
239.793	200.44
240.027	206.44
240.26	203.44
240.494	190.44
240.728	174.44
240.961	183.44
241.195	184.44
241.429	191.44
241.662	198.44
241.896	205.44
242.13	214.44
242.363	216.44
242.597	184.44
242.83	211.44
243.064	207.44
243.298	197.44
243.531	198.44
243.765	193.44
243.998	213.44
244.232	227.44
244.465	206.44
244.699	188.44
244.932	211.44
245.166	229.44
245.399	222.44
245.633	219.44
245.866	221.44
246.099	215.44
246.333	221.44
246.566	218.44
246.8	214.44
247.033	222.44
247.266	221.44
247.5	232.44
247.733	225.44
247.966	234.44
248.2	238.44
248.433	245.44
248.666	263.44
248.899	265.44
249.133	267.44
249.366	254.44
249.599	262.44
249.832	250.44
250.066	271.44
250.299	269.44
250.532	273.44
250.765	273.44
250.998	267.44
251.231	294.44
251.465	311.44
251.698	290.44
251.931	289.44
252.164	312.44
252.397	280.44
252.63	311.44
252.863	293.44
253.096	306.44
253.329	298.44
253.562	294.44
253.795	309.44
254.028	299.44
254.261	325.44
254.494	325.44
254.727	329.44
254.96	340.44
255.193	325.44
255.426	309.44
255.659	322.44
255.892	342.44
256.124	340.44
256.357	324.44
256.59	342.44
256.823	347.44
257.056	343.44
257.289	320.44
257.521	353.44
257.754	351.44
257.987	341.44
258.22	363.44
258.452	337.44
258.685	349.44
258.918	343.44
259.151	360.44
259.383	350.44
259.616	362.44
259.849	389.44
260.081	369.44
260.314	382.44
260.547	384.44
260.779	366.44
261.012	387.44
261.244	383.44
261.477	373.44
261.71	375.44
261.942	403.44
262.175	408.44
262.407	390.44
262.64	379.44
262.872	383.44
263.105	393.44
263.337	411.44
263.57	393.44
263.802	426.44
264.035	410.44
264.267	401.44
264.499	417.44
264.732	416.44
264.964	410.44
265.197	410.44
265.429	406.44
265.661	422.44
265.894	425.44
266.126	426.44
266.358	430.44
266.591	423.44
266.823	434.44
267.055	433.44
267.287	439.44
267.52	415.44
267.752	444.44
267.984	433.44
268.216	429.44
268.448	438.44
268.681	430.44
268.913	433.44
269.145	460.44
269.377	454.44
269.609	447.44
269.841	439.44
270.073	441.44
270.306	463.44
270.538	458.44
270.77	441.44
271.002	448.44
271.234	443.44
271.466	443.44
271.698	440.44
271.93	468.44
272.162	470.44
272.394	458.44
272.626	457.44
272.858	452.44
273.09	461.44
273.322	469.44
273.553	481.44
273.785	464.44
274.017	470.44
274.249	481.44
274.481	478.44
274.713	486.44
274.945	484.44
275.176	481.44
275.408	479.44
275.64	492.44
275.872	492.44
276.104	507.44
276.335	480.44
276.567	485.44
276.799	487.44
277.031	503.44
277.262	515.44
277.494	491.44
277.726	494.44
277.957	504.44
278.189	509.44
278.421	513.44
278.652	523.44
278.884	514.44
279.115	515.44
279.347	532.44
279.579	524.44
279.81	522.44
280.042	530.44
280.273	531.44
280.505	523.44
280.736	525.44
280.968	534.44
281.199	539.44
281.431	520.44
281.662	538.44
281.894	548.44
282.125	542.44
282.356	544.44
282.588	531.44
282.819	553.44
283.051	535.44
283.282	551.44
283.513	537.44
283.745	539.44
283.976	554.44
284.207	525.44
284.439	552.44
284.67	565.44
284.901	527.44
285.132	545.44
285.364	549.44
285.595	553.44
285.826	556.44
286.057	548.44
286.288	543.44
286.52	581.44
286.751	566.44
286.982	571.44
287.213	562.44
287.444	575.44
287.675	565.44
287.906	579.44
288.138	570.44
288.369	580.44
288.6	572.44
288.831	564.44
289.062	577.44
289.293	577.44
289.524	552.44
289.755	582.44
289.986	562.44
290.217	572.44
290.448	576.44
290.679	577.44
290.91	572.44
291.141	577.44
291.371	572.44
291.602	604.44
291.833	583.44
292.064	562.44
292.295	585.44
292.526	583.44
292.757	599.44
292.987	574.44
293.218	565.44
293.449	589.44
293.68	598.44
293.91	589.44
294.141	573.44
294.372	598.44
294.603	581.44
294.833	576.44
295.064	596.44
295.295	601.44
295.525	599.44
295.756	608.44
295.987	601.44
296.217	604.44
296.448	606.44
296.679	600.44
296.909	588.44
297.14	614.44
297.37	604.44
297.601	617.44
297.831	601.44
298.062	603.44
298.292	602.44
298.523	640.44
298.753	645.44
298.984	629.44
299.214	629.44
299.445	609.44
299.675	612.44
299.905	637.44
300.136	651.44
300.366	635.44
300.597	665.44
300.827	649.44
301.057	674.44
301.288	647.44
301.518	642.44
301.748	622.44
301.979	641.44
302.209	639.44
302.439	631.44
302.669	650.44
302.9	679.44
303.13	640.44
303.36	656.44
303.59	649.44
303.82	649.44
304.051	661.44
304.281	670.44
304.511	658.44
304.741	707.44
304.971	680.44
305.201	665.44
305.431	662.44
305.661	691.44
305.891	682.44
306.121	677.44
306.352	657.44
306.582	655.44
306.812	669.44
307.042	659.44
307.272	678.44
307.502	678.44
307.731	670.44
307.961	698.44
308.191	663.44
308.421	703.44
308.651	681.44
308.881	686.44
309.111	706.44
309.341	674.44
309.571	691.44
309.8	719.44
310.03	719.44
310.26	715.44
310.49	710.44
310.72	712.44
310.949	682.44
311.179	717.44
311.409	706.44
311.639	718.44
311.868	719.44
312.098	704.44
312.328	742.44
312.557	707.44
312.787	712.44
313.017	733.44
313.246	756.44
313.476	742.44
313.706	767.44
313.935	742.44
314.165	745.44
314.394	746.44
314.624	767.44
314.853	742.44
315.083	745.44
315.312	775.44
315.542	783.44
315.771	753.44
316.001	737.44
316.23	754.44
316.46	757.44
316.689	787.44
316.919	785.44
317.148	765.44
317.377	772.44
317.607	771.44
317.836	779.44
318.065	798.44
318.295	778.44
318.524	793.44
318.753	801.44
318.983	791.44
319.212	819.44
319.441	800.44
319.67	794.44
319.9	805.44
320.129	817.44
320.358	822.44
320.587	828.44
320.816	829.44
321.046	831.44
321.275	841.44
321.504	853.44
321.733	845.44
321.962	837.44
322.191	850.44
322.42	859.44
322.649	841.44
322.878	859.44
323.108	830.44
323.337	861.44
323.566	856.44
323.795	868.44
324.024	880.44
324.253	872.44
324.482	870.44
324.71	868.44
324.939	857.44
325.168	902.44
325.397	866.44
325.626	881.44
325.855	849.44
326.084	903.44
326.313	896.44
326.542	910.44
326.77	879.44
326.999	906.44
327.228	891.44
327.457	916.44
327.686	921.44
327.914	902.44
328.143	921.44
328.372	907.44
328.6	916.44
328.829	921.44
329.058	911.44
329.287	910.44
329.515	918.44
329.744	907.44
329.972	932.44
330.201	949.44
330.43	942.44
330.658	929.44
330.887	931.44
331.115	950.44
331.344	950.44
331.572	981.44
331.801	954.44
332.03	991.44
332.258	978.44
332.486	994.44
332.715	982.44
332.943	986.44
333.172	988.44
333.4	962.44
333.629	977.44
333.857	1003.44
334.085	981.44
334.314	1004.44
334.542	989.44
334.771	1007.44
334.999	1023.44
335.227	983.44
335.455	995.44
335.684	999.44
335.912	1003.44
336.14	1000.44
336.369	1036.44
336.597	1035.44
336.825	1046.44
337.053	1049.44
337.281	1037.44
337.51	1060.44
337.738	1021.44
337.966	1025.44
338.194	1029.44
338.422	1032.44
338.65	1022.44
338.878	1026.44
339.106	1057.44
339.334	1026.44
339.562	1004.44
339.79	987.44
340.018	1024.44
340.246	1028.44
340.474	1005.44
340.702	1005.44
340.93	1010.44
341.158	1016.44
341.386	1033.44
341.614	1074.44
341.842	1034.44
342.07	993.44
342.298	1042.44
342.526	1029.44
342.754	989.44
342.981	1016.44
343.209	998.44
343.437	1029.44
343.665	1049.44
343.893	1027.44
344.12	1033.44
344.348	1048.44
344.576	1039.44
344.804	1043.44
345.031	1035.44
345.259	1039.44
345.487	1043.44
345.714	1043.44
345.942	1001.44
346.17	1063.44
346.397	1078.44
346.625	1004.44
346.853	1018.44
347.08	998.44
347.308	1009.44
347.535	973.44
347.763	993.44
347.99	997.44
348.218	992.44
348.445	989.44
348.673	977.44
348.9	998.44
349.128	1026.44
349.355	1026.44
349.583	997.44
349.81	990.44
350.037	964.44
350.265	973.44
350.492	970.44
350.72	986.44
350.947	995.44
351.174	995.44
351.402	1018.44
351.629	1033.44
351.856	1012.44
352.083	997.44
352.311	992.44
352.538	1034.44
352.765	1032.44
352.992	955.44
353.22	965.44
353.447	953.44
353.674	957.44
353.901	964.44
354.128	963.44
354.355	959.44
354.583	954.44
354.81	961.44
355.037	955.44
355.264	979.44
355.491	967.44
355.718	980.44
355.945	956.44
356.172	969.44
356.399	985.44
356.626	998.44
356.853	1043.44
357.08	983.44
357.307	959.44
357.534	945.44
357.761	975.44
357.988	956.44
358.215	967.44
358.441	967.44
358.668	963.44
358.895	956.44
359.122	963.44
359.349	975.44
359.576	964.44
359.802	995.44
360.029	969.44
360.256	972.44
360.483	974.44
360.709	967.44
360.936	972.44
361.163	986.44
361.39	973.44
361.616	974.44
361.843	1004.44
362.07	1037.44
362.296	1025.44
362.523	957.44
362.749	980.44
362.976	958.44
363.203	962.44
363.429	968.44
363.656	1001.44
363.882	960.44
364.109	974.44
364.335	972.44
364.562	972.44
364.788	960.44
365.015	969.44
365.241	951.44
365.468	957.44
365.694	949.44
365.92	998.44
366.147	1022.44
366.373	986.44
366.599	978.44
366.826	985.44
367.052	961.44
367.278	988.44
367.505	979.44
367.731	1012.44
367.957	979.44
368.184	985.44
368.41	983.44
368.636	988.44
368.862	985.44
369.089	1011.44
369.315	990.44
369.541	1009.44
369.767	996.44
369.993	970.44
370.219	993.44
370.445	986.44
370.672	1017.44
370.898	973.44
371.124	1016.44
371.35	981.44
371.576	995.44
371.802	1025.44
372.028	994.44
372.254	1015.44
372.48	999.44
372.706	987.44
372.932	989.44
373.158	1012.44
373.384	990.44
373.61	1008.44
373.835	1013.44
374.061	1002.44
374.287	985.44
374.513	1017.44
374.739	1002.44
374.965	1012.44
375.191	1011.44
375.416	991.44
375.642	993.44
375.868	1000.44
376.094	973.44
376.319	1007.44
376.545	1016.44
376.771	987.44
376.997	1002.44
377.222	970.44
377.448	977.44
377.674	989.44
377.899	960.44
378.125	988.44
378.35	979.44
378.576	987.44
378.802	964.44
379.027	994.44
379.253	980.44
379.478	987.44
379.704	976.44
379.929	958.44
380.155	973.44
380.38	958.44
380.606	1012.44
380.831	990.44
381.057	962.44
381.282	974.44
381.507	995.44
381.733	995.44
381.958	994.44
382.184	986.44
382.409	966.44
382.634	967.44
382.86	1017.44
383.085	991.44
383.31	996.44
383.535	1015.44
383.761	1000.44
383.986	991.44
384.211	996.44
384.436	1001.44
384.662	1034.44
384.887	1030.44
385.112	1009.44
385.337	1051.44
385.562	1021.44
385.787	1054.44
386.013	1052.44
386.238	1044.44
386.463	1062.44
386.688	1013.44
386.913	1032.44
387.138	1052.44
387.363	1040.44
387.588	1025.44
387.813	1038.44
388.038	1020.44
388.263	1045.44
388.488	1016.44
388.713	1053.44
388.938	1038.44
389.163	1012.44
389.387	1057.44
389.612	1066.44
389.837	1029.44
390.062	1046.44
390.287	1053.44
390.512	1049.44
390.736	1069.44
390.961	1052.44
391.186	1077.44
391.411	1053.44
391.636	1054.44
391.86	1078.44
392.085	1055.44
392.31	1040.44
392.534	1054.44
392.759	1070.44
392.984	1048.44
393.208	1057.44
393.433	1051.44
393.658	1085.44
393.882	1064.44
394.107	1060.44
394.331	1060.44
394.556	1049.44
394.78	1055.44
395.005	1066.44
395.229	1093.44
395.454	1066.44
395.678	1070.44
395.903	1061.44
396.127	1035.44
396.352	1072.44
396.576	1062.44
396.801	1069.44
397.025	1078.44
397.249	1107.44
397.474	1100.44
397.698	1098.44
397.922	1088.44
398.147	1073.44
398.371	1127.44
398.595	1119.44
398.82	1115.44
399.044	1112.44
399.268	1178.44
399.492	1161.44
399.717	1164.44
399.941	1182.44
400.165	1173.44
400.389	1171.44
400.613	1175.44
400.837	1186.44
401.062	1158.44
401.286	1141.44
401.51	1140.44
401.734	1119.44
401.958	1131.44
402.182	1127.44
402.406	1131.44
402.63	1148.44
402.854	1147.44
403.078	1148.44
403.302	1127.44
403.526	1128.44
403.75	1126.44
403.974	1153.44
404.198	1115.44
404.422	1141.44
404.645	1137.44
404.869	1167.44
405.093	1180.44
405.317	1165.44
405.541	1195.44
405.765	1166.44
405.988	1188.44
406.212	1176.44
406.436	1161.44
406.66	1186.44
406.883	1183.44
407.107	1212.44
407.331	1202.44
407.555	1246.44
407.778	1209.44
408.002	1246.44
408.226	1241.44
408.449	1225.44
408.673	1200.44
408.896	1198.44
409.12	1193.44
409.344	1208.44
409.567	1170.44
409.791	1220.44
410.014	1163.44
410.238	1168.44
410.461	1221.44
410.685	1209.44
410.908	1158.44
411.132	1203.44
411.355	1159.44
411.578	1187.44
411.802	1177.44
412.025	1168.44
412.249	1162.44
412.472	1180.44
412.695	1147.44
412.919	1122.44
413.142	1161.44
413.365	1160.44
413.589	1178.44
413.812	1157.44
414.035	1149.44
414.258	1151.44
414.482	1161.44
414.705	1155.44
414.928	1140.44
415.151	1142.44
415.374	1145.44
415.597	1135.44
415.821	1126.44
416.044	1110.44
416.267	1129.44
416.49	1122.44
416.713	1075.44
416.936	1119.44
417.159	1115.44
417.382	1116.44
417.605	1095.44
417.828	1131.44
418.051	1106.44
418.274	1098.44
418.497	1105.44
418.72	1098.44
418.943	1091.44
419.166	1159.44
419.389	1186.44
419.611	1202.44
419.834	1176.44
420.057	1133.44
420.28	1115.44
420.503	1080.44
420.726	1082.44
420.948	1096.44
421.171	1107.44
421.394	1098.44
421.617	1122.44
421.839	1113.44
422.062	1131.44
422.285	1110.44
422.507	1108.44
422.73	1100.44
422.953	1091.44
423.175	1120.44
423.398	1130.44
423.621	1103.44
423.843	1103.44
424.066	1090.44
424.288	1114.44
424.511	1103.44
424.733	1100.44
424.956	1130.44
425.178	1117.44
425.401	1125.44
425.623	1108.44
425.846	1114.44
426.068	1127.44
426.291	1109.44
426.513	1122.44
426.735	1099.44
426.958	1127.44
427.18	1097.44
427.402	1112.44
427.625	1090.44
427.847	1092.44
428.069	1088.44
428.292	1138.44
428.514	1089.44
428.736	1085.44
428.958	1137.44
429.181	1118.44
429.403	1089.44
429.625	1111.44
429.847	1112.44
430.069	1105.44
430.292	1124.44
430.514	1105.44
430.736	1119.44
430.958	1132.44
431.18	1104.44
431.402	1111.44
431.624	1106.44
431.846	1106.44
432.068	1089.44
432.29	1118.44
432.512	1099.44
432.734	1118.44
432.956	1100.44
433.178	1140.44
433.4	1148.44
433.622	1126.44
433.844	1127.44
434.066	1113.44
434.287	1138.44
434.509	1106.44
434.731	1094.44
434.953	1108.44
435.175	1187.44
435.397	1160.44
435.618	1101.44
435.84	1109.44
436.062	1117.44
436.284	1141.44
436.505	1121.44
436.727	1092.44
436.949	1099.44
437.17	1151.44
437.392	1118.44
437.614	1115.44
437.835	1071.44
438.057	1081.44
438.278	1058.44
438.5	1096.44
438.721	1077.44
438.943	1097.44
439.165	1116.44
439.386	1086.44
439.608	1074.44
439.829	1132.44
440.05	1118.44
440.272	1093.44
440.493	1125.44
440.715	1129.44
440.936	1106.44
441.158	1137.44
441.379	1137.44
441.6	1158.44
441.822	1151.44
442.043	1148.44
442.264	1115.44
442.486	1135.44
442.707	1114.44
442.928	1124.44
443.149	1152.44
443.371	1151.44
443.592	1183.44
443.813	1137.44
444.034	1140.44
444.255	1163.44
444.476	1165.44
444.698	1167.44
444.919	1213.44
445.14	1260.44
445.361	1202.44
445.582	1170.44
445.803	1154.44
446.024	1102.44
446.245	1133.44
446.466	1091.44
446.687	1063.44
446.908	1081.44
447.129	1089.44
447.35	1090.44
447.571	1069.44
447.792	1044.44
448.013	1057.44
448.234	1080.44
448.455	1084.44
448.675	1050.44
448.896	1083.44
449.117	1037.44
449.338	1019.44
449.559	1064.44
449.779	1066.44
450	1011.44
450.221	1014.44
450.442	1018.44
450.662	1037.44
450.883	1050.44
451.104	1061.44
451.324	1055.44
451.545	1011.44
451.766	1015.44
451.986	1011.44
452.207	1063.44
452.428	1025.44
452.648	1029.44
452.869	1011.44
453.089	1033.44
453.31	1040.44
453.53	978.44
453.751	1013.44
453.971	1034.44
454.192	1036.44
454.412	1031.44
454.633	1026.44
454.853	1006.44
455.073	1004.44
455.294	1025.44
455.514	1035.44
455.734	1025.44
455.955	1001.44
456.175	1052.44
456.395	1009.44
456.616	1032.44
456.836	1023.44
457.056	1010.44
457.276	982.44
457.497	1029.44
457.717	1027.44
457.937	1034.44
458.157	1005.44
458.377	1041.44
458.598	1011.44
458.818	1038.44
459.038	1035.44
459.258	1048.44
459.478	1059.44
459.698	1139.44
459.918	1154.44
460.138	1134.44
460.358	1141.44
460.578	1101.44
460.798	1167.44
461.018	1142.44
461.238	1144.44
461.458	1107.44
461.678	1130.44
461.898	1115.44
462.118	1133.44
462.338	1141.44
462.558	1147.44
462.777	1178.44
462.997	1182.44
463.217	1193.44
463.437	1246.44
463.657	1226.44
463.876	1186.44
464.096	1171.44
464.316	1151.44
464.536	1149.44
464.755	1129.44
464.975	1114.44
465.195	1089.44
465.414	1115.44
465.634	1118.44
465.854	1090.44
466.073	1100.44
466.293	1099.44
466.512	1063.44
466.732	1074.44
466.951	1108.44
467.171	1069.44
467.391	1075.44
467.61	1062.44
467.829	1064.44
468.049	1082.44
468.268	1053.44
468.488	1054.44
468.707	1067.44
468.927	1077.44
469.146	1067.44
469.365	1066.44
469.585	1057.44
469.804	1087.44
470.023	1081.44
470.243	1057.44
470.462	1081.44
470.681	1081.44
470.901	1062.44
471.12	1076.44
471.339	1067.44
471.558	1083.44
471.777	1124.44
471.997	1113.44
472.216	1075.44
472.435	1097.44
472.654	1064.44
472.873	1081.44
473.092	1112.44
473.311	1121.44
473.53	1115.44
473.749	1118.44
473.968	1098.44
474.187	1078.44
474.406	1113.44
474.625	1122.44
474.844	1126.44
475.063	1107.44
475.282	1127.44
475.501	1097.44
475.72	1149.44
475.939	1120.44
476.158	1143.44
476.377	1132.44
476.596	1133.44
476.814	1137.44
477.033	1133.44
477.252	1151.44
477.471	1181.44
477.69	1220.44
477.908	1203.44
478.127	1203.44
478.346	1249.44
478.564	1226.44
478.783	1233.44
479.002	1259.44
479.22	1319.44
479.439	1265.44
479.658	1235.44
479.876	1267.44
480.095	1261.44
480.313	1277.44
480.532	1292.44
480.751	1288.44
480.969	1279.44
481.188	1260.44
481.406	1253.44
481.624	1248.44
481.843	1255.44
482.061	1269.44
482.28	1280.44
482.498	1275.44
482.717	1269.44
482.935	1292.44
483.153	1305.44
483.372	1331.44
483.59	1377.44
483.808	1342.44
484.027	1318.44
484.245	1303.44
484.463	1286.44
484.681	1313.44
484.9	1305.44
485.118	1305.44
485.336	1300.44
485.554	1308.44
485.772	1321.44
485.99	1334.44
486.209	1299.44
486.427	1318.44
486.645	1330.44
486.863	1358.44
487.081	1353.44
487.299	1317.44
487.517	1348.44
487.735	1394.44
487.953	1399.44
488.171	1372.44
488.389	1337.44
488.607	1347.44
488.825	1368.44
489.043	1325.44
489.261	1339.44
489.479	1346.44
489.696	1334.44
489.914	1355.44
490.132	1358.44
490.35	1349.44
490.568	1358.44
490.786	1373.44
491.003	1378.44
491.221	1402.44
491.439	1363.44
491.657	1373.44
491.874	1381.44
492.092	1427.44
492.31	1420.44
492.527	1407.44
492.745	1399.44
492.963	1383.44
493.18	1379.44
493.398	1378.44
493.615	1358.44
