Data from Ni(NO3)2@0.0625M.TitratingCurve.Agarose3%dH2O.NegLispCup.LampEnergy10.LIBS07252019_HRD10591_18-13-18-568.txt Node
Date: Thu Jul 25 18:13:18 EDT 2019
User: cochatt
Spectrometer: HR+D1059
Trigger mode: 1
Integration Time (sec): 1.000000E-1
Scans to average: 1
Electric dark correction enabled: true
Nonlinearity correction enabled: false
Boxcar width: 0
XAxis mode: Wavelengths
Number of Pixels in Spectrum: 2048
>>>>>Begin Spectral Data<<<<<
223.165	-9.69
223.4	-9.69
223.635	-9.69
223.869	-21.69
224.104	-30.69
224.338	-10.69
224.573	-11.69
224.808	-19.69
225.042	-13.69
225.277	1.31
225.511	-1.69
225.746	8.31
225.98	6.31
226.215	8.31
226.449	28.31
226.683	29.31
226.918	11.31
227.152	26.31
227.387	30.31
227.621	34.31
227.856	35.31
228.09	58.31
228.324	57.31
228.559	58.31
228.793	68.31
229.027	76.31
229.262	117.31
229.496	108.31
229.73	107.31
229.964	102.31
230.199	123.31
230.433	122.31
230.667	113.31
230.901	120.31
231.136	119.31
231.37	120.31
231.604	130.31
231.838	126.31
232.072	114.31
232.306	139.31
232.541	128.31
232.775	144.31
233.009	147.31
233.243	151.31
233.477	131.31
233.711	132.31
233.945	153.31
234.179	131.31
234.413	126.31
234.647	124.31
234.881	144.31
235.115	135.31
235.349	134.31
235.583	121.31
235.817	134.31
236.051	146.31
236.285	130.31
236.519	131.31
236.753	147.31
236.987	132.31
237.221	139.31
237.455	136.31
237.689	153.31
237.922	150.31
238.156	152.31
238.39	139.31
238.624	152.31
238.858	163.31
239.091	141.31
239.325	144.31
239.559	137.31
239.793	153.31
240.027	160.31
240.26	137.31
240.494	156.31
240.728	161.31
240.961	165.31
241.195	154.31
241.429	160.31
241.662	174.31
241.896	169.31
242.13	175.31
242.363	164.31
242.597	180.31
242.83	162.31
243.064	178.31
243.298	173.31
243.531	188.31
243.765	168.31
243.998	184.31
244.232	180.31
244.465	175.31
244.699	168.31
244.932	182.31
245.166	179.31
245.399	187.31
245.633	165.31
245.866	180.31
246.099	178.31
246.333	203.31
246.566	208.31
246.8	187.31
247.033	194.31
247.266	193.31
247.5	200.31
247.733	198.31
247.966	193.31
248.2	197.31
248.433	199.31
248.666	194.31
248.899	193.31
249.133	208.31
249.366	218.31
249.599	204.31
249.832	209.31
250.066	227.31
250.299	218.31
250.532	217.31
250.765	217.31
250.998	219.31
251.231	230.31
251.465	216.31
251.698	230.31
251.931	215.31
252.164	212.31
252.397	206.31
252.63	241.31
252.863	224.31
253.096	233.31
253.329	229.31
253.562	239.31
253.795	216.31
254.028	255.31
254.261	250.31
254.494	219.31
254.727	245.31
254.96	241.31
255.193	253.31
255.426	256.31
255.659	230.31
255.892	255.31
256.124	245.31
256.357	265.31
256.59	256.31
256.823	242.31
257.056	247.31
257.289	243.31
257.521	243.31
257.754	245.31
257.987	247.31
258.22	260.31
258.452	263.31
258.685	265.31
258.918	262.31
259.151	268.31
259.383	274.31
259.616	266.31
259.849	251.31
260.081	285.31
260.314	272.31
260.547	270.31
260.779	265.31
261.012	264.31
261.244	272.31
261.477	277.31
261.71	278.31
261.942	291.31
262.175	297.31
262.407	275.31
262.64	290.31
262.872	287.31
263.105	275.31
263.337	285.31
263.57	272.31
263.802	287.31
264.035	271.31
264.267	277.31
264.499	270.31
264.732	280.31
264.964	305.31
265.197	288.31
265.429	300.31
265.661	307.31
265.894	306.31
266.126	307.31
266.358	304.31
266.591	295.31
266.823	306.31
267.055	318.31
267.287	319.31
267.52	304.31
267.752	308.31
267.984	319.31
268.216	324.31
268.448	311.31
268.681	325.31
268.913	296.31
269.145	309.31
269.377	325.31
269.609	303.31
269.841	316.31
270.073	327.31
270.306	319.31
270.538	312.31
270.77	319.31
271.002	318.31
271.234	318.31
271.466	326.31
271.698	331.31
271.93	340.31
272.162	346.31
272.394	319.31
272.626	352.31
272.858	344.31
273.09	331.31
273.322	338.31
273.553	339.31
273.785	322.31
274.017	340.31
274.249	331.31
274.481	350.31
274.713	355.31
274.945	357.31
275.176	358.31
275.408	351.31
275.64	359.31
275.872	339.31
276.104	337.31
276.335	352.31
276.567	357.31
276.799	354.31
277.031	366.31
277.262	364.31
277.494	361.31
277.726	354.31
277.957	370.31
278.189	372.31
278.421	360.31
278.652	378.31
278.884	368.31
279.115	378.31
279.347	373.31
279.579	382.31
279.81	372.31
280.042	383.31
280.273	377.31
280.505	347.31
280.736	378.31
280.968	400.31
281.199	381.31
281.431	380.31
281.662	386.31
281.894	387.31
282.125	381.31
282.356	394.31
282.588	391.31
282.819	397.31
283.051	402.31
283.282	393.31
283.513	407.31
283.745	394.31
283.976	403.31
284.207	382.31
284.439	408.31
284.67	414.31
284.901	397.31
285.132	416.31
285.364	414.31
285.595	409.31
285.826	412.31
286.057	403.31
286.288	415.31
286.52	412.31
286.751	422.31
286.982	419.31
287.213	427.31
287.444	414.31
287.675	434.31
287.906	406.31
288.138	430.31
288.369	436.31
288.6	404.31
288.831	436.31
289.062	445.31
289.293	432.31
289.524	416.31
289.755	419.31
289.986	431.31
290.217	433.31
290.448	439.31
290.679	442.31
290.91	434.31
291.141	447.31
291.371	441.31
291.602	453.31
291.833	447.31
292.064	438.31
292.295	434.31
292.526	455.31
292.757	446.31
292.987	424.31
293.218	434.31
293.449	467.31
293.68	462.31
293.91	427.31
294.141	438.31
294.372	440.31
294.603	444.31
294.833	455.31
295.064	465.31
295.295	460.31
295.525	451.31
295.756	467.31
295.987	474.31
296.217	473.31
296.448	453.31
296.679	467.31
296.909	481.31
297.14	483.31
297.37	461.31
297.601	478.31
297.831	512.31
298.062	487.31
298.292	480.31
298.523	494.31
298.753	486.31
298.984	495.31
299.214	480.31
299.445	476.31
299.675	479.31
299.905	513.31
300.136	467.31
300.366	488.31
300.597	480.31
300.827	488.31
301.057	501.31
301.288	502.31
301.518	508.31
301.748	490.31
301.979	521.31
302.209	528.31
302.439	530.31
302.669	514.31
302.9	490.31
303.13	488.31
303.36	486.31
303.59	502.31
303.82	498.31
304.051	498.31
304.281	524.31
304.511	523.31
304.741	496.31
304.971	502.31
305.201	494.31
305.431	520.31
305.661	519.31
305.891	514.31
306.121	506.31
306.352	512.31
306.582	503.31
306.812	486.31
307.042	496.31
307.272	495.31
307.502	511.31
307.731	483.31
307.961	497.31
308.191	503.31
308.421	468.31
308.651	486.31
308.881	491.31
309.111	495.31
309.341	497.31
309.571	497.31
309.8	480.31
310.03	492.31
310.26	501.31
310.49	489.31
310.72	500.31
310.949	498.31
311.179	518.31
311.409	506.31
311.639	507.31
311.868	521.31
312.098	516.31
312.328	505.31
312.557	504.31
312.787	515.31
313.017	524.31
313.246	532.31
313.476	535.31
313.706	540.31
313.935	527.31
314.165	539.31
314.394	535.31
314.624	539.31
314.853	546.31
315.083	523.31
315.312	541.31
315.542	518.31
315.771	524.31
316.001	524.31
316.23	524.31
316.46	528.31
316.689	526.31
316.919	510.31
317.148	513.31
317.377	523.31
317.607	503.31
317.836	545.31
318.065	508.31
318.295	508.31
318.524	531.31
318.753	514.31
318.983	520.31
319.212	519.31
319.441	516.31
319.67	511.31
319.9	519.31
320.129	515.31
320.358	522.31
320.587	527.31
320.816	531.31
321.046	514.31
321.275	524.31
321.504	522.31
321.733	543.31
321.962	540.31
322.191	528.31
322.42	536.31
322.649	547.31
322.878	537.31
323.108	548.31
323.337	526.31
323.566	527.31
323.795	535.31
324.024	559.31
324.253	550.31
324.482	547.31
324.71	550.31
324.939	553.31
325.168	545.31
325.397	558.31
325.626	565.31
325.855	577.31
326.084	597.31
326.313	572.31
326.542	581.31
326.77	603.31
326.999	573.31
327.228	557.31
327.457	604.31
327.686	578.31
327.914	574.31
328.143	603.31
328.372	578.31
328.6	591.31
328.829	594.31
329.058	566.31
329.287	575.31
329.515	599.31
329.744	580.31
329.972	584.31
330.201	602.31
330.43	583.31
330.658	599.31
330.887	603.31
331.115	631.31
331.344	607.31
331.572	605.31
331.801	631.31
332.03	632.31
332.258	671.31
332.486	698.31
332.715	700.31
332.943	720.31
333.172	774.31
333.4	798.31
333.629	795.31
333.857	810.31
334.085	801.31
334.314	787.31
334.542	759.31
334.771	775.31
334.999	721.31
335.227	728.31
335.455	725.31
335.684	736.31
335.912	731.31
336.14	683.31
336.369	686.31
336.597	702.31
336.825	707.31
337.053	697.31
337.281	692.31
337.51	679.31
337.738	650.31
337.966	662.31
338.194	658.31
338.422	670.31
338.65	618.31
338.878	623.31
339.106	609.31
339.334	626.31
339.562	636.31
339.79	634.31
340.018	637.31
340.246	638.31
340.474	633.31
340.702	619.31
340.93	618.31
341.158	607.31
341.386	625.31
341.614	622.31
341.842	641.31
342.07	584.31
342.298	577.31
342.526	598.31
342.754	632.31
342.981	615.31
343.209	644.31
343.437	664.31
343.665	712.31
343.893	781.31
344.12	780.31
344.348	743.31
344.576	657.31
344.804	659.31
345.031	622.31
345.259	640.31
345.487	615.31
345.714	593.31
345.942	604.31
346.17	606.31
346.397	618.31
346.625	603.31
346.853	588.31
347.08	626.31
347.308	610.31
347.535	607.31
347.763	595.31
347.99	605.31
348.218	619.31
348.445	588.31
348.673	585.31
348.9	567.31
349.128	585.31
349.355	579.31
349.583	586.31
349.81	594.31
350.037	578.31
350.265	580.31
350.492	597.31
350.72	604.31
350.947	566.31
351.174	572.31
351.402	564.31
351.629	588.31
351.856	572.31
352.083	586.31
352.311	580.31
352.538	587.31
352.765	579.31
352.992	575.31
353.22	576.31
353.447	580.31
353.674	575.31
353.901	575.31
354.128	581.31
354.355	558.31
354.583	583.31
354.81	571.31
355.037	599.31
355.264	580.31
355.491	578.31
355.718	593.31
355.945	569.31
356.172	578.31
356.399	578.31
356.626	564.31
356.853	591.31
357.08	586.31
357.307	596.31
357.534	555.31
357.761	568.31
357.988	592.31
358.215	579.31
358.441	568.31
358.668	595.31
358.895	582.31
359.122	579.31
359.349	579.31
359.576	588.31
359.802	564.31
360.029	562.31
360.256	568.31
360.483	555.31
360.709	578.31
360.936	588.31
361.163	585.31
361.39	587.31
361.616	574.31
361.843	586.31
362.07	592.31
362.296	581.31
362.523	574.31
362.749	595.31
362.976	564.31
363.203	579.31
363.429	550.31
363.656	566.31
363.882	584.31
364.109	573.31
364.335	572.31
364.562	562.31
364.788	583.31
365.015	581.31
365.241	570.31
365.468	570.31
365.694	576.31
365.92	584.31
366.147	583.31
366.373	570.31
366.599	564.31
366.826	559.31
367.052	561.31
367.278	554.31
367.505	592.31
367.731	580.31
367.957	579.31
368.184	591.31
368.41	586.31
368.636	596.31
368.862	606.31
369.089	573.31
369.315	594.31
369.541	576.31
369.767	592.31
369.993	627.31
370.219	601.31
370.445	603.31
370.672	626.31
370.898	634.31
371.124	625.31
371.35	637.31
371.576	595.31
371.802	610.31
372.028	617.31
372.254	633.31
372.48	643.31
372.706	642.31
372.932	660.31
373.158	652.31
373.384	638.31
373.61	616.31
373.835	635.31
374.061	629.31
374.287	642.31
374.513	646.31
374.739	673.31
374.965	680.31
375.191	711.31
375.416	700.31
375.642	652.31
375.868	653.31
376.094	638.31
376.319	644.31
376.545	635.31
376.771	657.31
376.997	642.31
377.222	619.31
377.448	644.31
377.674	638.31
377.899	627.31
378.125	625.31
378.35	661.31
378.576	623.31
378.802	630.31
379.027	626.31
379.253	618.31
379.478	620.31
379.704	623.31
379.929	626.31
380.155	612.31
380.38	610.31
380.606	629.31
380.831	622.31
381.057	629.31
381.282	603.31
381.507	628.31
381.733	643.31
381.958	659.31
382.184	638.31
382.409	656.31
382.634	661.31
382.86	680.31
383.085	682.31
383.31	653.31
383.535	702.31
383.761	689.31
383.986	719.31
384.211	713.31
384.436	732.31
384.662	760.31
384.887	752.31
385.112	761.31
385.337	770.31
385.562	747.31
385.787	777.31
386.013	775.31
386.238	775.31
386.463	751.31
386.688	751.31
386.913	740.31
387.138	740.31
387.363	766.31
387.588	728.31
387.813	726.31
388.038	752.31
388.263	748.31
388.488	746.31
388.713	754.31
388.938	743.31
389.163	761.31
389.387	710.31
389.612	731.31
389.837	759.31
390.062	730.31
390.287	713.31
390.512	739.31
390.736	765.31
390.961	755.31
391.186	790.31
391.411	803.31
391.636	818.31
391.86	844.31
392.085	880.31
392.31	858.31
392.534	834.31
392.759	796.31
392.984	784.31
393.208	815.31
393.433	807.31
393.658	788.31
393.882	792.31
394.107	798.31
394.331	785.31
394.556	803.31
394.78	804.31
395.005	794.31
395.229	825.31
395.454	882.31
395.678	824.31
395.903	836.31
396.127	843.31
396.352	811.31
396.576	778.31
396.801	791.31
397.025	791.31
397.249	831.31
397.474	848.31
397.698	863.31
397.922	846.31
398.147	835.31
398.371	839.31
398.595	866.31
398.82	931.31
399.044	990.31
399.268	1124.31
399.492	1284.31
399.717	1498.31
399.941	1469.31
400.165	1259.31
400.389	1137.31
400.613	1015.31
400.837	983.31
401.062	952.31
401.286	946.31
401.51	934.31
401.734	938.31
401.958	963.31
402.182	930.31
402.406	967.31
402.63	986.31
402.854	1035.31
403.078	1001.31
403.302	1057.31
403.526	1058.31
403.75	1077.31
403.974	1131.31
404.198	1107.31
404.422	1116.31
404.645	1107.31
404.869	1086.31
405.093	1070.31
405.317	1080.31
405.541	1067.31
405.765	1024.31
405.988	1043.31
406.212	1029.31
406.436	1024.31
406.66	1065.31
406.883	1076.31
407.107	1120.31
407.331	1189.31
407.555	1218.31
407.778	1217.31
408.002	1193.31
408.226	1176.31
408.449	1123.31
408.673	1066.31
408.896	1078.31
409.12	1091.31
409.344	1113.31
409.567	1060.31
409.791	1071.31
410.014	1090.31
410.238	1093.31
410.461	1078.31
410.685	1012.31
410.908	1027.31
411.132	1029.31
411.355	1000.31
411.578	970.31
411.802	983.31
412.025	1003.31
412.249	994.31
412.472	1006.31
412.695	965.31
412.919	937.31
413.142	926.31
413.365	950.31
413.589	956.31
413.812	915.31
414.035	929.31
414.258	923.31
414.482	955.31
414.705	982.31
414.928	955.31
415.151	961.31
415.374	943.31
415.597	968.31
415.821	929.31
416.044	987.31
416.267	917.31
416.49	923.31
416.713	915.31
416.936	911.31
417.159	903.31
417.382	930.31
417.605	915.31
417.828	928.31
418.051	941.31
418.274	946.31
418.497	939.31
418.72	961.31
418.943	922.31
419.166	983.31
419.389	1074.31
419.611	1040.31
419.834	1022.31
420.057	981.31
420.28	966.31
420.503	920.31
420.726	919.31
420.948	942.31
421.171	909.31
421.394	918.31
421.617	929.31
421.839	922.31
422.062	946.31
422.285	935.31
422.507	946.31
422.73	967.31
422.953	968.31
423.175	993.31
423.398	1006.31
423.621	964.31
423.843	1003.31
424.066	1001.31
424.288	1007.31
424.511	966.31
424.733	979.31
424.956	985.31
425.178	954.31
425.401	938.31
425.623	954.31
425.846	915.31
426.068	886.31
426.291	915.31
426.513	893.31
426.735	854.31
426.958	866.31
427.18	832.31
427.402	840.31
427.625	831.31
427.847	816.31
428.069	815.31
428.292	818.31
428.514	830.31
428.736	825.31
428.958	854.31
429.181	798.31
429.403	822.31
429.625	788.31
429.847	812.31
430.069	811.31
430.292	814.31
430.514	794.31
430.736	806.31
430.958	826.31
431.18	815.31
431.402	821.31
431.624	818.31
431.846	844.31
432.068	844.31
432.29	842.31
432.512	819.31
432.734	839.31
432.956	836.31
433.178	835.31
433.4	848.31
433.622	816.31
433.844	836.31
434.066	836.31
434.287	827.31
434.509	879.31
434.731	950.31
434.953	932.31
435.175	935.31
435.397	926.31
435.618	900.31
435.84	879.31
436.062	858.31
436.284	836.31
436.505	805.31
436.727	832.31
436.949	828.31
437.17	833.31
437.392	818.31
437.614	827.31
437.835	800.31
438.057	794.31
438.278	788.31
438.5	771.31
438.721	786.31
438.943	802.31
439.165	809.31
439.386	782.31
439.608	820.31
439.829	832.31
440.05	851.31
440.272	842.31
440.493	844.31
440.715	851.31
440.936	844.31
441.158	879.31
441.379	884.31
441.6	934.31
441.822	941.31
442.043	950.31
442.264	960.31
442.486	934.31
442.707	932.31
442.928	909.31
443.149	942.31
443.371	908.31
443.592	928.31
443.813	953.31
444.034	960.31
444.255	978.31
444.476	1051.31
444.698	1121.31
444.919	1126.31
445.14	1186.31
445.361	1048.31
445.582	963.31
445.803	912.31
446.024	876.31
446.245	860.31
446.466	850.31
446.687	830.31
446.908	816.31
447.129	827.31
447.35	788.31
447.571	794.31
447.792	790.31
448.013	807.31
448.234	768.31
448.455	788.31
448.675	785.31
448.896	764.31
449.117	734.31
449.338	758.31
449.559	734.31
449.779	779.31
450	750.31
450.221	784.31
450.442	753.31
450.662	783.31
450.883	762.31
451.104	785.31
451.324	774.31
451.545	768.31
451.766	783.31
451.986	786.31
452.207	770.31
452.428	769.31
452.648	771.31
452.869	759.31
453.089	759.31
453.31	775.31
453.53	754.31
453.751	753.31
453.971	742.31
454.192	729.31
454.412	741.31
454.633	731.31
454.853	720.31
455.073	712.31
455.294	721.31
455.514	726.31
455.734	716.31
455.955	716.31
456.175	702.31
456.395	726.31
456.616	712.31
456.836	714.31
457.056	737.31
457.276	701.31
457.497	704.31
457.717	706.31
457.937	719.31
458.157	704.31
458.377	720.31
458.598	750.31
458.818	771.31
459.038	800.31
459.258	824.31
459.478	844.31
459.698	834.31
459.918	871.31
460.138	945.31
460.358	985.31
460.578	993.31
460.798	992.31
461.018	987.31
461.238	975.31
461.458	947.31
461.678	977.31
461.898	975.31
462.118	1011.31
462.338	1050.31
462.558	1079.31
462.777	1092.31
462.997	1216.31
463.217	1331.31
463.437	1353.31
463.657	1222.31
463.876	1138.31
464.096	1169.31
464.316	1160.31
464.536	1139.31
464.755	1111.31
464.975	1058.31
465.195	1008.31
465.414	983.31
465.634	901.31
465.854	883.31
466.073	805.31
466.293	864.31
466.512	841.31
466.732	805.31
466.951	802.31
467.171	839.31
467.391	800.31
467.61	788.31
467.829	790.31
468.049	817.31
468.268	756.31
468.488	753.31
468.707	746.31
468.927	733.31
469.146	745.31
469.365	780.31
469.585	786.31
469.804	809.31
470.023	802.31
470.243	836.31
470.462	845.31
470.681	824.31
470.901	820.31
471.12	820.31
471.339	806.31
471.558	786.31
471.777	750.31
471.997	752.31
472.216	758.31
472.435	761.31
472.654	733.31
472.873	723.31
473.092	737.31
473.311	766.31
473.53	715.31
473.749	742.31
473.968	755.31
474.187	739.31
474.406	735.31
474.625	761.31
474.844	711.31
475.063	742.31
475.282	732.31
475.501	785.31
475.72	736.31
475.939	741.31
476.158	776.31
476.377	748.31
476.596	751.31
476.814	792.31
477.033	791.31
477.252	811.31
477.471	799.31
477.69	812.31
477.908	854.31
478.127	880.31
478.346	864.31
478.564	906.31
478.783	918.31
479.002	931.31
479.22	938.31
479.439	940.31
479.658	911.31
479.876	928.31
480.095	951.31
480.313	991.31
480.532	1008.31
480.751	1000.31
480.969	938.31
481.188	887.31
481.406	909.31
481.624	883.31
481.843	849.31
482.061	850.31
482.28	844.31
482.498	850.31
482.717	841.31
482.935	834.31
483.153	843.31
483.372	850.31
483.59	863.31
483.808	863.31
484.027	858.31
484.245	859.31
484.463	871.31
484.681	873.31
484.9	857.31
485.118	864.31
485.336	874.31
485.554	882.31
485.772	890.31
485.99	878.31
486.209	880.31
486.427	901.31
486.645	891.31
486.863	908.31
487.081	895.31
487.299	863.31
487.517	852.31
487.735	855.31
487.953	880.31
488.171	905.31
488.389	898.31
488.607	898.31
488.825	898.31
489.043	871.31
489.261	852.31
489.479	889.31
489.696	876.31
489.914	906.31
490.132	887.31
490.35	863.31
490.568	880.31
490.786	882.31
491.003	876.31
491.221	909.31
491.439	906.31
491.657	868.31
491.874	884.31
492.092	890.31
492.31	888.31
492.527	898.31
492.745	900.31
492.963	911.31
493.18	905.31
493.398	907.31
493.615	916.31
493.833	936.31
494.05	922.31
494.268	926.31
494.485	962.31
494.703	921.31
494.92	919.31
495.138	910.31
495.355	922.31
495.573	942.31
495.79	948.31
496.008	970.31
496.225	960.31
496.442	935.31
496.66	971.31
496.877	985.31
497.094	1023.31
497.312	1022.31
497.529	1029.31
497.746	1063.31
497.963	1096.31
498.181	1120.31
498.398	1171.31
498.615	1261.31
498.832	1340.31
499.049	1454.31
499.267	1567.31
499.484	1706.31
499.701	1895.31
499.918	2122.31
500.135	2501.31
500.352	2853.31
