Data from Ni(NO3)2Standard.Agarose3%.GreenCap.LampEnergy5.5.E.O_HRD10591_14-42-36-188.txt Node
Date: Mon Jul 22 14:42:36 EDT 2019
User: cochatt
Spectrometer: HR+D1059
Trigger mode: 1
Integration Time (sec): 1.000000E-1
Scans to average: 1
Electric dark correction enabled: true
Nonlinearity correction enabled: false
Boxcar width: 0
XAxis mode: Wavelengths
Number of Pixels in Spectrum: 2048
>>>>>Begin Spectral Data<<<<<
223.165	-19.88
223.4	-19.88
223.635	-19.88
223.869	-11.88
224.104	-27.88
224.338	-4.88
224.573	-10.88
224.808	-18.88
225.042	-11.88
225.277	-10.88
225.511	15.12
225.746	9.12
225.98	21.12
226.215	12.12
226.449	3.12
226.683	24.12
226.918	16.12
227.152	16.12
227.387	42.12
227.621	28.12
227.856	48.12
228.09	46.12
228.324	45.12
228.559	67.12
228.793	52.12
229.027	62.12
229.262	66.12
229.496	73.12
229.73	81.12
229.964	75.12
230.199	91.12
230.433	75.12
230.667	74.12
230.901	82.12
231.136	72.12
231.37	75.12
231.604	91.12
231.838	76.12
232.072	84.12
232.306	81.12
232.541	87.12
232.775	89.12
233.009	87.12
233.243	86.12
233.477	86.12
233.711	97.12
233.945	77.12
234.179	91.12
234.413	86.12
234.647	94.12
234.881	70.12
235.115	80.12
235.349	87.12
235.583	90.12
235.817	77.12
236.051	88.12
236.285	86.12
236.519	78.12
236.753	87.12
236.987	93.12
237.221	90.12
237.455	74.12
237.689	71.12
237.922	85.12
238.156	61.12
238.39	93.12
238.624	80.12
238.858	93.12
239.091	80.12
239.325	87.12
239.559	64.12
239.793	81.12
240.027	82.12
240.26	75.12
240.494	73.12
240.728	65.12
240.961	77.12
241.195	80.12
241.429	80.12
241.662	74.12
241.896	88.12
242.13	92.12
242.363	80.12
242.597	92.12
242.83	86.12
243.064	85.12
243.298	76.12
243.531	81.12
243.765	80.12
243.998	79.12
244.232	74.12
244.465	81.12
244.699	71.12
244.932	81.12
245.166	88.12
245.399	63.12
245.633	79.12
245.866	84.12
246.099	87.12
246.333	81.12
246.566	89.12
246.8	82.12
247.033	76.12
247.266	78.12
247.5	81.12
247.733	85.12
247.966	88.12
248.2	81.12
248.433	92.12
248.666	89.12
248.899	70.12
249.133	89.12
249.366	83.12
249.599	78.12
249.832	98.12
250.066	88.12
250.299	63.12
250.532	69.12
250.765	91.12
250.998	75.12
251.231	82.12
251.465	89.12
251.698	94.12
251.931	84.12
252.164	94.12
252.397	90.12
252.63	73.12
252.863	81.12
253.096	96.12
253.329	81.12
253.562	85.12
253.795	79.12
254.028	79.12
254.261	71.12
254.494	74.12
254.727	75.12
254.96	83.12
255.193	86.12
255.426	73.12
255.659	71.12
255.892	79.12
256.124	70.12
256.357	83.12
256.59	89.12
256.823	96.12
257.056	87.12
257.289	85.12
257.521	82.12
257.754	91.12
257.987	82.12
258.22	92.12
258.452	86.12
258.685	87.12
258.918	95.12
259.151	99.12
259.383	91.12
259.616	80.12
259.849	87.12
260.081	102.12
260.314	95.12
260.547	63.12
260.779	89.12
261.012	80.12
261.244	95.12
261.477	86.12
261.71	101.12
261.942	93.12
262.175	86.12
262.407	83.12
262.64	78.12
262.872	90.12
263.105	78.12
263.337	89.12
263.57	98.12
263.802	85.12
264.035	94.12
264.267	92.12
264.499	87.12
264.732	87.12
264.964	87.12
265.197	91.12
265.429	88.12
265.661	92.12
265.894	79.12
266.126	87.12
266.358	87.12
266.591	83.12
266.823	99.12
267.055	85.12
267.287	81.12
267.52	90.12
267.752	93.12
267.984	91.12
268.216	87.12
268.448	85.12
268.681	72.12
268.913	90.12
269.145	88.12
269.377	88.12
269.609	92.12
269.841	90.12
270.073	79.12
270.306	86.12
270.538	85.12
270.77	111.12
271.002	70.12
271.234	86.12
271.466	63.12
271.698	90.12
271.93	94.12
272.162	96.12
272.394	92.12
272.626	80.12
272.858	84.12
273.09	106.12
273.322	100.12
273.553	88.12
273.785	92.12
274.017	84.12
274.249	67.12
274.481	80.12
274.713	85.12
274.945	83.12
275.176	94.12
275.408	87.12
275.64	84.12
275.872	86.12
276.104	95.12
276.335	79.12
276.567	89.12
276.799	79.12
277.031	92.12
277.262	93.12
277.494	88.12
277.726	85.12
277.957	76.12
278.189	97.12
278.421	69.12
278.652	85.12
278.884	99.12
279.115	80.12
279.347	89.12
279.579	92.12
279.81	71.12
280.042	94.12
280.273	97.12
280.505	88.12
280.736	86.12
280.968	84.12
281.199	92.12
281.431	101.12
281.662	84.12
281.894	78.12
282.125	84.12
282.356	86.12
282.588	81.12
282.819	84.12
283.051	83.12
283.282	78.12
283.513	88.12
283.745	83.12
283.976	73.12
284.207	95.12
284.439	95.12
284.67	88.12
284.901	85.12
285.132	86.12
285.364	77.12
285.595	91.12
285.826	89.12
286.057	79.12
286.288	79.12
286.52	90.12
286.751	78.12
286.982	97.12
287.213	86.12
287.444	74.12
287.675	93.12
287.906	84.12
288.138	79.12
288.369	86.12
288.6	93.12
288.831	79.12
289.062	87.12
289.293	81.12
289.524	82.12
289.755	85.12
289.986	92.12
290.217	80.12
290.448	89.12
290.679	91.12
290.91	97.12
291.141	83.12
291.371	92.12
291.602	97.12
291.833	94.12
292.064	95.12
292.295	76.12
292.526	81.12
292.757	73.12
292.987	90.12
293.218	93.12
293.449	88.12
293.68	86.12
293.91	84.12
294.141	88.12
294.372	85.12
294.603	91.12
294.833	91.12
295.064	79.12
295.295	94.12
295.525	88.12
295.756	94.12
295.987	82.12
296.217	81.12
296.448	72.12
296.679	88.12
296.909	102.12
297.14	92.12
297.37	97.12
297.601	89.12
297.831	77.12
298.062	82.12
298.292	87.12
298.523	89.12
298.753	84.12
298.984	81.12
299.214	89.12
299.445	78.12
299.675	92.12
299.905	95.12
300.136	101.12
300.366	89.12
300.597	88.12
300.827	86.12
301.057	88.12
301.288	91.12
301.518	98.12
301.748	108.12
301.979	87.12
302.209	79.12
302.439	91.12
302.669	74.12
302.9	76.12
303.13	101.12
303.36	94.12
303.59	79.12
303.82	95.12
304.051	87.12
304.281	84.12
304.511	97.12
304.741	91.12
304.971	79.12
305.201	93.12
305.431	94.12
305.661	85.12
305.891	87.12
306.121	79.12
306.352	85.12
306.582	89.12
306.812	93.12
307.042	92.12
307.272	78.12
307.502	83.12
307.731	79.12
307.961	92.12
308.191	89.12
308.421	100.12
308.651	87.12
308.881	88.12
309.111	92.12
309.341	89.12
309.571	87.12
309.8	93.12
310.03	95.12
310.26	63.12
310.49	91.12
310.72	89.12
310.949	87.12
311.179	94.12
311.409	90.12
311.639	93.12
311.868	92.12
312.098	95.12
312.328	91.12
312.557	88.12
312.787	100.12
313.017	87.12
313.246	86.12
313.476	92.12
313.706	95.12
313.935	99.12
314.165	102.12
314.394	94.12
314.624	89.12
314.853	92.12
315.083	91.12
315.312	84.12
315.542	97.12
315.771	96.12
316.001	81.12
316.23	105.12
316.46	104.12
316.689	77.12
316.919	97.12
317.148	102.12
317.377	95.12
317.607	93.12
317.836	94.12
318.065	96.12
318.295	94.12
318.524	87.12
318.753	95.12
318.983	99.12
319.212	89.12
319.441	83.12
319.67	92.12
319.9	80.12
320.129	80.12
320.358	102.12
320.587	100.12
320.816	94.12
321.046	97.12
321.275	89.12
321.504	90.12
321.733	96.12
321.962	81.12
322.191	94.12
322.42	94.12
322.649	82.12
322.878	94.12
323.108	88.12
323.337	88.12
323.566	87.12
323.795	101.12
324.024	93.12
324.253	93.12
324.482	90.12
324.71	103.12
324.939	100.12
325.168	105.12
325.397	99.12
325.626	92.12
325.855	103.12
326.084	97.12
326.313	94.12
326.542	96.12
326.77	94.12
326.999	79.12
327.228	100.12
327.457	98.12
327.686	93.12
327.914	88.12
328.143	95.12
328.372	79.12
328.6	87.12
328.829	99.12
329.058	91.12
329.287	83.12
329.515	82.12
329.744	87.12
329.972	77.12
330.201	95.12
330.43	87.12
330.658	86.12
330.887	85.12
331.115	82.12
331.344	87.12
331.572	87.12
331.801	89.12
332.03	90.12
332.258	96.12
332.486	91.12
332.715	81.12
332.943	93.12
333.172	102.12
333.4	85.12
333.629	92.12
333.857	91.12
334.085	86.12
334.314	87.12
334.542	91.12
334.771	97.12
334.999	100.12
335.227	100.12
335.455	96.12
335.684	92.12
335.912	89.12
336.14	99.12
336.369	85.12
336.597	92.12
336.825	81.12
337.053	101.12
337.281	84.12
337.51	75.12
337.738	90.12
337.966	96.12
338.194	102.12
338.422	89.12
338.65	97.12
338.878	89.12
339.106	77.12
339.334	103.12
339.562	85.12
339.79	95.12
340.018	86.12
340.246	89.12
340.474	90.12
340.702	82.12
340.93	88.12
341.158	78.12
341.386	89.12
341.614	87.12
341.842	104.12
342.07	89.12
342.298	99.12
342.526	80.12
342.754	89.12
342.981	95.12
343.209	92.12
343.437	90.12
343.665	86.12
343.893	87.12
344.12	81.12
344.348	105.12
344.576	89.12
344.804	92.12
345.031	80.12
345.259	91.12
345.487	87.12
345.714	96.12
345.942	88.12
346.17	91.12
346.397	94.12
346.625	84.12
346.853	85.12
347.08	88.12
347.308	85.12
347.535	95.12
347.763	84.12
347.99	94.12
348.218	89.12
348.445	88.12
348.673	88.12
348.9	92.12
349.128	101.12
349.355	96.12
349.583	102.12
349.81	89.12
350.037	102.12
350.265	83.12
350.492	75.12
350.72	92.12
350.947	81.12
351.174	90.12
351.402	89.12
351.629	78.12
351.856	94.12
352.083	76.12
352.311	89.12
352.538	84.12
352.765	69.12
352.992	93.12
353.22	93.12
353.447	91.12
353.674	93.12
353.901	82.12
354.128	86.12
354.355	95.12
354.583	93.12
354.81	92.12
355.037	87.12
355.264	96.12
355.491	107.12
355.718	91.12
355.945	74.12
356.172	89.12
356.399	88.12
356.626	90.12
356.853	92.12
357.08	89.12
357.307	82.12
357.534	91.12
357.761	92.12
357.988	89.12
358.215	87.12
358.441	80.12
358.668	91.12
358.895	81.12
359.122	89.12
359.349	80.12
359.576	84.12
359.802	85.12
360.029	79.12
360.256	87.12
360.483	87.12
360.709	80.12
360.936	96.12
361.163	82.12
361.39	65.12
361.616	89.12
361.843	85.12
362.07	83.12
362.296	84.12
362.523	89.12
362.749	80.12
362.976	84.12
363.203	97.12
363.429	99.12
363.656	94.12
363.882	88.12
364.109	89.12
364.335	90.12
364.562	77.12
364.788	87.12
365.015	100.12
365.241	87.12
365.468	83.12
365.694	87.12
365.92	86.12
366.147	92.12
366.373	86.12
366.599	92.12
366.826	84.12
367.052	89.12
367.278	74.12
367.505	100.12
367.731	85.12
367.957	82.12
368.184	83.12
368.41	90.12
368.636	88.12
368.862	93.12
369.089	94.12
369.315	100.12
369.541	92.12
369.767	76.12
369.993	93.12
370.219	85.12
370.445	95.12
370.672	104.12
370.898	89.12
371.124	82.12
371.35	83.12
371.576	93.12
371.802	87.12
372.028	87.12
372.254	97.12
372.48	95.12
372.706	80.12
372.932	73.12
373.158	91.12
373.384	87.12
373.61	85.12
373.835	83.12
374.061	89.12
374.287	93.12
374.513	89.12
374.739	91.12
374.965	101.12
375.191	85.12
375.416	88.12
375.642	90.12
375.868	100.12
376.094	97.12
376.319	94.12
376.545	76.12
376.771	85.12
376.997	79.12
377.222	88.12
377.448	92.12
377.674	92.12
377.899	87.12
378.125	94.12
378.35	95.12
378.576	78.12
378.802	103.12
379.027	99.12
379.253	87.12
379.478	70.12
379.704	91.12
379.929	95.12
380.155	84.12
380.38	79.12
380.606	81.12
380.831	100.12
381.057	102.12
381.282	86.12
381.507	80.12
381.733	102.12
381.958	87.12
382.184	87.12
382.409	84.12
382.634	99.12
382.86	91.12
383.085	85.12
383.31	82.12
383.535	89.12
383.761	96.12
383.986	99.12
384.211	91.12
384.436	97.12
384.662	90.12
384.887	96.12
385.112	102.12
385.337	89.12
385.562	104.12
385.787	98.12
386.013	80.12
386.238	85.12
386.463	92.12
386.688	73.12
386.913	97.12
387.138	87.12
387.363	84.12
387.588	110.12
387.813	91.12
388.038	85.12
388.263	78.12
388.488	81.12
388.713	83.12
388.938	104.12
389.163	88.12
389.387	96.12
389.612	91.12
389.837	100.12
390.062	77.12
390.287	96.12
390.512	94.12
390.736	99.12
390.961	94.12
391.186	83.12
391.411	83.12
391.636	91.12
391.86	91.12
392.085	88.12
392.31	102.12
392.534	79.12
392.759	91.12
392.984	86.12
393.208	94.12
393.433	88.12
393.658	80.12
393.882	90.12
394.107	83.12
394.331	81.12
394.556	90.12
394.78	101.12
395.005	100.12
395.229	100.12
395.454	75.12
395.678	79.12
395.903	81.12
396.127	78.12
396.352	88.12
396.576	88.12
396.801	94.12
397.025	95.12
397.249	87.12
397.474	89.12
397.698	98.12
397.922	99.12
398.147	87.12
398.371	74.12
398.595	92.12
398.82	80.12
399.044	87.12
399.268	89.12
399.492	94.12
399.717	76.12
399.941	79.12
400.165	105.12
400.389	81.12
400.613	85.12
400.837	94.12
401.062	76.12
401.286	93.12
401.51	100.12
401.734	91.12
401.958	80.12
402.182	100.12
402.406	90.12
402.63	98.12
402.854	86.12
403.078	83.12
403.302	81.12
403.526	83.12
403.75	79.12
403.974	91.12
404.198	78.12
404.422	91.12
404.645	87.12
404.869	84.12
405.093	98.12
405.317	86.12
405.541	96.12
405.765	85.12
405.988	100.12
406.212	84.12
406.436	90.12
406.66	79.12
406.883	93.12
407.107	91.12
407.331	88.12
407.555	85.12
407.778	76.12
408.002	95.12
408.226	80.12
408.449	86.12
408.673	100.12
408.896	83.12
409.12	83.12
409.344	90.12
409.567	92.12
409.791	93.12
410.014	88.12
410.238	86.12
410.461	92.12
410.685	81.12
410.908	91.12
411.132	89.12
411.355	100.12
411.578	83.12
411.802	84.12
412.025	88.12
412.249	95.12
412.472	97.12
412.695	85.12
412.919	72.12
413.142	84.12
413.365	95.12
413.589	82.12
413.812	86.12
414.035	88.12
414.258	82.12
414.482	83.12
414.705	93.12
414.928	99.12
415.151	83.12
415.374	92.12
415.597	95.12
415.821	92.12
416.044	91.12
416.267	88.12
416.49	109.12
416.713	81.12
416.936	100.12
417.159	88.12
417.382	91.12
417.605	78.12
417.828	97.12
418.051	99.12
418.274	90.12
418.497	94.12
418.72	100.12
418.943	93.12
419.166	105.12
419.389	103.12
419.611	88.12
419.834	86.12
420.057	89.12
420.28	96.12
420.503	89.12
420.726	99.12
420.948	89.12
421.171	88.12
421.394	82.12
421.617	95.12
421.839	87.12
422.062	88.12
422.285	89.12
422.507	93.12
422.73	76.12
422.953	68.12
423.175	100.12
423.398	80.12
423.621	81.12
423.843	79.12
424.066	88.12
424.288	94.12
424.511	86.12
424.733	91.12
424.956	88.12
425.178	94.12
425.401	89.12
425.623	85.12
425.846	91.12
426.068	96.12
426.291	95.12
426.513	87.12
426.735	89.12
426.958	84.12
427.18	89.12
427.402	84.12
427.625	84.12
427.847	78.12
428.069	76.12
428.292	87.12
428.514	82.12
428.736	90.12
428.958	87.12
429.181	97.12
429.403	88.12
429.625	93.12
429.847	97.12
430.069	95.12
430.292	102.12
430.514	76.12
430.736	88.12
430.958	96.12
431.18	88.12
431.402	82.12
431.624	96.12
431.846	92.12
432.068	86.12
432.29	89.12
432.512	94.12
432.734	93.12
432.956	89.12
433.178	87.12
433.4	91.12
433.622	88.12
433.844	73.12
434.066	89.12
434.287	85.12
434.509	89.12
434.731	90.12
434.953	96.12
435.175	80.12
435.397	87.12
435.618	88.12
435.84	97.12
436.062	96.12
436.284	102.12
436.505	95.12
436.727	88.12
436.949	93.12
437.17	91.12
437.392	77.12
437.614	87.12
437.835	88.12
438.057	95.12
438.278	90.12
438.5	89.12
438.721	89.12
438.943	84.12
439.165	83.12
439.386	68.12
439.608	100.12
439.829	95.12
440.05	107.12
440.272	92.12
440.493	89.12
440.715	111.12
440.936	109.12
441.158	88.12
441.379	88.12
441.6	91.12
441.822	97.12
442.043	101.12
442.264	91.12
442.486	84.12
442.707	86.12
442.928	87.12
443.149	74.12
443.371	87.12
443.592	86.12
443.813	92.12
444.034	79.12
444.255	95.12
444.476	93.12
444.698	84.12
444.919	105.12
445.14	203.12
445.361	127.12
445.582	87.12
445.803	95.12
446.024	99.12
446.245	89.12
446.466	97.12
446.687	93.12
446.908	89.12
447.129	75.12
447.35	95.12
447.571	87.12
447.792	88.12
448.013	87.12
448.234	104.12
448.455	96.12
448.675	90.12
448.896	94.12
449.117	87.12
449.338	80.12
449.559	89.12
449.779	99.12
450	83.12
450.221	92.12
450.442	86.12
450.662	106.12
450.883	92.12
451.104	89.12
451.324	92.12
451.545	85.12
451.766	88.12
451.986	91.12
452.207	84.12
452.428	93.12
452.648	87.12
452.869	93.12
453.089	81.12
453.31	82.12
453.53	87.12
453.751	91.12
453.971	87.12
454.192	100.12
454.412	89.12
454.633	86.12
454.853	97.12
455.073	100.12
455.294	98.12
455.514	89.12
455.734	79.12
455.955	92.12
456.175	84.12
456.395	87.12
456.616	88.12
456.836	87.12
457.056	85.12
457.276	71.12
457.497	94.12
457.717	93.12
457.937	82.12
458.157	70.12
458.377	96.12
458.598	95.12
458.818	83.12
459.038	93.12
459.258	89.12
459.478	89.12
459.698	87.12
459.918	83.12
460.138	95.12
460.358	81.12
460.578	90.12
460.798	94.12
461.018	103.12
461.238	101.12
461.458	97.12
461.678	93.12
461.898	90.12
462.118	99.12
462.338	85.12
462.558	87.12
462.777	79.12
462.997	97.12
463.217	97.12
463.437	95.12
463.657	86.12
463.876	81.12
464.096	100.12
464.316	87.12
464.536	89.12
464.755	92.12
464.975	100.12
465.195	82.12
465.414	93.12
465.634	76.12
465.854	84.12
466.073	92.12
466.293	98.12
466.512	79.12
466.732	81.12
466.951	85.12
467.171	103.12
467.391	79.12
467.61	84.12
467.829	87.12
468.049	87.12
468.268	86.12
468.488	84.12
468.707	84.12
468.927	100.12
469.146	91.12
469.365	110.12
469.585	90.12
469.804	110.12
470.023	89.12
470.243	99.12
470.462	87.12
470.681	93.12
470.901	90.12
471.12	79.12
471.339	80.12
471.558	100.12
471.777	81.12
471.997	92.12
472.216	102.12
472.435	104.12
472.654	86.12
472.873	101.12
473.092	88.12
473.311	107.12
473.53	107.12
473.749	88.12
473.968	85.12
474.187	100.12
474.406	82.12
474.625	89.12
474.844	86.12
475.063	85.12
475.282	85.12
475.501	89.12
475.72	87.12
475.939	78.12
476.158	76.12
476.377	85.12
476.596	96.12
476.814	92.12
477.033	77.12
477.252	92.12
477.471	108.12
477.69	101.12
477.908	92.12
478.127	96.12
478.346	93.12
478.564	94.12
478.783	93.12
479.002	86.12
479.22	92.12
479.439	100.12
479.658	98.12
479.876	105.12
480.095	101.12
480.313	103.12
480.532	82.12
480.751	91.12
480.969	89.12
481.188	87.12
481.406	92.12
481.624	91.12
481.843	108.12
482.061	105.12
482.28	88.12
482.498	93.12
482.717	92.12
482.935	93.12
483.153	99.12
483.372	87.12
483.59	88.12
483.808	88.12
484.027	99.12
484.245	93.12
484.463	85.12
484.681	96.12
484.9	91.12
485.118	87.12
485.336	89.12
485.554	84.12
485.772	91.12
485.99	91.12
486.209	105.12
486.427	108.12
486.645	101.12
486.863	84.12
487.081	93.12
487.299	92.12
487.517	91.12
487.735	96.12
487.953	81.12
488.171	96.12
488.389	93.12
488.607	103.12
488.825	89.12
489.043	97.12
489.261	91.12
489.479	90.12
489.696	97.12
489.914	98.12
490.132	81.12
490.35	95.12
490.568	87.12
490.786	102.12
491.003	92.12
491.221	96.12
491.439	100.12
491.657	90.12
491.874	89.12
492.092	103.12
492.31	110.12
492.527	95.12
492.745	95.12
492.963	76.12
493.18	110.12
493.398	101.12
493.615	98.12
493.833	96.12
494.05	98.12
494.268	104.12
494.485	99.12
494.703	103.12
494.92	100.12
495.138	97.12
495.355	95.12
495.573	85.12
495.79	106.12
496.008	97.12
496.225	120.12
496.442	87.12
496.66	96.12
496.877	100.12
497.094	102.12
497.312	104.12
497.529	93.12
497.746	98.12
497.963	90.12
498.181	85.12
498.398	110.12
498.615	112.12
498.832	95.12
499.049	109.12
499.267	94.12
499.484	95.12
499.701	123.12
499.918	116.12
500.135	106.12
500.352	125.12
500.569	100.12
500.786	121.12
501.003	123.12
501.22	112.12
501.437	111.12
501.654	97.12
501.871	100.12
502.088	86.12
502.305	105.12
502.522	102.12
502.739	104.12
502.956	107.12
503.172	109.12
503.389	81.12
503.606	100.12
503.823	100.12
504.04	96.12
504.256	102.12
504.473	89.12
504.69	109.12
504.907	99.12
505.123	92.12
505.34	95.12
505.557	93.12
505.773	116.12
505.99	96.12
506.207	98.12
506.423	85.12
506.64	86.12
506.856	95.12
507.073	111.12
507.289	83.12
507.506	99.12
507.722	96.12
507.939	96.12
508.155	104.12
508.372	92.12
508.588	83.12
508.805	95.12
509.021	87.12
509.238	90.12
509.454	92.12
509.67	93.12
509.887	93.12
510.103	99.12
510.319	96.12
510.536	110.12
510.752	90.12
510.968	99.12
511.184	91.12
511.401	88.12
511.617	95.12
511.833	91.12
512.049	92.12
512.265	88.12
512.481	102.12
512.698	86.12
512.914	96.12
513.13	103.12
513.346	88.12
513.562	91.12
513.778	84.12
513.994	83.12
514.21	103.12
514.426	108.12
514.642	89.12
514.858	93.12
515.074	110.12
515.29	90.12
515.506	83.12
515.721	107.12
515.937	91.12
516.153	111.12
516.369	105.12
516.585	96.12
516.801	85.12
517.016	84.12
517.232	96.12
