Data from Ni(NO3)2@0.0625M.TitratingCurve.Agarose3%dH2O.NegLispCup.LampEnergy10.LIBS07252019_HRD10591_18-13-58-569.txt Node
Date: Thu Jul 25 18:13:58 EDT 2019
User: cochatt
Spectrometer: HR+D1059
Trigger mode: 1
Integration Time (sec): 1.000000E-1
Scans to average: 1
Electric dark correction enabled: true
Nonlinearity correction enabled: false
Boxcar width: 0
XAxis mode: Wavelengths
Number of Pixels in Spectrum: 2048
>>>>>Begin Spectral Data<<<<<
223.165	-20.19
223.4	-20.19
223.635	-20.19
223.869	-19.19
224.104	-8.19
224.338	-7.19
224.573	-11.19
224.808	-17.19
225.042	-9.19
225.277	-3.19
225.511	-7.19
225.746	10.81
225.98	-10.19
226.215	16.81
226.449	22.81
226.683	20.81
226.918	19.81
227.152	21.81
227.387	25.81
227.621	43.81
227.856	43.81
228.09	40.81
228.324	40.81
228.559	51.81
228.793	71.81
229.027	112.81
229.262	132.81
229.496	127.81
229.73	121.81
229.964	122.81
230.199	129.81
230.433	132.81
230.667	124.81
230.901	132.81
231.136	145.81
231.37	138.81
231.604	133.81
231.838	143.81
232.072	152.81
232.306	136.81
232.541	147.81
232.775	150.81
233.009	157.81
233.243	141.81
233.477	143.81
233.711	141.81
233.945	153.81
234.179	159.81
234.413	156.81
234.647	152.81
234.881	145.81
235.115	153.81
235.349	149.81
235.583	149.81
235.817	161.81
236.051	167.81
236.285	164.81
236.519	146.81
236.753	159.81
236.987	145.81
237.221	148.81
237.455	154.81
237.689	160.81
237.922	149.81
238.156	158.81
238.39	162.81
238.624	148.81
238.858	156.81
239.091	170.81
239.325	177.81
239.559	176.81
239.793	172.81
240.027	176.81
240.26	182.81
240.494	181.81
240.728	170.81
240.961	178.81
241.195	187.81
241.429	188.81
241.662	180.81
241.896	179.81
242.13	176.81
242.363	202.81
242.597	215.81
242.83	195.81
243.064	203.81
243.298	207.81
243.531	208.81
243.765	210.81
243.998	213.81
244.232	193.81
244.465	211.81
244.699	208.81
244.932	204.81
245.166	208.81
245.399	216.81
245.633	206.81
245.866	220.81
246.099	212.81
246.333	220.81
246.566	215.81
246.8	222.81
247.033	228.81
247.266	215.81
247.5	231.81
247.733	235.81
247.966	211.81
248.2	240.81
248.433	229.81
248.666	232.81
248.899	236.81
249.133	245.81
249.366	229.81
249.599	264.81
249.832	252.81
250.066	254.81
250.299	248.81
250.532	249.81
250.765	247.81
250.998	245.81
251.231	250.81
251.465	252.81
251.698	277.81
251.931	258.81
252.164	245.81
252.397	254.81
252.63	269.81
252.863	257.81
253.096	276.81
253.329	259.81
253.562	281.81
253.795	267.81
254.028	272.81
254.261	266.81
254.494	282.81
254.727	274.81
254.96	264.81
255.193	289.81
255.426	275.81
255.659	270.81
255.892	288.81
256.124	292.81
256.357	266.81
256.59	279.81
256.823	283.81
257.056	278.81
257.289	318.81
257.521	305.81
257.754	294.81
257.987	307.81
258.22	297.81
258.452	306.81
258.685	284.81
258.918	299.81
259.151	306.81
259.383	310.81
259.616	315.81
259.849	301.81
260.081	301.81
260.314	304.81
260.547	308.81
260.779	312.81
261.012	309.81
261.244	310.81
261.477	308.81
261.71	320.81
261.942	332.81
262.175	325.81
262.407	330.81
262.64	326.81
262.872	329.81
263.105	329.81
263.337	336.81
263.57	330.81
263.802	340.81
264.035	348.81
264.267	331.81
264.499	333.81
264.732	345.81
264.964	331.81
265.197	344.81
265.429	337.81
265.661	329.81
265.894	343.81
266.126	353.81
266.358	338.81
266.591	344.81
266.823	346.81
267.055	360.81
267.287	349.81
267.52	364.81
267.752	374.81
267.984	344.81
268.216	364.81
268.448	362.81
268.681	351.81
268.913	350.81
269.145	354.81
269.377	355.81
269.609	362.81
269.841	375.81
270.073	365.81
270.306	363.81
270.538	368.81
270.77	358.81
271.002	380.81
271.234	368.81
271.466	373.81
271.698	382.81
271.93	392.81
272.162	362.81
272.394	380.81
272.626	380.81
272.858	376.81
273.09	381.81
273.322	379.81
273.553	382.81
273.785	398.81
274.017	381.81
274.249	403.81
274.481	384.81
274.713	397.81
274.945	405.81
275.176	412.81
275.408	405.81
275.64	395.81
275.872	390.81
276.104	389.81
276.335	388.81
276.567	395.81
276.799	410.81
277.031	425.81
277.262	391.81
277.494	409.81
277.726	413.81
277.957	398.81
278.189	416.81
278.421	430.81
278.652	411.81
278.884	416.81
279.115	406.81
279.347	437.81
279.579	431.81
279.81	421.81
280.042	426.81
280.273	448.81
280.505	422.81
280.736	454.81
280.968	439.81
281.199	436.81
281.431	438.81
281.662	447.81
281.894	451.81
282.125	456.81
282.356	460.81
282.588	461.81
282.819	452.81
283.051	450.81
283.282	443.81
283.513	449.81
283.745	454.81
283.976	451.81
284.207	459.81
284.439	445.81
284.67	483.81
284.901	491.81
285.132	477.81
285.364	468.81
285.595	481.81
285.826	449.81
286.057	459.81
286.288	484.81
286.52	473.81
286.751	483.81
286.982	482.81
287.213	492.81
287.444	472.81
287.675	500.81
287.906	496.81
288.138	499.81
288.369	503.81
288.6	480.81
288.831	485.81
289.062	502.81
289.293	498.81
289.524	489.81
289.755	470.81
289.986	492.81
290.217	501.81
290.448	509.81
290.679	491.81
290.91	505.81
291.141	520.81
291.371	507.81
291.602	506.81
291.833	519.81
292.064	534.81
292.295	518.81
292.526	506.81
292.757	500.81
292.987	500.81
293.218	493.81
293.449	510.81
293.68	504.81
293.91	512.81
294.141	497.81
294.372	509.81
294.603	524.81
294.833	499.81
295.064	491.81
295.295	505.81
295.525	526.81
295.756	535.81
295.987	500.81
296.217	523.81
296.448	535.81
296.679	545.81
296.909	539.81
297.14	534.81
297.37	539.81
297.601	554.81
297.831	550.81
298.062	560.81
298.292	551.81
298.523	560.81
298.753	577.81
298.984	550.81
299.214	562.81
299.445	552.81
299.675	572.81
299.905	561.81
300.136	534.81
300.366	553.81
300.597	579.81
300.827	580.81
301.057	585.81
301.288	593.81
301.518	588.81
301.748	610.81
301.979	592.81
302.209	582.81
302.439	600.81
302.669	573.81
302.9	582.81
303.13	598.81
303.36	571.81
303.59	563.81
303.82	583.81
304.051	580.81
304.281	583.81
304.511	565.81
304.741	586.81
304.971	585.81
305.201	557.81
305.431	586.81
305.661	580.81
305.891	565.81
306.121	559.81
306.352	578.81
306.582	568.81
306.812	558.81
307.042	564.81
307.272	579.81
307.502	562.81
307.731	573.81
307.961	558.81
308.191	557.81
308.421	543.81
308.651	560.81
308.881	564.81
309.111	577.81
309.341	541.81
309.571	548.81
309.8	583.81
310.03	576.81
310.26	556.81
310.49	565.81
310.72	558.81
310.949	595.81
311.179	581.81
311.409	574.81
311.639	577.81
311.868	596.81
312.098	571.81
312.328	574.81
312.557	591.81
312.787	582.81
313.017	596.81
313.246	586.81
313.476	614.81
313.706	582.81
313.935	605.81
314.165	587.81
314.394	593.81
314.624	606.81
314.853	599.81
315.083	569.81
315.312	591.81
315.542	592.81
315.771	582.81
316.001	585.81
316.23	589.81
316.46	612.81
316.689	598.81
316.919	591.81
317.148	572.81
317.377	586.81
317.607	585.81
317.836	577.81
318.065	579.81
318.295	572.81
318.524	592.81
318.753	610.81
318.983	596.81
319.212	585.81
319.441	568.81
319.67	579.81
319.9	584.81
320.129	572.81
320.358	583.81
320.587	564.81
320.816	593.81
321.046	584.81
321.275	594.81
321.504	577.81
321.733	586.81
321.962	601.81
322.191	584.81
322.42	608.81
322.649	594.81
322.878	612.81
323.108	589.81
323.337	606.81
323.566	604.81
323.795	617.81
324.024	605.81
324.253	614.81
324.482	591.81
324.71	604.81
324.939	616.81
325.168	621.81
325.397	611.81
325.626	609.81
325.855	632.81
326.084	634.81
326.313	657.81
326.542	669.81
326.77	674.81
326.999	648.81
327.228	628.81
327.457	628.81
327.686	648.81
327.914	650.81
328.143	675.81
328.372	635.81
328.6	646.81
328.829	624.81
329.058	647.81
329.287	664.81
329.515	654.81
329.744	658.81
329.972	669.81
330.201	675.81
330.43	672.81
330.658	657.81
330.887	668.81
331.115	701.81
331.344	664.81
331.572	714.81
331.801	689.81
332.03	708.81
332.258	733.81
332.486	767.81
332.715	776.81
332.943	778.81
333.172	821.81
333.4	874.81
333.629	898.81
333.857	884.81
334.085	858.81
334.314	864.81
334.542	867.81
334.771	831.81
334.999	812.81
335.227	789.81
335.455	803.81
335.684	806.81
335.912	798.81
336.14	778.81
336.369	774.81
336.597	773.81
336.825	773.81
337.053	817.81
337.281	766.81
337.51	729.81
337.738	745.81
337.966	733.81
338.194	718.81
338.422	708.81
338.65	702.81
338.878	685.81
339.106	684.81
339.334	700.81
339.562	702.81
339.79	673.81
340.018	649.81
340.246	673.81
340.474	685.81
340.702	680.81
340.93	688.81
341.158	660.81
341.386	680.81
341.614	674.81
341.842	694.81
342.07	652.81
342.298	656.81
342.526	684.81
342.754	650.81
342.981	691.81
343.209	709.81
343.437	731.81
343.665	755.81
343.893	828.81
344.12	858.81
344.348	798.81
344.576	746.81
344.804	718.81
345.031	736.81
345.259	672.81
345.487	690.81
345.714	668.81
345.942	671.81
346.17	678.81
346.397	665.81
346.625	660.81
346.853	677.81
347.08	654.81
347.308	678.81
347.535	670.81
347.763	673.81
347.99	677.81
348.218	682.81
348.445	686.81
348.673	690.81
348.9	653.81
349.128	669.81
349.355	658.81
349.583	664.81
349.81	653.81
350.037	649.81
350.265	653.81
350.492	637.81
350.72	636.81
350.947	623.81
351.174	622.81
351.402	644.81
351.629	635.81
351.856	639.81
352.083	630.81
352.311	628.81
352.538	614.81
352.765	628.81
352.992	644.81
353.22	627.81
353.447	625.81
353.674	615.81
353.901	632.81
354.128	612.81
354.355	622.81
354.583	624.81
354.81	640.81
355.037	652.81
355.264	659.81
355.491	642.81
355.718	644.81
355.945	639.81
356.172	644.81
356.399	629.81
356.626	644.81
356.853	657.81
357.08	627.81
357.307	636.81
357.534	629.81
357.761	657.81
357.988	645.81
358.215	645.81
358.441	637.81
358.668	617.81
358.895	635.81
359.122	617.81
359.349	621.81
359.576	630.81
359.802	658.81
360.029	636.81
360.256	629.81
360.483	640.81
360.709	624.81
360.936	628.81
361.163	634.81
361.39	633.81
361.616	624.81
361.843	621.81
362.07	640.81
362.296	638.81
362.523	617.81
362.749	638.81
362.976	638.81
363.203	626.81
363.429	633.81
363.656	653.81
363.882	623.81
364.109	633.81
364.335	626.81
364.562	632.81
364.788	624.81
365.015	612.81
365.241	600.81
365.468	620.81
365.694	626.81
365.92	633.81
366.147	626.81
366.373	638.81
366.599	619.81
366.826	626.81
367.052	627.81
367.278	622.81
367.505	617.81
367.731	639.81
367.957	644.81
368.184	650.81
368.41	663.81
368.636	652.81
368.862	636.81
369.089	635.81
369.315	630.81
369.541	653.81
369.767	668.81
369.993	672.81
370.219	664.81
370.445	665.81
370.672	670.81
370.898	673.81
371.124	700.81
371.35	706.81
371.576	688.81
371.802	683.81
372.028	688.81
372.254	684.81
372.48	713.81
372.706	688.81
372.932	729.81
373.158	711.81
373.384	698.81
373.61	674.81
373.835	690.81
374.061	683.81
374.287	702.81
374.513	729.81
374.739	718.81
374.965	752.81
375.191	782.81
375.416	755.81
375.642	739.81
375.868	728.81
376.094	718.81
376.319	725.81
376.545	712.81
376.771	694.81
376.997	688.81
377.222	676.81
377.448	705.81
377.674	690.81
377.899	682.81
378.125	694.81
378.35	688.81
378.576	694.81
378.802	664.81
379.027	672.81
379.253	693.81
379.478	670.81
379.704	666.81
379.929	680.81
380.155	680.81
380.38	677.81
380.606	688.81
380.831	685.81
381.057	687.81
381.282	698.81
381.507	699.81
381.733	709.81
381.958	680.81
382.184	664.81
382.409	725.81
382.634	721.81
382.86	742.81
383.085	741.81
383.31	733.81
383.535	753.81
383.761	761.81
383.986	797.81
384.211	770.81
384.436	821.81
384.662	813.81
384.887	824.81
385.112	806.81
385.337	838.81
385.562	831.81
385.787	850.81
386.013	825.81
386.238	862.81
386.463	861.81
386.688	854.81
386.913	824.81
387.138	828.81
387.363	800.81
387.588	813.81
387.813	829.81
388.038	813.81
388.263	813.81
388.488	821.81
388.713	823.81
388.938	813.81
389.163	799.81
389.387	789.81
389.612	797.81
389.837	806.81
390.062	786.81
390.287	794.81
390.512	804.81
390.736	786.81
390.961	825.81
391.186	835.81
391.411	864.81
391.636	885.81
391.86	932.81
392.085	953.81
392.31	954.81
392.534	921.81
392.759	868.81
392.984	870.81
393.208	884.81
393.433	883.81
393.658	890.81
393.882	876.81
394.107	891.81
394.331	890.81
394.556	878.81
394.78	886.81
395.005	896.81
395.229	889.81
395.454	909.81
395.678	935.81
395.903	944.81
396.127	878.81
396.352	868.81
396.576	850.81
396.801	870.81
397.025	890.81
397.249	902.81
397.474	903.81
397.698	912.81
397.922	920.81
398.147	905.81
398.371	958.81
398.595	944.81
398.82	974.81
399.044	1088.81
399.268	1176.81
399.492	1382.81
399.717	1628.81
399.941	1658.81
400.165	1405.81
400.389	1275.81
400.613	1141.81
400.837	1076.81
401.062	1049.81
401.286	1016.81
401.51	1021.81
401.734	1030.81
401.958	1037.81
402.182	1068.81
402.406	1096.81
402.63	1076.81
402.854	1130.81
403.078	1122.81
403.302	1136.81
403.526	1176.81
403.75	1195.81
403.974	1237.81
404.198	1241.81
404.422	1235.81
404.645	1220.81
404.869	1185.81
405.093	1202.81
405.317	1132.81
405.541	1161.81
405.765	1153.81
405.988	1108.81
406.212	1140.81
406.436	1139.81
406.66	1144.81
406.883	1160.81
407.107	1244.81
407.331	1329.81
407.555	1341.81
407.778	1341.81
408.002	1332.81
408.226	1271.81
408.449	1219.81
408.673	1210.81
408.896	1198.81
409.12	1162.81
409.344	1157.81
409.567	1193.81
409.791	1206.81
410.014	1198.81
410.238	1183.81
410.461	1174.81
410.685	1139.81
410.908	1160.81
411.132	1124.81
411.355	1072.81
411.578	1106.81
411.802	1070.81
412.025	1084.81
412.249	1102.81
412.472	1102.81
412.695	1037.81
412.919	1026.81
413.142	975.81
413.365	997.81
413.589	1035.81
413.812	1021.81
414.035	1006.81
414.258	1052.81
414.482	1078.81
414.705	1042.81
414.928	1045.81
415.151	1075.81
415.374	1064.81
415.597	1048.81
415.821	1002.81
416.044	1004.81
416.267	1003.81
416.49	992.81
416.713	999.81
416.936	1020.81
417.159	1028.81
417.382	988.81
417.605	1027.81
417.828	1018.81
418.051	1012.81
418.274	1057.81
418.497	1041.81
418.72	1046.81
418.943	1055.81
419.166	1132.81
419.389	1234.81
419.611	1175.81
419.834	1100.81
420.057	1095.81
420.28	1002.81
420.503	1001.81
420.726	1023.81
420.948	1010.81
421.171	1010.81
421.394	1018.81
421.617	1016.81
421.839	1008.81
422.062	1026.81
422.285	1009.81
422.507	1061.81
422.73	1056.81
422.953	1048.81
423.175	1099.81
423.398	1111.81
423.621	1135.81
423.843	1111.81
424.066	1137.81
424.288	1134.81
424.511	1076.81
424.733	1056.81
424.956	1082.81
425.178	1060.81
425.401	1034.81
425.623	1036.81
425.846	1026.81
426.068	982.81
426.291	994.81
426.513	969.81
426.735	950.81
426.958	918.81
427.18	908.81
427.402	956.81
427.625	936.81
427.847	910.81
428.069	950.81
428.292	933.81
428.514	898.81
428.736	914.81
428.958	920.81
429.181	889.81
429.403	910.81
429.625	892.81
429.847	867.81
430.069	875.81
430.292	851.81
430.514	896.81
430.736	884.81
430.958	869.81
431.18	889.81
431.402	890.81
431.624	892.81
431.846	896.81
432.068	891.81
432.29	939.81
432.512	896.81
432.734	908.81
432.956	932.81
433.178	915.81
433.4	932.81
433.622	918.81
433.844	956.81
434.066	918.81
434.287	957.81
434.509	957.81
434.731	977.81
434.953	1028.81
435.175	1060.81
435.397	1059.81
435.618	970.81
435.84	944.81
436.062	949.81
436.284	905.81
436.505	910.81
436.727	916.81
436.949	931.81
437.17	901.81
437.392	905.81
437.614	915.81
437.835	892.81
438.057	876.81
438.278	884.81
438.5	894.81
438.721	869.81
438.943	893.81
439.165	880.81
439.386	909.81
439.608	887.81
439.829	951.81
440.05	933.81
440.272	940.81
440.493	914.81
440.715	926.81
440.936	921.81
441.158	970.81
441.379	1001.81
441.6	1025.81
441.822	1072.81
442.043	1039.81
442.264	1013.81
442.486	998.81
442.707	1024.81
442.928	1019.81
443.149	1050.81
443.371	1018.81
443.592	1009.81
443.813	1068.81
444.034	1046.81
444.255	1088.81
444.476	1118.81
444.698	1198.81
444.919	1253.81
445.14	1355.81
445.361	1166.81
445.582	1068.81
445.803	1013.81
446.024	930.81
446.245	952.81
446.466	942.81
446.687	908.81
446.908	944.81
447.129	942.81
447.35	918.81
447.571	900.81
447.792	872.81
448.013	869.81
448.234	864.81
448.455	836.81
448.675	862.81
448.896	861.81
449.117	839.81
449.338	844.81
449.559	875.81
449.779	845.81
450	822.81
450.221	828.81
450.442	843.81
450.662	851.81
450.883	876.81
451.104	874.81
451.324	883.81
451.545	866.81
451.766	854.81
451.986	868.81
452.207	873.81
452.428	875.81
452.648	868.81
452.869	840.81
453.089	857.81
453.31	850.81
453.53	862.81
453.751	844.81
453.971	833.81
454.192	829.81
454.412	801.81
454.633	824.81
454.853	820.81
455.073	832.81
455.294	807.81
455.514	804.81
455.734	802.81
455.955	781.81
456.175	776.81
456.395	789.81
456.616	780.81
456.836	761.81
457.056	779.81
457.276	776.81
457.497	774.81
457.717	763.81
457.937	783.81
458.157	790.81
458.377	800.81
458.598	846.81
458.818	857.81
459.038	847.81
459.258	889.81
459.478	948.81
459.698	971.81
459.918	980.81
460.138	1012.81
460.358	1057.81
460.578	1101.81
460.798	1115.81
461.018	1099.81
461.238	1106.81
461.458	1080.81
461.678	1080.81
461.898	1094.81
462.118	1116.81
462.338	1116.81
462.558	1174.81
462.777	1209.81
462.997	1372.81
463.217	1480.81
463.437	1517.81
463.657	1383.81
463.876	1308.81
464.096	1291.81
464.316	1301.81
464.536	1328.81
464.755	1260.81
464.975	1184.81
465.195	1141.81
465.414	1085.81
465.634	1023.81
465.854	977.81
466.073	958.81
466.293	906.81
466.512	907.81
466.732	932.81
466.951	903.81
467.171	884.81
467.391	880.81
467.61	915.81
467.829	890.81
468.049	864.81
468.268	856.81
468.488	850.81
468.707	852.81
468.927	834.81
469.146	856.81
469.365	866.81
469.585	859.81
469.804	872.81
470.023	901.81
470.243	937.81
470.462	929.81
470.681	944.81
470.901	924.81
471.12	917.81
471.339	892.81
471.558	846.81
471.777	837.81
471.997	834.81
472.216	862.81
472.435	848.81
472.654	835.81
472.873	848.81
473.092	812.81
473.311	822.81
473.53	840.81
473.749	816.81
473.968	809.81
474.187	814.81
474.406	793.81
474.625	827.81
474.844	832.81
475.063	826.81
475.282	841.81
475.501	848.81
475.72	813.81
475.939	859.81
476.158	865.81
476.377	835.81
476.596	860.81
476.814	852.81
477.033	857.81
477.252	872.81
477.471	885.81
477.69	924.81
477.908	948.81
478.127	998.81
478.346	980.81
478.564	1010.81
478.783	996.81
479.002	1038.81
479.22	1044.81
479.439	1051.81
479.658	1019.81
479.876	1028.81
480.095	1019.81
480.313	1104.81
480.532	1148.81
480.751	1133.81
480.969	1074.81
481.188	1020.81
481.406	1016.81
481.624	979.81
481.843	958.81
482.061	949.81
482.28	942.81
482.498	928.81
482.717	928.81
482.935	933.81
483.153	937.81
483.372	927.81
483.59	937.81
483.808	950.81
484.027	940.81
484.245	948.81
484.463	942.81
484.681	970.81
484.9	957.81
485.118	990.81
485.336	971.81
485.554	998.81
485.772	1036.81
485.99	1000.81
486.209	1020.81
486.427	1005.81
486.645	1011.81
486.863	976.81
487.081	1012.81
487.299	1002.81
487.517	1014.81
487.735	990.81
487.953	982.81
488.171	971.81
488.389	978.81
488.607	976.81
488.825	949.81
489.043	987.81
489.261	970.81
489.479	964.81
489.696	987.81
489.914	948.81
490.132	1019.81
490.35	1004.81
490.568	971.81
490.786	966.81
491.003	960.81
491.221	976.81
491.439	1014.81
491.657	959.81
491.874	957.81
492.092	1011.81
492.31	1022.81
492.527	988.81
492.745	1013.81
492.963	1009.81
493.18	1033.81
493.398	1017.81
493.615	1046.81
493.833	1054.81
494.05	1027.81
494.268	1052.81
494.485	1058.81
494.703	1042.81
494.92	1058.81
495.138	1029.81
495.355	1036.81
495.573	1046.81
495.79	1031.81
496.008	1049.81
496.225	1072.81
496.442	1053.81
496.66	1082.81
496.877	1076.81
497.094	1106.81
497.312	1130.81
497.529	1160.81
497.746	1191.81
497.963	1192.81
498.181	1268.81
498.398	1296.81
498.615	1341.81
