Data from Ni(NO3)2@0.5M.TitratingCurve.Agarose3%dH2O.NegLispCup.LampEnergy10.LIBS07252019_HRD10591_17-59-02-564.txt Node
Date: Thu Jul 25 17:59:02 EDT 2019
User: cochatt
Spectrometer: HR+D1059
Trigger mode: 1
Integration Time (sec): 1.000000E-1
Scans to average: 1
Electric dark correction enabled: true
Nonlinearity correction enabled: false
Boxcar width: 0
XAxis mode: Wavelengths
Number of Pixels in Spectrum: 2048
>>>>>Begin Spectral Data<<<<<
223.165	-9.19
223.4	-9.19
223.635	-9.19
223.869	-27.19
224.104	-17.19
224.338	-3.19
224.573	-21.19
224.808	-21.19
225.042	-23.19
225.277	-5.19
225.511	7.81
225.746	0.81
225.98	17.81
226.215	10.81
226.449	19.81
226.683	17.81
226.918	31.81
227.152	20.81
227.387	32.81
227.621	38.81
227.856	50.81
228.09	46.81
228.324	54.81
228.559	43.81
228.793	56.81
229.027	86.81
229.262	101.81
229.496	107.81
229.73	113.81
229.964	135.81
230.199	155.81
230.433	159.81
230.667	150.81
230.901	143.81
231.136	125.81
231.37	132.81
231.604	154.81
231.838	158.81
232.072	163.81
232.306	136.81
232.541	152.81
232.775	126.81
233.009	117.81
233.243	147.81
233.477	138.81
233.711	146.81
233.945	154.81
234.179	143.81
234.413	145.81
234.647	138.81
234.881	150.81
235.115	117.81
235.349	135.81
235.583	128.81
235.817	128.81
236.051	150.81
236.285	132.81
236.519	122.81
236.753	140.81
236.987	139.81
237.221	127.81
237.455	134.81
237.689	146.81
237.922	152.81
238.156	131.81
238.39	140.81
238.624	153.81
238.858	142.81
239.091	148.81
239.325	135.81
239.559	163.81
239.793	164.81
240.027	183.81
240.26	159.81
240.494	167.81
240.728	150.81
240.961	166.81
241.195	165.81
241.429	163.81
241.662	146.81
241.896	162.81
242.13	186.81
242.363	165.81
242.597	154.81
242.83	164.81
243.064	150.81
243.298	164.81
243.531	155.81
243.765	168.81
243.998	183.81
244.232	178.81
244.465	172.81
244.699	182.81
244.932	168.81
245.166	185.81
245.399	181.81
245.633	164.81
245.866	174.81
246.099	185.81
246.333	177.81
246.566	171.81
246.8	186.81
247.033	180.81
247.266	178.81
247.5	191.81
247.733	193.81
247.966	188.81
248.2	197.81
248.433	184.81
248.666	186.81
248.899	192.81
249.133	190.81
249.366	185.81
249.599	179.81
249.832	211.81
250.066	189.81
250.299	196.81
250.532	197.81
250.765	188.81
250.998	220.81
251.231	230.81
251.465	232.81
251.698	237.81
251.931	210.81
252.164	217.81
252.397	204.81
252.63	200.81
252.863	223.81
253.096	228.81
253.329	216.81
253.562	215.81
253.795	230.81
254.028	222.81
254.261	224.81
254.494	216.81
254.727	218.81
254.96	238.81
255.193	229.81
255.426	223.81
255.659	238.81
255.892	235.81
256.124	233.81
256.357	231.81
256.59	230.81
256.823	221.81
257.056	249.81
257.289	233.81
257.521	242.81
257.754	232.81
257.987	242.81
258.22	238.81
258.452	241.81
258.685	250.81
258.918	244.81
259.151	223.81
259.383	260.81
259.616	259.81
259.849	256.81
260.081	257.81
260.314	251.81
260.547	250.81
260.779	262.81
261.012	265.81
261.244	256.81
261.477	264.81
261.71	252.81
261.942	257.81
262.175	276.81
262.407	278.81
262.64	278.81
262.872	258.81
263.105	255.81
263.337	250.81
263.57	262.81
263.802	290.81
264.035	281.81
264.267	293.81
264.499	285.81
264.732	290.81
264.964	283.81
265.197	277.81
265.429	271.81
265.661	279.81
265.894	278.81
266.126	279.81
266.358	282.81
266.591	273.81
266.823	284.81
267.055	281.81
267.287	298.81
267.52	292.81
267.752	280.81
267.984	287.81
268.216	299.81
268.448	299.81
268.681	299.81
268.913	312.81
269.145	306.81
269.377	313.81
269.609	308.81
269.841	290.81
270.073	313.81
270.306	299.81
270.538	284.81
270.77	290.81
271.002	292.81
271.234	319.81
271.466	314.81
271.698	320.81
271.93	304.81
272.162	314.81
272.394	327.81
272.626	329.81
272.858	322.81
273.09	316.81
273.322	296.81
273.553	313.81
273.785	326.81
274.017	337.81
274.249	333.81
274.481	323.81
274.713	325.81
274.945	328.81
275.176	322.81
275.408	335.81
275.64	328.81
275.872	323.81
276.104	349.81
276.335	334.81
276.567	323.81
276.799	338.81
277.031	343.81
277.262	331.81
277.494	328.81
277.726	336.81
277.957	335.81
278.189	348.81
278.421	345.81
278.652	351.81
278.884	341.81
279.115	342.81
279.347	347.81
279.579	344.81
279.81	346.81
280.042	348.81
280.273	347.81
280.505	356.81
280.736	338.81
280.968	349.81
281.199	352.81
281.431	367.81
281.662	363.81
281.894	364.81
282.125	361.81
282.356	365.81
282.588	359.81
282.819	374.81
283.051	373.81
283.282	351.81
283.513	378.81
283.745	368.81
283.976	368.81
284.207	377.81
284.439	381.81
284.67	398.81
284.901	378.81
285.132	376.81
285.364	378.81
285.595	384.81
285.826	377.81
286.057	374.81
286.288	369.81
286.52	375.81
286.751	405.81
286.982	406.81
287.213	375.81
287.444	387.81
287.675	389.81
287.906	382.81
288.138	384.81
288.369	387.81
288.6	395.81
288.831	391.81
289.062	397.81
289.293	391.81
289.524	408.81
289.755	385.81
289.986	377.81
290.217	414.81
290.448	414.81
290.679	395.81
290.91	387.81
291.141	390.81
291.371	400.81
291.602	411.81
291.833	416.81
292.064	404.81
292.295	382.81
292.526	382.81
292.757	387.81
292.987	406.81
293.218	388.81
293.449	414.81
293.68	393.81
293.91	409.81
294.141	395.81
294.372	390.81
294.603	394.81
294.833	424.81
295.064	417.81
295.295	400.81
295.525	396.81
295.756	411.81
295.987	399.81
296.217	414.81
296.448	431.81
296.679	407.81
296.909	417.81
297.14	414.81
297.37	433.81
297.601	433.81
297.831	435.81
298.062	417.81
298.292	423.81
298.523	447.81
298.753	439.81
298.984	435.81
299.214	436.81
299.445	415.81
299.675	442.81
299.905	438.81
300.136	448.81
300.366	463.81
300.597	458.81
300.827	454.81
301.057	459.81
301.288	459.81
301.518	455.81
301.748	452.81
301.979	457.81
302.209	447.81
302.439	465.81
302.669	474.81
302.9	444.81
303.13	447.81
303.36	459.81
303.59	458.81
303.82	450.81
304.051	456.81
304.281	457.81
304.511	467.81
304.741	455.81
304.971	474.81
305.201	453.81
305.431	489.81
305.661	470.81
305.891	483.81
306.121	480.81
306.352	476.81
306.582	468.81
306.812	446.81
307.042	445.81
307.272	450.81
307.502	460.81
307.731	473.81
307.961	472.81
308.191	470.81
308.421	458.81
308.651	445.81
308.881	454.81
309.111	465.81
309.341	447.81
309.571	462.81
309.8	476.81
310.03	488.81
310.26	498.81
310.49	498.81
310.72	498.81
310.949	489.81
311.179	467.81
311.409	479.81
311.639	491.81
311.868	486.81
312.098	472.81
312.328	464.81
312.557	476.81
312.787	478.81
313.017	492.81
313.246	497.81
313.476	504.81
313.706	508.81
313.935	483.81
314.165	510.81
314.394	487.81
314.624	517.81
314.853	479.81
315.083	482.81
315.312	503.81
315.542	508.81
315.771	491.81
316.001	496.81
316.23	502.81
316.46	518.81
316.689	514.81
316.919	503.81
317.148	508.81
317.377	503.81
317.607	510.81
317.836	489.81
318.065	513.81
318.295	515.81
318.524	513.81
318.753	507.81
318.983	504.81
319.212	504.81
319.441	524.81
319.67	500.81
319.9	513.81
320.129	522.81
320.358	502.81
320.587	510.81
320.816	514.81
321.046	538.81
321.275	515.81
321.504	519.81
321.733	518.81
321.962	518.81
322.191	527.81
322.42	546.81
322.649	543.81
322.878	521.81
323.108	536.81
323.337	540.81
323.566	529.81
323.795	523.81
324.024	529.81
324.253	521.81
324.482	552.81
324.71	526.81
324.939	548.81
325.168	551.81
325.397	550.81
325.626	549.81
325.855	556.81
326.084	566.81
326.313	570.81
326.542	584.81
326.77	585.81
326.999	564.81
327.228	544.81
327.457	559.81
327.686	584.81
327.914	584.81
328.143	560.81
328.372	564.81
328.6	574.81
328.829	591.81
329.058	573.81
329.287	574.81
329.515	558.81
329.744	570.81
329.972	541.81
330.201	574.81
330.43	569.81
330.658	580.81
330.887	576.81
331.115	576.81
331.344	584.81
331.572	598.81
331.801	598.81
332.03	592.81
332.258	599.81
332.486	609.81
332.715	626.81
332.943	623.81
333.172	634.81
333.4	650.81
333.629	631.81
333.857	655.81
334.085	658.81
334.314	655.81
334.542	657.81
334.771	656.81
334.999	681.81
335.227	677.81
335.455	670.81
335.684	673.81
335.912	650.81
336.14	641.81
336.369	682.81
336.597	677.81
336.825	687.81
337.053	662.81
337.281	682.81
337.51	682.81
337.738	634.81
337.966	661.81
338.194	673.81
338.422	653.81
338.65	639.81
338.878	647.81
339.106	647.81
339.334	670.81
339.562	613.81
339.79	620.81
340.018	624.81
340.246	599.81
340.474	627.81
340.702	615.81
340.93	642.81
341.158	634.81
341.386	666.81
341.614	677.81
341.842	656.81
342.07	639.81
342.298	636.81
342.526	609.81
342.754	615.81
342.981	638.81
343.209	626.81
343.437	632.81
343.665	660.81
343.893	638.81
344.12	658.81
344.348	668.81
344.576	648.81
344.804	682.81
345.031	633.81
345.259	629.81
345.487	629.81
345.714	634.81
345.942	651.81
346.17	665.81
346.397	629.81
346.625	604.81
346.853	627.81
347.08	622.81
347.308	611.81
347.535	607.81
347.763	579.81
347.99	613.81
348.218	584.81
348.445	598.81
348.673	597.81
348.9	603.81
349.128	613.81
349.355	606.81
349.583	634.81
349.81	615.81
350.037	581.81
350.265	585.81
350.492	577.81
350.72	567.81
350.947	600.81
351.174	594.81
351.402	633.81
351.629	632.81
351.856	620.81
352.083	582.81
352.311	623.81
352.538	636.81
352.765	625.81
352.992	585.81
353.22	582.81
353.447	566.81
353.674	582.81
353.901	580.81
354.128	592.81
354.355	571.81
354.583	555.81
354.81	576.81
355.037	563.81
355.264	574.81
355.491	564.81
355.718	578.81
355.945	585.81
356.172	581.81
356.399	585.81
356.626	587.81
356.853	593.81
357.08	615.81
357.307	577.81
357.534	579.81
357.761	599.81
357.988	586.81
358.215	570.81
358.441	574.81
358.668	571.81
358.895	583.81
359.122	588.81
359.349	582.81
359.576	568.81
359.802	599.81
360.029	587.81
360.256	578.81
360.483	584.81
360.709	565.81
360.936	600.81
361.163	595.81
361.39	598.81
361.616	590.81
361.843	606.81
362.07	636.81
362.296	615.81
362.523	566.81
362.749	586.81
362.976	569.81
363.203	595.81
363.429	572.81
363.656	606.81
363.882	570.81
364.109	557.81
364.335	569.81
364.562	549.81
364.788	579.81
365.015	589.81
365.241	586.81
365.468	582.81
365.694	569.81
365.92	588.81
366.147	599.81
366.373	582.81
366.599	592.81
366.826	570.81
367.052	586.81
367.278	603.81
367.505	594.81
367.731	601.81
367.957	599.81
368.184	582.81
368.41	602.81
368.636	589.81
368.862	618.81
369.089	626.81
369.315	593.81
369.541	587.81
369.767	597.81
369.993	583.81
370.219	593.81
370.445	611.81
370.672	617.81
370.898	619.81
371.124	633.81
371.35	620.81
371.576	626.81
371.802	644.81
372.028	631.81
372.254	628.81
372.48	631.81
372.706	627.81
372.932	645.81
373.158	646.81
373.384	616.81
373.61	597.81
373.835	642.81
374.061	603.81
374.287	618.81
374.513	650.81
374.739	642.81
374.965	681.81
375.191	643.81
375.416	665.81
375.642	623.81
375.868	645.81
376.094	608.81
376.319	631.81
376.545	622.81
376.771	613.81
376.997	622.81
377.222	635.81
377.448	600.81
377.674	598.81
377.899	630.81
378.125	629.81
378.35	601.81
378.576	596.81
378.802	615.81
379.027	614.81
379.253	616.81
379.478	605.81
379.704	593.81
379.929	618.81
380.155	587.81
380.38	597.81
380.606	625.81
380.831	603.81
381.057	619.81
381.282	609.81
381.507	607.81
381.733	611.81
381.958	626.81
382.184	620.81
382.409	634.81
382.634	626.81
382.86	615.81
383.085	648.81
383.31	655.81
383.535	643.81
383.761	658.81
383.986	649.81
384.211	649.81
384.436	670.81
384.662	668.81
384.887	687.81
385.112	675.81
385.337	684.81
385.562	669.81
385.787	691.81
386.013	717.81
386.238	728.81
386.463	700.81
386.688	708.81
386.913	694.81
387.138	686.81
387.363	696.81
387.588	709.81
387.813	702.81
388.038	727.81
388.263	715.81
388.488	693.81
388.713	705.81
388.938	688.81
389.163	688.81
389.387	704.81
389.612	710.81
389.837	683.81
390.062	704.81
390.287	693.81
390.512	708.81
390.736	722.81
390.961	721.81
391.186	745.81
391.411	737.81
391.636	725.81
391.86	732.81
392.085	741.81
392.31	720.81
392.534	745.81
392.759	758.81
392.984	738.81
393.208	764.81
393.433	700.81
393.658	729.81
393.882	753.81
394.107	734.81
394.331	706.81
394.556	719.81
394.78	736.81
395.005	746.81
395.229	737.81
395.454	731.81
395.678	758.81
395.903	744.81
396.127	746.81
396.352	764.81
396.576	761.81
396.801	747.81
397.025	755.81
397.249	776.81
397.474	796.81
397.698	772.81
397.922	767.81
398.147	784.81
398.371	793.81
398.595	784.81
398.82	801.81
399.044	869.81
399.268	883.81
399.492	932.81
399.717	967.81
399.941	952.81
400.165	938.81
400.389	904.81
400.613	884.81
400.837	889.81
401.062	856.81
401.286	841.81
401.51	835.81
401.734	843.81
401.958	814.81
402.182	824.81
402.406	834.81
402.63	806.81
402.854	835.81
403.078	829.81
403.302	841.81
403.526	844.81
403.75	869.81
403.974	881.81
404.198	856.81
404.422	871.81
404.645	850.81
404.869	848.81
405.093	873.81
405.317	878.81
405.541	886.81
405.765	879.81
405.988	883.81
406.212	869.81
406.436	865.81
406.66	901.81
406.883	891.81
407.107	934.81
407.331	958.81
407.555	976.81
407.778	986.81
408.002	973.81
408.226	956.81
408.449	949.81
408.673	952.81
408.896	900.81
409.12	901.81
409.344	928.81
409.567	879.81
409.791	894.81
410.014	910.81
410.238	897.81
410.461	898.81
410.685	879.81
410.908	906.81
411.132	885.81
411.355	874.81
411.578	859.81
411.802	884.81
412.025	858.81
412.249	881.81
412.472	876.81
412.695	867.81
412.919	887.81
413.142	870.81
413.365	853.81
413.589	876.81
413.812	834.81
414.035	832.81
414.258	865.81
414.482	832.81
414.705	876.81
414.928	842.81
415.151	813.81
415.374	848.81
415.597	832.81
415.821	836.81
416.044	822.81
416.267	806.81
416.49	817.81
416.713	794.81
416.936	819.81
417.159	814.81
417.382	791.81
417.605	789.81
417.828	800.81
418.051	806.81
418.274	820.81
418.497	810.81
418.72	826.81
418.943	815.81
419.166	878.81
419.389	914.81
419.611	904.81
419.834	853.81
420.057	834.81
420.28	827.81
420.503	786.81
420.726	796.81
420.948	787.81
421.171	803.81
421.394	815.81
421.617	805.81
421.839	810.81
422.062	798.81
422.285	815.81
422.507	808.81
422.73	788.81
422.953	815.81
423.175	799.81
423.398	800.81
423.621	825.81
423.843	820.81
424.066	808.81
424.288	814.81
424.511	817.81
424.733	810.81
424.956	818.81
425.178	823.81
425.401	821.81
425.623	814.81
425.846	800.81
426.068	799.81
426.291	780.81
426.513	775.81
426.735	781.81
426.958	809.81
427.18	743.81
427.402	784.81
427.625	802.81
427.847	770.81
428.069	769.81
428.292	791.81
428.514	778.81
428.736	760.81
428.958	784.81
429.181	769.81
429.403	774.81
429.625	779.81
429.847	776.81
430.069	770.81
430.292	774.81
430.514	754.81
430.736	785.81
430.958	774.81
431.18	752.81
431.402	795.81
431.624	794.81
431.846	781.81
432.068	782.81
432.29	781.81
432.512	796.81
432.734	798.81
432.956	778.81
433.178	811.81
433.4	798.81
433.622	828.81
433.844	832.81
434.066	808.81
434.287	817.81
434.509	808.81
434.731	822.81
434.953	830.81
435.175	836.81
435.397	866.81
435.618	821.81
435.84	815.81
436.062	791.81
436.284	764.81
436.505	790.81
436.727	787.81
436.949	785.81
437.17	811.81
437.392	821.81
437.614	773.81
437.835	750.81
438.057	756.81
438.278	747.81
438.5	766.81
438.721	768.81
438.943	782.81
439.165	764.81
439.386	778.81
439.608	776.81
439.829	802.81
440.05	796.81
440.272	765.81
440.493	794.81
440.715	794.81
440.936	811.81
441.158	820.81
441.379	789.81
441.6	832.81
441.822	859.81
442.043	811.81
442.264	826.81
442.486	798.81
442.707	795.81
442.928	814.81
443.149	824.81
443.371	856.81
443.592	882.81
443.813	883.81
444.034	856.81
444.255	835.81
444.476	870.81
444.698	894.81
444.919	883.81
445.14	937.81
445.361	918.81
445.582	848.81
445.803	828.81
446.024	816.81
446.245	792.81
446.466	796.81
446.687	785.81
446.908	787.81
447.129	754.81
447.35	762.81
447.571	783.81
447.792	735.81
448.013	729.81
448.234	734.81
448.455	743.81
448.675	742.81
448.896	735.81
449.117	716.81
449.338	729.81
449.559	734.81
449.779	718.81
450	709.81
450.221	740.81
450.442	708.81
450.662	719.81
450.883	710.81
451.104	754.81
451.324	739.81
451.545	753.81
451.766	731.81
451.986	701.81
452.207	694.81
452.428	682.81
452.648	718.81
452.869	695.81
453.089	697.81
453.31	688.81
453.53	715.81
453.751	710.81
453.971	696.81
454.192	702.81
454.412	718.81
454.633	703.81
454.853	710.81
455.073	689.81
455.294	689.81
455.514	700.81
455.734	711.81
455.955	711.81
456.175	739.81
456.395	680.81
456.616	695.81
456.836	678.81
457.056	678.81
457.276	675.81
457.497	680.81
457.717	723.81
457.937	740.81
458.157	720.81
458.377	711.81
458.598	714.81
458.818	736.81
459.038	748.81
459.258	751.81
459.478	812.81
459.698	859.81
459.918	857.81
460.138	833.81
460.358	840.81
460.578	845.81
460.798	892.81
461.018	890.81
461.238	844.81
461.458	818.81
461.678	839.81
461.898	857.81
462.118	864.81
462.338	859.81
462.558	912.81
462.777	923.81
462.997	972.81
463.217	965.81
463.437	991.81
463.657	985.81
463.876	977.81
464.096	958.81
464.316	927.81
464.536	946.81
464.755	907.81
464.975	871.81
465.195	881.81
465.414	870.81
465.634	803.81
465.854	807.81
466.073	778.81
466.293	795.81
466.512	789.81
466.732	756.81
466.951	753.81
467.171	744.81
467.391	776.81
467.61	750.81
467.829	731.81
468.049	736.81
468.268	750.81
468.488	752.81
468.707	730.81
468.927	771.81
469.146	755.81
469.365	780.81
469.585	747.81
469.804	745.81
470.023	750.81
470.243	755.81
470.462	780.81
470.681	784.81
470.901	745.81
471.12	772.81
471.339	751.81
471.558	746.81
471.777	754.81
471.997	748.81
472.216	758.81
472.435	748.81
472.654	723.81
472.873	736.81
473.092	746.81
473.311	735.81
473.53	734.81
473.749	751.81
473.968	754.81
474.187	716.81
474.406	738.81
474.625	743.81
474.844	736.81
475.063	731.81
475.282	759.81
475.501	785.81
475.72	764.81
475.939	761.81
476.158	787.81
476.377	790.81
476.596	784.81
476.814	777.81
477.033	777.81
477.252	788.81
477.471	823.81
477.69	832.81
477.908	842.81
478.127	863.81
478.346	843.81
478.564	884.81
478.783	862.81
479.002	878.81
479.22	907.81
479.439	890.81
479.658	848.81
479.876	858.81
480.095	850.81
480.313	867.81
480.532	901.81
480.751	878.81
480.969	840.81
481.188	858.81
481.406	841.81
481.624	864.81
481.843	836.81
482.061	856.81
482.28	843.81
482.498	826.81
482.717	821.81
482.935	850.81
483.153	863.81
483.372	881.81
483.59	924.81
483.808	907.81
484.027	879.81
484.245	893.81
484.463	882.81
484.681	892.81
484.9	897.81
485.118	883.81
485.336	851.81
485.554	893.81
485.772	843.81
485.99	856.81
486.209	864.81
486.427	875.81
486.645	856.81
486.863	871.81
487.081	907.81
487.299	902.81
487.517	878.81
487.735	919.81
487.953	914.81
488.171	909.81
488.389	904.81
488.607	874.81
488.825	870.81
489.043	899.81
489.261	888.81
489.479	895.81
489.696	889.81
489.914	880.81
490.132	890.81
490.35	890.81
490.568	907.81
490.786	902.81
491.003	894.81
491.221	930.81
491.439	914.81
491.657	905.81
491.874	922.81
492.092	940.81
492.31	960.81
492.527	936.81
492.745	947.81
492.963	922.81
493.18	939.81
493.398	923.81
493.615	938.81
493.833	952.81
494.05	925.81
494.268	944.81
494.485	909.81
494.703	936.81
494.92	929.81
495.138	948.81
495.355	961.81
495.573	954.81
495.79	988.81
496.008	958.81
496.225	949.81
496.442	967.81
496.66	977.81
496.877	975.81
497.094	1022.81
497.312	1007.81
497.529	1016.81
497.746	1043.81
497.963	1064.81
498.181	1074.81
498.398	1132.81
498.615	1147.81
498.832	1170.81
499.049	1230.81
499.267	1290.81
499.484	1334.81
499.701	1410.81
499.918	1474.81
500.135	1532.81
500.352	1621.81
500.569	1625.81
500.786	1629.81
501.003	1559.81
501.22	1527.81
501.437	1431.81
