Data from Ni(NO3)2@0.125M.TitratingCurve.Agarose3%dH2O.NegLispCup.LampEnergy10.LIBS07252019_HRD10591_18-10-59-567.txt Node
Date: Thu Jul 25 18:10:59 EDT 2019
User: cochatt
Spectrometer: HR+D1059
Trigger mode: 1
Integration Time (sec): 1.000000E-1
Scans to average: 1
Electric dark correction enabled: true
Nonlinearity correction enabled: false
Boxcar width: 0
XAxis mode: Wavelengths
Number of Pixels in Spectrum: 2048
>>>>>Begin Spectral Data<<<<<
223.165	-11.75
223.4	-11.75
223.635	-11.75
223.869	-22.75
224.104	-30.75
224.338	-11.75
224.573	-15.75
224.808	-15.75
225.042	-13.75
225.277	-14.75
225.511	-13.75
225.746	9.25
225.98	5.25
226.215	7.25
226.449	30.25
226.683	24.25
226.918	41.25
227.152	33.25
227.387	42.25
227.621	44.25
227.856	49.25
228.09	38.25
228.324	53.25
228.559	63.25
228.793	75.25
229.027	102.25
229.262	91.25
229.496	113.25
229.73	110.25
229.964	105.25
230.199	119.25
230.433	118.25
230.667	128.25
230.901	130.25
231.136	127.25
231.37	140.25
231.604	133.25
231.838	142.25
232.072	128.25
232.306	143.25
232.541	135.25
232.775	118.25
233.009	145.25
233.243	144.25
233.477	143.25
233.711	130.25
233.945	143.25
234.179	138.25
234.413	144.25
234.647	144.25
234.881	139.25
235.115	133.25
235.349	139.25
235.583	127.25
235.817	124.25
236.051	142.25
236.285	139.25
236.519	140.25
236.753	145.25
236.987	138.25
237.221	141.25
237.455	144.25
237.689	145.25
237.922	159.25
238.156	159.25
238.39	145.25
238.624	140.25
238.858	158.25
239.091	158.25
239.325	137.25
239.559	168.25
239.793	154.25
240.027	156.25
240.26	166.25
240.494	158.25
240.728	158.25
240.961	161.25
241.195	158.25
241.429	158.25
241.662	167.25
241.896	181.25
242.13	184.25
242.363	171.25
242.597	174.25
242.83	175.25
243.064	174.25
243.298	166.25
243.531	187.25
243.765	174.25
243.998	176.25
244.232	195.25
244.465	185.25
244.699	187.25
244.932	198.25
245.166	188.25
245.399	218.25
245.633	203.25
245.866	204.25
246.099	187.25
246.333	193.25
246.566	199.25
246.8	197.25
247.033	205.25
247.266	211.25
247.5	212.25
247.733	210.25
247.966	212.25
248.2	221.25
248.433	201.25
248.666	215.25
248.899	212.25
249.133	201.25
249.366	214.25
249.599	206.25
249.832	216.25
250.066	221.25
250.299	223.25
250.532	227.25
250.765	221.25
250.998	218.25
251.231	216.25
251.465	245.25
251.698	226.25
251.931	244.25
252.164	221.25
252.397	237.25
252.63	229.25
252.863	248.25
253.096	250.25
253.329	241.25
253.562	241.25
253.795	229.25
254.028	247.25
254.261	250.25
254.494	252.25
254.727	251.25
254.96	252.25
255.193	265.25
255.426	236.25
255.659	252.25
255.892	250.25
256.124	252.25
256.357	253.25
256.59	253.25
256.823	250.25
257.056	259.25
257.289	272.25
257.521	248.25
257.754	259.25
257.987	273.25
258.22	274.25
258.452	271.25
258.685	276.25
258.918	265.25
259.151	274.25
259.383	281.25
259.616	282.25
259.849	274.25
260.081	278.25
260.314	278.25
260.547	285.25
260.779	278.25
261.012	274.25
261.244	289.25
261.477	290.25
261.71	276.25
261.942	281.25
262.175	281.25
262.407	280.25
262.64	295.25
262.872	280.25
263.105	305.25
263.337	290.25
263.57	308.25
263.802	301.25
264.035	300.25
264.267	309.25
264.499	299.25
264.732	312.25
264.964	308.25
265.197	300.25
265.429	297.25
265.661	308.25
265.894	312.25
266.126	304.25
266.358	316.25
266.591	310.25
266.823	324.25
267.055	318.25
267.287	314.25
267.52	310.25
267.752	333.25
267.984	326.25
268.216	317.25
268.448	327.25
268.681	340.25
268.913	321.25
269.145	321.25
269.377	320.25
269.609	326.25
269.841	329.25
270.073	320.25
270.306	336.25
270.538	324.25
270.77	304.25
271.002	331.25
271.234	331.25
271.466	353.25
271.698	339.25
271.93	356.25
272.162	329.25
272.394	343.25
272.626	338.25
272.858	334.25
273.09	344.25
273.322	346.25
273.553	342.25
273.785	334.25
274.017	346.25
274.249	343.25
274.481	381.25
274.713	346.25
274.945	346.25
275.176	364.25
275.408	361.25
275.64	357.25
275.872	364.25
276.104	354.25
276.335	350.25
276.567	358.25
276.799	373.25
277.031	364.25
277.262	382.25
277.494	378.25
277.726	390.25
277.957	380.25
278.189	383.25
278.421	370.25
278.652	379.25
278.884	378.25
279.115	356.25
279.347	376.25
279.579	380.25
279.81	377.25
280.042	389.25
280.273	373.25
280.505	382.25
280.736	401.25
280.968	406.25
281.199	396.25
281.431	397.25
281.662	399.25
281.894	384.25
282.125	398.25
282.356	410.25
282.588	396.25
282.819	413.25
283.051	409.25
283.282	417.25
283.513	391.25
283.745	398.25
283.976	388.25
284.207	405.25
284.439	413.25
284.67	429.25
284.901	418.25
285.132	423.25
285.364	406.25
285.595	428.25
285.826	418.25
286.057	432.25
286.288	417.25
286.52	425.25
286.751	420.25
286.982	408.25
287.213	458.25
287.444	431.25
287.675	414.25
287.906	437.25
288.138	420.25
288.369	402.25
288.6	431.25
288.831	418.25
289.062	415.25
289.293	467.25
289.524	470.25
289.755	444.25
289.986	442.25
290.217	443.25
290.448	461.25
290.679	471.25
290.91	446.25
291.141	460.25
291.371	452.25
291.602	466.25
291.833	445.25
292.064	453.25
292.295	472.25
292.526	426.25
292.757	438.25
292.987	450.25
293.218	464.25
293.449	458.25
293.68	455.25
293.91	430.25
294.141	438.25
294.372	444.25
294.603	447.25
294.833	466.25
295.064	475.25
295.295	456.25
295.525	445.25
295.756	464.25
295.987	470.25
296.217	463.25
296.448	472.25
296.679	460.25
296.909	462.25
297.14	482.25
297.37	476.25
297.601	491.25
297.831	477.25
298.062	491.25
298.292	484.25
298.523	502.25
298.753	512.25
298.984	494.25
299.214	506.25
299.445	489.25
299.675	496.25
299.905	491.25
300.136	491.25
300.366	493.25
300.597	480.25
300.827	509.25
301.057	506.25
301.288	514.25
301.518	542.25
301.748	504.25
301.979	516.25
302.209	518.25
302.439	524.25
302.669	520.25
302.9	505.25
303.13	493.25
303.36	488.25
303.59	482.25
303.82	506.25
304.051	518.25
304.281	515.25
304.511	529.25
304.741	516.25
304.971	520.25
305.201	520.25
305.431	497.25
305.661	504.25
305.891	495.25
306.121	497.25
306.352	503.25
306.582	474.25
306.812	477.25
307.042	510.25
307.272	495.25
307.502	492.25
307.731	501.25
307.961	494.25
308.191	492.25
308.421	493.25
308.651	482.25
308.881	471.25
309.111	496.25
309.341	479.25
309.571	482.25
309.8	494.25
310.03	497.25
310.26	466.25
310.49	506.25
310.72	497.25
310.949	500.25
311.179	485.25
311.409	526.25
311.639	513.25
311.868	510.25
312.098	510.25
312.328	519.25
312.557	532.25
312.787	517.25
313.017	526.25
313.246	537.25
313.476	526.25
313.706	510.25
313.935	539.25
314.165	529.25
314.394	548.25
314.624	527.25
314.853	524.25
315.083	546.25
315.312	536.25
315.542	549.25
315.771	536.25
316.001	534.25
316.23	535.25
316.46	524.25
316.689	530.25
316.919	529.25
317.148	541.25
317.377	516.25
317.607	504.25
317.836	513.25
318.065	504.25
318.295	497.25
318.524	520.25
318.753	496.25
318.983	516.25
319.212	516.25
319.441	520.25
319.67	522.25
319.9	503.25
320.129	510.25
320.358	516.25
320.587	545.25
320.816	506.25
321.046	534.25
321.275	508.25
321.504	532.25
321.733	519.25
321.962	525.25
322.191	529.25
322.42	528.25
322.649	537.25
322.878	519.25
323.108	523.25
323.337	538.25
323.566	522.25
323.795	536.25
324.024	548.25
324.253	543.25
324.482	552.25
324.71	543.25
324.939	530.25
325.168	534.25
325.397	545.25
325.626	557.25
325.855	543.25
326.084	549.25
326.313	584.25
326.542	610.25
326.77	584.25
326.999	555.25
327.228	555.25
327.457	559.25
327.686	569.25
327.914	579.25
328.143	588.25
328.372	589.25
328.6	555.25
328.829	577.25
329.058	566.25
329.287	576.25
329.515	575.25
329.744	585.25
329.972	586.25
330.201	602.25
330.43	591.25
330.658	617.25
330.887	598.25
331.115	592.25
331.344	611.25
331.572	610.25
331.801	610.25
332.03	616.25
332.258	622.25
332.486	660.25
332.715	696.25
332.943	709.25
333.172	740.25
333.4	788.25
333.629	778.25
333.857	799.25
334.085	762.25
334.314	780.25
334.542	737.25
334.771	740.25
334.999	703.25
335.227	731.25
335.455	711.25
335.684	702.25
335.912	697.25
336.14	713.25
336.369	697.25
336.597	690.25
336.825	683.25
337.053	686.25
337.281	694.25
337.51	708.25
337.738	661.25
337.966	624.25
338.194	630.25
338.422	629.25
338.65	615.25
338.878	632.25
339.106	628.25
339.334	613.25
339.562	622.25
339.79	594.25
340.018	605.25
340.246	597.25
340.474	588.25
340.702	598.25
340.93	618.25
341.158	610.25
341.386	617.25
341.614	593.25
341.842	570.25
342.07	588.25
342.298	583.25
342.526	590.25
342.754	594.25
342.981	594.25
343.209	626.25
343.437	632.25
343.665	669.25
343.893	729.25
344.12	747.25
344.348	713.25
344.576	658.25
344.804	649.25
345.031	636.25
345.259	607.25
345.487	599.25
345.714	594.25
345.942	605.25
346.17	613.25
346.397	593.25
346.625	605.25
346.853	584.25
347.08	591.25
347.308	608.25
347.535	583.25
347.763	618.25
347.99	597.25
348.218	594.25
348.445	591.25
348.673	576.25
348.9	592.25
349.128	576.25
349.355	565.25
349.583	557.25
349.81	563.25
350.037	569.25
350.265	561.25
350.492	582.25
350.72	566.25
350.947	569.25
351.174	576.25
351.402	569.25
351.629	550.25
351.856	581.25
352.083	576.25
352.311	540.25
352.538	567.25
352.765	574.25
352.992	577.25
353.22	563.25
353.447	553.25
353.674	571.25
353.901	548.25
354.128	564.25
354.355	550.25
354.583	547.25
354.81	570.25
355.037	597.25
355.264	574.25
355.491	542.25
355.718	534.25
355.945	571.25
356.172	566.25
356.399	558.25
356.626	542.25
356.853	574.25
357.08	551.25
357.307	552.25
357.534	556.25
357.761	591.25
357.988	574.25
358.215	546.25
358.441	564.25
358.668	567.25
358.895	567.25
359.122	568.25
359.349	568.25
359.576	541.25
359.802	566.25
360.029	571.25
360.256	568.25
360.483	567.25
360.709	552.25
360.936	553.25
361.163	568.25
361.39	556.25
361.616	549.25
361.843	565.25
362.07	568.25
362.296	557.25
362.523	520.25
362.749	551.25
362.976	557.25
363.203	561.25
363.429	575.25
363.656	560.25
363.882	541.25
364.109	573.25
364.335	562.25
364.562	551.25
364.788	562.25
365.015	586.25
365.241	575.25
365.468	569.25
365.694	542.25
365.92	530.25
366.147	556.25
366.373	562.25
366.599	567.25
366.826	545.25
367.052	558.25
367.278	539.25
367.505	563.25
367.731	573.25
367.957	562.25
368.184	572.25
368.41	566.25
368.636	572.25
368.862	566.25
369.089	562.25
369.315	572.25
369.541	591.25
369.767	585.25
369.993	579.25
370.219	585.25
370.445	598.25
370.672	585.25
370.898	588.25
371.124	590.25
371.35	608.25
371.576	619.25
371.802	585.25
372.028	585.25
372.254	598.25
372.48	607.25
372.706	623.25
372.932	645.25
373.158	644.25
373.384	634.25
373.61	622.25
373.835	625.25
374.061	633.25
374.287	640.25
374.513	638.25
374.739	643.25
374.965	670.25
375.191	698.25
375.416	672.25
375.642	669.25
375.868	664.25
376.094	642.25
376.319	640.25
376.545	620.25
376.771	609.25
376.997	632.25
377.222	613.25
377.448	614.25
377.674	606.25
377.899	606.25
378.125	590.25
378.35	617.25
378.576	613.25
378.802	591.25
379.027	606.25
379.253	599.25
379.478	618.25
379.704	586.25
379.929	613.25
380.155	624.25
380.38	595.25
380.606	615.25
380.831	595.25
381.057	617.25
381.282	599.25
381.507	603.25
381.733	603.25
381.958	631.25
382.184	621.25
382.409	624.25
382.634	666.25
382.86	646.25
383.085	652.25
383.31	635.25
383.535	660.25
383.761	675.25
383.986	670.25
384.211	683.25
384.436	730.25
384.662	722.25
384.887	724.25
385.112	722.25
385.337	731.25
385.562	744.25
385.787	710.25
386.013	760.25
386.238	746.25
386.463	758.25
386.688	760.25
386.913	723.25
387.138	698.25
387.363	687.25
387.588	703.25
387.813	711.25
388.038	702.25
388.263	692.25
388.488	726.25
388.713	726.25
388.938	721.25
389.163	704.25
389.387	702.25
389.612	712.25
389.837	700.25
390.062	696.25
390.287	704.25
390.512	702.25
390.736	707.25
390.961	708.25
391.186	750.25
391.411	759.25
391.636	780.25
391.86	792.25
392.085	828.25
392.31	838.25
392.534	812.25
392.759	761.25
392.984	765.25
393.208	772.25
393.433	760.25
393.658	760.25
393.882	757.25
394.107	780.25
394.331	797.25
394.556	751.25
394.78	749.25
395.005	784.25
395.229	748.25
395.454	801.25
395.678	824.25
395.903	829.25
396.127	817.25
396.352	768.25
396.576	752.25
396.801	754.25
397.025	772.25
397.249	812.25
397.474	795.25
397.698	788.25
397.922	811.25
398.147	809.25
398.371	860.25
398.595	817.25
398.82	893.25
399.044	944.25
399.268	1033.25
399.492	1247.25
399.717	1405.25
399.941	1404.25
400.165	1216.25
400.389	1086.25
400.613	1005.25
400.837	926.25
401.062	893.25
401.286	900.25
401.51	896.25
401.734	897.25
401.958	882.25
402.182	910.25
402.406	919.25
402.63	929.25
402.854	949.25
403.078	975.25
403.302	1015.25
403.526	1035.25
403.75	1050.25
403.974	1069.25
404.198	1065.25
404.422	1074.25
404.645	1047.25
404.869	1005.25
405.093	1028.25
405.317	1001.25
405.541	1006.25
405.765	993.25
405.988	978.25
406.212	972.25
406.436	984.25
406.66	977.25
406.883	1009.25
407.107	1113.25
407.331	1153.25
407.555	1186.25
407.778	1177.25
408.002	1148.25
408.226	1112.25
408.449	1101.25
408.673	1024.25
408.896	1044.25
409.12	1006.25
409.344	1037.25
409.567	1041.25
409.791	1098.25
410.014	1052.25
410.238	1014.25
410.461	1044.25
410.685	1016.25
410.908	994.25
411.132	988.25
411.355	936.25
411.578	965.25
411.802	914.25
412.025	946.25
412.249	944.25
412.472	954.25
412.695	914.25
412.919	897.25
413.142	903.25
413.365	880.25
413.589	910.25
413.812	904.25
414.035	907.25
414.258	872.25
414.482	908.25
414.705	920.25
414.928	944.25
415.151	934.25
415.374	927.25
415.597	909.25
415.821	881.25
416.044	863.25
416.267	882.25
416.49	867.25
416.713	876.25
416.936	876.25
417.159	909.25
417.382	902.25
417.605	876.25
417.828	900.25
418.051	897.25
418.274	879.25
418.497	902.25
418.72	920.25
418.943	921.25
419.166	982.25
419.389	1036.25
419.611	1022.25
419.834	978.25
420.057	954.25
420.28	935.25
420.503	916.25
420.726	911.25
420.948	872.25
421.171	896.25
421.394	896.25
421.617	891.25
421.839	897.25
422.062	888.25
422.285	902.25
422.507	934.25
422.73	889.25
422.953	933.25
423.175	927.25
423.398	956.25
423.621	950.25
423.843	981.25
424.066	983.25
424.288	1001.25
424.511	957.25
424.733	943.25
424.956	905.25
425.178	893.25
425.401	908.25
425.623	916.25
425.846	881.25
426.068	876.25
426.291	843.25
426.513	848.25
426.735	834.25
426.958	861.25
427.18	826.25
427.402	825.25
427.625	816.25
427.847	813.25
428.069	811.25
428.292	797.25
428.514	800.25
428.736	792.25
428.958	792.25
429.181	784.25
429.403	790.25
429.625	814.25
429.847	796.25
430.069	776.25
430.292	778.25
430.514	764.25
430.736	780.25
430.958	795.25
431.18	786.25
431.402	796.25
431.624	785.25
431.846	808.25
432.068	834.25
432.29	820.25
432.512	826.25
432.734	834.25
432.956	808.25
433.178	825.25
433.4	836.25
433.622	814.25
433.844	824.25
434.066	840.25
434.287	828.25
434.509	868.25
434.731	886.25
434.953	914.25
435.175	937.25
435.397	909.25
435.618	883.25
435.84	842.25
436.062	807.25
436.284	802.25
436.505	800.25
436.727	804.25
436.949	826.25
437.17	801.25
437.392	804.25
437.614	796.25
437.835	774.25
438.057	757.25
438.278	776.25
438.5	759.25
438.721	820.25
438.943	809.25
439.165	793.25
439.386	796.25
439.608	812.25
439.829	822.25
440.05	814.25
440.272	815.25
440.493	822.25
440.715	845.25
440.936	855.25
441.158	847.25
441.379	856.25
441.6	938.25
441.822	945.25
442.043	921.25
442.264	881.25
442.486	891.25
442.707	894.25
442.928	893.25
443.149	919.25
443.371	912.25
443.592	916.25
443.813	938.25
444.034	961.25
444.255	962.25
444.476	1008.25
444.698	1073.25
444.919	1144.25
445.14	1166.25
445.361	1049.25
445.582	958.25
445.803	889.25
446.024	851.25
446.245	857.25
446.466	837.25
446.687	810.25
446.908	829.25
447.129	814.25
447.35	789.25
447.571	795.25
447.792	796.25
448.013	792.25
448.234	763.25
448.455	770.25
448.675	749.25
448.896	786.25
449.117	746.25
449.338	776.25
449.559	744.25
449.779	752.25
450	750.25
450.221	737.25
450.442	751.25
450.662	780.25
450.883	804.25
451.104	761.25
451.324	764.25
451.545	761.25
451.766	764.25
451.986	771.25
452.207	763.25
452.428	751.25
452.648	741.25
452.869	738.25
453.089	737.25
453.31	778.25
453.53	745.25
453.751	750.25
453.971	726.25
454.192	715.25
454.412	719.25
454.633	711.25
454.853	702.25
455.073	727.25
455.294	720.25
455.514	706.25
455.734	700.25
455.955	687.25
456.175	710.25
456.395	703.25
456.616	707.25
456.836	719.25
457.056	654.25
457.276	669.25
457.497	710.25
457.717	700.25
457.937	697.25
458.157	736.25
458.377	718.25
458.598	732.25
458.818	784.25
459.038	779.25
459.258	822.25
459.478	825.25
459.698	848.25
459.918	906.25
460.138	920.25
460.358	965.25
460.578	956.25
460.798	969.25
461.018	988.25
461.238	952.25
461.458	945.25
461.678	944.25
461.898	952.25
462.118	979.25
462.338	1048.25
462.558	1047.25
462.777	1089.25
462.997	1189.25
463.217	1306.25
463.437	1333.25
463.657	1231.25
463.876	1125.25
464.096	1137.25
464.316	1142.25
464.536	1145.25
464.755	1122.25
464.975	1040.25
465.195	992.25
465.414	964.25
465.634	876.25
465.854	847.25
466.073	853.25
466.293	807.25
466.512	824.25
466.732	804.25
466.951	795.25
467.171	787.25
467.391	786.25
467.61	798.25
467.829	793.25
468.049	761.25
468.268	766.25
468.488	764.25
468.707	768.25
468.927	719.25
469.146	774.25
469.365	788.25
469.585	761.25
469.804	780.25
470.023	831.25
470.243	840.25
470.462	814.25
470.681	818.25
470.901	820.25
471.12	786.25
471.339	766.25
471.558	792.25
471.777	758.25
471.997	770.25
472.216	762.25
472.435	768.25
472.654	725.25
472.873	711.25
473.092	732.25
473.311	720.25
473.53	720.25
473.749	736.25
473.968	741.25
474.187	720.25
474.406	711.25
474.625	736.25
474.844	739.25
475.063	722.25
475.282	732.25
475.501	749.25
475.72	752.25
475.939	745.25
476.158	745.25
476.377	736.25
476.596	744.25
476.814	783.25
477.033	759.25
477.252	775.25
477.471	775.25
477.69	809.25
477.908	834.25
478.127	889.25
478.346	865.25
478.564	839.25
478.783	868.25
479.002	919.25
479.22	926.25
479.439	924.25
479.658	898.25
479.876	936.25
480.095	922.25
480.313	938.25
480.532	993.25
480.751	973.25
480.969	921.25
481.188	908.25
481.406	878.25
481.624	849.25
481.843	850.25
482.061	832.25
482.28	828.25
482.498	833.25
482.717	838.25
482.935	820.25
483.153	808.25
483.372	817.25
483.59	827.25
483.808	842.25
484.027	829.25
484.245	840.25
484.463	839.25
484.681	877.25
484.9	868.25
485.118	866.25
485.336	863.25
485.554	888.25
485.772	890.25
485.99	877.25
486.209	871.25
486.427	874.25
486.645	905.25
486.863	870.25
487.081	877.25
487.299	873.25
487.517	871.25
487.735	888.25
487.953	873.25
488.171	880.25
488.389	880.25
488.607	850.25
488.825	860.25
489.043	879.25
489.261	849.25
489.479	853.25
489.696	886.25
489.914	872.25
490.132	878.25
490.35	872.25
490.568	858.25
490.786	876.25
491.003	872.25
491.221	905.25
491.439	912.25
491.657	864.25
491.874	870.25
492.092	886.25
492.31	898.25
492.527	877.25
492.745	908.25
492.963	885.25
493.18	889.25
493.398	887.25
493.615	922.25
493.833	911.25
494.05	920.25
494.268	917.25
494.485	912.25
494.703	902.25
494.92	947.25
495.138	927.25
495.355	942.25
495.573	907.25
495.79	910.25
496.008	922.25
496.225	946.25
496.442	952.25
496.66	968.25
496.877	953.25
497.094	999.25
497.312	984.25
497.529	985.25
497.746	1014.25
497.963	1061.25
498.181	1094.25
498.398	1147.25
498.615	1204.25
498.832	1304.25
499.049	1401.25
499.267	1506.25
499.484	1702.25
499.701	1860.25
499.918	2023.25
500.135	2383.25
500.352	2751.25
500.569	2932.25
