Data from Ni(NO3)2@0.25M.TitratingCurve.Agarose3%dH2O.NegLispCup.LampEnergy10.LIBS07252019_HRD10591_18-04-59-566.txt Node
Date: Thu Jul 25 18:04:59 EDT 2019
User: cochatt
Spectrometer: HR+D1059
Trigger mode: 1
Integration Time (sec): 1.000000E-1
Scans to average: 1
Electric dark correction enabled: true
Nonlinearity correction enabled: false
Boxcar width: 0
XAxis mode: Wavelengths
Number of Pixels in Spectrum: 2048
>>>>>Begin Spectral Data<<<<<
223.165	-9.31
223.4	-9.31
223.635	-9.31
223.869	-10.31
224.104	-26.31
224.338	-2.31
224.573	-28.31
224.808	-16.31
225.042	-6.31
225.277	-15.31
225.511	-11.31
225.746	4.69
225.98	16.69
226.215	11.69
226.449	25.69
226.683	10.69
226.918	26.69
227.152	29.69
227.387	35.69
227.621	37.69
227.856	40.69
228.09	61.69
228.324	49.69
228.559	57.69
228.793	76.69
229.027	102.69
229.262	130.69
229.496	132.69
229.73	140.69
229.964	131.69
230.199	130.69
230.433	126.69
230.667	130.69
230.901	141.69
231.136	148.69
231.37	148.69
231.604	166.69
231.838	172.69
232.072	158.69
232.306	152.69
232.541	165.69
232.775	154.69
233.009	151.69
233.243	153.69
233.477	158.69
233.711	166.69
233.945	169.69
234.179	157.69
234.413	156.69
234.647	171.69
234.881	164.69
235.115	172.69
235.349	146.69
235.583	172.69
235.817	171.69
236.051	170.69
236.285	172.69
236.519	153.69
236.753	167.69
236.987	181.69
237.221	186.69
237.455	185.69
237.689	176.69
237.922	180.69
238.156	193.69
238.39	196.69
238.624	186.69
238.858	193.69
239.091	192.69
239.325	176.69
239.559	206.69
239.793	197.69
240.027	199.69
240.26	191.69
240.494	187.69
240.728	198.69
240.961	208.69
241.195	213.69
241.429	206.69
241.662	217.69
241.896	208.69
242.13	206.69
242.363	208.69
242.597	215.69
242.83	226.69
243.064	227.69
243.298	242.69
243.531	223.69
243.765	248.69
243.998	227.69
244.232	246.69
244.465	236.69
244.699	241.69
244.932	235.69
245.166	240.69
245.399	248.69
245.633	241.69
245.866	232.69
246.099	256.69
246.333	244.69
246.566	241.69
246.8	249.69
247.033	252.69
247.266	260.69
247.5	268.69
247.733	240.69
247.966	264.69
248.2	280.69
248.433	260.69
248.666	277.69
248.899	258.69
249.133	295.69
249.366	295.69
249.599	273.69
249.832	283.69
250.066	300.69
250.299	295.69
250.532	321.69
250.765	312.69
250.998	314.69
251.231	315.69
251.465	310.69
251.698	326.69
251.931	313.69
252.164	318.69
252.397	327.69
252.63	359.69
252.863	337.69
253.096	341.69
253.329	329.69
253.562	344.69
253.795	330.69
254.028	356.69
254.261	353.69
254.494	358.69
254.727	357.69
254.96	376.69
255.193	356.69
255.426	355.69
255.659	369.69
255.892	365.69
256.124	381.69
256.357	375.69
256.59	378.69
256.823	373.69
257.056	410.69
257.289	380.69
257.521	385.69
257.754	414.69
257.987	388.69
258.22	412.69
258.452	411.69
258.685	409.69
258.918	415.69
259.151	406.69
259.383	420.69
259.616	405.69
259.849	427.69
260.081	425.69
260.314	430.69
260.547	407.69
260.779	406.69
261.012	438.69
261.244	432.69
261.477	444.69
261.71	433.69
261.942	449.69
262.175	443.69
262.407	437.69
262.64	423.69
262.872	445.69
263.105	454.69
263.337	444.69
263.57	440.69
263.802	464.69
264.035	467.69
264.267	468.69
264.499	465.69
264.732	453.69
264.964	472.69
265.197	477.69
265.429	472.69
265.661	471.69
265.894	468.69
266.126	469.69
266.358	491.69
266.591	479.69
266.823	483.69
267.055	472.69
267.287	490.69
267.52	484.69
267.752	491.69
267.984	498.69
268.216	504.69
268.448	500.69
268.681	487.69
268.913	466.69
269.145	509.69
269.377	508.69
269.609	493.69
269.841	490.69
270.073	516.69
270.306	528.69
270.538	516.69
270.77	515.69
271.002	519.69
271.234	516.69
271.466	508.69
271.698	507.69
271.93	518.69
272.162	517.69
272.394	524.69
272.626	521.69
272.858	529.69
273.09	506.69
273.322	527.69
273.553	544.69
273.785	546.69
274.017	550.69
274.249	565.69
274.481	540.69
274.713	554.69
274.945	549.69
275.176	546.69
275.408	541.69
275.64	585.69
275.872	556.69
276.104	580.69
276.335	572.69
276.567	588.69
276.799	577.69
277.031	586.69
277.262	589.69
277.494	554.69
277.726	558.69
277.957	594.69
278.189	598.69
278.421	560.69
278.652	580.69
278.884	589.69
279.115	576.69
279.347	598.69
279.579	593.69
279.81	575.69
280.042	591.69
280.273	608.69
280.505	615.69
280.736	613.69
280.968	606.69
281.199	603.69
281.431	603.69
281.662	587.69
281.894	609.69
282.125	576.69
282.356	616.69
282.588	617.69
282.819	622.69
283.051	630.69
283.282	623.69
283.513	618.69
283.745	616.69
283.976	612.69
284.207	614.69
284.439	639.69
284.67	632.69
284.901	639.69
285.132	652.69
285.364	640.69
285.595	643.69
285.826	642.69
286.057	669.69
286.288	653.69
286.52	646.69
286.751	629.69
286.982	654.69
287.213	634.69
287.444	645.69
287.675	650.69
287.906	659.69
288.138	648.69
288.369	664.69
288.6	656.69
288.831	670.69
289.062	636.69
289.293	641.69
289.524	648.69
289.755	681.69
289.986	653.69
290.217	659.69
290.448	673.69
290.679	664.69
290.91	650.69
291.141	671.69
291.371	660.69
291.602	658.69
291.833	671.69
292.064	672.69
292.295	656.69
292.526	668.69
292.757	666.69
292.987	671.69
293.218	651.69
293.449	696.69
293.68	659.69
293.91	662.69
294.141	669.69
294.372	676.69
294.603	652.69
294.833	659.69
295.064	682.69
295.295	674.69
295.525	665.69
295.756	682.69
295.987	688.69
296.217	692.69
296.448	670.69
296.679	689.69
296.909	687.69
297.14	698.69
297.37	701.69
297.601	711.69
297.831	714.69
298.062	687.69
298.292	715.69
298.523	725.69
298.753	716.69
298.984	718.69
299.214	693.69
299.445	721.69
299.675	728.69
299.905	716.69
300.136	728.69
300.366	740.69
300.597	708.69
300.827	740.69
301.057	719.69
301.288	756.69
301.518	734.69
301.748	745.69
301.979	771.69
302.209	772.69
302.439	774.69
302.669	731.69
302.9	749.69
303.13	750.69
303.36	756.69
303.59	755.69
303.82	768.69
304.051	767.69
304.281	782.69
304.511	743.69
304.741	742.69
304.971	770.69
305.201	760.69
305.431	783.69
305.661	796.69
305.891	776.69
306.121	769.69
306.352	742.69
306.582	740.69
306.812	748.69
307.042	742.69
307.272	740.69
307.502	732.69
307.731	766.69
307.961	760.69
308.191	758.69
308.421	748.69
308.651	762.69
308.881	768.69
309.111	763.69
309.341	753.69
309.571	757.69
309.8	757.69
310.03	774.69
310.26	785.69
310.49	799.69
310.72	757.69
310.949	797.69
311.179	777.69
311.409	776.69
311.639	785.69
311.868	787.69
312.098	770.69
312.328	820.69
312.557	816.69
312.787	808.69
313.017	807.69
313.246	817.69
313.476	838.69
313.706	843.69
313.935	833.69
314.165	839.69
314.394	840.69
314.624	850.69
314.853	820.69
315.083	842.69
315.312	873.69
315.542	833.69
315.771	880.69
316.001	846.69
316.23	863.69
316.46	875.69
316.689	868.69
316.919	851.69
317.148	859.69
317.377	838.69
317.607	852.69
317.836	868.69
318.065	855.69
318.295	853.69
318.524	848.69
318.753	877.69
318.983	866.69
319.212	859.69
319.441	874.69
319.67	885.69
319.9	890.69
320.129	881.69
320.358	922.69
320.587	856.69
320.816	889.69
321.046	894.69
321.275	918.69
321.504	903.69
321.733	904.69
321.962	913.69
322.191	882.69
322.42	915.69
322.649	913.69
322.878	954.69
323.108	923.69
323.337	933.69
323.566	945.69
323.795	960.69
324.024	931.69
324.253	937.69
324.482	957.69
324.71	975.69
324.939	971.69
325.168	960.69
325.397	952.69
325.626	974.69
325.855	1004.69
326.084	990.69
326.313	1002.69
326.542	982.69
326.77	1042.69
326.999	996.69
327.228	1007.69
327.457	1008.69
327.686	971.69
327.914	1008.69
328.143	1037.69
328.372	1073.69
328.6	1024.69
328.829	1030.69
329.058	1032.69
329.287	1050.69
329.515	1053.69
329.744	1020.69
329.972	1049.69
330.201	1055.69
330.43	1072.69
330.658	1041.69
330.887	1058.69
331.115	1096.69
331.344	1076.69
331.572	1097.69
331.801	1104.69
332.03	1125.69
332.258	1137.69
332.486	1153.69
332.715	1189.69
332.943	1188.69
333.172	1196.69
333.4	1244.69
333.629	1282.69
333.857	1290.69
334.085	1295.69
334.314	1313.69
334.542	1276.69
334.771	1288.69
334.999	1288.69
335.227	1319.69
335.455	1301.69
335.684	1300.69
335.912	1305.69
336.14	1307.69
336.369	1298.69
336.597	1284.69
336.825	1326.69
337.053	1290.69
337.281	1288.69
337.51	1258.69
337.738	1261.69
337.966	1232.69
338.194	1234.69
338.422	1226.69
338.65	1173.69
338.878	1193.69
339.106	1164.69
339.334	1224.69
339.562	1170.69
339.79	1152.69
340.018	1148.69
340.246	1163.69
340.474	1145.69
340.702	1169.69
340.93	1164.69
341.158	1142.69
341.386	1139.69
341.614	1180.69
341.842	1178.69
342.07	1178.69
342.298	1138.69
342.526	1124.69
342.754	1151.69
342.981	1151.69
343.209	1181.69
343.437	1188.69
343.665	1233.69
343.893	1240.69
344.12	1282.69
344.348	1286.69
344.576	1266.69
344.804	1297.69
345.031	1207.69
345.259	1194.69
345.487	1205.69
345.714	1152.69
345.942	1169.69
346.17	1153.69
346.397	1165.69
346.625	1135.69
346.853	1106.69
347.08	1112.69
347.308	1133.69
347.535	1090.69
347.763	1114.69
347.99	1072.69
348.218	1078.69
348.445	1063.69
348.673	1082.69
348.9	1100.69
349.128	1124.69
349.355	1109.69
349.583	1115.69
349.81	1088.69
350.037	1048.69
350.265	1057.69
350.492	1076.69
350.72	1052.69
350.947	1068.69
351.174	1062.69
351.402	1099.69
351.629	1117.69
351.856	1070.69
352.083	1068.69
352.311	1077.69
352.538	1106.69
352.765	1126.69
352.992	1086.69
353.22	1039.69
353.447	1045.69
353.674	1063.69
353.901	1012.69
354.128	1050.69
354.355	1041.69
354.583	1034.69
354.81	1016.69
355.037	1037.69
355.264	1065.69
355.491	1044.69
355.718	1048.69
355.945	1049.69
356.172	1056.69
356.399	1075.69
356.626	1093.69
356.853	1080.69
357.08	1039.69
357.307	1036.69
357.534	1055.69
357.761	1054.69
357.988	1098.69
358.215	1065.69
358.441	1052.69
358.668	1076.69
358.895	1057.69
359.122	1032.69
359.349	1050.69
359.576	1089.69
359.802	1048.69
360.029	1054.69
360.256	1105.69
360.483	1040.69
360.709	1071.69
360.936	1061.69
361.163	1071.69
361.39	1066.69
361.616	1045.69
361.843	1101.69
362.07	1115.69
362.296	1109.69
362.523	1067.69
362.749	1065.69
362.976	1047.69
363.203	1052.69
363.429	1068.69
363.656	1064.69
363.882	1034.69
364.109	1054.69
364.335	1032.69
364.562	1043.69
364.788	1060.69
365.015	1055.69
365.241	1040.69
365.468	1049.69
365.694	1053.69
365.92	1037.69
366.147	1050.69
366.373	1033.69
366.599	1012.69
366.826	1052.69
367.052	1065.69
367.278	1058.69
367.505	1012.69
367.731	1040.69
367.957	1062.69
368.184	1041.69
368.41	1033.69
368.636	1041.69
368.862	1041.69
369.089	1087.69
369.315	1089.69
369.541	1073.69
369.767	1089.69
369.993	1085.69
370.219	1060.69
370.445	1072.69
370.672	1089.69
370.898	1103.69
371.124	1115.69
371.35	1109.69
371.576	1126.69
371.802	1131.69
372.028	1097.69
372.254	1094.69
372.48	1134.69
372.706	1131.69
372.932	1136.69
373.158	1136.69
373.384	1122.69
373.61	1127.69
373.835	1117.69
374.061	1121.69
374.287	1114.69
374.513	1122.69
374.739	1153.69
374.965	1148.69
375.191	1164.69
375.416	1191.69
375.642	1170.69
375.868	1140.69
376.094	1105.69
376.319	1124.69
376.545	1118.69
376.771	1095.69
376.997	1087.69
377.222	1101.69
377.448	1099.69
377.674	1117.69
377.899	1116.69
378.125	1111.69
378.35	1096.69
378.576	1072.69
378.802	1080.69
379.027	1064.69
379.253	1080.69
379.478	1050.69
379.704	1061.69
379.929	1094.69
380.155	1084.69
380.38	1090.69
380.606	1099.69
380.831	1091.69
381.057	1087.69
381.282	1066.69
381.507	1083.69
381.733	1100.69
381.958	1126.69
382.184	1133.69
382.409	1139.69
382.634	1098.69
382.86	1088.69
383.085	1144.69
383.31	1102.69
383.535	1174.69
383.761	1159.69
383.986	1173.69
384.211	1186.69
384.436	1192.69
384.662	1166.69
384.887	1188.69
385.112	1221.69
385.337	1248.69
385.562	1224.69
385.787	1229.69
386.013	1274.69
386.238	1248.69
386.463	1254.69
386.688	1259.69
386.913	1219.69
387.138	1260.69
387.363	1288.69
387.588	1277.69
387.813	1259.69
388.038	1273.69
388.263	1270.69
388.488	1294.69
388.713	1271.69
388.938	1241.69
389.163	1267.69
389.387	1289.69
389.612	1291.69
389.837	1274.69
390.062	1276.69
390.287	1276.69
390.512	1256.69
390.736	1246.69
390.961	1275.69
391.186	1302.69
391.411	1328.69
391.636	1344.69
391.86	1346.69
392.085	1400.69
392.31	1404.69
392.534	1385.69
392.759	1402.69
392.984	1340.69
393.208	1332.69
393.433	1325.69
393.658	1318.69
393.882	1350.69
394.107	1317.69
394.331	1353.69
394.556	1339.69
394.78	1356.69
395.005	1320.69
395.229	1361.69
395.454	1391.69
395.678	1401.69
395.903	1382.69
396.127	1399.69
396.352	1406.69
396.576	1380.69
396.801	1372.69
397.025	1432.69
397.249	1416.69
397.474	1472.69
397.698	1448.69
397.922	1501.69
398.147	1484.69
398.371	1491.69
398.595	1554.69
398.82	1590.69
399.044	1626.69
399.268	1746.69
399.492	1837.69
399.717	1948.69
399.941	1978.69
400.165	1933.69
400.389	1841.69
400.613	1801.69
400.837	1720.69
401.062	1669.69
401.286	1638.69
401.51	1604.69
401.734	1580.69
401.958	1629.69
402.182	1601.69
402.406	1600.69
402.63	1610.69
402.854	1595.69
403.078	1586.69
403.302	1599.69
403.526	1610.69
403.75	1635.69
403.974	1661.69
404.198	1652.69
404.422	1635.69
404.645	1636.69
404.869	1666.69
405.093	1687.69
405.317	1668.69
405.541	1677.69
405.765	1701.69
405.988	1703.69
406.212	1725.69
406.436	1702.69
406.66	1758.69
406.883	1753.69
407.107	1792.69
407.331	1857.69
407.555	1894.69
407.778	1905.69
408.002	1879.69
408.226	1912.69
408.449	1831.69
408.673	1812.69
408.896	1773.69
409.12	1763.69
409.344	1824.69
409.567	1720.69
409.791	1753.69
410.014	1742.69
410.238	1742.69
410.461	1719.69
410.685	1734.69
410.908	1688.69
411.132	1659.69
411.355	1681.69
411.578	1700.69
411.802	1664.69
412.025	1623.69
412.249	1688.69
412.472	1680.69
412.695	1638.69
412.919	1590.69
413.142	1634.69
413.365	1617.69
413.589	1638.69
413.812	1580.69
414.035	1637.69
414.258	1637.69
414.482	1619.69
414.705	1611.69
414.928	1622.69
415.151	1600.69
415.374	1579.69
415.597	1625.69
415.821	1550.69
416.044	1591.69
416.267	1580.69
416.49	1589.69
416.713	1572.69
416.936	1599.69
417.159	1537.69
417.382	1575.69
417.605	1513.69
417.828	1530.69
418.051	1583.69
418.274	1565.69
418.497	1545.69
418.72	1563.69
418.943	1568.69
419.166	1692.69
419.389	1808.69
419.611	1802.69
419.834	1693.69
420.057	1612.69
420.28	1584.69
420.503	1586.69
420.726	1567.69
420.948	1569.69
421.171	1557.69
421.394	1550.69
421.617	1566.69
421.839	1590.69
422.062	1543.69
422.285	1550.69
422.507	1560.69
422.73	1579.69
422.953	1559.69
423.175	1617.69
423.398	1585.69
423.621	1584.69
423.843	1577.69
424.066	1585.69
424.288	1551.69
424.511	1583.69
424.733	1585.69
424.956	1566.69
425.178	1588.69
425.401	1592.69
425.623	1592.69
425.846	1544.69
426.068	1539.69
426.291	1546.69
426.513	1533.69
426.735	1508.69
426.958	1540.69
427.18	1505.69
427.402	1550.69
427.625	1501.69
427.847	1509.69
428.069	1456.69
428.292	1513.69
428.514	1502.69
428.736	1473.69
428.958	1517.69
429.181	1476.69
429.403	1468.69
429.625	1486.69
429.847	1482.69
430.069	1499.69
430.292	1496.69
430.514	1472.69
430.736	1485.69
430.958	1494.69
431.18	1482.69
431.402	1475.69
431.624	1464.69
431.846	1486.69
432.068	1505.69
432.29	1543.69
432.512	1460.69
432.734	1487.69
432.956	1493.69
433.178	1494.69
433.4	1505.69
433.622	1547.69
433.844	1501.69
434.066	1502.69
434.287	1483.69
434.509	1536.69
434.731	1581.69
434.953	1547.69
435.175	1593.69
435.397	1590.69
435.618	1564.69
435.84	1526.69
436.062	1524.69
436.284	1529.69
436.505	1500.69
436.727	1451.69
436.949	1471.69
437.17	1498.69
437.392	1486.69
437.614	1493.69
437.835	1400.69
438.057	1444.69
438.278	1449.69
438.5	1423.69
438.721	1445.69
438.943	1457.69
439.165	1446.69
439.386	1435.69
439.608	1477.69
439.829	1464.69
440.05	1504.69
440.272	1476.69
440.493	1504.69
440.715	1500.69
440.936	1516.69
441.158	1548.69
441.379	1548.69
441.6	1589.69
441.822	1568.69
442.043	1594.69
442.264	1580.69
442.486	1527.69
442.707	1616.69
442.928	1597.69
443.149	1604.69
443.371	1569.69
443.592	1577.69
443.813	1600.69
444.034	1592.69
444.255	1644.69
444.476	1666.69
444.698	1704.69
444.919	1735.69
445.14	1857.69
445.361	1740.69
445.582	1650.69
445.803	1600.69
446.024	1572.69
446.245	1576.69
446.466	1555.69
446.687	1516.69
446.908	1512.69
447.129	1487.69
447.35	1457.69
447.571	1439.69
447.792	1424.69
448.013	1428.69
448.234	1386.69
448.455	1419.69
448.675	1382.69
448.896	1397.69
449.117	1399.69
449.338	1375.69
449.559	1370.69
449.779	1352.69
450	1354.69
450.221	1384.69
450.442	1369.69
450.662	1372.69
450.883	1368.69
451.104	1425.69
451.324	1324.69
451.545	1346.69
451.766	1375.69
451.986	1328.69
452.207	1328.69
452.428	1337.69
452.648	1364.69
452.869	1317.69
453.089	1310.69
453.31	1360.69
453.53	1265.69
453.751	1312.69
453.971	1271.69
454.192	1312.69
454.412	1280.69
454.633	1295.69
454.853	1301.69
455.073	1278.69
455.294	1322.69
455.514	1248.69
455.734	1303.69
455.955	1259.69
456.175	1298.69
456.395	1270.69
456.616	1286.69
456.836	1304.69
457.056	1270.69
457.276	1268.69
457.497	1274.69
457.717	1303.69
457.937	1309.69
458.157	1344.69
458.377	1344.69
458.598	1381.69
458.818	1400.69
459.038	1428.69
459.258	1454.69
459.478	1498.69
459.698	1524.69
459.918	1519.69
460.138	1543.69
460.358	1608.69
460.578	1646.69
460.798	1647.69
461.018	1635.69
461.238	1720.69
461.458	1679.69
461.678	1690.69
461.898	1695.69
462.118	1693.69
462.338	1806.69
462.558	1809.69
462.777	1897.69
462.997	1928.69
463.217	1992.69
463.437	2008.69
463.657	1959.69
463.876	1918.69
464.096	1908.69
464.316	1895.69
464.536	1917.69
464.755	1833.69
464.975	1766.69
465.195	1694.69
465.414	1660.69
465.634	1609.69
465.854	1581.69
466.073	1529.69
466.293	1512.69
466.512	1462.69
466.732	1458.69
466.951	1430.69
467.171	1404.69
467.391	1458.69
467.61	1471.69
467.829	1401.69
468.049	1438.69
468.268	1388.69
468.488	1385.69
468.707	1382.69
468.927	1402.69
469.146	1404.69
469.365	1419.69
469.585	1392.69
469.804	1403.69
470.023	1450.69
470.243	1417.69
470.462	1448.69
470.681	1429.69
470.901	1449.69
471.12	1462.69
471.339	1403.69
471.558	1407.69
471.777	1449.69
471.997	1433.69
472.216	1391.69
472.435	1388.69
472.654	1366.69
472.873	1380.69
473.092	1388.69
473.311	1400.69
473.53	1377.69
473.749	1362.69
473.968	1364.69
474.187	1382.69
474.406	1376.69
474.625	1388.69
474.844	1372.69
475.063	1398.69
475.282	1393.69
475.501	1398.69
475.72	1410.69
475.939	1438.69
476.158	1439.69
476.377	1428.69
476.596	1464.69
476.814	1464.69
477.033	1455.69
477.252	1476.69
477.471	1486.69
477.69	1556.69
477.908	1536.69
478.127	1544.69
478.346	1569.69
478.564	1625.69
478.783	1626.69
479.002	1634.69
479.22	1652.69
479.439	1726.69
479.658	1682.69
479.876	1710.69
480.095	1696.69
480.313	1703.69
480.532	1732.69
480.751	1715.69
480.969	1688.69
481.188	1670.69
481.406	1678.69
481.624	1661.69
481.843	1598.69
482.061	1641.69
482.28	1598.69
482.498	1592.69
482.717	1617.69
482.935	1624.69
483.153	1610.69
483.372	1622.69
483.59	1647.69
483.808	1613.69
484.027	1601.69
484.245	1589.69
484.463	1633.69
484.681	1633.69
484.9	1607.69
485.118	1627.69
485.336	1615.69
485.554	1655.69
485.772	1646.69
485.99	1668.69
486.209	1654.69
486.427	1663.69
486.645	1642.69
486.863	1666.69
487.081	1656.69
487.299	1682.69
487.517	1696.69
487.735	1656.69
487.953	1674.69
488.171	1673.69
488.389	1642.69
488.607	1661.69
488.825	1680.69
489.043	1643.69
489.261	1654.69
489.479	1662.69
489.696	1654.69
489.914	1663.69
490.132	1672.69
490.35	1662.69
490.568	1640.69
490.786	1664.69
491.003	1721.69
491.221	1666.69
491.439	1663.69
