Data from Ni(NO3)2@0.25M.TitratingCurve.Agarose3%dH2O.NegLispCup.LampEnergy10.LIBS07252019_HRD10591_18-04-16-565.txt Node
Date: Thu Jul 25 18:04:16 EDT 2019
User: cochatt
Spectrometer: HR+D1059
Trigger mode: 1
Integration Time (sec): 1.000000E-1
Scans to average: 1
Electric dark correction enabled: true
Nonlinearity correction enabled: false
Boxcar width: 0
XAxis mode: Wavelengths
Number of Pixels in Spectrum: 2048
>>>>>Begin Spectral Data<<<<<
223.165	3.69
223.4	3.69
223.635	3.69
223.869	-9.31
224.104	-16.31
224.338	-12.31
224.573	-8.31
224.808	-13.31
225.042	-10.31
225.277	-22.31
225.511	4.69
225.746	2.69
225.98	3.69
226.215	6.69
226.449	9.69
226.683	32.69
226.918	12.69
227.152	15.69
227.387	29.69
227.621	37.69
227.856	38.69
228.09	36.69
228.324	50.69
228.559	46.69
228.793	64.69
229.027	89.69
229.262	92.69
229.496	101.69
229.73	106.69
229.964	102.69
230.199	112.69
230.433	108.69
230.667	108.69
230.901	106.69
231.136	120.69
231.37	113.69
231.604	110.69
231.838	121.69
232.072	118.69
232.306	128.69
232.541	136.69
232.775	116.69
233.009	106.69
233.243	114.69
233.477	126.69
233.711	133.69
233.945	116.69
234.179	131.69
234.413	108.69
234.647	136.69
234.881	125.69
235.115	116.69
235.349	121.69
235.583	132.69
235.817	111.69
236.051	115.69
236.285	132.69
236.519	122.69
236.753	131.69
236.987	130.69
237.221	121.69
237.455	139.69
237.689	118.69
237.922	126.69
238.156	138.69
238.39	130.69
238.624	122.69
238.858	130.69
239.091	146.69
239.325	126.69
239.559	135.69
239.793	127.69
240.027	140.69
240.26	140.69
240.494	117.69
240.728	118.69
240.961	160.69
241.195	136.69
241.429	138.69
241.662	134.69
241.896	152.69
242.13	144.69
242.363	142.69
242.597	148.69
242.83	155.69
243.064	146.69
243.298	143.69
243.531	158.69
243.765	156.69
243.998	138.69
244.232	148.69
244.465	161.69
244.699	151.69
244.932	157.69
245.166	154.69
245.399	169.69
245.633	153.69
245.866	158.69
246.099	175.69
246.333	163.69
246.566	166.69
246.8	164.69
247.033	162.69
247.266	175.69
247.5	177.69
247.733	181.69
247.966	167.69
248.2	168.69
248.433	179.69
248.666	176.69
248.899	172.69
249.133	185.69
249.366	183.69
249.599	183.69
249.832	181.69
250.066	197.69
250.299	202.69
250.532	182.69
250.765	203.69
250.998	195.69
251.231	207.69
251.465	195.69
251.698	195.69
251.931	192.69
252.164	198.69
252.397	218.69
252.63	217.69
252.863	211.69
253.096	212.69
253.329	214.69
253.562	220.69
253.795	212.69
254.028	224.69
254.261	221.69
254.494	225.69
254.727	223.69
254.96	223.69
255.193	228.69
255.426	253.69
255.659	217.69
255.892	243.69
256.124	234.69
256.357	228.69
256.59	228.69
256.823	237.69
257.056	236.69
257.289	231.69
257.521	233.69
257.754	245.69
257.987	234.69
258.22	236.69
258.452	258.69
258.685	246.69
258.918	260.69
259.151	265.69
259.383	252.69
259.616	252.69
259.849	255.69
260.081	271.69
260.314	260.69
260.547	266.69
260.779	264.69
261.012	275.69
261.244	273.69
261.477	277.69
261.71	264.69
261.942	261.69
262.175	263.69
262.407	253.69
262.64	273.69
262.872	292.69
263.105	273.69
263.337	276.69
263.57	282.69
263.802	299.69
264.035	306.69
264.267	268.69
264.499	295.69
264.732	284.69
264.964	270.69
265.197	281.69
265.429	282.69
265.661	293.69
265.894	290.69
266.126	310.69
266.358	305.69
266.591	286.69
266.823	322.69
267.055	280.69
267.287	298.69
267.52	297.69
267.752	288.69
267.984	294.69
268.216	289.69
268.448	305.69
268.681	302.69
268.913	315.69
269.145	301.69
269.377	299.69
269.609	288.69
269.841	319.69
270.073	311.69
270.306	319.69
270.538	303.69
270.77	301.69
271.002	317.69
271.234	319.69
271.466	320.69
271.698	308.69
271.93	315.69
272.162	305.69
272.394	314.69
272.626	320.69
272.858	311.69
273.09	317.69
273.322	336.69
273.553	306.69
273.785	318.69
274.017	303.69
274.249	334.69
274.481	328.69
274.713	340.69
274.945	332.69
275.176	342.69
275.408	316.69
275.64	324.69
275.872	335.69
276.104	334.69
276.335	344.69
276.567	311.69
276.799	335.69
277.031	337.69
277.262	337.69
277.494	344.69
277.726	332.69
277.957	345.69
278.189	334.69
278.421	334.69
278.652	359.69
278.884	336.69
279.115	342.69
279.347	370.69
279.579	351.69
279.81	356.69
280.042	378.69
280.273	349.69
280.505	341.69
280.736	347.69
280.968	364.69
281.199	352.69
281.431	363.69
281.662	359.69
281.894	373.69
282.125	365.69
282.356	367.69
282.588	372.69
282.819	370.69
283.051	355.69
283.282	358.69
283.513	372.69
283.745	375.69
283.976	369.69
284.207	379.69
284.439	380.69
284.67	403.69
284.901	377.69
285.132	389.69
285.364	372.69
285.595	377.69
285.826	392.69
286.057	373.69
286.288	379.69
286.52	392.69
286.751	386.69
286.982	389.69
287.213	372.69
287.444	384.69
287.675	378.69
287.906	382.69
288.138	375.69
288.369	384.69
288.6	393.69
288.831	396.69
289.062	376.69
289.293	377.69
289.524	375.69
289.755	400.69
289.986	370.69
290.217	382.69
290.448	399.69
290.679	422.69
290.91	400.69
291.141	417.69
291.371	410.69
291.602	407.69
291.833	392.69
292.064	413.69
292.295	400.69
292.526	411.69
292.757	396.69
292.987	407.69
293.218	387.69
293.449	405.69
293.68	397.69
293.91	404.69
294.141	402.69
294.372	396.69
294.603	395.69
294.833	406.69
295.064	402.69
295.295	399.69
295.525	392.69
295.756	404.69
295.987	399.69
296.217	402.69
296.448	428.69
296.679	415.69
296.909	414.69
297.14	421.69
297.37	421.69
297.601	419.69
297.831	397.69
298.062	418.69
298.292	426.69
298.523	441.69
298.753	433.69
298.984	431.69
299.214	426.69
299.445	424.69
299.675	425.69
299.905	435.69
300.136	432.69
300.366	442.69
300.597	425.69
300.827	460.69
301.057	454.69
301.288	466.69
301.518	446.69
301.748	457.69
301.979	449.69
302.209	454.69
302.439	457.69
302.669	441.69
302.9	450.69
303.13	462.69
303.36	458.69
303.59	441.69
303.82	458.69
304.051	457.69
304.281	472.69
304.511	457.69
304.741	459.69
304.971	447.69
305.201	473.69
305.431	466.69
305.661	474.69
305.891	471.69
306.121	446.69
306.352	460.69
306.582	441.69
306.812	442.69
307.042	446.69
307.272	450.69
307.502	447.69
307.731	420.69
307.961	452.69
308.191	435.69
308.421	448.69
308.651	466.69
308.881	437.69
309.111	450.69
309.341	451.69
309.571	473.69
309.8	442.69
310.03	459.69
310.26	472.69
310.49	491.69
310.72	468.69
310.949	481.69
311.179	450.69
311.409	464.69
311.639	465.69
311.868	499.69
312.098	473.69
312.328	485.69
312.557	471.69
312.787	475.69
313.017	482.69
313.246	495.69
313.476	512.69
313.706	504.69
313.935	523.69
314.165	486.69
314.394	496.69
314.624	493.69
314.853	502.69
315.083	504.69
315.312	494.69
315.542	515.69
315.771	526.69
316.001	487.69
316.23	500.69
316.46	498.69
316.689	515.69
316.919	520.69
317.148	512.69
317.377	514.69
317.607	490.69
317.836	511.69
318.065	506.69
318.295	515.69
318.524	520.69
318.753	495.69
318.983	530.69
319.212	547.69
319.441	508.69
319.67	513.69
319.9	530.69
320.129	521.69
320.358	536.69
320.587	537.69
320.816	540.69
321.046	540.69
321.275	544.69
321.504	536.69
321.733	551.69
321.962	538.69
322.191	544.69
322.42	543.69
322.649	553.69
322.878	549.69
323.108	554.69
323.337	580.69
323.566	556.69
323.795	574.69
324.024	587.69
324.253	551.69
324.482	570.69
324.71	590.69
324.939	594.69
325.168	606.69
325.397	577.69
325.626	578.69
325.855	591.69
326.084	612.69
326.313	625.69
326.542	608.69
326.77	630.69
326.999	631.69
327.228	626.69
327.457	610.69
327.686	631.69
327.914	612.69
328.143	640.69
328.372	615.69
328.6	640.69
328.829	649.69
329.058	617.69
329.287	649.69
329.515	639.69
329.744	666.69
329.972	634.69
330.201	652.69
330.43	658.69
330.658	669.69
330.887	672.69
331.115	660.69
331.344	681.69
331.572	680.69
331.801	706.69
332.03	718.69
332.258	720.69
332.486	696.69
332.715	732.69
332.943	748.69
333.172	767.69
333.4	794.69
333.629	805.69
333.857	813.69
334.085	806.69
334.314	803.69
334.542	818.69
334.771	812.69
334.999	795.69
335.227	808.69
335.455	794.69
335.684	828.69
335.912	795.69
336.14	798.69
336.369	812.69
336.597	830.69
336.825	817.69
337.053	803.69
337.281	807.69
337.51	778.69
337.738	757.69
337.966	764.69
338.194	756.69
338.422	766.69
338.65	733.69
338.878	745.69
339.106	750.69
339.334	739.69
339.562	735.69
339.79	723.69
340.018	725.69
340.246	682.69
340.474	684.69
340.702	708.69
340.93	720.69
341.158	691.69
341.386	738.69
341.614	743.69
341.842	709.69
342.07	711.69
342.298	723.69
342.526	708.69
342.754	711.69
342.981	727.69
343.209	722.69
343.437	768.69
343.665	766.69
343.893	806.69
344.12	832.69
344.348	796.69
344.576	787.69
344.804	794.69
345.031	775.69
345.259	724.69
345.487	741.69
345.714	701.69
345.942	721.69
346.17	709.69
346.397	712.69
346.625	710.69
346.853	697.69
347.08	700.69
347.308	697.69
347.535	664.69
347.763	676.69
347.99	700.69
348.218	707.69
348.445	702.69
348.673	690.69
348.9	694.69
349.128	671.69
349.355	689.69
349.583	718.69
349.81	691.69
350.037	646.69
350.265	672.69
350.492	669.69
350.72	682.69
350.947	674.69
351.174	704.69
351.402	683.69
351.629	692.69
351.856	684.69
352.083	682.69
352.311	701.69
352.538	697.69
352.765	707.69
352.992	672.69
353.22	641.69
353.447	652.69
353.674	632.69
353.901	648.69
354.128	651.69
354.355	646.69
354.583	647.69
354.81	664.69
355.037	660.69
355.264	657.69
355.491	656.69
355.718	662.69
355.945	665.69
356.172	670.69
356.399	667.69
356.626	661.69
356.853	680.69
357.08	706.69
357.307	672.69
357.534	666.69
357.761	657.69
357.988	684.69
358.215	652.69
358.441	665.69
358.668	648.69
358.895	654.69
359.122	659.69
359.349	638.69
359.576	650.69
359.802	673.69
360.029	686.69
360.256	649.69
360.483	682.69
360.709	672.69
360.936	669.69
361.163	663.69
361.39	684.69
361.616	673.69
361.843	688.69
362.07	669.69
362.296	674.69
362.523	669.69
362.749	661.69
362.976	654.69
363.203	654.69
363.429	657.69
363.656	651.69
363.882	648.69
364.109	632.69
364.335	655.69
364.562	643.69
364.788	653.69
365.015	639.69
365.241	636.69
365.468	649.69
365.694	651.69
365.92	656.69
366.147	659.69
366.373	654.69
366.599	651.69
366.826	643.69
367.052	644.69
367.278	671.69
367.505	651.69
367.731	644.69
367.957	640.69
368.184	643.69
368.41	632.69
368.636	673.69
368.862	674.69
369.089	673.69
369.315	653.69
369.541	684.69
369.767	682.69
369.993	660.69
370.219	656.69
370.445	694.69
370.672	691.69
370.898	689.69
371.124	691.69
371.35	689.69
371.576	670.69
371.802	690.69
372.028	680.69
372.254	690.69
372.48	676.69
372.706	712.69
372.932	732.69
373.158	693.69
373.384	694.69
373.61	702.69
373.835	705.69
374.061	695.69
374.287	699.69
374.513	693.69
374.739	701.69
374.965	713.69
375.191	731.69
375.416	737.69
375.642	711.69
375.868	694.69
376.094	706.69
376.319	724.69
376.545	693.69
376.771	697.69
376.997	688.69
377.222	671.69
377.448	675.69
377.674	676.69
377.899	670.69
378.125	670.69
378.35	659.69
378.576	649.69
378.802	652.69
379.027	665.69
379.253	656.69
379.478	691.69
379.704	707.69
379.929	691.69
380.155	698.69
380.38	680.69
380.606	670.69
380.831	649.69
381.057	671.69
381.282	669.69
381.507	659.69
381.733	666.69
381.958	708.69
382.184	687.69
382.409	665.69
382.634	680.69
382.86	686.69
383.085	704.69
383.31	732.69
383.535	688.69
383.761	696.69
383.986	726.69
384.211	718.69
384.436	746.69
384.662	763.69
384.887	755.69
385.112	745.69
385.337	782.69
385.562	780.69
385.787	786.69
386.013	810.69
386.238	784.69
386.463	778.69
386.688	792.69
386.913	788.69
387.138	777.69
387.363	796.69
387.588	784.69
387.813	788.69
388.038	792.69
388.263	779.69
388.488	782.69
388.713	798.69
388.938	760.69
389.163	766.69
389.387	804.69
389.612	771.69
389.837	776.69
390.062	784.69
390.287	781.69
390.512	795.69
390.736	826.69
390.961	784.69
391.186	801.69
391.411	821.69
391.636	831.69
391.86	849.69
392.085	874.69
392.31	866.69
392.534	837.69
392.759	831.69
392.984	870.69
393.208	838.69
393.433	849.69
393.658	845.69
393.882	809.69
394.107	862.69
394.331	821.69
394.556	836.69
394.78	820.69
395.005	841.69
395.229	865.69
395.454	871.69
395.678	841.69
395.903	856.69
396.127	848.69
396.352	848.69
396.576	841.69
396.801	855.69
397.025	858.69
397.249	881.69
397.474	892.69
397.698	880.69
397.922	881.69
398.147	902.69
398.371	929.69
398.595	920.69
398.82	983.69
399.044	1023.69
399.268	1115.69
399.492	1200.69
399.717	1302.69
399.941	1281.69
400.165	1217.69
400.389	1112.69
400.613	1056.69
400.837	1058.69
401.062	1059.69
401.286	1010.69
401.51	992.69
401.734	985.69
401.958	1001.69
402.182	1001.69
402.406	998.69
402.63	1004.69
402.854	1006.69
403.078	1034.69
403.302	1078.69
403.526	1061.69
403.75	1066.69
403.974	1065.69
404.198	1054.69
404.422	1049.69
404.645	1073.69
404.869	1040.69
405.093	1088.69
405.317	1057.69
405.541	1072.69
405.765	1087.69
405.988	1061.69
406.212	1090.69
406.436	1059.69
406.66	1105.69
406.883	1121.69
407.107	1149.69
407.331	1161.69
407.555	1205.69
407.778	1226.69
408.002	1196.69
408.226	1178.69
408.449	1207.69
408.673	1146.69
408.896	1136.69
409.12	1112.69
409.344	1116.69
409.567	1127.69
409.791	1102.69
410.014	1110.69
410.238	1073.69
410.461	1081.69
410.685	1089.69
410.908	1027.69
411.132	1055.69
411.355	1031.69
411.578	1039.69
411.802	1059.69
412.025	1039.69
412.249	1075.69
412.472	1046.69
412.695	1041.69
412.919	1041.69
413.142	1012.69
413.365	1029.69
413.589	1034.69
413.812	1031.69
414.035	1011.69
414.258	1012.69
414.482	991.69
414.705	1020.69
414.928	994.69
415.151	1004.69
415.374	1028.69
415.597	991.69
415.821	991.69
416.044	981.69
416.267	986.69
416.49	994.69
416.713	966.69
416.936	995.69
417.159	962.69
417.382	987.69
417.605	974.69
417.828	1001.69
418.051	1016.69
418.274	1036.69
418.497	963.69
418.72	1027.69
418.943	1041.69
419.166	1067.69
419.389	1141.69
419.611	1101.69
419.834	1081.69
420.057	1068.69
420.28	1022.69
420.503	993.69
420.726	997.69
420.948	1018.69
421.171	998.69
421.394	1022.69
421.617	1012.69
421.839	1025.69
422.062	1012.69
422.285	1009.69
422.507	994.69
422.73	1028.69
422.953	1008.69
423.175	994.69
423.398	1035.69
423.621	1031.69
423.843	1056.69
424.066	1029.69
424.288	1081.69
424.511	1033.69
424.733	1047.69
424.956	1025.69
425.178	1031.69
425.401	995.69
425.623	1023.69
425.846	1022.69
426.068	978.69
426.291	992.69
426.513	985.69
426.735	976.69
426.958	979.69
427.18	942.69
427.402	957.69
427.625	965.69
427.847	938.69
428.069	948.69
428.292	1004.69
428.514	939.69
428.736	942.69
428.958	943.69
429.181	943.69
429.403	917.69
429.625	947.69
429.847	945.69
430.069	934.69
430.292	936.69
430.514	915.69
430.736	969.69
430.958	946.69
431.18	917.69
431.402	976.69
431.624	942.69
431.846	948.69
432.068	946.69
432.29	974.69
432.512	967.69
432.734	968.69
432.956	961.69
433.178	986.69
433.4	964.69
433.622	969.69
433.844	976.69
434.066	982.69
434.287	955.69
434.509	965.69
434.731	994.69
434.953	1043.69
435.175	1046.69
435.397	1055.69
435.618	995.69
435.84	1012.69
436.062	976.69
436.284	979.69
436.505	948.69
436.727	956.69
436.949	972.69
437.17	953.69
437.392	969.69
437.614	938.69
437.835	916.69
438.057	921.69
438.278	918.69
438.5	938.69
438.721	945.69
438.943	947.69
439.165	923.69
439.386	942.69
439.608	956.69
439.829	934.69
440.05	963.69
440.272	963.69
440.493	978.69
440.715	967.69
440.936	995.69
441.158	1031.69
441.379	1013.69
441.6	1057.69
441.822	1072.69
442.043	1035.69
442.264	1040.69
442.486	998.69
442.707	1056.69
442.928	1036.69
443.149	1041.69
443.371	1064.69
443.592	1076.69
443.813	1057.69
444.034	1088.69
444.255	1109.69
444.476	1126.69
444.698	1161.69
444.919	1182.69
445.14	1255.69
445.361	1137.69
445.582	1097.69
445.803	1040.69
446.024	1006.69
446.245	1025.69
446.466	994.69
446.687	997.69
446.908	958.69
447.129	938.69
447.35	968.69
447.571	937.69
447.792	922.69
448.013	893.69
448.234	909.69
448.455	940.69
448.675	912.69
448.896	910.69
449.117	884.69
449.338	893.69
449.559	886.69
449.779	902.69
450	875.69
450.221	864.69
450.442	924.69
450.662	887.69
450.883	901.69
451.104	894.69
451.324	885.69
451.545	914.69
451.766	914.69
451.986	879.69
452.207	866.69
452.428	865.69
452.648	890.69
452.869	848.69
453.089	879.69
453.31	884.69
453.53	874.69
453.751	854.69
453.971	829.69
454.192	872.69
454.412	836.69
454.633	840.69
454.853	861.69
455.073	884.69
455.294	863.69
455.514	837.69
455.734	852.69
455.955	849.69
456.175	833.69
456.395	822.69
456.616	850.69
456.836	814.69
457.056	818.69
457.276	820.69
457.497	831.69
457.717	845.69
457.937	842.69
458.157	864.69
458.377	864.69
458.598	905.69
458.818	894.69
459.038	904.69
459.258	920.69
459.478	967.69
459.698	968.69
459.918	1001.69
460.138	1036.69
460.358	1087.69
460.578	1057.69
460.798	1099.69
461.018	1121.69
461.238	1082.69
461.458	1075.69
461.678	1112.69
461.898	1129.69
462.118	1121.69
462.338	1178.69
462.558	1160.69
462.777	1205.69
462.997	1304.69
463.217	1316.69
463.437	1335.69
463.657	1321.69
463.876	1271.69
464.096	1226.69
464.316	1267.69
464.536	1239.69
464.755	1230.69
464.975	1201.69
465.195	1115.69
465.414	1084.69
465.634	1021.69
465.854	1004.69
466.073	1004.69
466.293	971.69
466.512	985.69
466.732	938.69
466.951	966.69
467.171	926.69
467.391	941.69
467.61	913.69
467.829	929.69
468.049	914.69
468.268	904.69
468.488	910.69
468.707	926.69
468.927	943.69
469.146	911.69
469.365	953.69
469.585	957.69
469.804	928.69
470.023	963.69
470.243	945.69
470.462	956.69
470.681	981.69
470.901	978.69
471.12	944.69
471.339	929.69
471.558	926.69
471.777	924.69
471.997	898.69
472.216	904.69
472.435	904.69
472.654	865.69
472.873	867.69
473.092	878.69
473.311	892.69
473.53	905.69
473.749	918.69
473.968	884.69
474.187	912.69
474.406	878.69
474.625	892.69
474.844	886.69
475.063	907.69
475.282	931.69
475.501	926.69
475.72	929.69
475.939	893.69
476.158	919.69
476.377	952.69
476.596	896.69
476.814	946.69
477.033	943.69
477.252	976.69
477.471	999.69
477.69	978.69
477.908	997.69
478.127	1031.69
478.346	1052.69
478.564	1048.69
478.783	1061.69
479.002	1081.69
479.22	1114.69
479.439	1084.69
479.658	1080.69
479.876	1090.69
480.095	1121.69
480.313	1126.69
480.532	1134.69
480.751	1112.69
480.969	1073.69
481.188	1052.69
481.406	1072.69
481.624	1015.69
481.843	1036.69
482.061	1033.69
482.28	1046.69
482.498	1025.69
482.717	1006.69
482.935	1036.69
483.153	1037.69
483.372	1047.69
483.59	1031.69
483.808	1042.69
484.027	1043.69
484.245	1063.69
484.463	1015.69
484.681	1058.69
484.9	1034.69
485.118	1072.69
485.336	1045.69
485.554	1046.69
485.772	1025.69
485.99	1082.69
486.209	1061.69
486.427	1064.69
486.645	1049.69
486.863	1053.69
487.081	1090.69
487.299	1057.69
487.517	1049.69
487.735	1072.69
487.953	1076.69
488.171	1093.69
488.389	1072.69
488.607	1060.69
488.825	1051.69
489.043	1016.69
489.261	1077.69
489.479	1057.69
489.696	1076.69
489.914	1060.69
490.132	1081.69
490.35	1054.69
490.568	1093.69
490.786	1104.69
491.003	1095.69
491.221	1130.69
491.439	1146.69
491.657	1104.69
491.874	1127.69
492.092	1113.69
492.31	1133.69
492.527	1148.69
492.745	1144.69
492.963	1149.69
493.18	1138.69
493.398	1140.69
493.615	1110.69
493.833	1137.69
494.05	1138.69
494.268	1168.69
494.485	1174.69
494.703	1188.69
494.92	1137.69
495.138	1165.69
495.355	1167.69
495.573	1169.69
495.79	1205.69
496.008	1203.69
496.225	1178.69
496.442	1220.69
496.66	1230.69
496.877	1255.69
497.094	1294.69
497.312	1294.69
497.529	1302.69
497.746	1341.69
497.963	1365.69
498.181	1394.69
498.398	1465.69
