Data from Ni(NO3)2@0.125M.TitratingCurve.Agarose3%dH2O.NegLispCup.LampEnergy10.LIBS07252019_HRD10591_18-09-31-568.txt Node
Date: Thu Jul 25 18:09:31 EDT 2019
User: cochatt
Spectrometer: HR+D1059
Trigger mode: 1
Integration Time (sec): 1.000000E-1
Scans to average: 1
Electric dark correction enabled: true
Nonlinearity correction enabled: false
Boxcar width: 0
XAxis mode: Wavelengths
Number of Pixels in Spectrum: 2048
>>>>>Begin Spectral Data<<<<<
223.165	-15.69
223.4	-15.69
223.635	-15.69
223.869	-18.69
224.104	-32.69
224.338	7.31
224.573	-7.69
224.808	-15.69
225.042	-9.69
225.277	-27.69
225.511	-1.69
225.746	-8.69
225.98	12.31
226.215	20.31
226.449	18.31
226.683	24.31
226.918	26.31
227.152	29.31
227.387	30.31
227.621	15.31
227.856	34.31
228.09	53.31
228.324	52.31
228.559	53.31
228.793	72.31
229.027	86.31
229.262	97.31
229.496	113.31
229.73	110.31
229.964	136.31
230.199	127.31
230.433	133.31
230.667	118.31
230.901	124.31
231.136	133.31
231.37	132.31
231.604	113.31
231.838	121.31
232.072	124.31
232.306	121.31
232.541	132.31
232.775	136.31
233.009	132.31
233.243	133.31
233.477	144.31
233.711	129.31
233.945	128.31
234.179	145.31
234.413	142.31
234.647	135.31
234.881	142.31
235.115	142.31
235.349	136.31
235.583	145.31
235.817	127.31
236.051	137.31
236.285	146.31
236.519	144.31
236.753	157.31
236.987	160.31
237.221	144.31
237.455	153.31
237.689	144.31
237.922	152.31
238.156	148.31
238.39	136.31
238.624	145.31
238.858	161.31
239.091	146.31
239.325	158.31
239.559	162.31
239.793	154.31
240.027	152.31
240.26	151.31
240.494	160.31
240.728	174.31
240.961	169.31
241.195	188.31
241.429	168.31
241.662	188.31
241.896	160.31
242.13	159.31
242.363	173.31
242.597	170.31
242.83	174.31
243.064	178.31
243.298	173.31
243.531	184.31
243.765	186.31
243.998	188.31
244.232	185.31
244.465	180.31
244.699	190.31
244.932	186.31
245.166	182.31
245.399	185.31
245.633	206.31
245.866	192.31
246.099	190.31
246.333	193.31
246.566	193.31
246.8	200.31
247.033	218.31
247.266	211.31
247.5	216.31
247.733	224.31
247.966	204.31
248.2	207.31
248.433	213.31
248.666	185.31
248.899	207.31
249.133	205.31
249.366	234.31
249.599	217.31
249.832	208.31
250.066	226.31
250.299	226.31
250.532	238.31
250.765	238.31
250.998	228.31
251.231	235.31
251.465	221.31
251.698	238.31
251.931	238.31
252.164	246.31
252.397	238.31
252.63	253.31
252.863	228.31
253.096	239.31
253.329	247.31
253.562	249.31
253.795	237.31
254.028	254.31
254.261	242.31
254.494	246.31
254.727	264.31
254.96	252.31
255.193	242.31
255.426	253.31
255.659	255.31
255.892	253.31
256.124	248.31
256.357	262.31
256.59	254.31
256.823	261.31
257.056	260.31
257.289	236.31
257.521	265.31
257.754	271.31
257.987	268.31
258.22	267.31
258.452	270.31
258.685	278.31
258.918	282.31
259.151	283.31
259.383	276.31
259.616	266.31
259.849	268.31
260.081	277.31
260.314	273.31
260.547	293.31
260.779	276.31
261.012	287.31
261.244	289.31
261.477	293.31
261.71	293.31
261.942	257.31
262.175	293.31
262.407	298.31
262.64	288.31
262.872	308.31
263.105	277.31
263.337	296.31
263.57	300.31
263.802	317.31
264.035	300.31
264.267	302.31
264.499	294.31
264.732	312.31
264.964	305.31
265.197	314.31
265.429	308.31
265.661	298.31
265.894	302.31
266.126	321.31
266.358	320.31
266.591	328.31
266.823	326.31
267.055	284.31
267.287	318.31
267.52	313.31
267.752	316.31
267.984	328.31
268.216	326.31
268.448	330.31
268.681	316.31
268.913	353.31
269.145	316.31
269.377	320.31
269.609	315.31
269.841	330.31
270.073	322.31
270.306	317.31
270.538	350.31
270.77	329.31
271.002	369.31
271.234	349.31
271.466	344.31
271.698	338.31
271.93	332.31
272.162	354.31
272.394	335.31
272.626	342.31
272.858	350.31
273.09	373.31
273.322	343.31
273.553	356.31
273.785	362.31
274.017	348.31
274.249	360.31
274.481	360.31
274.713	343.31
274.945	351.31
275.176	367.31
275.408	366.31
275.64	353.31
275.872	372.31
276.104	359.31
276.335	366.31
276.567	362.31
276.799	372.31
277.031	382.31
277.262	368.31
277.494	366.31
277.726	368.31
277.957	393.31
278.189	378.31
278.421	373.31
278.652	393.31
278.884	394.31
279.115	380.31
279.347	400.31
279.579	395.31
279.81	384.31
280.042	387.31
280.273	390.31
280.505	396.31
280.736	380.31
280.968	386.31
281.199	374.31
281.431	394.31
281.662	411.31
281.894	408.31
282.125	412.31
282.356	408.31
282.588	412.31
282.819	434.31
283.051	411.31
283.282	430.31
283.513	436.31
283.745	422.31
283.976	418.31
284.207	420.31
284.439	421.31
284.67	428.31
284.901	424.31
285.132	421.31
285.364	414.31
285.595	421.31
285.826	414.31
286.057	454.31
286.288	424.31
286.52	433.31
286.751	437.31
286.982	437.31
287.213	419.31
287.444	454.31
287.675	429.31
287.906	456.31
288.138	438.31
288.369	433.31
288.6	433.31
288.831	446.31
289.062	440.31
289.293	447.31
289.524	440.31
289.755	445.31
289.986	457.31
290.217	451.31
290.448	443.31
290.679	444.31
290.91	429.31
291.141	466.31
291.371	458.31
291.602	467.31
291.833	449.31
292.064	488.31
292.295	462.31
292.526	474.31
292.757	449.31
292.987	481.31
293.218	474.31
293.449	449.31
293.68	438.31
293.91	456.31
294.141	470.31
294.372	467.31
294.603	472.31
294.833	469.31
295.064	460.31
295.295	452.31
295.525	462.31
295.756	478.31
295.987	456.31
296.217	472.31
296.448	473.31
296.679	496.31
296.909	474.31
297.14	492.31
297.37	489.31
297.601	489.31
297.831	509.31
298.062	491.31
298.292	517.31
298.523	531.31
298.753	524.31
298.984	516.31
299.214	511.31
299.445	502.31
299.675	498.31
299.905	505.31
300.136	501.31
300.366	506.31
300.597	505.31
300.827	523.31
301.057	534.31
301.288	540.31
301.518	536.31
301.748	543.31
301.979	536.31
302.209	506.31
302.439	537.31
302.669	531.31
302.9	545.31
303.13	515.31
303.36	509.31
303.59	512.31
303.82	505.31
304.051	547.31
304.281	539.31
304.511	520.31
304.741	511.31
304.971	510.31
305.201	520.31
305.431	530.31
305.661	518.31
305.891	494.31
306.121	526.31
306.352	527.31
306.582	516.31
306.812	505.31
307.042	514.31
307.272	503.31
307.502	494.31
307.731	505.31
307.961	522.31
308.191	526.31
308.421	521.31
308.651	508.31
308.881	508.31
309.111	522.31
309.341	525.31
309.571	524.31
309.8	494.31
310.03	504.31
310.26	501.31
310.49	491.31
310.72	522.31
310.949	516.31
311.179	530.31
311.409	516.31
311.639	504.31
311.868	537.31
312.098	545.31
312.328	532.31
312.557	542.31
312.787	528.31
313.017	539.31
313.246	550.31
313.476	554.31
313.706	526.31
313.935	587.31
314.165	552.31
314.394	559.31
314.624	553.31
314.853	543.31
315.083	566.31
315.312	554.31
315.542	546.31
315.771	544.31
316.001	550.31
316.23	540.31
316.46	537.31
316.689	543.31
316.919	535.31
317.148	540.31
317.377	536.31
317.607	541.31
317.836	558.31
318.065	534.31
318.295	549.31
318.524	552.31
318.753	533.31
318.983	533.31
319.212	541.31
319.441	550.31
319.67	553.31
319.9	536.31
320.129	525.31
320.358	533.31
320.587	559.31
320.816	554.31
321.046	551.31
321.275	553.31
321.504	532.31
321.733	576.31
321.962	561.31
322.191	554.31
322.42	555.31
322.649	557.31
322.878	575.31
323.108	546.31
323.337	564.31
323.566	547.31
323.795	561.31
324.024	572.31
324.253	579.31
324.482	562.31
324.71	566.31
324.939	587.31
325.168	558.31
325.397	558.31
325.626	595.31
325.855	595.31
326.084	602.31
326.313	606.31
326.542	592.31
326.77	615.31
326.999	623.31
327.228	603.31
327.457	590.31
327.686	586.31
327.914	619.31
328.143	613.31
328.372	604.31
328.6	620.31
328.829	626.31
329.058	604.31
329.287	596.31
329.515	603.31
329.744	617.31
329.972	606.31
330.201	607.31
330.43	605.31
330.658	610.31
330.887	624.31
331.115	614.31
331.344	665.31
331.572	670.31
331.801	668.31
332.03	665.31
332.258	681.31
332.486	721.31
332.715	725.31
332.943	742.31
333.172	792.31
333.4	798.31
333.629	842.31
333.857	815.31
334.085	810.31
334.314	831.31
334.542	791.31
334.771	785.31
334.999	778.31
335.227	752.31
335.455	763.31
335.684	757.31
335.912	744.31
336.14	729.31
336.369	731.31
336.597	742.31
336.825	753.31
337.053	712.31
337.281	716.31
337.51	708.31
337.738	681.31
337.966	700.31
338.194	650.31
338.422	678.31
338.65	656.31
338.878	666.31
339.106	693.31
339.334	657.31
339.562	635.31
339.79	650.31
340.018	634.31
340.246	642.31
340.474	639.31
340.702	630.31
340.93	688.31
341.158	658.31
341.386	637.31
341.614	648.31
341.842	621.31
342.07	636.31
342.298	626.31
342.526	625.31
342.754	641.31
342.981	647.31
343.209	669.31
343.437	678.31
343.665	704.31
343.893	778.31
344.12	788.31
344.348	763.31
344.576	696.31
344.804	678.31
345.031	668.31
345.259	665.31
345.487	663.31
345.714	646.31
345.942	652.31
346.17	649.31
346.397	625.31
346.625	636.31
346.853	637.31
347.08	633.31
347.308	615.31
347.535	636.31
347.763	636.31
347.99	651.31
348.218	644.31
348.445	645.31
348.673	625.31
348.9	600.31
349.128	620.31
349.355	607.31
349.583	616.31
349.81	595.31
350.037	598.31
350.265	627.31
350.492	599.31
350.72	601.31
350.947	587.31
351.174	590.31
351.402	586.31
351.629	572.31
351.856	610.31
352.083	578.31
352.311	586.31
352.538	594.31
352.765	592.31
352.992	614.31
353.22	615.31
353.447	568.31
353.674	600.31
353.901	603.31
354.128	578.31
354.355	568.31
354.583	582.31
354.81	588.31
355.037	594.31
355.264	605.31
355.491	600.31
355.718	602.31
355.945	616.31
356.172	598.31
356.399	608.31
356.626	602.31
356.853	622.31
357.08	611.31
357.307	613.31
357.534	604.31
357.761	605.31
357.988	589.31
358.215	599.31
358.441	609.31
358.668	603.31
358.895	602.31
359.122	575.31
359.349	588.31
359.576	587.31
359.802	605.31
360.029	609.31
360.256	613.31
360.483	583.31
360.709	604.31
360.936	604.31
361.163	580.31
361.39	577.31
361.616	598.31
361.843	579.31
362.07	591.31
362.296	586.31
362.523	605.31
362.749	588.31
362.976	609.31
363.203	600.31
363.429	594.31
363.656	588.31
363.882	573.31
364.109	573.31
364.335	586.31
364.562	592.31
364.788	592.31
365.015	590.31
365.241	580.31
365.468	583.31
365.694	601.31
365.92	570.31
366.147	578.31
366.373	572.31
366.599	585.31
366.826	600.31
367.052	584.31
367.278	612.31
367.505	575.31
367.731	624.31
367.957	625.31
368.184	609.31
368.41	596.31
368.636	584.31
368.862	589.31
369.089	603.31
369.315	591.31
369.541	625.31
369.767	622.31
369.993	636.31
370.219	634.31
370.445	631.31
370.672	638.31
370.898	629.31
371.124	638.31
371.35	647.31
371.576	653.31
371.802	666.31
372.028	658.31
372.254	637.31
372.48	631.31
372.706	689.31
372.932	664.31
373.158	674.31
373.384	665.31
373.61	666.31
373.835	633.31
374.061	664.31
374.287	664.31
374.513	665.31
374.739	677.31
374.965	710.31
375.191	743.31
375.416	742.31
375.642	694.31
375.868	689.31
376.094	674.31
376.319	657.31
376.545	654.31
376.771	651.31
376.997	644.31
377.222	649.31
377.448	662.31
377.674	644.31
377.899	621.31
378.125	605.31
378.35	624.31
378.576	636.31
378.802	646.31
379.027	625.31
379.253	634.31
379.478	648.31
379.704	630.31
379.929	617.31
380.155	623.31
380.38	652.31
380.606	620.31
380.831	633.31
381.057	628.31
381.282	624.31
381.507	646.31
381.733	634.31
381.958	650.31
382.184	677.31
382.409	677.31
382.634	678.31
382.86	682.31
383.085	716.31
383.31	686.31
383.535	690.31
383.761	720.31
383.986	738.31
384.211	726.31
384.436	742.31
384.662	774.31
384.887	791.31
385.112	758.31
385.337	780.31
385.562	779.31
385.787	773.31
386.013	785.31
386.238	780.31
386.463	781.31
386.688	765.31
386.913	781.31
387.138	774.31
387.363	783.31
387.588	751.31
387.813	750.31
388.038	718.31
388.263	760.31
388.488	764.31
388.713	763.31
388.938	735.31
389.163	735.31
389.387	750.31
389.612	735.31
389.837	751.31
390.062	747.31
390.287	750.31
390.512	745.31
390.736	741.31
390.961	780.31
391.186	785.31
391.411	793.31
391.636	841.31
391.86	874.31
392.085	892.31
392.31	847.31
392.534	843.31
392.759	841.31
392.984	825.31
393.208	812.31
393.433	823.31
393.658	841.31
393.882	831.31
394.107	830.31
394.331	813.31
394.556	822.31
394.78	836.31
395.005	828.31
395.229	816.31
395.454	857.31
395.678	884.31
395.903	884.31
396.127	875.31
396.352	802.31
396.576	796.31
396.801	800.31
397.025	818.31
397.249	834.31
397.474	847.31
397.698	866.31
397.922	834.31
398.147	831.31
398.371	880.31
398.595	927.31
398.82	934.31
399.044	1004.31
399.268	1101.31
399.492	1305.31
399.717	1453.31
399.941	1426.31
400.165	1274.31
400.389	1121.31
400.613	1062.31
400.837	1007.31
401.062	985.31
401.286	954.31
401.51	983.31
401.734	968.31
401.958	980.31
402.182	990.31
402.406	1013.31
402.63	1001.31
402.854	1005.31
403.078	1033.31
403.302	1072.31
403.526	1102.31
403.75	1112.31
403.974	1146.31
404.198	1148.31
404.422	1157.31
404.645	1126.31
404.869	1099.31
405.093	1083.31
405.317	1042.31
405.541	1076.31
405.765	1034.31
405.988	1022.31
406.212	1039.31
406.436	1034.31
406.66	1105.31
406.883	1094.31
407.107	1182.31
407.331	1206.31
407.555	1253.31
407.778	1233.31
408.002	1232.31
408.226	1190.31
408.449	1136.31
408.673	1112.31
408.896	1083.31
409.12	1105.31
409.344	1128.31
409.567	1092.31
409.791	1132.31
410.014	1092.31
410.238	1078.31
410.461	1097.31
410.685	1082.31
410.908	1048.31
411.132	1026.31
411.355	1014.31
411.578	1008.31
411.802	1018.31
412.025	996.31
412.249	1003.31
412.472	1026.31
412.695	949.31
412.919	944.31
413.142	961.31
413.365	953.31
413.589	957.31
413.812	962.31
414.035	942.31
414.258	952.31
414.482	943.31
414.705	1014.31
414.928	1003.31
415.151	948.31
415.374	1000.31
415.597	985.31
415.821	942.31
416.044	943.31
416.267	964.31
416.49	928.31
416.713	952.31
416.936	968.31
417.159	970.31
417.382	943.31
417.605	958.31
417.828	936.31
418.051	977.31
418.274	945.31
418.497	961.31
418.72	1019.31
418.943	1006.31
419.166	1056.31
419.389	1088.31
419.611	1060.31
419.834	1052.31
420.057	998.31
420.28	965.31
420.503	962.31
420.726	954.31
420.948	958.31
421.171	959.31
421.394	975.31
421.617	987.31
421.839	974.31
422.062	954.31
422.285	937.31
422.507	988.31
422.73	980.31
422.953	996.31
423.175	1029.31
423.398	1040.31
423.621	1041.31
423.843	1032.31
424.066	1056.31
424.288	1034.31
424.511	1002.31
424.733	970.31
424.956	983.31
425.178	984.31
425.401	953.31
425.623	971.31
425.846	948.31
426.068	918.31
426.291	895.31
426.513	909.31
426.735	911.31
426.958	896.31
427.18	865.31
427.402	922.31
427.625	886.31
427.847	876.31
428.069	847.31
428.292	877.31
428.514	856.31
428.736	875.31
428.958	866.31
429.181	864.31
429.403	828.31
429.625	841.31
429.847	828.31
430.069	839.31
430.292	854.31
430.514	816.31
430.736	858.31
430.958	822.31
431.18	830.31
431.402	851.31
431.624	876.31
431.846	847.31
432.068	840.31
432.29	882.31
432.512	869.31
432.734	855.31
432.956	854.31
433.178	859.31
433.4	863.31
433.622	888.31
433.844	896.31
434.066	872.31
434.287	877.31
434.509	918.31
434.731	923.31
434.953	976.31
435.175	991.31
435.397	973.31
435.618	892.31
435.84	932.31
436.062	869.31
436.284	836.31
436.505	861.31
436.727	887.31
436.949	866.31
437.17	864.31
437.392	847.31
437.614	860.31
437.835	802.31
438.057	837.31
438.278	828.31
438.5	815.31
438.721	842.31
438.943	836.31
439.165	821.31
439.386	836.31
439.608	865.31
439.829	863.31
440.05	853.31
440.272	884.31
440.493	886.31
440.715	888.31
440.936	905.31
441.158	909.31
441.379	911.31
441.6	973.31
441.822	1013.31
442.043	967.31
442.264	972.31
442.486	953.31
442.707	937.31
442.928	974.31
443.149	963.31
443.371	970.31
443.592	972.31
443.813	984.31
444.034	985.31
444.255	1004.31
444.476	1055.31
444.698	1141.31
444.919	1202.31
445.14	1260.31
445.361	1092.31
445.582	1014.31
445.803	946.31
446.024	916.31
446.245	906.31
446.466	923.31
446.687	876.31
446.908	887.31
447.129	879.31
447.35	834.31
447.571	838.31
447.792	817.31
448.013	831.31
448.234	825.31
448.455	830.31
448.675	795.31
448.896	808.31
449.117	790.31
449.338	802.31
449.559	798.31
449.779	807.31
450	779.31
450.221	790.31
450.442	790.31
450.662	827.31
450.883	832.31
451.104	837.31
451.324	832.31
451.545	824.31
451.766	819.31
451.986	797.31
452.207	799.31
452.428	809.31
452.648	806.31
452.869	778.31
453.089	777.31
453.31	782.31
453.53	771.31
453.751	780.31
453.971	761.31
454.192	758.31
454.412	734.31
454.633	761.31
454.853	768.31
455.073	748.31
455.294	763.31
455.514	734.31
455.734	736.31
455.955	729.31
456.175	727.31
456.395	728.31
456.616	743.31
456.836	732.31
457.056	740.31
457.276	701.31
457.497	745.31
457.717	745.31
457.937	743.31
458.157	754.31
458.377	756.31
458.598	742.31
458.818	801.31
459.038	806.31
459.258	849.31
459.478	852.31
459.698	912.31
459.918	906.31
460.138	970.31
460.358	1029.31
460.578	1028.31
460.798	1036.31
461.018	1041.31
461.238	998.31
461.458	1041.31
461.678	988.31
461.898	1006.31
462.118	1028.31
462.338	1073.31
462.558	1107.31
462.777	1181.31
462.997	1289.31
463.217	1402.31
463.437	1419.31
463.657	1266.31
463.876	1210.31
464.096	1220.31
464.316	1197.31
464.536	1199.31
464.755	1168.31
464.975	1105.31
465.195	1055.31
465.414	1019.31
465.634	929.31
465.854	908.31
466.073	900.31
466.293	864.31
466.512	868.31
466.732	839.31
466.951	847.31
467.171	813.31
467.391	835.31
467.61	827.31
467.829	846.31
468.049	834.31
468.268	768.31
468.488	779.31
468.707	790.31
468.927	802.31
469.146	794.31
469.365	789.31
469.585	816.31
469.804	850.31
470.023	856.31
470.243	845.31
470.462	883.31
470.681	844.31
470.901	860.31
471.12	829.31
471.339	855.31
471.558	805.31
471.777	826.31
471.997	794.31
472.216	810.31
472.435	805.31
472.654	787.31
472.873	782.31
473.092	784.31
473.311	767.31
473.53	772.31
473.749	776.31
473.968	793.31
474.187	778.31
474.406	749.31
474.625	760.31
474.844	772.31
475.063	778.31
475.282	780.31
475.501	798.31
475.72	798.31
475.939	793.31
476.158	794.31
476.377	803.31
476.596	809.31
476.814	816.31
477.033	825.31
477.252	800.31
477.471	842.31
477.69	867.31
477.908	897.31
478.127	932.31
478.346	908.31
478.564	939.31
478.783	954.31
479.002	959.31
479.22	981.31
479.439	965.31
479.658	980.31
479.876	936.31
480.095	985.31
480.313	1030.31
480.532	1048.31
480.751	1046.31
480.969	978.31
481.188	972.31
481.406	942.31
481.624	927.31
481.843	908.31
482.061	900.31
482.28	879.31
482.498	881.31
482.717	865.31
482.935	873.31
483.153	872.31
483.372	889.31
483.59	865.31
483.808	875.31
484.027	885.31
484.245	860.31
484.463	877.31
484.681	887.31
484.9	881.31
485.118	890.31
485.336	862.31
485.554	913.31
485.772	904.31
485.99	927.31
486.209	961.31
486.427	933.31
486.645	914.31
486.863	946.31
487.081	929.31
487.299	927.31
487.517	965.31
487.735	936.31
487.953	940.31
488.171	924.31
488.389	919.31
488.607	909.31
488.825	901.31
489.043	904.31
489.261	896.31
489.479	899.31
489.696	932.31
489.914	898.31
490.132	930.31
490.35	931.31
490.568	927.31
490.786	950.31
491.003	958.31
491.221	952.31
491.439	930.31
491.657	957.31
491.874	932.31
492.092	932.31
492.31	944.31
492.527	933.31
492.745	954.31
492.963	962.31
493.18	938.31
493.398	954.31
493.615	974.31
493.833	968.31
494.05	1010.31
494.268	996.31
494.485	987.31
494.703	984.31
494.92	974.31
495.138	954.31
495.355	966.31
495.573	981.31
495.79	990.31
496.008	981.31
496.225	982.31
496.442	1010.31
496.66	1019.31
496.877	1042.31
497.094	1030.31
497.312	1074.31
497.529	1059.31
497.746	1105.31
497.963	1115.31
498.181	1154.31
498.398	1216.31
498.615	1305.31
498.832	1388.31
499.049	1496.31
499.267	1606.31
499.484	1821.31
499.701	2004.31
499.918	2191.31
