Data from Ni(NO3)2@0.25M.TitratingCurve.Agarose3%dH2O.NegLispCup.LampEnergy10.LIBS07252019_HRD10591_18-04-34-565.txt Node
Date: Thu Jul 25 18:04:34 EDT 2019
User: cochatt
Spectrometer: HR+D1059
Trigger mode: 1
Integration Time (sec): 1.000000E-1
Scans to average: 1
Electric dark correction enabled: true
Nonlinearity correction enabled: false
Boxcar width: 0
XAxis mode: Wavelengths
Number of Pixels in Spectrum: 2048
>>>>>Begin Spectral Data<<<<<
223.165	-17.12
223.4	-17.12
223.635	-17.12
223.869	-22.12
224.104	-17.12
224.338	-9.12
224.573	-10.12
224.808	-26.12
225.042	-14.12
225.277	-3.12
225.511	-11.12
225.746	3.88
225.98	29.88
226.215	3.88
226.449	13.88
226.683	27.88
226.918	20.88
227.152	29.88
227.387	43.88
227.621	35.88
227.856	43.88
228.09	57.88
228.324	47.88
228.559	45.88
228.793	70.88
229.027	111.88
229.262	111.88
229.496	108.88
229.73	110.88
229.964	114.88
230.199	113.88
230.433	131.88
230.667	139.88
230.901	114.88
231.136	141.88
231.37	113.88
231.604	139.88
231.838	129.88
232.072	141.88
232.306	153.88
232.541	150.88
232.775	148.88
233.009	137.88
233.243	126.88
233.477	137.88
233.711	158.88
233.945	151.88
234.179	138.88
234.413	151.88
234.647	153.88
234.881	145.88
235.115	126.88
235.349	141.88
235.583	145.88
235.817	148.88
236.051	159.88
236.285	156.88
236.519	153.88
236.753	142.88
236.987	151.88
237.221	144.88
237.455	171.88
237.689	167.88
237.922	157.88
238.156	153.88
238.39	153.88
238.624	156.88
238.858	156.88
239.091	145.88
239.325	157.88
239.559	165.88
239.793	166.88
240.027	174.88
240.26	166.88
240.494	167.88
240.728	163.88
240.961	170.88
241.195	164.88
241.429	167.88
241.662	175.88
241.896	178.88
242.13	170.88
242.363	173.88
242.597	180.88
242.83	184.88
243.064	174.88
243.298	200.88
243.531	185.88
243.765	191.88
243.998	179.88
244.232	184.88
244.465	199.88
244.699	191.88
244.932	198.88
245.166	200.88
245.399	194.88
245.633	209.88
245.866	210.88
246.099	204.88
246.333	209.88
246.566	204.88
246.8	199.88
247.033	212.88
247.266	213.88
247.5	206.88
247.733	214.88
247.966	217.88
248.2	226.88
248.433	227.88
248.666	244.88
248.899	227.88
249.133	229.88
249.366	231.88
249.599	225.88
249.832	238.88
250.066	241.88
250.299	243.88
250.532	240.88
250.765	214.88
250.998	247.88
251.231	243.88
251.465	270.88
251.698	243.88
251.931	262.88
252.164	255.88
252.397	253.88
252.63	249.88
252.863	238.88
253.096	259.88
253.329	271.88
253.562	270.88
253.795	266.88
254.028	259.88
254.261	281.88
254.494	261.88
254.727	283.88
254.96	273.88
255.193	294.88
255.426	268.88
255.659	290.88
255.892	287.88
256.124	292.88
256.357	294.88
256.59	290.88
256.823	289.88
257.056	280.88
257.289	278.88
257.521	284.88
257.754	293.88
257.987	309.88
258.22	307.88
258.452	286.88
258.685	286.88
258.918	302.88
259.151	307.88
259.383	321.88
259.616	305.88
259.849	324.88
260.081	318.88
260.314	320.88
260.547	301.88
260.779	291.88
261.012	319.88
261.244	318.88
261.477	331.88
261.71	324.88
261.942	330.88
262.175	319.88
262.407	336.88
262.64	344.88
262.872	355.88
263.105	339.88
263.337	362.88
263.57	349.88
263.802	344.88
264.035	332.88
264.267	333.88
264.499	337.88
264.732	351.88
264.964	344.88
265.197	344.88
265.429	356.88
265.661	358.88
265.894	349.88
266.126	338.88
266.358	357.88
266.591	363.88
266.823	358.88
267.055	356.88
267.287	371.88
267.52	375.88
267.752	357.88
267.984	364.88
268.216	376.88
268.448	387.88
268.681	371.88
268.913	381.88
269.145	361.88
269.377	377.88
269.609	374.88
269.841	366.88
270.073	373.88
270.306	397.88
270.538	382.88
270.77	390.88
271.002	391.88
271.234	393.88
271.466	383.88
271.698	381.88
271.93	384.88
272.162	406.88
272.394	382.88
272.626	392.88
272.858	369.88
273.09	393.88
273.322	394.88
273.553	386.88
273.785	400.88
274.017	407.88
274.249	411.88
274.481	403.88
274.713	404.88
274.945	396.88
275.176	407.88
275.408	395.88
275.64	418.88
275.872	420.88
276.104	413.88
276.335	437.88
276.567	418.88
276.799	420.88
277.031	399.88
277.262	393.88
277.494	436.88
277.726	419.88
277.957	429.88
278.189	434.88
278.421	420.88
278.652	437.88
278.884	446.88
279.115	451.88
279.347	409.88
279.579	454.88
279.81	450.88
280.042	457.88
280.273	446.88
280.505	441.88
280.736	442.88
280.968	460.88
281.199	462.88
281.431	457.88
281.662	461.88
281.894	457.88
282.125	451.88
282.356	465.88
282.588	444.88
282.819	482.88
283.051	460.88
283.282	454.88
283.513	460.88
283.745	470.88
283.976	481.88
284.207	456.88
284.439	449.88
284.67	466.88
284.901	465.88
285.132	468.88
285.364	474.88
285.595	470.88
285.826	489.88
286.057	483.88
286.288	484.88
286.52	481.88
286.751	476.88
286.982	487.88
287.213	477.88
287.444	497.88
287.675	493.88
287.906	511.88
288.138	481.88
288.369	497.88
288.6	492.88
288.831	499.88
289.062	511.88
289.293	493.88
289.524	504.88
289.755	511.88
289.986	503.88
290.217	501.88
290.448	503.88
290.679	506.88
290.91	519.88
291.141	509.88
291.371	502.88
291.602	513.88
291.833	486.88
292.064	523.88
292.295	524.88
292.526	517.88
292.757	498.88
292.987	473.88
293.218	493.88
293.449	502.88
293.68	512.88
293.91	503.88
294.141	489.88
294.372	517.88
294.603	518.88
294.833	503.88
295.064	510.88
295.295	490.88
295.525	500.88
295.756	517.88
295.987	511.88
296.217	538.88
296.448	516.88
296.679	541.88
296.909	528.88
297.14	521.88
297.37	534.88
297.601	550.88
297.831	542.88
298.062	564.88
298.292	549.88
298.523	551.88
298.753	548.88
298.984	538.88
299.214	562.88
299.445	547.88
299.675	576.88
299.905	550.88
300.136	558.88
300.366	578.88
300.597	569.88
300.827	573.88
301.057	568.88
301.288	579.88
301.518	586.88
301.748	574.88
301.979	595.88
302.209	595.88
302.439	569.88
302.669	585.88
302.9	576.88
303.13	570.88
303.36	602.88
303.59	585.88
303.82	594.88
304.051	572.88
304.281	595.88
304.511	572.88
304.741	579.88
304.971	587.88
305.201	586.88
305.431	603.88
305.661	601.88
305.891	567.88
306.121	575.88
306.352	582.88
306.582	570.88
306.812	561.88
307.042	554.88
307.272	563.88
307.502	574.88
307.731	567.88
307.961	553.88
308.191	579.88
308.421	557.88
308.651	582.88
308.881	577.88
309.111	545.88
309.341	558.88
309.571	582.88
309.8	570.88
310.03	589.88
310.26	589.88
310.49	584.88
310.72	597.88
310.949	591.88
311.179	623.88
311.409	594.88
311.639	603.88
311.868	574.88
312.098	603.88
312.328	603.88
312.557	614.88
312.787	603.88
313.017	601.88
313.246	640.88
313.476	637.88
313.706	617.88
313.935	622.88
314.165	627.88
314.394	641.88
314.624	637.88
314.853	616.88
315.083	618.88
315.312	637.88
315.542	627.88
315.771	636.88
316.001	656.88
316.23	630.88
316.46	606.88
316.689	659.88
316.919	647.88
317.148	647.88
317.377	651.88
317.607	645.88
317.836	633.88
318.065	640.88
318.295	643.88
318.524	653.88
318.753	633.88
318.983	646.88
319.212	641.88
319.441	627.88
319.67	665.88
319.9	634.88
320.129	641.88
320.358	663.88
320.587	644.88
320.816	647.88
321.046	666.88
321.275	664.88
321.504	662.88
321.733	668.88
321.962	677.88
322.191	679.88
322.42	667.88
322.649	675.88
322.878	674.88
323.108	664.88
323.337	662.88
323.566	697.88
323.795	711.88
324.024	675.88
324.253	700.88
324.482	675.88
324.71	682.88
324.939	716.88
325.168	721.88
325.397	677.88
325.626	684.88
325.855	716.88
326.084	747.88
326.313	708.88
326.542	739.88
326.77	749.88
326.999	738.88
327.228	737.88
327.457	714.88
327.686	739.88
327.914	773.88
328.143	745.88
328.372	747.88
328.6	750.88
328.829	758.88
329.058	757.88
329.287	754.88
329.515	756.88
329.744	759.88
329.972	758.88
330.201	779.88
330.43	754.88
330.658	758.88
330.887	786.88
331.115	781.88
331.344	786.88
331.572	809.88
331.801	852.88
332.03	838.88
332.258	846.88
332.486	863.88
332.715	895.88
332.943	885.88
333.172	948.88
333.4	920.88
333.629	970.88
333.857	1006.88
334.085	993.88
334.314	996.88
334.542	994.88
334.771	990.88
334.999	974.88
335.227	1004.88
335.455	974.88
335.684	951.88
335.912	981.88
336.14	980.88
336.369	959.88
336.597	935.88
336.825	961.88
337.053	948.88
337.281	938.88
337.51	903.88
337.738	920.88
337.966	870.88
338.194	895.88
338.422	891.88
338.65	866.88
338.878	881.88
339.106	869.88
339.334	865.88
339.562	864.88
339.79	840.88
340.018	821.88
340.246	835.88
340.474	825.88
340.702	820.88
340.93	847.88
341.158	843.88
341.386	855.88
341.614	858.88
341.842	817.88
342.07	845.88
342.298	816.88
342.526	855.88
342.754	823.88
342.981	836.88
343.209	831.88
343.437	915.88
343.665	933.88
343.893	938.88
344.12	993.88
344.348	975.88
344.576	932.88
344.804	924.88
345.031	883.88
345.259	849.88
345.487	833.88
345.714	851.88
345.942	838.88
346.17	827.88
346.397	842.88
346.625	823.88
346.853	793.88
347.08	798.88
347.308	834.88
347.535	808.88
347.763	814.88
347.99	806.88
348.218	809.88
348.445	827.88
348.673	802.88
348.9	782.88
349.128	803.88
349.355	809.88
349.583	795.88
349.81	794.88
350.037	786.88
350.265	785.88
350.492	770.88
350.72	776.88
350.947	776.88
351.174	787.88
351.402	789.88
351.629	797.88
351.856	788.88
352.083	775.88
352.311	746.88
352.538	779.88
352.765	826.88
352.992	775.88
353.22	784.88
353.447	750.88
353.674	765.88
353.901	795.88
354.128	746.88
354.355	769.88
354.583	733.88
354.81	751.88
355.037	772.88
355.264	773.88
355.491	760.88
355.718	735.88
355.945	782.88
356.172	784.88
356.399	771.88
356.626	757.88
356.853	799.88
357.08	796.88
357.307	806.88
357.534	768.88
357.761	775.88
357.988	780.88
358.215	766.88
358.441	787.88
358.668	786.88
358.895	763.88
359.122	751.88
359.349	743.88
359.576	754.88
359.802	766.88
360.029	772.88
360.256	768.88
360.483	762.88
360.709	774.88
360.936	757.88
361.163	780.88
361.39	772.88
361.616	776.88
361.843	763.88
362.07	801.88
362.296	793.88
362.523	749.88
362.749	753.88
362.976	777.88
363.203	741.88
363.429	769.88
363.656	780.88
363.882	778.88
364.109	783.88
364.335	784.88
364.562	749.88
364.788	782.88
365.015	794.88
365.241	759.88
365.468	746.88
365.694	743.88
365.92	757.88
366.147	771.88
366.373	765.88
366.599	746.88
366.826	751.88
367.052	742.88
367.278	766.88
367.505	744.88
367.731	767.88
367.957	756.88
368.184	763.88
368.41	780.88
368.636	780.88
368.862	798.88
369.089	775.88
369.315	780.88
369.541	775.88
369.767	804.88
369.993	787.88
370.219	764.88
370.445	798.88
370.672	815.88
370.898	791.88
371.124	802.88
371.35	825.88
371.576	851.88
371.802	807.88
372.028	812.88
372.254	833.88
372.48	833.88
372.706	825.88
372.932	844.88
373.158	856.88
373.384	854.88
373.61	810.88
373.835	814.88
374.061	817.88
374.287	837.88
374.513	833.88
374.739	865.88
374.965	889.88
375.191	855.88
375.416	878.88
375.642	847.88
375.868	859.88
376.094	841.88
376.319	844.88
376.545	856.88
376.771	821.88
376.997	806.88
377.222	815.88
377.448	778.88
377.674	801.88
377.899	824.88
378.125	810.88
378.35	776.88
378.576	803.88
378.802	793.88
379.027	789.88
379.253	825.88
379.478	789.88
379.704	801.88
379.929	777.88
380.155	786.88
380.38	795.88
380.606	826.88
380.831	771.88
381.057	803.88
381.282	806.88
381.507	781.88
381.733	779.88
381.958	825.88
382.184	825.88
382.409	841.88
382.634	839.88
382.86	836.88
383.085	860.88
383.31	840.88
383.535	878.88
383.761	879.88
383.986	868.88
384.211	879.88
384.436	893.88
384.662	902.88
384.887	942.88
385.112	938.88
385.337	938.88
385.562	917.88
385.787	950.88
386.013	936.88
386.238	970.88
386.463	991.88
386.688	975.88
386.913	958.88
387.138	949.88
387.363	943.88
387.588	949.88
387.813	954.88
388.038	939.88
388.263	952.88
388.488	959.88
388.713	935.88
388.938	945.88
389.163	894.88
389.387	944.88
389.612	909.88
389.837	957.88
390.062	946.88
390.287	941.88
390.512	909.88
390.736	955.88
390.961	968.88
391.186	971.88
391.411	991.88
391.636	1044.88
391.86	1055.88
392.085	1047.88
392.31	1057.88
392.534	1040.88
392.759	1020.88
392.984	1028.88
393.208	995.88
393.433	1023.88
393.658	1024.88
393.882	990.88
394.107	1017.88
394.331	1035.88
394.556	1026.88
394.78	1029.88
395.005	1040.88
395.229	1029.88
395.454	1041.88
395.678	1064.88
395.903	1094.88
396.127	1060.88
396.352	1035.88
396.576	1036.88
396.801	1014.88
397.025	1022.88
397.249	1076.88
397.474	1110.88
397.698	1098.88
397.922	1100.88
398.147	1095.88
398.371	1127.88
398.595	1175.88
398.82	1227.88
399.044	1273.88
399.268	1323.88
399.492	1547.88
399.717	1684.88
399.941	1636.88
400.165	1552.88
400.389	1439.88
400.613	1365.88
400.837	1289.88
401.062	1254.88
401.286	1258.88
401.51	1227.88
401.734	1213.88
401.958	1229.88
402.182	1253.88
402.406	1227.88
402.63	1258.88
402.854	1207.88
403.078	1265.88
403.302	1251.88
403.526	1313.88
403.75	1310.88
403.974	1329.88
404.198	1328.88
404.422	1341.88
404.645	1310.88
404.869	1301.88
405.093	1310.88
405.317	1282.88
405.541	1300.88
405.765	1272.88
405.988	1314.88
406.212	1322.88
406.436	1334.88
406.66	1310.88
406.883	1363.88
407.107	1432.88
407.331	1495.88
407.555	1521.88
407.778	1505.88
408.002	1480.88
408.226	1480.88
408.449	1450.88
408.673	1398.88
408.896	1351.88
409.12	1382.88
409.344	1379.88
409.567	1362.88
409.791	1375.88
410.014	1354.88
410.238	1369.88
410.461	1337.88
410.685	1313.88
410.908	1302.88
411.132	1269.88
411.355	1259.88
411.578	1278.88
411.802	1235.88
412.025	1281.88
412.249	1295.88
412.472	1283.88
412.695	1220.88
412.919	1246.88
413.142	1204.88
413.365	1234.88
413.589	1244.88
413.812	1250.88
414.035	1244.88
414.258	1215.88
414.482	1199.88
414.705	1221.88
414.928	1232.88
415.151	1245.88
415.374	1256.88
415.597	1228.88
415.821	1205.88
416.044	1169.88
416.267	1179.88
416.49	1186.88
416.713	1178.88
416.936	1208.88
417.159	1195.88
417.382	1194.88
417.605	1176.88
417.828	1203.88
418.051	1241.88
418.274	1211.88
418.497	1188.88
418.72	1246.88
418.943	1250.88
419.166	1322.88
419.389	1366.88
419.611	1324.88
419.834	1310.88
420.057	1315.88
420.28	1211.88
420.503	1203.88
420.726	1227.88
420.948	1158.88
421.171	1180.88
421.394	1222.88
421.617	1208.88
421.839	1213.88
422.062	1240.88
422.285	1197.88
422.507	1272.88
422.73	1214.88
422.953	1223.88
423.175	1287.88
423.398	1252.88
423.621	1233.88
423.843	1230.88
424.066	1256.88
424.288	1269.88
424.511	1257.88
424.733	1221.88
424.956	1234.88
425.178	1235.88
425.401	1223.88
425.623	1205.88
425.846	1170.88
426.068	1209.88
426.291	1194.88
426.513	1171.88
426.735	1151.88
426.958	1177.88
427.18	1156.88
427.402	1155.88
427.625	1158.88
427.847	1097.88
428.069	1122.88
428.292	1137.88
428.514	1156.88
428.736	1116.88
428.958	1137.88
429.181	1106.88
429.403	1101.88
429.625	1091.88
429.847	1099.88
430.069	1111.88
430.292	1108.88
430.514	1087.88
430.736	1119.88
430.958	1109.88
431.18	1109.88
431.402	1132.88
431.624	1097.88
431.846	1101.88
432.068	1114.88
432.29	1122.88
432.512	1128.88
432.734	1154.88
432.956	1132.88
433.178	1133.88
433.4	1155.88
433.622	1131.88
433.844	1128.88
434.066	1161.88
434.287	1127.88
434.509	1136.88
434.731	1231.88
434.953	1247.88
435.175	1242.88
435.397	1226.88
435.618	1215.88
435.84	1188.88
436.062	1125.88
436.284	1149.88
436.505	1138.88
436.727	1108.88
436.949	1161.88
437.17	1113.88
437.392	1101.88
437.614	1069.88
437.835	1079.88
438.057	1100.88
438.278	1056.88
438.5	1081.88
438.721	1093.88
438.943	1111.88
439.165	1102.88
439.386	1093.88
439.608	1126.88
439.829	1145.88
440.05	1146.88
440.272	1146.88
440.493	1160.88
440.715	1160.88
440.936	1180.88
441.158	1165.88
441.379	1208.88
441.6	1221.88
441.822	1241.88
442.043	1260.88
442.264	1231.88
442.486	1218.88
442.707	1265.88
442.928	1216.88
443.149	1231.88
443.371	1205.88
443.592	1229.88
443.813	1254.88
444.034	1245.88
444.255	1285.88
444.476	1323.88
444.698	1385.88
444.919	1437.88
445.14	1497.88
445.361	1377.88
445.582	1294.88
445.803	1293.88
446.024	1238.88
446.245	1240.88
446.466	1180.88
446.687	1155.88
446.908	1155.88
447.129	1126.88
447.35	1121.88
447.571	1113.88
447.792	1094.88
448.013	1089.88
448.234	1094.88
448.455	1068.88
448.675	1045.88
448.896	1098.88
449.117	1020.88
449.338	1040.88
449.559	1063.88
449.779	1029.88
450	1039.88
450.221	1029.88
450.442	1042.88
450.662	1063.88
450.883	1080.88
451.104	1089.88
451.324	1081.88
451.545	1034.88
451.766	1067.88
451.986	1029.88
452.207	1032.88
452.428	1037.88
452.648	1053.88
452.869	1010.88
453.089	972.88
453.31	1000.88
453.53	999.88
453.751	1009.88
453.971	970.88
454.192	1004.88
454.412	951.88
454.633	956.88
454.853	975.88
455.073	991.88
455.294	1020.88
455.514	958.88
455.734	967.88
455.955	969.88
456.175	969.88
456.395	971.88
456.616	930.88
456.836	974.88
457.056	952.88
457.276	951.88
457.497	962.88
457.717	969.88
457.937	990.88
458.157	1009.88
458.377	973.88
458.598	1001.88
458.818	1049.88
459.038	1078.88
459.258	1095.88
459.478	1142.88
459.698	1179.88
459.918	1174.88
460.138	1199.88
460.358	1254.88
460.578	1282.88
460.798	1319.88
461.018	1328.88
461.238	1303.88
461.458	1333.88
461.678	1317.88
461.898	1342.88
462.118	1357.88
462.338	1406.88
462.558	1449.88
462.777	1483.88
462.997	1589.88
463.217	1647.88
463.437	1645.88
463.657	1587.88
463.876	1525.88
464.096	1567.88
464.316	1542.88
464.536	1466.88
464.755	1444.88
464.975	1398.88
465.195	1360.88
465.414	1279.88
465.634	1227.88
465.854	1170.88
466.073	1167.88
466.293	1166.88
466.512	1116.88
466.732	1085.88
466.951	1087.88
467.171	1090.88
467.391	1089.88
467.61	1093.88
467.829	1098.88
468.049	1086.88
468.268	1047.88
468.488	1055.88
468.707	1053.88
468.927	1064.88
469.146	1039.88
469.365	1053.88
469.585	1069.88
469.804	1101.88
470.023	1097.88
470.243	1081.88
470.462	1121.88
470.681	1133.88
470.901	1117.88
471.12	1135.88
471.339	1095.88
471.558	1094.88
471.777	1072.88
471.997	1054.88
472.216	1049.88
472.435	1049.88
472.654	1055.88
472.873	1030.88
473.092	1030.88
473.311	1038.88
473.53	1019.88
473.749	1016.88
473.968	1022.88
474.187	1017.88
474.406	994.88
474.625	1014.88
474.844	1024.88
475.063	1003.88
475.282	1018.88
475.501	1007.88
475.72	1040.88
475.939	1066.88
476.158	1067.88
476.377	1077.88
476.596	1088.88
476.814	1070.88
477.033	1060.88
477.252	1087.88
477.471	1125.88
477.69	1142.88
477.908	1173.88
478.127	1210.88
478.346	1220.88
478.564	1243.88
478.783	1247.88
479.002	1225.88
479.22	1279.88
479.439	1258.88
479.658	1252.88
479.876	1281.88
480.095	1265.88
480.313	1307.88
480.532	1321.88
480.751	1303.88
480.969	1261.88
481.188	1242.88
481.406	1219.88
481.624	1202.88
481.843	1182.88
482.061	1190.88
482.28	1166.88
482.498	1179.88
482.717	1167.88
482.935	1162.88
483.153	1180.88
483.372	1212.88
483.59	1192.88
483.808	1162.88
484.027	1145.88
484.245	1164.88
484.463	1198.88
484.681	1191.88
484.9	1207.88
485.118	1210.88
485.336	1215.88
485.554	1239.88
485.772	1202.88
485.99	1228.88
486.209	1225.88
486.427	1207.88
486.645	1237.88
486.863	1240.88
487.081	1216.88
487.299	1211.88
487.517	1223.88
487.735	1237.88
487.953	1248.88
488.171	1249.88
488.389	1207.88
488.607	1198.88
488.825	1177.88
489.043	1176.88
489.261	1215.88
489.479	1231.88
489.696	1220.88
489.914	1244.88
490.132	1196.88
490.35	1209.88
490.568	1256.88
490.786	1248.88
491.003	1246.88
491.221	1213.88
491.439	1285.88
491.657	1227.88
491.874	1281.88
492.092	1239.88
492.31	1252.88
492.527	1278.88
492.745	1256.88
492.963	1257.88
493.18	1294.88
493.398	1303.88
493.615	1295.88
493.833	1273.88
494.05	1323.88
494.268	1315.88
494.485	1333.88
494.703	1311.88
494.92	1331.88
495.138	1340.88
495.355	1351.88
