Data from Ni(NO3)2@0.5M.TitratingCurve.Agarose3%dH2O.NegLispCup.LampEnergy10.LIBS07252019_HRD10591_17-57-34-564.txt Node
Date: Thu Jul 25 17:57:34 EDT 2019
User: cochatt
Spectrometer: HR+D1059
Trigger mode: 1
Integration Time (sec): 1.000000E-1
Scans to average: 1
Electric dark correction enabled: true
Nonlinearity correction enabled: false
Boxcar width: 0
XAxis mode: Wavelengths
Number of Pixels in Spectrum: 2048
>>>>>Begin Spectral Data<<<<<
223.165	-19.94
223.4	-19.94
223.635	-19.94
223.869	-16.94
224.104	-26.94
224.338	-9.94
224.573	-14.94
224.808	-13.94
225.042	-7.94
225.277	-1.94
225.511	-6.94
225.746	4.06
225.98	7.06
226.215	10.06
226.449	13.06
226.683	20.06
226.918	22.06
227.152	43.06
227.387	38.06
227.621	43.06
227.856	48.06
228.09	60.06
228.324	46.06
228.559	54.06
228.793	65.06
229.027	97.06
229.262	102.06
229.496	117.06
229.73	103.06
229.964	126.06
230.199	132.06
230.433	123.06
230.667	134.06
230.901	129.06
231.136	120.06
231.37	137.06
231.604	128.06
231.838	127.06
232.072	141.06
232.306	139.06
232.541	127.06
232.775	123.06
233.009	122.06
233.243	132.06
233.477	137.06
233.711	138.06
233.945	124.06
234.179	133.06
234.413	122.06
234.647	130.06
234.881	122.06
235.115	137.06
235.349	121.06
235.583	124.06
235.817	131.06
236.051	134.06
236.285	140.06
236.519	136.06
236.753	117.06
236.987	135.06
237.221	144.06
237.455	152.06
237.689	140.06
237.922	137.06
238.156	132.06
238.39	144.06
238.624	137.06
238.858	155.06
239.091	134.06
239.325	150.06
239.559	173.06
239.793	158.06
240.027	172.06
240.26	163.06
240.494	151.06
240.728	135.06
240.961	133.06
241.195	152.06
241.429	145.06
241.662	164.06
241.896	158.06
242.13	153.06
242.363	161.06
242.597	165.06
242.83	164.06
243.064	148.06
243.298	161.06
243.531	174.06
243.765	166.06
243.998	173.06
244.232	174.06
244.465	163.06
244.699	186.06
244.932	191.06
245.166	176.06
245.399	169.06
245.633	177.06
245.866	173.06
246.099	194.06
246.333	188.06
246.566	190.06
246.8	168.06
247.033	180.06
247.266	194.06
247.5	180.06
247.733	181.06
247.966	182.06
248.2	182.06
248.433	199.06
248.666	211.06
248.899	201.06
249.133	202.06
249.366	208.06
249.599	200.06
249.832	196.06
250.066	217.06
250.299	216.06
250.532	208.06
250.765	232.06
250.998	226.06
251.231	236.06
251.465	225.06
251.698	220.06
251.931	198.06
252.164	217.06
252.397	230.06
252.63	230.06
252.863	224.06
253.096	217.06
253.329	222.06
253.562	236.06
253.795	232.06
254.028	232.06
254.261	241.06
254.494	235.06
254.727	237.06
254.96	235.06
255.193	241.06
255.426	237.06
255.659	250.06
255.892	252.06
256.124	260.06
256.357	253.06
256.59	252.06
256.823	255.06
257.056	255.06
257.289	246.06
257.521	250.06
257.754	270.06
257.987	270.06
258.22	273.06
258.452	281.06
258.685	273.06
258.918	268.06
259.151	273.06
259.383	265.06
259.616	285.06
259.849	272.06
260.081	284.06
260.314	278.06
260.547	297.06
260.779	292.06
261.012	313.06
261.244	274.06
261.477	286.06
261.71	304.06
261.942	299.06
262.175	301.06
262.407	295.06
262.64	292.06
262.872	293.06
263.105	307.06
263.337	303.06
263.57	294.06
263.802	304.06
264.035	303.06
264.267	306.06
264.499	296.06
264.732	305.06
264.964	302.06
265.197	301.06
265.429	302.06
265.661	318.06
265.894	305.06
266.126	308.06
266.358	325.06
266.591	311.06
266.823	335.06
267.055	343.06
267.287	328.06
267.52	337.06
267.752	344.06
267.984	316.06
268.216	324.06
268.448	328.06
268.681	344.06
268.913	334.06
269.145	333.06
269.377	331.06
269.609	333.06
269.841	330.06
270.073	338.06
270.306	333.06
270.538	321.06
270.77	322.06
271.002	338.06
271.234	332.06
271.466	343.06
271.698	354.06
271.93	336.06
272.162	350.06
272.394	358.06
272.626	354.06
272.858	342.06
273.09	336.06
273.322	349.06
273.553	343.06
273.785	342.06
274.017	345.06
274.249	362.06
274.481	346.06
274.713	352.06
274.945	356.06
275.176	367.06
275.408	386.06
275.64	372.06
275.872	343.06
276.104	368.06
276.335	363.06
276.567	371.06
276.799	363.06
277.031	382.06
277.262	364.06
277.494	363.06
277.726	359.06
277.957	372.06
278.189	362.06
278.421	385.06
278.652	367.06
278.884	362.06
279.115	364.06
279.347	382.06
279.579	381.06
279.81	380.06
280.042	388.06
280.273	380.06
280.505	401.06
280.736	382.06
280.968	381.06
281.199	378.06
281.431	388.06
281.662	394.06
281.894	403.06
282.125	383.06
282.356	385.06
282.588	391.06
282.819	386.06
283.051	380.06
283.282	397.06
283.513	403.06
283.745	393.06
283.976	402.06
284.207	396.06
284.439	390.06
284.67	398.06
284.901	385.06
285.132	391.06
285.364	402.06
285.595	408.06
285.826	407.06
286.057	402.06
286.288	404.06
286.52	403.06
286.751	398.06
286.982	399.06
287.213	419.06
287.444	393.06
287.675	424.06
287.906	421.06
288.138	424.06
288.369	424.06
288.6	433.06
288.831	424.06
289.062	422.06
289.293	400.06
289.524	433.06
289.755	423.06
289.986	399.06
290.217	421.06
290.448	425.06
290.679	439.06
290.91	445.06
291.141	421.06
291.371	452.06
291.602	437.06
291.833	432.06
292.064	423.06
292.295	418.06
292.526	424.06
292.757	436.06
292.987	441.06
293.218	400.06
293.449	426.06
293.68	448.06
293.91	429.06
294.141	412.06
294.372	431.06
294.603	417.06
294.833	431.06
295.064	421.06
295.295	431.06
295.525	436.06
295.756	438.06
295.987	442.06
296.217	430.06
296.448	432.06
296.679	438.06
296.909	433.06
297.14	436.06
297.37	432.06
297.601	457.06
297.831	428.06
298.062	443.06
298.292	455.06
298.523	451.06
298.753	448.06
298.984	446.06
299.214	441.06
299.445	451.06
299.675	470.06
299.905	458.06
300.136	457.06
300.366	467.06
300.597	463.06
300.827	478.06
301.057	453.06
301.288	458.06
301.518	478.06
301.748	459.06
301.979	456.06
302.209	480.06
302.439	462.06
302.669	456.06
302.9	466.06
303.13	462.06
303.36	489.06
303.59	464.06
303.82	489.06
304.051	475.06
304.281	481.06
304.511	486.06
304.741	470.06
304.971	493.06
305.201	505.06
305.431	488.06
305.661	505.06
305.891	484.06
306.121	493.06
306.352	504.06
306.582	499.06
306.812	484.06
307.042	491.06
307.272	491.06
307.502	487.06
307.731	496.06
307.961	491.06
308.191	493.06
308.421	486.06
308.651	501.06
308.881	496.06
309.111	494.06
309.341	492.06
309.571	518.06
309.8	498.06
310.03	515.06
310.26	532.06
310.49	527.06
310.72	517.06
310.949	528.06
311.179	510.06
311.409	533.06
311.639	515.06
311.868	528.06
312.098	527.06
312.328	537.06
312.557	503.06
312.787	530.06
313.017	532.06
313.246	532.06
313.476	525.06
313.706	570.06
313.935	528.06
314.165	540.06
314.394	538.06
314.624	529.06
314.853	549.06
315.083	541.06
315.312	538.06
315.542	540.06
315.771	540.06
316.001	541.06
316.23	553.06
316.46	548.06
316.689	565.06
316.919	558.06
317.148	565.06
317.377	545.06
317.607	566.06
317.836	554.06
318.065	572.06
318.295	552.06
318.524	593.06
318.753	557.06
318.983	561.06
319.212	582.06
319.441	564.06
319.67	603.06
319.9	573.06
320.129	561.06
320.358	585.06
320.587	603.06
320.816	588.06
321.046	572.06
321.275	606.06
321.504	602.06
321.733	625.06
321.962	587.06
322.191	588.06
322.42	584.06
322.649	592.06
322.878	602.06
323.108	588.06
323.337	608.06
323.566	625.06
323.795	625.06
324.024	629.06
324.253	647.06
324.482	629.06
324.71	623.06
324.939	616.06
325.168	636.06
325.397	618.06
325.626	615.06
325.855	663.06
326.084	631.06
326.313	638.06
326.542	631.06
326.77	635.06
326.999	609.06
327.228	641.06
327.457	629.06
327.686	630.06
327.914	665.06
328.143	640.06
328.372	662.06
328.6	644.06
328.829	638.06
329.058	659.06
329.287	671.06
329.515	667.06
329.744	658.06
329.972	678.06
330.201	674.06
330.43	670.06
330.658	655.06
330.887	668.06
331.115	704.06
331.344	686.06
331.572	670.06
331.801	639.06
332.03	657.06
332.258	667.06
332.486	688.06
332.715	687.06
332.943	677.06
333.172	710.06
333.4	706.06
333.629	705.06
333.857	709.06
334.085	694.06
334.314	701.06
334.542	696.06
334.771	725.06
334.999	715.06
335.227	717.06
335.455	723.06
335.684	728.06
335.912	736.06
336.14	732.06
336.369	729.06
336.597	743.06
336.825	749.06
337.053	751.06
337.281	759.06
337.51	721.06
337.738	705.06
337.966	736.06
338.194	709.06
338.422	695.06
338.65	716.06
338.878	729.06
339.106	730.06
339.334	745.06
339.562	721.06
339.79	704.06
340.018	723.06
340.246	708.06
340.474	727.06
340.702	708.06
340.93	703.06
341.158	731.06
341.386	735.06
341.614	731.06
341.842	718.06
342.07	730.06
342.298	705.06
342.526	727.06
342.754	729.06
342.981	715.06
343.209	700.06
343.437	741.06
343.665	724.06
343.893	719.06
344.12	746.06
344.348	738.06
344.576	710.06
344.804	741.06
345.031	730.06
345.259	731.06
345.487	750.06
345.714	731.06
345.942	744.06
346.17	738.06
346.397	725.06
346.625	719.06
346.853	734.06
347.08	722.06
347.308	732.06
347.535	722.06
347.763	734.06
347.99	701.06
348.218	711.06
348.445	704.06
348.673	689.06
348.9	696.06
349.128	701.06
349.355	728.06
349.583	718.06
349.81	685.06
350.037	672.06
350.265	702.06
350.492	683.06
350.72	714.06
350.947	686.06
351.174	710.06
351.402	709.06
351.629	704.06
351.856	704.06
352.083	698.06
352.311	695.06
352.538	716.06
352.765	711.06
352.992	681.06
353.22	687.06
353.447	704.06
353.674	678.06
353.901	696.06
354.128	685.06
354.355	671.06
354.583	677.06
354.81	676.06
355.037	676.06
355.264	708.06
355.491	689.06
355.718	677.06
355.945	689.06
356.172	686.06
356.399	698.06
356.626	670.06
356.853	705.06
357.08	678.06
357.307	692.06
357.534	682.06
357.761	685.06
357.988	695.06
358.215	688.06
358.441	688.06
358.668	682.06
358.895	686.06
359.122	681.06
359.349	672.06
359.576	676.06
359.802	659.06
360.029	696.06
360.256	673.06
360.483	697.06
360.709	703.06
360.936	693.06
361.163	706.06
361.39	704.06
361.616	686.06
361.843	688.06
362.07	709.06
362.296	702.06
362.523	673.06
362.749	686.06
362.976	693.06
363.203	705.06
363.429	684.06
363.656	708.06
363.882	679.06
364.109	689.06
364.335	696.06
364.562	690.06
364.788	674.06
365.015	665.06
365.241	715.06
365.468	659.06
365.694	649.06
365.92	696.06
366.147	703.06
366.373	682.06
366.599	690.06
366.826	715.06
367.052	694.06
367.278	692.06
367.505	717.06
367.731	705.06
367.957	696.06
368.184	704.06
368.41	703.06
368.636	712.06
368.862	727.06
369.089	708.06
369.315	685.06
369.541	712.06
369.767	694.06
369.993	713.06
370.219	733.06
370.445	729.06
370.672	705.06
370.898	710.06
371.124	679.06
371.35	698.06
371.576	686.06
371.802	690.06
372.028	715.06
372.254	714.06
372.48	706.06
372.706	696.06
372.932	683.06
373.158	692.06
373.384	703.06
373.61	713.06
373.835	695.06
374.061	698.06
374.287	708.06
374.513	699.06
374.739	689.06
374.965	698.06
375.191	708.06
375.416	694.06
375.642	733.06
375.868	705.06
376.094	721.06
376.319	713.06
376.545	690.06
376.771	692.06
376.997	701.06
377.222	708.06
377.448	700.06
377.674	698.06
377.899	681.06
378.125	706.06
378.35	715.06
378.576	708.06
378.802	663.06
379.027	680.06
379.253	698.06
379.478	688.06
379.704	683.06
379.929	703.06
380.155	681.06
380.38	684.06
380.606	680.06
380.831	696.06
381.057	703.06
381.282	690.06
381.507	705.06
381.733	670.06
381.958	684.06
382.184	709.06
382.409	703.06
382.634	677.06
382.86	689.06
383.085	683.06
383.31	714.06
383.535	713.06
383.761	685.06
383.986	712.06
384.211	692.06
384.436	699.06
384.662	710.06
384.887	715.06
385.112	709.06
385.337	703.06
385.562	722.06
385.787	708.06
386.013	738.06
386.238	729.06
386.463	737.06
386.688	719.06
386.913	720.06
387.138	720.06
387.363	753.06
387.588	707.06
387.813	724.06
388.038	745.06
388.263	750.06
388.488	738.06
388.713	735.06
388.938	735.06
389.163	745.06
389.387	750.06
389.612	727.06
389.837	744.06
390.062	722.06
390.287	722.06
390.512	726.06
390.736	734.06
390.961	739.06
391.186	741.06
391.411	762.06
391.636	730.06
391.86	748.06
392.085	740.06
392.31	762.06
392.534	751.06
392.759	768.06
392.984	741.06
393.208	745.06
393.433	744.06
393.658	730.06
393.882	732.06
394.107	761.06
394.331	776.06
394.556	748.06
394.78	735.06
395.005	760.06
395.229	752.06
395.454	775.06
395.678	748.06
395.903	753.06
396.127	753.06
396.352	746.06
396.576	731.06
396.801	781.06
397.025	721.06
397.249	788.06
397.474	780.06
397.698	788.06
397.922	772.06
398.147	752.06
398.371	765.06
398.595	785.06
398.82	795.06
399.044	796.06
399.268	797.06
399.492	852.06
399.717	842.06
399.941	839.06
400.165	828.06
400.389	805.06
400.613	820.06
400.837	811.06
401.062	838.06
401.286	807.06
401.51	775.06
401.734	804.06
401.958	810.06
402.182	801.06
402.406	798.06
402.63	800.06
402.854	834.06
403.078	822.06
403.302	814.06
403.526	804.06
403.75	809.06
403.974	822.06
404.198	822.06
404.422	829.06
404.645	802.06
404.869	802.06
405.093	839.06
405.317	820.06
405.541	828.06
405.765	830.06
405.988	832.06
406.212	838.06
406.436	825.06
406.66	833.06
406.883	849.06
407.107	853.06
407.331	868.06
407.555	871.06
407.778	873.06
408.002	862.06
408.226	859.06
408.449	875.06
408.673	855.06
408.896	853.06
409.12	860.06
409.344	843.06
409.567	851.06
409.791	871.06
410.014	842.06
410.238	854.06
410.461	849.06
410.685	842.06
410.908	838.06
411.132	832.06
411.355	822.06
411.578	852.06
411.802	833.06
412.025	837.06
412.249	833.06
412.472	825.06
412.695	826.06
412.919	839.06
413.142	823.06
413.365	831.06
413.589	825.06
413.812	817.06
414.035	824.06
414.258	828.06
414.482	824.06
414.705	812.06
414.928	838.06
415.151	825.06
415.374	813.06
415.597	818.06
415.821	792.06
416.044	798.06
416.267	804.06
416.49	795.06
416.713	785.06
416.936	797.06
417.159	799.06
417.382	820.06
417.605	784.06
417.828	793.06
418.051	800.06
418.274	804.06
418.497	789.06
418.72	794.06
418.943	791.06
419.166	857.06
419.389	856.06
419.611	856.06
419.834	849.06
420.057	822.06
420.28	792.06
420.503	796.06
420.726	790.06
420.948	777.06
421.171	786.06
421.394	823.06
421.617	800.06
421.839	811.06
422.062	796.06
422.285	770.06
422.507	808.06
422.73	812.06
422.953	802.06
423.175	795.06
423.398	792.06
423.621	792.06
423.843	798.06
424.066	794.06
424.288	821.06
424.511	803.06
424.733	818.06
424.956	796.06
425.178	776.06
425.401	800.06
425.623	815.06
425.846	786.06
426.068	801.06
426.291	766.06
426.513	803.06
426.735	789.06
426.958	813.06
427.18	788.06
427.402	789.06
427.625	785.06
427.847	786.06
428.069	794.06
428.292	761.06
428.514	791.06
428.736	785.06
428.958	807.06
429.181	771.06
429.403	786.06
429.625	808.06
429.847	800.06
430.069	796.06
430.292	780.06
430.514	782.06
430.736	795.06
430.958	812.06
431.18	804.06
431.402	820.06
431.624	763.06
431.846	774.06
432.068	788.06
432.29	803.06
432.512	798.06
432.734	792.06
432.956	811.06
433.178	809.06
433.4	832.06
433.622	829.06
433.844	840.06
434.066	809.06
434.287	796.06
434.509	807.06
434.731	800.06
434.953	808.06
435.175	816.06
435.397	831.06
435.618	790.06
435.84	796.06
436.062	776.06
436.284	785.06
436.505	800.06
436.727	808.06
436.949	793.06
437.17	787.06
437.392	815.06
437.614	780.06
437.835	806.06
438.057	777.06
438.278	760.06
438.5	779.06
438.721	800.06
438.943	790.06
439.165	786.06
439.386	779.06
439.608	812.06
439.829	792.06
440.05	781.06
440.272	781.06
440.493	790.06
440.715	806.06
440.936	824.06
441.158	780.06
441.379	811.06
441.6	824.06
441.822	820.06
442.043	805.06
442.264	830.06
442.486	813.06
442.707	817.06
442.928	800.06
443.149	813.06
443.371	817.06
443.592	838.06
443.813	842.06
444.034	812.06
444.255	815.06
444.476	817.06
444.698	832.06
444.919	842.06
445.14	973.06
445.361	885.06
445.582	811.06
445.803	808.06
446.024	803.06
446.245	795.06
446.466	796.06
446.687	821.06
446.908	820.06
447.129	808.06
447.35	790.06
447.571	778.06
447.792	773.06
448.013	775.06
448.234	762.06
448.455	752.06
448.675	765.06
448.896	756.06
449.117	717.06
449.338	752.06
449.559	758.06
449.779	730.06
450	739.06
450.221	740.06
450.442	754.06
450.662	740.06
450.883	737.06
451.104	766.06
451.324	760.06
451.545	735.06
451.766	740.06
451.986	751.06
452.207	751.06
452.428	726.06
452.648	746.06
452.869	713.06
453.089	716.06
453.31	737.06
453.53	727.06
453.751	726.06
453.971	724.06
454.192	722.06
454.412	719.06
454.633	696.06
454.853	696.06
455.073	716.06
455.294	715.06
455.514	708.06
455.734	730.06
455.955	699.06
456.175	707.06
456.395	699.06
456.616	686.06
456.836	714.06
457.056	718.06
457.276	699.06
457.497	721.06
457.717	714.06
457.937	733.06
458.157	723.06
458.377	709.06
458.598	715.06
458.818	732.06
459.038	738.06
459.258	740.06
459.478	730.06
459.698	762.06
459.918	769.06
460.138	787.06
460.358	764.06
460.578	784.06
460.798	791.06
461.018	796.06
461.238	819.06
461.458	786.06
461.678	774.06
461.898	776.06
462.118	776.06
462.338	805.06
462.558	830.06
462.777	832.06
462.997	852.06
463.217	858.06
463.437	907.06
463.657	866.06
463.876	844.06
464.096	814.06
464.316	831.06
464.536	826.06
464.755	830.06
464.975	830.06
465.195	798.06
465.414	776.06
465.634	758.06
465.854	793.06
466.073	772.06
466.293	758.06
466.512	774.06
466.732	776.06
466.951	774.06
467.171	763.06
467.391	754.06
467.61	730.06
467.829	771.06
468.049	760.06
468.268	751.06
468.488	780.06
468.707	754.06
468.927	778.06
469.146	744.06
469.365	770.06
469.585	743.06
469.804	762.06
470.023	770.06
470.243	772.06
470.462	785.06
470.681	804.06
470.901	795.06
471.12	777.06
471.339	759.06
471.558	780.06
471.777	782.06
471.997	792.06
472.216	780.06
472.435	783.06
472.654	738.06
472.873	756.06
473.092	782.06
473.311	769.06
473.53	753.06
473.749	767.06
473.968	774.06
474.187	786.06
474.406	765.06
474.625	789.06
474.844	790.06
475.063	795.06
475.282	751.06
475.501	801.06
475.72	777.06
475.939	801.06
476.158	822.06
476.377	829.06
476.596	810.06
476.814	846.06
477.033	810.06
477.252	827.06
477.471	852.06
477.69	866.06
477.908	844.06
478.127	857.06
478.346	818.06
478.564	870.06
478.783	878.06
479.002	869.06
479.22	893.06
479.439	916.06
479.658	884.06
479.876	884.06
480.095	898.06
480.313	858.06
480.532	898.06
480.751	888.06
480.969	879.06
481.188	862.06
481.406	870.06
481.624	884.06
481.843	869.06
482.061	899.06
482.28	924.06
482.498	873.06
482.717	888.06
482.935	895.06
483.153	916.06
483.372	941.06
483.59	918.06
483.808	898.06
484.027	927.06
484.245	920.06
484.463	918.06
484.681	920.06
484.9	934.06
485.118	930.06
485.336	925.06
485.554	912.06
485.772	932.06
485.99	895.06
486.209	893.06
486.427	900.06
486.645	938.06
486.863	941.06
487.081	956.06
487.299	934.06
487.517	955.06
487.735	988.06
487.953	972.06
488.171	976.06
488.389	994.06
488.607	945.06
488.825	959.06
489.043	909.06
489.261	921.06
489.479	938.06
489.696	943.06
489.914	936.06
490.132	918.06
490.35	932.06
490.568	973.06
490.786	982.06
491.003	988.06
491.221	978.06
491.439	974.06
491.657	977.06
491.874	996.06
492.092	1007.06
492.31	1008.06
492.527	1016.06
492.745	998.06
492.963	992.06
493.18	971.06
493.398	965.06
493.615	982.06
493.833	1023.06
494.05	968.06
494.268	1005.06
494.485	993.06
494.703	969.06
494.92	997.06
495.138	1012.06
495.355	986.06
495.573	1020.06
495.79	1017.06
496.008	1005.06
496.225	1017.06
496.442	1014.06
496.66	1006.06
496.877	1015.06
497.094	1056.06
497.312	1027.06
497.529	1027.06
497.746	1032.06
497.963	1036.06
498.181	1057.06
498.398	1039.06
498.615	1070.06
498.832	1097.06
499.049	1111.06
499.267	1111.06
499.484	1153.06
499.701	1182.06
499.918	1182.06
500.135	1238.06
500.352	1304.06
500.569	1288.06
500.786	1290.06
501.003	1240.06
501.22	1225.06
