Data from Ni(NO3)2@0.125M.TitratingCurve.Agarose3%dH2O.NegLispCup.LampEnergy10.LIBS07252019_HRD10591_18-08-25-567.txt Node
Date: Thu Jul 25 18:08:25 EDT 2019
User: cochatt
Spectrometer: HR+D1059
Trigger mode: 1
Integration Time (sec): 1.000000E-1
Scans to average: 1
Electric dark correction enabled: true
Nonlinearity correction enabled: false
Boxcar width: 0
XAxis mode: Wavelengths
Number of Pixels in Spectrum: 2048
>>>>>Begin Spectral Data<<<<<
223.165	-14.19
223.4	-14.19
223.635	-14.19
223.869	-22.19
224.104	-5.19
224.338	-21.19
224.573	-14.19
224.808	-26.19
225.042	-4.19
225.277	-0.19
225.511	-9.19
225.746	3.81
225.98	6.81
226.215	18.81
226.449	21.81
226.683	12.81
226.918	26.81
227.152	25.81
227.387	19.81
227.621	42.81
227.856	32.81
228.09	43.81
228.324	50.81
228.559	48.81
228.793	68.81
229.027	110.81
229.262	107.81
229.496	104.81
229.73	107.81
229.964	134.81
230.199	130.81
230.433	139.81
230.667	144.81
230.901	154.81
231.136	145.81
231.37	150.81
231.604	156.81
231.838	152.81
232.072	148.81
232.306	149.81
232.541	138.81
232.775	159.81
233.009	159.81
233.243	145.81
233.477	166.81
233.711	146.81
233.945	161.81
234.179	163.81
234.413	137.81
234.647	159.81
234.881	158.81
235.115	165.81
235.349	148.81
235.583	148.81
235.817	154.81
236.051	146.81
236.285	152.81
236.519	162.81
236.753	165.81
236.987	178.81
237.221	160.81
237.455	168.81
237.689	161.81
237.922	165.81
238.156	166.81
238.39	183.81
238.624	178.81
238.858	178.81
239.091	180.81
239.325	159.81
239.559	178.81
239.793	184.81
240.027	191.81
240.26	184.81
240.494	182.81
240.728	189.81
240.961	201.81
241.195	184.81
241.429	192.81
241.662	190.81
241.896	201.81
242.13	213.81
242.363	207.81
242.597	207.81
242.83	208.81
243.064	196.81
243.298	187.81
243.531	213.81
243.765	213.81
243.998	224.81
244.232	221.81
244.465	215.81
244.699	225.81
244.932	223.81
245.166	229.81
245.399	232.81
245.633	246.81
245.866	221.81
246.099	224.81
246.333	234.81
246.566	215.81
246.8	240.81
247.033	241.81
247.266	240.81
247.5	225.81
247.733	241.81
247.966	247.81
248.2	256.81
248.433	233.81
248.666	271.81
248.899	274.81
249.133	250.81
249.366	263.81
249.599	262.81
249.832	264.81
250.066	276.81
250.299	297.81
250.532	284.81
250.765	274.81
250.998	283.81
251.231	282.81
251.465	289.81
251.698	276.81
251.931	272.81
252.164	281.81
252.397	295.81
252.63	298.81
252.863	286.81
253.096	293.81
253.329	297.81
253.562	308.81
253.795	316.81
254.028	307.81
254.261	323.81
254.494	312.81
254.727	311.81
254.96	320.81
255.193	302.81
255.426	319.81
255.659	312.81
255.892	324.81
256.124	324.81
256.357	322.81
256.59	311.81
256.823	318.81
257.056	324.81
257.289	335.81
257.521	331.81
257.754	333.81
257.987	344.81
258.22	345.81
258.452	332.81
258.685	332.81
258.918	353.81
259.151	336.81
259.383	351.81
259.616	328.81
259.849	346.81
260.081	348.81
260.314	357.81
260.547	348.81
260.779	361.81
261.012	363.81
261.244	358.81
261.477	373.81
261.71	369.81
261.942	369.81
262.175	373.81
262.407	363.81
262.64	369.81
262.872	368.81
263.105	363.81
263.337	369.81
263.57	382.81
263.802	382.81
264.035	382.81
264.267	377.81
264.499	384.81
264.732	378.81
264.964	415.81
265.197	374.81
265.429	396.81
265.661	402.81
265.894	390.81
266.126	387.81
266.358	413.81
266.591	410.81
266.823	406.81
267.055	392.81
267.287	399.81
267.52	387.81
267.752	401.81
267.984	414.81
268.216	412.81
268.448	420.81
268.681	432.81
268.913	410.81
269.145	430.81
269.377	422.81
269.609	416.81
269.841	412.81
270.073	405.81
270.306	414.81
270.538	423.81
270.77	426.81
271.002	431.81
271.234	422.81
271.466	423.81
271.698	432.81
271.93	435.81
272.162	438.81
272.394	460.81
272.626	452.81
272.858	456.81
273.09	436.81
273.322	474.81
273.553	444.81
273.785	462.81
274.017	461.81
274.249	448.81
274.481	443.81
274.713	443.81
274.945	448.81
275.176	458.81
275.408	457.81
275.64	461.81
275.872	471.81
276.104	483.81
276.335	455.81
276.567	485.81
276.799	476.81
277.031	478.81
277.262	474.81
277.494	486.81
277.726	494.81
277.957	463.81
278.189	481.81
278.421	479.81
278.652	461.81
278.884	483.81
279.115	495.81
279.347	502.81
279.579	510.81
279.81	492.81
280.042	486.81
280.273	508.81
280.505	510.81
280.736	492.81
280.968	520.81
281.199	497.81
281.431	514.81
281.662	515.81
281.894	502.81
282.125	512.81
282.356	529.81
282.588	515.81
282.819	525.81
283.051	544.81
283.282	526.81
283.513	542.81
283.745	530.81
283.976	550.81
284.207	536.81
284.439	517.81
284.67	545.81
284.901	539.81
285.132	533.81
285.364	548.81
285.595	546.81
285.826	545.81
286.057	531.81
286.288	535.81
286.52	555.81
286.751	569.81
286.982	570.81
287.213	563.81
287.444	586.81
287.675	564.81
287.906	570.81
288.138	580.81
288.369	582.81
288.6	568.81
288.831	585.81
289.062	572.81
289.293	570.81
289.524	566.81
289.755	567.81
289.986	574.81
290.217	603.81
290.448	593.81
290.679	619.81
290.91	574.81
291.141	582.81
291.371	584.81
291.602	584.81
291.833	587.81
292.064	599.81
292.295	574.81
292.526	593.81
292.757	563.81
292.987	586.81
293.218	604.81
293.449	597.81
293.68	586.81
293.91	617.81
294.141	593.81
294.372	597.81
294.603	589.81
294.833	595.81
295.064	576.81
295.295	609.81
295.525	601.81
295.756	619.81
295.987	598.81
296.217	606.81
296.448	596.81
296.679	622.81
296.909	597.81
297.14	620.81
297.37	614.81
297.601	601.81
297.831	637.81
298.062	610.81
298.292	640.81
298.523	636.81
298.753	666.81
298.984	640.81
299.214	650.81
299.445	656.81
299.675	656.81
299.905	639.81
300.136	653.81
300.366	662.81
300.597	638.81
300.827	674.81
301.057	650.81
301.288	681.81
301.518	672.81
301.748	652.81
301.979	682.81
302.209	666.81
302.439	676.81
302.669	665.81
302.9	668.81
303.13	655.81
303.36	652.81
303.59	669.81
303.82	664.81
304.051	668.81
304.281	693.81
304.511	654.81
304.741	660.81
304.971	662.81
305.201	670.81
305.431	656.81
305.661	683.81
305.891	666.81
306.121	688.81
306.352	639.81
306.582	639.81
306.812	656.81
307.042	677.81
307.272	664.81
307.502	671.81
307.731	676.81
307.961	678.81
308.191	651.81
308.421	654.81
308.651	666.81
308.881	643.81
309.111	666.81
309.341	657.81
309.571	653.81
309.8	661.81
310.03	668.81
310.26	681.81
310.49	668.81
310.72	688.81
310.949	655.81
311.179	697.81
311.409	667.81
311.639	690.81
311.868	674.81
312.098	671.81
312.328	683.81
312.557	693.81
312.787	694.81
313.017	684.81
313.246	707.81
313.476	719.81
313.706	739.81
313.935	738.81
314.165	734.81
314.394	722.81
314.624	709.81
314.853	706.81
315.083	715.81
315.312	726.81
315.542	715.81
315.771	721.81
316.001	706.81
316.23	720.81
316.46	713.81
316.689	724.81
316.919	712.81
317.148	696.81
317.377	699.81
317.607	684.81
317.836	700.81
318.065	732.81
318.295	703.81
318.524	690.81
318.753	702.81
318.983	699.81
319.212	702.81
319.441	700.81
319.67	711.81
319.9	715.81
320.129	710.81
320.358	726.81
320.587	707.81
320.816	735.81
321.046	721.81
321.275	744.81
321.504	709.81
321.733	711.81
321.962	728.81
322.191	720.81
322.42	721.81
322.649	741.81
322.878	715.81
323.108	738.81
323.337	742.81
323.566	723.81
323.795	760.81
324.024	751.81
324.253	743.81
324.482	757.81
324.71	782.81
324.939	776.81
325.168	786.81
325.397	795.81
325.626	775.81
325.855	800.81
326.084	808.81
326.313	812.81
326.542	817.81
326.77	800.81
326.999	805.81
327.228	819.81
327.457	808.81
327.686	788.81
327.914	807.81
328.143	806.81
328.372	801.81
328.6	808.81
328.829	811.81
329.058	791.81
329.287	822.81
329.515	806.81
329.744	814.81
329.972	804.81
330.201	840.81
330.43	838.81
330.658	848.81
330.887	835.81
331.115	831.81
331.344	857.81
331.572	871.81
331.801	874.81
332.03	909.81
332.258	927.81
332.486	939.81
332.715	968.81
332.943	996.81
333.172	1057.81
333.4	1065.81
333.629	1094.81
333.857	1087.81
334.085	1056.81
334.314	1079.81
334.542	1052.81
334.771	1039.81
334.999	1028.81
335.227	1070.81
335.455	1016.81
335.684	971.81
335.912	1015.81
336.14	1033.81
336.369	1001.81
336.597	1000.81
336.825	999.81
337.053	1025.81
337.281	977.81
337.51	997.81
337.738	971.81
337.966	937.81
338.194	948.81
338.422	934.81
338.65	930.81
338.878	908.81
339.106	901.81
339.334	915.81
339.562	894.81
339.79	866.81
340.018	886.81
340.246	850.81
340.474	879.81
340.702	846.81
340.93	889.81
341.158	884.81
341.386	887.81
341.614	911.81
341.842	896.81
342.07	852.81
342.298	852.81
342.526	867.81
342.754	875.81
342.981	880.81
343.209	930.81
343.437	908.81
343.665	1006.81
343.893	1021.81
344.12	1070.81
344.348	1021.81
344.576	985.81
344.804	956.81
345.031	904.81
345.259	891.81
345.487	871.81
345.714	840.81
345.942	894.81
346.17	883.81
346.397	872.81
346.625	876.81
346.853	844.81
347.08	829.81
347.308	848.81
347.535	835.81
347.763	878.81
347.99	834.81
348.218	889.81
348.445	832.81
348.673	838.81
348.9	834.81
349.128	817.81
349.355	848.81
349.583	858.81
349.81	843.81
350.037	814.81
350.265	842.81
350.492	810.81
350.72	798.81
350.947	801.81
351.174	802.81
351.402	820.81
351.629	817.81
351.856	837.81
352.083	823.81
352.311	832.81
352.538	816.81
352.765	855.81
352.992	784.81
353.22	786.81
353.447	770.81
353.674	791.81
353.901	802.81
354.128	803.81
354.355	793.81
354.583	792.81
354.81	800.81
355.037	796.81
355.264	805.81
355.491	816.81
355.718	838.81
355.945	784.81
356.172	832.81
356.399	838.81
356.626	820.81
356.853	844.81
357.08	819.81
357.307	808.81
357.534	798.81
357.761	818.81
357.988	821.81
358.215	813.81
358.441	820.81
358.668	804.81
358.895	802.81
359.122	803.81
359.349	798.81
359.576	811.81
359.802	824.81
360.029	806.81
360.256	812.81
360.483	826.81
360.709	798.81
360.936	832.81
361.163	815.81
361.39	823.81
361.616	809.81
361.843	837.81
362.07	843.81
362.296	836.81
362.523	806.81
362.749	837.81
362.976	806.81
363.203	790.81
363.429	817.81
363.656	798.81
363.882	805.81
364.109	810.81
364.335	802.81
364.562	814.81
364.788	791.81
365.015	779.81
365.241	801.81
365.468	815.81
365.694	794.81
365.92	805.81
366.147	781.81
366.373	780.81
366.599	825.81
366.826	787.81
367.052	793.81
367.278	795.81
367.505	813.81
367.731	811.81
367.957	777.81
368.184	809.81
368.41	805.81
368.636	800.81
368.862	817.81
369.089	834.81
369.315	834.81
369.541	833.81
369.767	835.81
369.993	828.81
370.219	838.81
370.445	853.81
370.672	834.81
370.898	855.81
371.124	871.81
371.35	852.81
371.576	881.81
371.802	892.81
372.028	870.81
372.254	887.81
372.48	881.81
372.706	886.81
372.932	885.81
373.158	874.81
373.384	900.81
373.61	897.81
373.835	867.81
374.061	881.81
374.287	886.81
374.513	901.81
374.739	943.81
374.965	934.81
375.191	929.81
375.416	957.81
375.642	938.81
375.868	894.81
376.094	872.81
376.319	883.81
376.545	870.81
376.771	875.81
376.997	889.81
377.222	878.81
377.448	859.81
377.674	864.81
377.899	868.81
378.125	870.81
378.35	846.81
378.576	850.81
378.802	835.81
379.027	839.81
379.253	844.81
379.478	832.81
379.704	843.81
379.929	842.81
380.155	854.81
380.38	867.81
380.606	851.81
380.831	855.81
381.057	892.81
381.282	870.81
381.507	882.81
381.733	904.81
381.958	875.81
382.184	884.81
382.409	856.81
382.634	894.81
382.86	898.81
383.085	914.81
383.31	879.81
383.535	925.81
383.761	947.81
383.986	942.81
384.211	963.81
384.436	1035.81
384.662	1003.81
384.887	1033.81
385.112	1024.81
385.337	1041.81
385.562	1046.81
385.787	1016.81
386.013	1030.81
386.238	1030.81
386.463	1078.81
386.688	1082.81
386.913	1024.81
387.138	1020.81
387.363	1021.81
387.588	990.81
387.813	1017.81
388.038	1022.81
388.263	1002.81
388.488	1024.81
388.713	1026.81
388.938	1004.81
389.163	941.81
389.387	1022.81
389.612	971.81
389.837	1022.81
390.062	1003.81
390.287	987.81
390.512	1006.81
390.736	1002.81
390.961	1055.81
391.186	1076.81
391.411	1079.81
391.636	1088.81
391.86	1130.81
392.085	1182.81
392.31	1140.81
392.534	1148.81
392.759	1110.81
392.984	1099.81
393.208	1088.81
393.433	1111.81
393.658	1080.81
393.882	1085.81
394.107	1091.81
394.331	1105.81
394.556	1104.81
394.78	1107.81
395.005	1099.81
395.229	1102.81
395.454	1121.81
395.678	1184.81
395.903	1178.81
396.127	1137.81
396.352	1112.81
396.576	1107.81
396.801	1101.81
397.025	1135.81
397.249	1157.81
397.474	1183.81
397.698	1140.81
397.922	1148.81
398.147	1184.81
398.371	1185.81
398.595	1224.81
398.82	1272.81
399.044	1377.81
399.268	1492.81
399.492	1729.81
399.717	1898.81
399.941	1900.81
400.165	1741.81
400.389	1554.81
400.613	1422.81
400.837	1347.81
401.062	1296.81
401.286	1301.81
401.51	1296.81
401.734	1268.81
401.958	1316.81
402.182	1310.81
402.406	1310.81
402.63	1360.81
402.854	1351.81
403.078	1421.81
403.302	1440.81
403.526	1436.81
403.75	1478.81
403.974	1467.81
404.198	1496.81
404.422	1504.81
404.645	1485.81
404.869	1470.81
405.093	1487.81
405.317	1431.81
405.541	1430.81
405.765	1434.81
405.988	1414.81
406.212	1434.81
406.436	1430.81
406.66	1475.81
406.883	1489.81
407.107	1588.81
407.331	1598.81
407.555	1695.81
407.778	1636.81
408.002	1631.81
408.226	1595.81
408.449	1569.81
408.673	1488.81
408.896	1471.81
409.12	1476.81
409.344	1489.81
409.567	1467.81
409.791	1520.81
410.014	1500.81
410.238	1440.81
410.461	1450.81
410.685	1466.81
410.908	1380.81
411.132	1378.81
411.355	1348.81
411.578	1328.81
411.802	1368.81
412.025	1362.81
412.249	1419.81
412.472	1402.81
412.695	1332.81
412.919	1333.81
413.142	1339.81
413.365	1327.81
413.589	1321.81
413.812	1298.81
414.035	1308.81
414.258	1318.81
414.482	1283.81
414.705	1316.81
414.928	1347.81
415.151	1305.81
415.374	1319.81
415.597	1319.81
415.821	1281.81
416.044	1249.81
416.267	1268.81
416.49	1291.81
416.713	1292.81
416.936	1289.81
417.159	1286.81
417.382	1270.81
417.605	1263.81
417.828	1296.81
418.051	1291.81
418.274	1327.81
418.497	1291.81
418.72	1314.81
418.943	1298.81
419.166	1400.81
419.389	1504.81
419.611	1418.81
419.834	1402.81
420.057	1394.81
420.28	1327.81
420.503	1282.81
420.726	1258.81
420.948	1274.81
421.171	1308.81
421.394	1270.81
421.617	1285.81
421.839	1282.81
422.062	1298.81
422.285	1308.81
422.507	1326.81
422.73	1335.81
422.953	1339.81
423.175	1349.81
423.398	1372.81
423.621	1384.81
423.843	1360.81
424.066	1371.81
424.288	1384.81
424.511	1367.81
424.733	1344.81
424.956	1289.81
425.178	1326.81
425.401	1293.81
425.623	1312.81
425.846	1256.81
426.068	1255.81
426.291	1218.81
426.513	1254.81
426.735	1198.81
426.958	1220.81
427.18	1177.81
427.402	1235.81
427.625	1178.81
427.847	1152.81
428.069	1167.81
428.292	1162.81
428.514	1154.81
428.736	1172.81
428.958	1183.81
429.181	1160.81
429.403	1140.81
429.625	1172.81
429.847	1135.81
430.069	1129.81
430.292	1139.81
430.514	1126.81
430.736	1154.81
430.958	1147.81
431.18	1172.81
431.402	1169.81
431.624	1124.81
431.846	1189.81
432.068	1161.81
432.29	1189.81
432.512	1123.81
432.734	1176.81
432.956	1142.81
433.178	1191.81
433.4	1201.81
433.622	1207.81
433.844	1208.81
434.066	1209.81
434.287	1208.81
434.509	1235.81
434.731	1274.81
434.953	1310.81
435.175	1337.81
435.397	1335.81
435.618	1272.81
435.84	1209.81
436.062	1161.81
436.284	1209.81
436.505	1170.81
436.727	1166.81
436.949	1205.81
437.17	1177.81
437.392	1150.81
437.614	1126.81
437.835	1136.81
438.057	1115.81
438.278	1121.81
438.5	1110.81
438.721	1119.81
438.943	1127.81
439.165	1135.81
439.386	1143.81
439.608	1163.81
439.829	1187.81
440.05	1206.81
440.272	1174.81
440.493	1171.81
440.715	1195.81
440.936	1200.81
441.158	1230.81
441.379	1283.81
441.6	1314.81
441.822	1350.81
442.043	1300.81
442.264	1254.81
442.486	1263.81
442.707	1287.81
442.928	1318.81
443.149	1298.81
443.371	1296.81
443.592	1362.81
443.813	1346.81
444.034	1331.81
444.255	1367.81
444.476	1416.81
444.698	1474.81
444.919	1531.81
445.14	1635.81
445.361	1504.81
445.582	1373.81
445.803	1270.81
446.024	1255.81
446.245	1265.81
446.466	1240.81
446.687	1175.81
446.908	1210.81
447.129	1148.81
447.35	1166.81
447.571	1151.81
447.792	1088.81
448.013	1113.81
448.234	1100.81
448.455	1078.81
448.675	1091.81
448.896	1095.81
449.117	1056.81
449.338	1088.81
449.559	1070.81
449.779	1075.81
450	1041.81
450.221	1063.81
450.442	1079.81
450.662	1091.81
450.883	1073.81
451.104	1104.81
451.324	1118.81
451.545	1113.81
451.766	1090.81
451.986	1084.81
452.207	1089.81
452.428	1076.81
452.648	1053.81
452.869	1045.81
453.089	1050.81
453.31	1070.81
453.53	1037.81
453.751	1048.81
453.971	1007.81
454.192	1051.81
454.412	981.81
454.633	1034.81
454.853	1019.81
455.073	999.81
455.294	1012.81
455.514	1030.81
455.734	1011.81
455.955	1014.81
456.175	990.81
456.395	990.81
456.616	963.81
456.836	1006.81
457.056	1012.81
457.276	987.81
457.497	1000.81
457.717	1008.81
457.937	1018.81
458.157	1034.81
458.377	1036.81
458.598	1080.81
458.818	1086.81
459.038	1096.81
459.258	1140.81
459.478	1184.81
459.698	1215.81
459.918	1268.81
460.138	1296.81
460.358	1323.81
460.578	1384.81
460.798	1419.81
461.018	1403.81
461.238	1386.81
461.458	1384.81
461.678	1354.81
461.898	1415.81
462.118	1390.81
462.338	1449.81
462.558	1494.81
462.777	1578.81
462.997	1686.81
463.217	1833.81
463.437	1854.81
463.657	1694.81
463.876	1628.81
464.096	1598.81
464.316	1627.81
464.536	1606.81
464.755	1566.81
464.975	1484.81
465.195	1428.81
465.414	1317.81
465.634	1251.81
465.854	1260.81
466.073	1176.81
466.293	1184.81
466.512	1179.81
466.732	1135.81
466.951	1139.81
467.171	1136.81
467.391	1161.81
467.61	1145.81
467.829	1109.81
468.049	1129.81
468.268	1075.81
468.488	1091.81
468.707	1084.81
468.927	1081.81
469.146	1055.81
469.365	1100.81
469.585	1112.81
469.804	1122.81
470.023	1127.81
470.243	1126.81
470.462	1164.81
470.681	1214.81
470.901	1134.81
471.12	1168.81
471.339	1147.81
471.558	1087.81
471.777	1104.81
471.997	1086.81
472.216	1082.81
472.435	1077.81
472.654	1050.81
472.873	1046.81
473.092	1048.81
473.311	1028.81
473.53	1038.81
473.749	1044.81
473.968	1055.81
474.187	1028.81
474.406	1036.81
474.625	1060.81
474.844	1077.81
475.063	1072.81
475.282	1048.81
475.501	1080.81
475.72	1078.81
475.939	1095.81
476.158	1094.81
476.377	1086.81
476.596	1109.81
476.814	1103.81
477.033	1104.81
477.252	1137.81
477.471	1160.81
477.69	1167.81
477.908	1219.81
478.127	1246.81
478.346	1258.81
478.564	1300.81
478.783	1299.81
479.002	1314.81
479.22	1332.81
479.439	1330.81
479.658	1315.81
479.876	1320.81
480.095	1348.81
480.313	1404.81
480.532	1442.81
480.751	1420.81
480.969	1375.81
481.188	1289.81
481.406	1276.81
481.624	1234.81
481.843	1213.81
482.061	1232.81
482.28	1215.81
482.498	1211.81
482.717	1184.81
482.935	1187.81
483.153	1203.81
483.372	1205.81
483.59	1248.81
483.808	1216.81
484.027	1184.81
484.245	1228.81
484.463	1271.81
484.681	1252.81
484.9	1254.81
485.118	1269.81
485.336	1270.81
485.554	1258.81
485.772	1257.81
485.99	1296.81
486.209	1266.81
486.427	1263.81
486.645	1293.81
486.863	1288.81
487.081	1267.81
487.299	1243.81
487.517	1279.81
487.735	1304.81
487.953	1296.81
488.171	1273.81
488.389	1296.81
488.607	1270.81
488.825	1242.81
489.043	1222.81
489.261	1228.81
489.479	1268.81
489.696	1263.81
489.914	1271.81
490.132	1246.81
490.35	1242.81
490.568	1246.81
490.786	1291.81
491.003	1299.81
491.221	1330.81
491.439	1296.81
491.657	1306.81
491.874	1292.81
492.092	1316.81
492.31	1284.81
492.527	1317.81
492.745	1310.81
492.963	1328.81
493.18	1327.81
493.398	1334.81
493.615	1340.81
493.833	1324.81
494.05	1340.81
494.268	1366.81
494.485	1388.81
494.703	1351.81
