Data from Ni(NO3)2@0.25M.TitratingCurve.Agarose3%dH2O.NegLispCup.LampEnergy10.LIBS07252019_HRD10591_18-04-13-565.txt Node
Date: Thu Jul 25 18:04:13 EDT 2019
User: cochatt
Spectrometer: HR+D1059
Trigger mode: 1
Integration Time (sec): 1.000000E-1
Scans to average: 1
Electric dark correction enabled: true
Nonlinearity correction enabled: false
Boxcar width: 0
XAxis mode: Wavelengths
Number of Pixels in Spectrum: 2048
>>>>>Begin Spectral Data<<<<<
223.165	3.69
223.4	3.69
223.635	3.69
223.869	-24.31
224.104	-10.31
224.338	-5.31
224.573	1.69
224.808	-11.31
225.042	-10.31
225.277	-12.31
225.511	-8.31
225.746	-3.31
225.98	-12.31
226.215	2.69
226.449	8.69
226.683	19.69
226.918	30.69
227.152	30.69
227.387	34.69
227.621	31.69
227.856	38.69
228.09	50.69
228.324	64.69
228.559	58.69
228.793	62.69
229.027	87.69
229.262	117.69
229.496	126.69
229.73	111.69
229.964	125.69
230.199	119.69
230.433	135.69
230.667	124.69
230.901	135.69
231.136	115.69
231.37	139.69
231.604	150.69
231.838	151.69
232.072	136.69
232.306	149.69
232.541	153.69
232.775	155.69
233.009	131.69
233.243	155.69
233.477	135.69
233.711	137.69
233.945	150.69
234.179	146.69
234.413	141.69
234.647	154.69
234.881	141.69
235.115	131.69
235.349	149.69
235.583	151.69
235.817	147.69
236.051	138.69
236.285	152.69
236.519	148.69
236.753	141.69
236.987	143.69
237.221	141.69
237.455	153.69
237.689	140.69
237.922	139.69
238.156	170.69
238.39	159.69
238.624	160.69
238.858	171.69
239.091	146.69
239.325	167.69
239.559	155.69
239.793	179.69
240.027	178.69
240.26	162.69
240.494	176.69
240.728	180.69
240.961	164.69
241.195	158.69
241.429	170.69
241.662	171.69
241.896	173.69
242.13	184.69
242.363	183.69
242.597	183.69
242.83	175.69
243.064	191.69
243.298	186.69
243.531	183.69
243.765	202.69
243.998	200.69
244.232	199.69
244.465	185.69
244.699	200.69
244.932	189.69
245.166	200.69
245.399	215.69
245.633	190.69
245.866	195.69
246.099	198.69
246.333	206.69
246.566	214.69
246.8	216.69
247.033	203.69
247.266	214.69
247.5	219.69
247.733	229.69
247.966	217.69
248.2	234.69
248.433	218.69
248.666	227.69
248.899	215.69
249.133	231.69
249.366	235.69
249.599	240.69
249.832	240.69
250.066	244.69
250.299	234.69
250.532	267.69
250.765	262.69
250.998	256.69
251.231	258.69
251.465	240.69
251.698	267.69
251.931	261.69
252.164	266.69
252.397	269.69
252.63	259.69
252.863	266.69
253.096	276.69
253.329	278.69
253.562	265.69
253.795	283.69
254.028	278.69
254.261	278.69
254.494	304.69
254.727	291.69
254.96	300.69
255.193	297.69
255.426	291.69
255.659	286.69
255.892	293.69
256.124	289.69
256.357	299.69
256.59	287.69
256.823	313.69
257.056	309.69
257.289	304.69
257.521	313.69
257.754	300.69
257.987	309.69
258.22	312.69
258.452	314.69
258.685	316.69
258.918	325.69
259.151	341.69
259.383	330.69
259.616	325.69
259.849	328.69
260.081	327.69
260.314	311.69
260.547	358.69
260.779	321.69
261.012	330.69
261.244	357.69
261.477	347.69
261.71	322.69
261.942	349.69
262.175	324.69
262.407	343.69
262.64	348.69
262.872	347.69
263.105	352.69
263.337	355.69
263.57	343.69
263.802	346.69
264.035	360.69
264.267	355.69
264.499	375.69
264.732	372.69
264.964	380.69
265.197	379.69
265.429	369.69
265.661	368.69
265.894	383.69
266.126	386.69
266.358	379.69
266.591	370.69
266.823	377.69
267.055	378.69
267.287	383.69
267.52	380.69
267.752	389.69
267.984	400.69
268.216	384.69
268.448	382.69
268.681	391.69
268.913	390.69
269.145	387.69
269.377	395.69
269.609	393.69
269.841	408.69
270.073	407.69
270.306	400.69
270.538	417.69
270.77	386.69
271.002	391.69
271.234	403.69
271.466	419.69
271.698	392.69
271.93	405.69
272.162	418.69
272.394	421.69
272.626	395.69
272.858	410.69
273.09	418.69
273.322	423.69
273.553	428.69
273.785	426.69
274.017	440.69
274.249	447.69
274.481	433.69
274.713	420.69
274.945	452.69
275.176	425.69
275.408	447.69
275.64	420.69
275.872	434.69
276.104	425.69
276.335	429.69
276.567	456.69
276.799	443.69
277.031	445.69
277.262	436.69
277.494	429.69
277.726	455.69
277.957	445.69
278.189	439.69
278.421	456.69
278.652	417.69
278.884	454.69
279.115	475.69
279.347	489.69
279.579	475.69
279.81	460.69
280.042	466.69
280.273	446.69
280.505	456.69
280.736	475.69
280.968	490.69
281.199	464.69
281.431	471.69
281.662	487.69
281.894	452.69
282.125	476.69
282.356	486.69
282.588	470.69
282.819	496.69
283.051	489.69
283.282	494.69
283.513	505.69
283.745	500.69
283.976	481.69
284.207	473.69
284.439	496.69
284.67	486.69
284.901	488.69
285.132	480.69
285.364	495.69
285.595	492.69
285.826	483.69
286.057	498.69
286.288	490.69
286.52	506.69
286.751	516.69
286.982	488.69
287.213	521.69
287.444	508.69
287.675	515.69
287.906	495.69
288.138	517.69
288.369	521.69
288.6	540.69
288.831	501.69
289.062	513.69
289.293	511.69
289.524	522.69
289.755	516.69
289.986	531.69
290.217	529.69
290.448	522.69
290.679	506.69
290.91	527.69
291.141	508.69
291.371	540.69
291.602	545.69
291.833	529.69
292.064	518.69
292.295	510.69
292.526	517.69
292.757	531.69
292.987	520.69
293.218	521.69
293.449	521.69
293.68	520.69
293.91	540.69
294.141	535.69
294.372	514.69
294.603	532.69
294.833	520.69
295.064	559.69
295.295	531.69
295.525	550.69
295.756	547.69
295.987	565.69
296.217	552.69
296.448	540.69
296.679	530.69
296.909	538.69
297.14	545.69
297.37	553.69
297.601	554.69
297.831	575.69
298.062	559.69
298.292	562.69
298.523	588.69
298.753	589.69
298.984	581.69
299.214	546.69
299.445	570.69
299.675	575.69
299.905	587.69
300.136	549.69
300.366	587.69
300.597	586.69
300.827	608.69
301.057	609.69
301.288	588.69
301.518	612.69
301.748	600.69
301.979	599.69
302.209	601.69
302.439	581.69
302.669	593.69
302.9	612.69
303.13	577.69
303.36	625.69
303.59	593.69
303.82	636.69
304.051	607.69
304.281	607.69
304.511	615.69
304.741	614.69
304.971	617.69
305.201	625.69
305.431	639.69
305.661	616.69
305.891	616.69
306.121	570.69
306.352	590.69
306.582	584.69
306.812	597.69
307.042	597.69
307.272	566.69
307.502	615.69
307.731	599.69
307.961	599.69
308.191	611.69
308.421	609.69
308.651	571.69
308.881	581.69
309.111	591.69
309.341	611.69
309.571	602.69
309.8	618.69
310.03	621.69
310.26	643.69
310.49	618.69
310.72	635.69
310.949	593.69
311.179	617.69
311.409	603.69
311.639	625.69
311.868	631.69
312.098	650.69
312.328	644.69
312.557	612.69
312.787	621.69
313.017	662.69
313.246	637.69
313.476	659.69
313.706	645.69
313.935	651.69
314.165	648.69
314.394	658.69
314.624	677.69
314.853	660.69
315.083	674.69
315.312	679.69
315.542	678.69
315.771	659.69
316.001	664.69
316.23	684.69
316.46	693.69
316.689	661.69
316.919	641.69
317.148	683.69
317.377	664.69
317.607	649.69
317.836	694.69
318.065	693.69
318.295	664.69
318.524	671.69
318.753	675.69
318.983	651.69
319.212	659.69
319.441	683.69
319.67	672.69
319.9	684.69
320.129	683.69
320.358	687.69
320.587	661.69
320.816	705.69
321.046	709.69
321.275	672.69
321.504	697.69
321.733	717.69
321.962	715.69
322.191	724.69
322.42	706.69
322.649	710.69
322.878	700.69
323.108	692.69
323.337	721.69
323.566	713.69
323.795	712.69
324.024	732.69
324.253	725.69
324.482	757.69
324.71	718.69
324.939	727.69
325.168	773.69
325.397	767.69
325.626	765.69
325.855	767.69
326.084	785.69
326.313	775.69
326.542	782.69
326.77	783.69
326.999	791.69
327.228	778.69
327.457	800.69
327.686	788.69
327.914	821.69
328.143	786.69
328.372	791.69
328.6	808.69
328.829	808.69
329.058	795.69
329.287	807.69
329.515	811.69
329.744	835.69
329.972	832.69
330.201	795.69
330.43	847.69
330.658	851.69
330.887	824.69
331.115	829.69
331.344	843.69
331.572	872.69
331.801	884.69
332.03	924.69
332.258	888.69
332.486	920.69
332.715	932.69
332.943	964.69
333.172	999.69
333.4	997.69
333.629	1012.69
333.857	1049.69
334.085	1055.69
334.314	1035.69
334.542	1050.69
334.771	1040.69
334.999	1040.69
335.227	1048.69
335.455	1059.69
335.684	1059.69
335.912	1035.69
336.14	1000.69
336.369	1025.69
336.597	1013.69
336.825	1028.69
337.053	1025.69
337.281	1005.69
337.51	997.69
337.738	996.69
337.966	963.69
338.194	956.69
338.422	952.69
338.65	940.69
338.878	941.69
339.106	935.69
339.334	957.69
339.562	920.69
339.79	886.69
340.018	910.69
340.246	916.69
340.474	902.69
340.702	900.69
340.93	884.69
341.158	910.69
341.386	917.69
341.614	913.69
341.842	922.69
342.07	899.69
342.298	915.69
342.526	915.69
342.754	905.69
342.981	903.69
343.209	918.69
343.437	951.69
343.665	977.69
343.893	998.69
344.12	1047.69
344.348	1055.69
344.576	1001.69
344.804	995.69
345.031	948.69
345.259	930.69
345.487	926.69
345.714	923.69
345.942	934.69
346.17	936.69
346.397	902.69
346.625	882.69
346.853	881.69
347.08	885.69
347.308	880.69
347.535	870.69
347.763	861.69
347.99	864.69
348.218	889.69
348.445	884.69
348.673	899.69
348.9	851.69
349.128	883.69
349.355	879.69
349.583	845.69
349.81	851.69
350.037	821.69
350.265	847.69
350.492	859.69
350.72	857.69
350.947	838.69
351.174	844.69
351.402	867.69
351.629	866.69
351.856	841.69
352.083	830.69
352.311	851.69
352.538	872.69
352.765	881.69
352.992	825.69
353.22	838.69
353.447	821.69
353.674	832.69
353.901	834.69
354.128	847.69
354.355	823.69
354.583	830.69
354.81	824.69
355.037	817.69
355.264	835.69
355.491	835.69
355.718	840.69
355.945	837.69
356.172	828.69
356.399	834.69
356.626	841.69
356.853	874.69
357.08	834.69
357.307	822.69
357.534	871.69
357.761	864.69
357.988	839.69
358.215	833.69
358.441	808.69
358.668	826.69
358.895	839.69
359.122	801.69
359.349	819.69
359.576	825.69
359.802	867.69
360.029	839.69
360.256	813.69
360.483	837.69
360.709	835.69
360.936	856.69
361.163	841.69
361.39	837.69
361.616	824.69
361.843	829.69
362.07	887.69
362.296	870.69
362.523	840.69
362.749	816.69
362.976	842.69
363.203	835.69
363.429	805.69
363.656	828.69
363.882	831.69
364.109	835.69
364.335	824.69
364.562	834.69
364.788	818.69
365.015	821.69
365.241	828.69
365.468	821.69
365.694	825.69
365.92	823.69
366.147	826.69
366.373	805.69
366.599	829.69
366.826	828.69
367.052	816.69
367.278	836.69
367.505	844.69
367.731	841.69
367.957	833.69
368.184	833.69
368.41	819.69
368.636	815.69
368.862	827.69
369.089	835.69
369.315	846.69
369.541	850.69
369.767	850.69
369.993	854.69
370.219	849.69
370.445	856.69
370.672	845.69
370.898	870.69
371.124	868.69
371.35	879.69
371.576	874.69
371.802	911.69
372.028	872.69
372.254	873.69
372.48	896.69
372.706	898.69
372.932	909.69
373.158	914.69
373.384	902.69
373.61	851.69
373.835	899.69
374.061	875.69
374.287	884.69
374.513	895.69
374.739	913.69
374.965	934.69
375.191	919.69
375.416	933.69
375.642	910.69
375.868	919.69
376.094	898.69
376.319	868.69
376.545	896.69
376.771	893.69
376.997	874.69
377.222	886.69
377.448	865.69
377.674	893.69
377.899	861.69
378.125	864.69
378.35	898.69
378.576	889.69
378.802	823.69
379.027	861.69
379.253	849.69
379.478	863.69
379.704	827.69
379.929	857.69
380.155	856.69
380.38	858.69
380.606	837.69
380.831	843.69
381.057	893.69
381.282	845.69
381.507	869.69
381.733	872.69
381.958	869.69
382.184	876.69
382.409	893.69
382.634	897.69
382.86	874.69
383.085	909.69
383.31	915.69
383.535	910.69
383.761	907.69
383.986	945.69
384.211	948.69
384.436	954.69
384.662	960.69
384.887	992.69
385.112	981.69
385.337	967.69
385.562	1003.69
385.787	1014.69
386.013	1007.69
386.238	1019.69
386.463	1014.69
386.688	1028.69
386.913	1004.69
387.138	996.69
387.363	1017.69
387.588	1029.69
387.813	1019.69
388.038	1030.69
388.263	1047.69
388.488	1029.69
388.713	1003.69
388.938	1021.69
389.163	988.69
389.387	1018.69
389.612	991.69
389.837	997.69
390.062	1036.69
390.287	1007.69
390.512	1001.69
390.736	1031.69
390.961	1044.69
391.186	1071.69
391.411	1060.69
391.636	1049.69
391.86	1090.69
392.085	1115.69
392.31	1125.69
392.534	1094.69
392.759	1086.69
392.984	1104.69
393.208	1049.69
393.433	1073.69
393.658	1079.69
393.882	1080.69
394.107	1086.69
394.331	1109.69
394.556	1055.69
394.78	1086.69
395.005	1082.69
395.229	1104.69
395.454	1128.69
395.678	1119.69
395.903	1106.69
396.127	1148.69
396.352	1129.69
396.576	1127.69
396.801	1125.69
397.025	1107.69
397.249	1147.69
397.474	1146.69
397.698	1176.69
397.922	1176.69
398.147	1196.69
398.371	1219.69
398.595	1243.69
398.82	1294.69
399.044	1335.69
399.268	1462.69
399.492	1563.69
399.717	1661.69
399.941	1686.69
400.165	1628.69
400.389	1549.69
400.613	1441.69
400.837	1366.69
401.062	1312.69
401.286	1325.69
401.51	1319.69
401.734	1275.69
401.958	1333.69
402.182	1273.69
402.406	1309.69
402.63	1289.69
402.854	1318.69
403.078	1334.69
403.302	1353.69
403.526	1351.69
403.75	1369.69
403.974	1332.69
404.198	1350.69
404.422	1363.69
404.645	1364.69
404.869	1359.69
405.093	1364.69
405.317	1347.69
405.541	1392.69
405.765	1384.69
405.988	1355.69
406.212	1393.69
406.436	1433.69
406.66	1422.69
406.883	1461.69
407.107	1534.69
407.331	1557.69
407.555	1567.69
407.778	1570.69
408.002	1552.69
408.226	1544.69
408.449	1537.69
408.673	1464.69
408.896	1482.69
409.12	1436.69
409.344	1491.69
409.567	1444.69
409.791	1411.69
410.014	1398.69
410.238	1383.69
410.461	1410.69
410.685	1421.69
410.908	1367.69
411.132	1372.69
411.355	1341.69
411.578	1372.69
411.802	1360.69
412.025	1344.69
412.249	1357.69
412.472	1375.69
412.695	1356.69
412.919	1320.69
413.142	1326.69
413.365	1330.69
413.589	1339.69
413.812	1299.69
414.035	1282.69
414.258	1315.69
414.482	1310.69
414.705	1328.69
414.928	1334.69
415.151	1315.69
415.374	1298.69
415.597	1325.69
415.821	1280.69
416.044	1271.69
416.267	1247.69
416.49	1262.69
416.713	1267.69
416.936	1259.69
417.159	1283.69
417.382	1230.69
417.605	1261.69
417.828	1279.69
418.051	1297.69
418.274	1283.69
418.497	1279.69
418.72	1331.69
418.943	1287.69
419.166	1377.69
419.389	1444.69
419.611	1466.69
419.834	1373.69
420.057	1336.69
420.28	1307.69
420.503	1293.69
420.726	1300.69
420.948	1293.69
421.171	1308.69
421.394	1285.69
421.617	1258.69
421.839	1292.69
422.062	1275.69
422.285	1290.69
422.507	1298.69
422.73	1301.69
422.953	1277.69
423.175	1301.69
423.398	1318.69
423.621	1345.69
423.843	1329.69
424.066	1322.69
424.288	1318.69
424.511	1294.69
424.733	1294.69
424.956	1300.69
425.178	1298.69
425.401	1286.69
425.623	1291.69
425.846	1264.69
426.068	1292.69
426.291	1252.69
426.513	1254.69
426.735	1253.69
426.958	1255.69
427.18	1231.69
427.402	1236.69
427.625	1240.69
427.847	1209.69
428.069	1226.69
428.292	1177.69
428.514	1191.69
428.736	1184.69
428.958	1210.69
429.181	1177.69
429.403	1209.69
429.625	1178.69
429.847	1212.69
430.069	1195.69
430.292	1196.69
430.514	1175.69
430.736	1172.69
430.958	1168.69
431.18	1175.69
431.402	1196.69
431.624	1201.69
431.846	1236.69
432.068	1188.69
432.29	1203.69
432.512	1179.69
432.734	1197.69
432.956	1213.69
433.178	1249.69
433.4	1206.69
433.622	1237.69
433.844	1223.69
434.066	1241.69
434.287	1283.69
434.509	1272.69
434.731	1299.69
434.953	1313.69
435.175	1313.69
435.397	1336.69
435.618	1263.69
435.84	1243.69
436.062	1216.69
436.284	1224.69
436.505	1192.69
436.727	1212.69
436.949	1209.69
437.17	1190.69
437.392	1184.69
437.614	1191.69
437.835	1157.69
438.057	1192.69
438.278	1147.69
438.5	1159.69
438.721	1159.69
438.943	1160.69
439.165	1174.69
439.386	1172.69
439.608	1188.69
439.829	1204.69
440.05	1196.69
440.272	1209.69
440.493	1235.69
440.715	1231.69
440.936	1229.69
441.158	1281.69
441.379	1285.69
441.6	1325.69
441.822	1320.69
442.043	1324.69
442.264	1290.69
442.486	1283.69
442.707	1267.69
442.928	1286.69
443.149	1301.69
443.371	1327.69
443.592	1322.69
443.813	1347.69
444.034	1374.69
444.255	1350.69
444.476	1402.69
444.698	1428.69
444.919	1456.69
445.14	1521.69
445.361	1479.69
445.582	1397.69
445.803	1356.69
446.024	1323.69
446.245	1272.69
446.466	1290.69
446.687	1225.69
446.908	1241.69
447.129	1211.69
447.35	1224.69
447.571	1168.69
447.792	1154.69
448.013	1153.69
448.234	1108.69
448.455	1134.69
448.675	1140.69
448.896	1125.69
449.117	1100.69
449.338	1118.69
449.559	1114.69
449.779	1064.69
450	1136.69
450.221	1091.69
450.442	1120.69
450.662	1161.69
450.883	1128.69
451.104	1102.69
451.324	1111.69
451.545	1104.69
451.766	1123.69
451.986	1079.69
452.207	1107.69
452.428	1085.69
452.648	1077.69
452.869	1066.69
453.089	1062.69
453.31	1095.69
453.53	1069.69
453.751	1055.69
453.971	1032.69
454.192	1081.69
454.412	1046.69
454.633	1058.69
454.853	1084.69
455.073	1044.69
455.294	1074.69
455.514	1031.69
455.734	1077.69
455.955	1038.69
456.175	1055.69
456.395	1043.69
456.616	1030.69
456.836	1055.69
457.056	1052.69
457.276	1044.69
457.497	1064.69
457.717	1066.69
457.937	1085.69
458.157	1081.69
458.377	1100.69
458.598	1151.69
458.818	1155.69
459.038	1170.69
459.258	1176.69
459.478	1201.69
459.698	1257.69
459.918	1279.69
460.138	1317.69
460.358	1363.69
460.578	1349.69
460.798	1394.69
461.018	1394.69
461.238	1383.69
461.458	1367.69
461.678	1412.69
461.898	1367.69
462.118	1423.69
462.338	1489.69
462.558	1535.69
462.777	1557.69
462.997	1628.69
463.217	1674.69
463.437	1683.69
463.657	1636.69
463.876	1605.69
464.096	1613.69
464.316	1588.69
464.536	1603.69
464.755	1526.69
464.975	1500.69
465.195	1426.69
465.414	1385.69
465.634	1322.69
465.854	1261.69
466.073	1261.69
466.293	1234.69
466.512	1179.69
466.732	1165.69
466.951	1192.69
467.171	1186.69
467.391	1188.69
467.61	1159.69
467.829	1153.69
468.049	1143.69
468.268	1151.69
468.488	1139.69
468.707	1146.69
468.927	1133.69
469.146	1141.69
469.365	1173.69
469.585	1181.69
469.804	1175.69
470.023	1180.69
470.243	1186.69
470.462	1201.69
470.681	1209.69
470.901	1202.69
471.12	1201.69
471.339	1161.69
471.558	1187.69
471.777	1157.69
471.997	1151.69
472.216	1129.69
472.435	1125.69
472.654	1107.69
472.873	1117.69
473.092	1099.69
473.311	1094.69
473.53	1136.69
473.749	1116.69
473.968	1130.69
474.187	1116.69
474.406	1096.69
474.625	1135.69
474.844	1151.69
475.063	1148.69
475.282	1141.69
475.501	1142.69
475.72	1145.69
475.939	1138.69
476.158	1175.69
476.377	1145.69
476.596	1188.69
476.814	1186.69
477.033	1202.69
477.252	1221.69
477.471	1204.69
477.69	1271.69
477.908	1299.69
478.127	1282.69
478.346	1281.69
478.564	1330.69
478.783	1310.69
479.002	1370.69
479.22	1365.69
479.439	1369.69
479.658	1368.69
479.876	1368.69
480.095	1367.69
480.313	1416.69
480.532	1409.69
480.751	1377.69
480.969	1349.69
481.188	1351.69
481.406	1353.69
481.624	1303.69
481.843	1279.69
482.061	1266.69
482.28	1287.69
482.498	1279.69
482.717	1298.69
482.935	1300.69
483.153	1299.69
483.372	1280.69
483.59	1288.69
483.808	1277.69
484.027	1303.69
484.245	1281.69
484.463	1283.69
484.681	1325.69
484.9	1280.69
485.118	1311.69
485.336	1296.69
485.554	1315.69
485.772	1316.69
485.99	1335.69
486.209	1345.69
486.427	1329.69
486.645	1300.69
486.863	1330.69
487.081	1323.69
487.299	1328.69
487.517	1329.69
487.735	1349.69
487.953	1335.69
488.171	1345.69
488.389	1304.69
488.607	1353.69
488.825	1359.69
489.043	1305.69
489.261	1272.69
489.479	1293.69
489.696	1333.69
489.914	1357.69
490.132	1368.69
490.35	1363.69
490.568	1343.69
490.786	1350.69
491.003	1371.69
491.221	1372.69
491.439	1404.69
491.657	1367.69
491.874	1393.69
492.092	1384.69
492.31	1384.69
492.527	1426.69
492.745	1416.69
492.963	1410.69
493.18	1409.69
493.398	1437.69
493.615	1416.69
493.833	1449.69
494.05	1456.69
494.268	1468.69
494.485	1434.69
494.703	1443.69
