Data from Ni(NO3)2Standard.Agarose3%.GreenCap.LampEnergy5.5.E.O_HRD10591_14-43-02-189.txt Node
Date: Mon Jul 22 14:43:02 EDT 2019
User: cochatt
Spectrometer: HR+D1059
Trigger mode: 1
Integration Time (sec): 1.000000E-1
Scans to average: 1
Electric dark correction enabled: true
Nonlinearity correction enabled: false
Boxcar width: 0
XAxis mode: Wavelengths
Number of Pixels in Spectrum: 2048
>>>>>Begin Spectral Data<<<<<
223.165	-11.06
223.4	-11.06
223.635	-11.06
223.869	-18.06
224.104	-12.06
224.338	-13.06
224.573	-12.06
224.808	-33.06
225.042	2.94
225.277	-14.06
225.511	1.94
225.746	6.94
225.98	-8.06
226.215	11.94
226.449	17.94
226.683	12.94
226.918	27.94
227.152	38.94
227.387	45.94
227.621	48.94
227.856	42.94
228.09	36.94
228.324	58.94
228.559	60.94
228.793	63.94
229.027	61.94
229.262	63.94
229.496	54.94
229.73	60.94
229.964	69.94
230.199	83.94
230.433	76.94
230.667	66.94
230.901	72.94
231.136	76.94
231.37	73.94
231.604	74.94
231.838	88.94
232.072	68.94
232.306	84.94
232.541	78.94
232.775	72.94
233.009	88.94
233.243	88.94
233.477	75.94
233.711	74.94
233.945	81.94
234.179	74.94
234.413	67.94
234.647	82.94
234.881	73.94
235.115	83.94
235.349	78.94
235.583	82.94
235.817	65.94
236.051	81.94
236.285	73.94
236.519	85.94
236.753	80.94
236.987	85.94
237.221	71.94
237.455	80.94
237.689	76.94
237.922	79.94
238.156	74.94
238.39	73.94
238.624	67.94
238.858	73.94
239.091	72.94
239.325	77.94
239.559	76.94
239.793	68.94
240.027	83.94
240.26	80.94
240.494	72.94
240.728	82.94
240.961	97.94
241.195	88.94
241.429	61.94
241.662	59.94
241.896	87.94
242.13	84.94
242.363	78.94
242.597	77.94
242.83	81.94
243.064	75.94
243.298	78.94
243.531	80.94
243.765	77.94
243.998	93.94
244.232	65.94
244.465	68.94
244.699	77.94
244.932	81.94
245.166	88.94
245.399	70.94
245.633	56.94
245.866	84.94
246.099	71.94
246.333	75.94
246.566	73.94
246.8	62.94
247.033	66.94
247.266	79.94
247.5	79.94
247.733	84.94
247.966	94.94
248.2	86.94
248.433	90.94
248.666	78.94
248.899	77.94
249.133	74.94
249.366	87.94
249.599	93.94
249.832	89.94
250.066	80.94
250.299	86.94
250.532	81.94
250.765	88.94
250.998	82.94
251.231	77.94
251.465	81.94
251.698	88.94
251.931	71.94
252.164	86.94
252.397	79.94
252.63	79.94
252.863	78.94
253.096	88.94
253.329	80.94
253.562	83.94
253.795	90.94
254.028	75.94
254.261	67.94
254.494	89.94
254.727	79.94
254.96	76.94
255.193	96.94
255.426	88.94
255.659	83.94
255.892	82.94
256.124	84.94
256.357	67.94
256.59	74.94
256.823	78.94
257.056	81.94
257.289	69.94
257.521	75.94
257.754	80.94
257.987	89.94
258.22	86.94
258.452	105.94
258.685	76.94
258.918	67.94
259.151	84.94
259.383	85.94
259.616	86.94
259.849	81.94
260.081	76.94
260.314	87.94
260.547	77.94
260.779	88.94
261.012	84.94
261.244	84.94
261.477	98.94
261.71	91.94
261.942	77.94
262.175	69.94
262.407	74.94
262.64	75.94
262.872	78.94
263.105	83.94
263.337	84.94
263.57	81.94
263.802	78.94
264.035	75.94
264.267	89.94
264.499	82.94
264.732	76.94
264.964	82.94
265.197	92.94
265.429	82.94
265.661	84.94
265.894	76.94
266.126	90.94
266.358	84.94
266.591	78.94
266.823	78.94
267.055	81.94
267.287	95.94
267.52	75.94
267.752	92.94
267.984	81.94
268.216	75.94
268.448	83.94
268.681	74.94
268.913	68.94
269.145	81.94
269.377	95.94
269.609	55.94
269.841	80.94
270.073	78.94
270.306	79.94
270.538	93.94
270.77	78.94
271.002	95.94
271.234	89.94
271.466	92.94
271.698	89.94
271.93	82.94
272.162	74.94
272.394	77.94
272.626	75.94
272.858	73.94
273.09	83.94
273.322	100.94
273.553	91.94
273.785	68.94
274.017	93.94
274.249	73.94
274.481	81.94
274.713	93.94
274.945	77.94
275.176	82.94
275.408	89.94
275.64	79.94
275.872	78.94
276.104	89.94
276.335	81.94
276.567	94.94
276.799	88.94
277.031	89.94
277.262	85.94
277.494	77.94
277.726	79.94
277.957	90.94
278.189	99.94
278.421	75.94
278.652	73.94
278.884	82.94
279.115	82.94
279.347	85.94
279.579	97.94
279.81	68.94
280.042	79.94
280.273	93.94
280.505	85.94
280.736	82.94
280.968	76.94
281.199	80.94
281.431	78.94
281.662	69.94
281.894	84.94
282.125	77.94
282.356	85.94
282.588	82.94
282.819	97.94
283.051	86.94
283.282	75.94
283.513	79.94
283.745	75.94
283.976	88.94
284.207	78.94
284.439	92.94
284.67	82.94
284.901	77.94
285.132	83.94
285.364	80.94
285.595	70.94
285.826	86.94
286.057	85.94
286.288	79.94
286.52	87.94
286.751	73.94
286.982	76.94
287.213	94.94
287.444	77.94
287.675	97.94
287.906	80.94
288.138	78.94
288.369	79.94
288.6	94.94
288.831	93.94
289.062	84.94
289.293	87.94
289.524	86.94
289.755	93.94
289.986	84.94
290.217	87.94
290.448	87.94
290.679	87.94
290.91	88.94
291.141	92.94
291.371	90.94
291.602	82.94
291.833	79.94
292.064	86.94
292.295	93.94
292.526	75.94
292.757	75.94
292.987	93.94
293.218	81.94
293.449	90.94
293.68	82.94
293.91	84.94
294.141	88.94
294.372	85.94
294.603	67.94
294.833	89.94
295.064	90.94
295.295	100.94
295.525	97.94
295.756	98.94
295.987	101.94
296.217	81.94
296.448	86.94
296.679	92.94
296.909	89.94
297.14	89.94
297.37	78.94
297.601	73.94
297.831	90.94
298.062	81.94
298.292	91.94
298.523	90.94
298.753	80.94
298.984	100.94
299.214	80.94
299.445	92.94
299.675	103.94
299.905	65.94
300.136	85.94
300.366	92.94
300.597	89.94
300.827	83.94
301.057	88.94
301.288	92.94
301.518	84.94
301.748	91.94
301.979	99.94
302.209	75.94
302.439	98.94
302.669	84.94
302.9	80.94
303.13	83.94
303.36	78.94
303.59	91.94
303.82	96.94
304.051	96.94
304.281	83.94
304.511	86.94
304.741	85.94
304.971	79.94
305.201	82.94
305.431	84.94
305.661	83.94
305.891	86.94
306.121	90.94
306.352	96.94
306.582	83.94
306.812	96.94
307.042	101.94
307.272	85.94
307.502	85.94
307.731	91.94
307.961	78.94
308.191	75.94
308.421	108.94
308.651	78.94
308.881	87.94
309.111	69.94
309.341	88.94
309.571	84.94
309.8	90.94
310.03	77.94
310.26	76.94
310.49	87.94
310.72	89.94
310.949	99.94
311.179	96.94
311.409	101.94
311.639	87.94
311.868	96.94
312.098	74.94
312.328	86.94
312.557	82.94
312.787	86.94
313.017	94.94
313.246	86.94
313.476	94.94
313.706	79.94
313.935	93.94
314.165	90.94
314.394	88.94
314.624	75.94
314.853	82.94
315.083	78.94
315.312	91.94
315.542	80.94
315.771	85.94
316.001	76.94
316.23	76.94
316.46	99.94
316.689	85.94
316.919	89.94
317.148	94.94
317.377	86.94
317.607	91.94
317.836	79.94
318.065	88.94
318.295	84.94
318.524	87.94
318.753	82.94
318.983	78.94
319.212	81.94
319.441	98.94
319.67	91.94
319.9	88.94
320.129	84.94
320.358	83.94
320.587	90.94
320.816	89.94
321.046	85.94
321.275	100.94
321.504	98.94
321.733	91.94
321.962	97.94
322.191	97.94
322.42	84.94
322.649	80.94
322.878	78.94
323.108	82.94
323.337	99.94
323.566	84.94
323.795	96.94
324.024	79.94
324.253	84.94
324.482	81.94
324.71	93.94
324.939	89.94
325.168	97.94
325.397	82.94
325.626	86.94
325.855	94.94
326.084	103.94
326.313	80.94
326.542	84.94
326.77	82.94
326.999	73.94
327.228	88.94
327.457	97.94
327.686	80.94
327.914	82.94
328.143	101.94
328.372	92.94
328.6	90.94
328.829	101.94
329.058	98.94
329.287	94.94
329.515	88.94
329.744	93.94
329.972	88.94
330.201	97.94
330.43	88.94
330.658	78.94
330.887	75.94
331.115	78.94
331.344	87.94
331.572	79.94
331.801	81.94
332.03	83.94
332.258	84.94
332.486	89.94
332.715	91.94
332.943	79.94
333.172	87.94
333.4	98.94
333.629	89.94
333.857	85.94
334.085	86.94
334.314	84.94
334.542	90.94
334.771	86.94
334.999	90.94
335.227	84.94
335.455	97.94
335.684	83.94
335.912	74.94
336.14	93.94
336.369	74.94
336.597	84.94
336.825	97.94
337.053	84.94
337.281	90.94
337.51	86.94
337.738	100.94
337.966	82.94
338.194	85.94
338.422	97.94
338.65	73.94
338.878	97.94
339.106	74.94
339.334	88.94
339.562	73.94
339.79	94.94
340.018	82.94
340.246	92.94
340.474	78.94
340.702	84.94
340.93	86.94
341.158	84.94
341.386	74.94
341.614	86.94
341.842	98.94
342.07	70.94
342.298	78.94
342.526	85.94
342.754	74.94
342.981	80.94
343.209	80.94
343.437	75.94
343.665	95.94
343.893	94.94
344.12	82.94
344.348	82.94
344.576	86.94
344.804	91.94
345.031	91.94
345.259	87.94
345.487	96.94
345.714	78.94
345.942	89.94
346.17	82.94
346.397	88.94
346.625	78.94
346.853	94.94
347.08	89.94
347.308	77.94
347.535	90.94
347.763	96.94
347.99	99.94
348.218	97.94
348.445	93.94
348.673	70.94
348.9	88.94
349.128	98.94
349.355	94.94
349.583	71.94
349.81	78.94
350.037	73.94
350.265	77.94
350.492	83.94
350.72	86.94
350.947	87.94
351.174	84.94
351.402	85.94
351.629	91.94
351.856	83.94
352.083	99.94
352.311	88.94
352.538	93.94
352.765	78.94
352.992	100.94
353.22	103.94
353.447	85.94
353.674	88.94
353.901	97.94
354.128	99.94
354.355	90.94
354.583	86.94
354.81	78.94
355.037	81.94
355.264	84.94
355.491	77.94
355.718	74.94
355.945	80.94
356.172	91.94
356.399	95.94
356.626	74.94
356.853	83.94
357.08	87.94
357.307	90.94
357.534	76.94
357.761	92.94
357.988	89.94
358.215	92.94
358.441	78.94
358.668	79.94
358.895	85.94
359.122	95.94
359.349	95.94
359.576	74.94
359.802	92.94
360.029	109.94
360.256	95.94
360.483	76.94
360.709	78.94
360.936	90.94
361.163	86.94
361.39	74.94
361.616	73.94
361.843	82.94
362.07	74.94
362.296	81.94
362.523	93.94
362.749	86.94
362.976	85.94
363.203	92.94
363.429	83.94
363.656	88.94
363.882	76.94
364.109	88.94
364.335	83.94
364.562	80.94
364.788	75.94
365.015	93.94
365.241	95.94
365.468	96.94
365.694	88.94
365.92	91.94
366.147	89.94
366.373	93.94
366.599	89.94
366.826	84.94
367.052	102.94
367.278	90.94
367.505	75.94
367.731	90.94
367.957	96.94
368.184	77.94
368.41	75.94
368.636	75.94
368.862	86.94
369.089	86.94
369.315	72.94
369.541	65.94
369.767	77.94
369.993	77.94
370.219	90.94
370.445	93.94
370.672	77.94
370.898	81.94
371.124	88.94
371.35	83.94
371.576	86.94
371.802	94.94
372.028	92.94
372.254	82.94
372.48	73.94
372.706	84.94
372.932	83.94
373.158	94.94
373.384	80.94
373.61	82.94
373.835	85.94
374.061	88.94
374.287	98.94
374.513	81.94
374.739	76.94
374.965	83.94
375.191	94.94
375.416	88.94
375.642	77.94
375.868	59.94
376.094	77.94
376.319	83.94
376.545	82.94
376.771	91.94
376.997	87.94
377.222	90.94
377.448	76.94
377.674	93.94
377.899	80.94
378.125	81.94
378.35	77.94
378.576	89.94
378.802	72.94
379.027	85.94
379.253	76.94
379.478	92.94
379.704	83.94
379.929	85.94
380.155	87.94
380.38	90.94
380.606	77.94
380.831	80.94
381.057	88.94
381.282	84.94
381.507	69.94
381.733	74.94
381.958	78.94
382.184	86.94
382.409	99.94
382.634	96.94
382.86	87.94
383.085	84.94
383.31	66.94
383.535	67.94
383.761	90.94
383.986	84.94
384.211	74.94
384.436	76.94
384.662	87.94
384.887	87.94
385.112	76.94
385.337	97.94
385.562	77.94
385.787	86.94
386.013	81.94
386.238	87.94
386.463	76.94
386.688	77.94
386.913	74.94
387.138	88.94
387.363	81.94
387.588	75.94
387.813	96.94
388.038	88.94
388.263	97.94
388.488	82.94
388.713	83.94
388.938	79.94
389.163	85.94
389.387	76.94
389.612	91.94
389.837	84.94
390.062	93.94
390.287	78.94
390.512	71.94
390.736	87.94
390.961	83.94
391.186	72.94
391.411	89.94
391.636	84.94
391.86	74.94
392.085	77.94
392.31	94.94
392.534	92.94
392.759	83.94
392.984	79.94
393.208	88.94
393.433	88.94
393.658	83.94
393.882	90.94
394.107	78.94
394.331	80.94
394.556	84.94
394.78	78.94
395.005	100.94
395.229	78.94
395.454	88.94
395.678	89.94
395.903	86.94
396.127	87.94
396.352	81.94
396.576	94.94
396.801	91.94
397.025	86.94
397.249	81.94
397.474	81.94
397.698	84.94
397.922	82.94
398.147	86.94
398.371	81.94
398.595	82.94
398.82	85.94
399.044	78.94
399.268	86.94
399.492	88.94
399.717	66.94
399.941	89.94
400.165	89.94
400.389	98.94
400.613	84.94
400.837	114.94
401.062	70.94
401.286	78.94
401.51	82.94
401.734	93.94
401.958	87.94
402.182	94.94
402.406	89.94
402.63	90.94
402.854	87.94
403.078	90.94
403.302	78.94
403.526	97.94
403.75	83.94
403.974	94.94
404.198	90.94
404.422	97.94
404.645	80.94
404.869	85.94
405.093	84.94
405.317	96.94
405.541	103.94
405.765	77.94
405.988	83.94
406.212	76.94
406.436	86.94
406.66	94.94
406.883	87.94
407.107	100.94
407.331	97.94
407.555	83.94
407.778	106.94
408.002	85.94
408.226	71.94
408.449	92.94
408.673	91.94
408.896	86.94
409.12	93.94
409.344	88.94
409.567	75.94
409.791	89.94
410.014	75.94
410.238	85.94
410.461	86.94
410.685	89.94
410.908	72.94
411.132	79.94
411.355	78.94
411.578	73.94
411.802	76.94
412.025	80.94
412.249	78.94
412.472	85.94
412.695	88.94
412.919	87.94
413.142	92.94
413.365	92.94
413.589	85.94
413.812	83.94
414.035	92.94
414.258	87.94
414.482	94.94
414.705	91.94
414.928	84.94
415.151	96.94
415.374	105.94
415.597	102.94
415.821	85.94
416.044	98.94
416.267	105.94
416.49	95.94
416.713	64.94
416.936	83.94
417.159	86.94
417.382	86.94
417.605	80.94
417.828	85.94
418.051	96.94
418.274	86.94
418.497	81.94
418.72	68.94
418.943	92.94
419.166	88.94
419.389	79.94
419.611	79.94
419.834	86.94
420.057	74.94
420.28	99.94
420.503	84.94
420.726	80.94
420.948	82.94
421.171	99.94
421.394	97.94
421.617	78.94
421.839	87.94
422.062	97.94
422.285	82.94
422.507	100.94
422.73	74.94
422.953	90.94
423.175	98.94
423.398	88.94
423.621	76.94
423.843	96.94
424.066	66.94
424.288	80.94
424.511	81.94
424.733	77.94
424.956	84.94
425.178	78.94
425.401	79.94
425.623	88.94
425.846	91.94
426.068	84.94
426.291	83.94
426.513	88.94
426.735	82.94
426.958	86.94
427.18	83.94
427.402	93.94
427.625	62.94
427.847	76.94
428.069	89.94
428.292	88.94
428.514	83.94
428.736	81.94
428.958	77.94
429.181	82.94
429.403	70.94
429.625	99.94
429.847	100.94
430.069	90.94
430.292	72.94
430.514	82.94
430.736	77.94
430.958	86.94
431.18	88.94
431.402	76.94
431.624	81.94
431.846	91.94
432.068	92.94
432.29	92.94
432.512	102.94
432.734	83.94
432.956	75.94
433.178	91.94
433.4	86.94
433.622	82.94
433.844	93.94
434.066	89.94
434.287	73.94
434.509	90.94
434.731	73.94
434.953	84.94
435.175	84.94
435.397	76.94
435.618	89.94
435.84	92.94
436.062	82.94
436.284	90.94
436.505	80.94
436.727	66.94
436.949	83.94
437.17	83.94
437.392	84.94
437.614	91.94
437.835	94.94
438.057	84.94
438.278	77.94
438.5	70.94
438.721	89.94
438.943	68.94
439.165	100.94
439.386	91.94
439.608	71.94
439.829	86.94
440.05	97.94
440.272	83.94
440.493	79.94
440.715	89.94
440.936	70.94
441.158	82.94
441.379	92.94
441.6	79.94
441.822	86.94
442.043	92.94
442.264	85.94
442.486	94.94
442.707	90.94
442.928	79.94
443.149	86.94
443.371	81.94
443.592	83.94
443.813	87.94
444.034	78.94
444.255	89.94
444.476	84.94
444.698	93.94
444.919	83.94
445.14	205.94
445.361	152.94
445.582	92.94
445.803	85.94
446.024	84.94
446.245	87.94
446.466	88.94
446.687	82.94
446.908	90.94
447.129	85.94
447.35	93.94
447.571	90.94
447.792	77.94
448.013	78.94
448.234	84.94
448.455	70.94
448.675	78.94
448.896	81.94
449.117	76.94
449.338	86.94
449.559	85.94
449.779	89.94
450	72.94
450.221	75.94
450.442	88.94
450.662	82.94
450.883	76.94
451.104	76.94
451.324	72.94
451.545	81.94
451.766	90.94
451.986	86.94
452.207	86.94
452.428	85.94
452.648	92.94
452.869	83.94
453.089	84.94
453.31	81.94
453.53	83.94
453.751	73.94
453.971	86.94
454.192	91.94
454.412	74.94
454.633	76.94
454.853	89.94
455.073	90.94
455.294	101.94
455.514	91.94
455.734	77.94
455.955	97.94
456.175	93.94
456.395	83.94
456.616	85.94
456.836	71.94
457.056	90.94
457.276	79.94
457.497	90.94
457.717	78.94
457.937	86.94
458.157	89.94
458.377	78.94
458.598	99.94
458.818	90.94
459.038	83.94
459.258	86.94
459.478	82.94
459.698	91.94
459.918	92.94
460.138	83.94
460.358	85.94
460.578	100.94
460.798	98.94
461.018	79.94
461.238	97.94
461.458	102.94
461.678	72.94
461.898	96.94
462.118	102.94
462.338	89.94
462.558	82.94
462.777	88.94
462.997	84.94
463.217	93.94
463.437	89.94
463.657	83.94
463.876	88.94
464.096	99.94
464.316	93.94
464.536	84.94
464.755	105.94
464.975	74.94
465.195	85.94
465.414	86.94
465.634	80.94
465.854	100.94
466.073	78.94
466.293	92.94
466.512	87.94
466.732	94.94
466.951	103.94
467.171	72.94
467.391	86.94
467.61	92.94
467.829	81.94
468.049	78.94
468.268	81.94
468.488	84.94
468.707	89.94
468.927	77.94
469.146	75.94
469.365	93.94
469.585	93.94
469.804	86.94
470.023	89.94
470.243	75.94
470.462	83.94
470.681	83.94
470.901	86.94
471.12	89.94
471.339	86.94
471.558	97.94
471.777	78.94
471.997	96.94
472.216	76.94
472.435	80.94
472.654	88.94
472.873	96.94
473.092	98.94
473.311	99.94
473.53	82.94
473.749	86.94
473.968	87.94
474.187	71.94
474.406	74.94
474.625	83.94
474.844	98.94
475.063	85.94
475.282	85.94
475.501	89.94
475.72	100.94
475.939	93.94
476.158	76.94
476.377	92.94
476.596	86.94
476.814	84.94
477.033	91.94
477.252	88.94
477.471	82.94
477.69	81.94
477.908	94.94
478.127	75.94
478.346	97.94
478.564	95.94
478.783	96.94
479.002	98.94
479.22	105.94
479.439	85.94
479.658	94.94
479.876	97.94
480.095	83.94
480.313	93.94
480.532	84.94
480.751	93.94
480.969	92.94
481.188	102.94
481.406	88.94
481.624	83.94
481.843	100.94
482.061	110.94
482.28	98.94
482.498	92.94
482.717	90.94
482.935	93.94
483.153	97.94
483.372	80.94
483.59	84.94
483.808	98.94
484.027	88.94
484.245	80.94
484.463	92.94
484.681	92.94
484.9	92.94
485.118	89.94
485.336	85.94
485.554	103.94
485.772	85.94
485.99	81.94
486.209	78.94
486.427	87.94
486.645	84.94
486.863	85.94
487.081	76.94
487.299	91.94
487.517	89.94
487.735	87.94
487.953	90.94
488.171	89.94
488.389	102.94
488.607	101.94
488.825	95.94
489.043	102.94
489.261	89.94
489.479	89.94
489.696	96.94
489.914	108.94
490.132	106.94
490.35	106.94
490.568	91.94
490.786	91.94
491.003	88.94
491.221	90.94
491.439	91.94
491.657	98.94
491.874	92.94
492.092	104.94
492.31	100.94
492.527	101.94
492.745	106.94
492.963	104.94
493.18	84.94
493.398	97.94
493.615	96.94
493.833	89.94
494.05	90.94
494.268	88.94
494.485	91.94
494.703	101.94
494.92	88.94
495.138	98.94
495.355	84.94
495.573	99.94
495.79	90.94
496.008	95.94
496.225	108.94
496.442	89.94
496.66	105.94
496.877	89.94
497.094	88.94
497.312	104.94
497.529	105.94
497.746	81.94
497.963	106.94
498.181	116.94
498.398	105.94
498.615	112.94
498.832	100.94
499.049	101.94
499.267	96.94
499.484	98.94
499.701	89.94
499.918	112.94
500.135	107.94
500.352	129.94
500.569	109.94
500.786	106.94
501.003	118.94
501.22	110.94
501.437	122.94
501.654	100.94
501.871	105.94
502.088	110.94
502.305	105.94
502.522	95.94
502.739	98.94
502.956	103.94
503.172	85.94
503.389	87.94
503.606	95.94
503.823	91.94
504.04	103.94
504.256	93.94
504.473	92.94
504.69	103.94
504.907	99.94
505.123	83.94
505.34	93.94
505.557	94.94
505.773	93.94
505.99	76.94
506.207	86.94
506.423	90.94
506.64	82.94
506.856	101.94
507.073	87.94
507.289	91.94
507.506	97.94
507.722	94.94
507.939	95.94
508.155	89.94
508.372	82.94
508.588	86.94
508.805	96.94
509.021	92.94
509.238	87.94
509.454	84.94
509.67	94.94
509.887	89.94
510.103	95.94
510.319	98.94
510.536	105.94
510.752	91.94
510.968	91.94
511.184	85.94
511.401	93.94
511.617	90.94
511.833	85.94
512.049	96.94
512.265	96.94
512.481	78.94
512.698	78.94
512.914	93.94
513.13	101.94
513.346	98.94
513.562	99.94
513.778	99.94
513.994	104.94
514.21	109.94
514.426	94.94
514.642	91.94
514.858	102.94
515.074	91.94
515.29	77.94
515.506	97.94
515.721	91.94
515.937	94.94
516.153	92.94
516.369	88.94
516.585	88.94
516.801	77.94
517.016	94.94
517.232	78.94
517.448	83.94
517.664	92.94
517.879	101.94
518.095	96.94
518.311	92.94
