Data from Ni(NO3)2Standard.Agarose3%.GreenCap.LampEnergy5.5.E.O_HRD10591_14-42-41-188.txt Node
Date: Mon Jul 22 14:42:41 EDT 2019
User: cochatt
Spectrometer: HR+D1059
Trigger mode: 1
Integration Time (sec): 1.000000E-1
Scans to average: 1
Electric dark correction enabled: true
Nonlinearity correction enabled: false
Boxcar width: 0
XAxis mode: Wavelengths
Number of Pixels in Spectrum: 2048
>>>>>Begin Spectral Data<<<<<
223.165	-9.69
223.4	-9.69
223.635	-9.69
223.869	-17.69
224.104	-28.69
224.338	-21.69
224.573	-20.69
224.808	-20.69
225.042	-14.69
225.277	-11.69
225.511	11.31
225.746	14.31
225.98	16.31
226.215	-6.69
226.449	23.31
226.683	12.31
226.918	34.31
227.152	40.31
227.387	29.31
227.621	42.31
227.856	29.31
228.09	42.31
228.324	29.31
228.559	41.31
228.793	65.31
229.027	59.31
229.262	58.31
229.496	55.31
229.73	81.31
229.964	67.31
230.199	67.31
230.433	74.31
230.667	64.31
230.901	68.31
231.136	67.31
231.37	90.31
231.604	84.31
231.838	70.31
232.072	72.31
232.306	80.31
232.541	66.31
232.775	77.31
233.009	86.31
233.243	95.31
233.477	77.31
233.711	73.31
233.945	93.31
234.179	76.31
234.413	76.31
234.647	83.31
234.881	98.31
235.115	77.31
235.349	75.31
235.583	84.31
235.817	84.31
236.051	70.31
236.285	81.31
236.519	90.31
236.753	80.31
236.987	78.31
237.221	81.31
237.455	82.31
237.689	65.31
237.922	78.31
238.156	82.31
238.39	62.31
238.624	68.31
238.858	81.31
239.091	73.31
239.325	69.31
239.559	73.31
239.793	100.31
240.027	75.31
240.26	81.31
240.494	69.31
240.728	77.31
240.961	68.31
241.195	67.31
241.429	70.31
241.662	78.31
241.896	74.31
242.13	70.31
242.363	82.31
242.597	92.31
242.83	91.31
243.064	74.31
243.298	73.31
243.531	75.31
243.765	66.31
243.998	85.31
244.232	70.31
244.465	82.31
244.699	79.31
244.932	71.31
245.166	70.31
245.399	70.31
245.633	79.31
245.866	82.31
246.099	75.31
246.333	84.31
246.566	79.31
246.8	76.31
247.033	78.31
247.266	76.31
247.5	85.31
247.733	72.31
247.966	88.31
248.2	87.31
248.433	73.31
248.666	66.31
248.899	74.31
249.133	75.31
249.366	90.31
249.599	80.31
249.832	66.31
250.066	75.31
250.299	83.31
250.532	87.31
250.765	74.31
250.998	72.31
251.231	83.31
251.465	89.31
251.698	86.31
251.931	84.31
252.164	74.31
252.397	68.31
252.63	78.31
252.863	70.31
253.096	78.31
253.329	76.31
253.562	82.31
253.795	80.31
254.028	96.31
254.261	83.31
254.494	75.31
254.727	79.31
254.96	80.31
255.193	82.31
255.426	70.31
255.659	62.31
255.892	81.31
256.124	87.31
256.357	90.31
256.59	89.31
256.823	74.31
257.056	74.31
257.289	61.31
257.521	82.31
257.754	81.31
257.987	76.31
258.22	94.31
258.452	86.31
258.685	78.31
258.918	84.31
259.151	78.31
259.383	91.31
259.616	83.31
259.849	73.31
260.081	83.31
260.314	95.31
260.547	90.31
260.779	74.31
261.012	79.31
261.244	83.31
261.477	76.31
261.71	68.31
261.942	84.31
262.175	74.31
262.407	82.31
262.64	75.31
262.872	84.31
263.105	69.31
263.337	78.31
263.57	77.31
263.802	72.31
264.035	82.31
264.267	76.31
264.499	94.31
264.732	92.31
264.964	100.31
265.197	90.31
265.429	86.31
265.661	72.31
265.894	78.31
266.126	72.31
266.358	77.31
266.591	76.31
266.823	81.31
267.055	80.31
267.287	87.31
267.52	88.31
267.752	79.31
267.984	76.31
268.216	80.31
268.448	75.31
268.681	81.31
268.913	86.31
269.145	82.31
269.377	95.31
269.609	82.31
269.841	82.31
270.073	69.31
270.306	70.31
270.538	68.31
270.77	78.31
271.002	87.31
271.234	84.31
271.466	84.31
271.698	70.31
271.93	81.31
272.162	88.31
272.394	94.31
272.626	79.31
272.858	91.31
273.09	77.31
273.322	76.31
273.553	78.31
273.785	71.31
274.017	87.31
274.249	76.31
274.481	80.31
274.713	95.31
274.945	82.31
275.176	86.31
275.408	85.31
275.64	79.31
275.872	80.31
276.104	93.31
276.335	97.31
276.567	78.31
276.799	78.31
277.031	90.31
277.262	90.31
277.494	88.31
277.726	75.31
277.957	86.31
278.189	84.31
278.421	85.31
278.652	76.31
278.884	76.31
279.115	83.31
279.347	87.31
279.579	94.31
279.81	79.31
280.042	74.31
280.273	66.31
280.505	93.31
280.736	94.31
280.968	79.31
281.199	75.31
281.431	75.31
281.662	81.31
281.894	81.31
282.125	91.31
282.356	78.31
282.588	86.31
282.819	83.31
283.051	75.31
283.282	82.31
283.513	103.31
283.745	90.31
283.976	88.31
284.207	93.31
284.439	91.31
284.67	75.31
284.901	83.31
285.132	84.31
285.364	85.31
285.595	97.31
285.826	83.31
286.057	98.31
286.288	77.31
286.52	89.31
286.751	71.31
286.982	86.31
287.213	77.31
287.444	78.31
287.675	86.31
287.906	89.31
288.138	78.31
288.369	86.31
288.6	77.31
288.831	96.31
289.062	82.31
289.293	98.31
289.524	65.31
289.755	84.31
289.986	81.31
290.217	79.31
290.448	86.31
290.679	86.31
290.91	90.31
291.141	85.31
291.371	91.31
291.602	86.31
291.833	94.31
292.064	90.31
292.295	72.31
292.526	76.31
292.757	94.31
292.987	95.31
293.218	88.31
293.449	84.31
293.68	90.31
293.91	90.31
294.141	90.31
294.372	95.31
294.603	86.31
294.833	80.31
295.064	87.31
295.295	77.31
295.525	88.31
295.756	81.31
295.987	78.31
296.217	80.31
296.448	72.31
296.679	85.31
296.909	87.31
297.14	81.31
297.37	80.31
297.601	94.31
297.831	94.31
298.062	78.31
298.292	83.31
298.523	89.31
298.753	88.31
298.984	86.31
299.214	84.31
299.445	78.31
299.675	75.31
299.905	99.31
300.136	90.31
300.366	77.31
300.597	82.31
300.827	85.31
301.057	91.31
301.288	86.31
301.518	89.31
301.748	87.31
301.979	76.31
302.209	79.31
302.439	94.31
302.669	76.31
302.9	88.31
303.13	87.31
303.36	73.31
303.59	100.31
303.82	89.31
304.051	84.31
304.281	83.31
304.511	86.31
304.741	85.31
304.971	70.31
305.201	93.31
305.431	80.31
305.661	101.31
305.891	95.31
306.121	77.31
306.352	85.31
306.582	81.31
306.812	92.31
307.042	80.31
307.272	85.31
307.502	97.31
307.731	90.31
307.961	91.31
308.191	96.31
308.421	76.31
308.651	74.31
308.881	76.31
309.111	81.31
309.341	82.31
309.571	74.31
309.8	84.31
310.03	79.31
310.26	84.31
310.49	84.31
310.72	80.31
310.949	97.31
311.179	80.31
311.409	90.31
311.639	87.31
311.868	88.31
312.098	81.31
312.328	90.31
312.557	93.31
312.787	84.31
313.017	87.31
313.246	75.31
313.476	93.31
313.706	83.31
313.935	92.31
314.165	83.31
314.394	85.31
314.624	82.31
314.853	77.31
315.083	84.31
315.312	87.31
315.542	98.31
315.771	99.31
316.001	90.31
316.23	100.31
316.46	90.31
316.689	82.31
316.919	84.31
317.148	86.31
317.377	87.31
317.607	91.31
317.836	89.31
318.065	87.31
318.295	87.31
318.524	86.31
318.753	84.31
318.983	84.31
319.212	99.31
319.441	97.31
319.67	73.31
319.9	90.31
320.129	90.31
320.358	89.31
320.587	91.31
320.816	91.31
321.046	91.31
321.275	79.31
321.504	94.31
321.733	97.31
321.962	80.31
322.191	76.31
322.42	97.31
322.649	82.31
322.878	83.31
323.108	85.31
323.337	81.31
323.566	86.31
323.795	84.31
324.024	96.31
324.253	103.31
324.482	81.31
324.71	80.31
324.939	86.31
325.168	89.31
325.397	87.31
325.626	87.31
325.855	101.31
326.084	88.31
326.313	102.31
326.542	100.31
326.77	80.31
326.999	72.31
327.228	94.31
327.457	95.31
327.686	80.31
327.914	86.31
328.143	84.31
328.372	80.31
328.6	81.31
328.829	88.31
329.058	82.31
329.287	86.31
329.515	94.31
329.744	87.31
329.972	87.31
330.201	95.31
330.43	83.31
330.658	84.31
330.887	80.31
331.115	79.31
331.344	86.31
331.572	72.31
331.801	89.31
332.03	90.31
332.258	87.31
332.486	83.31
332.715	72.31
332.943	71.31
333.172	88.31
333.4	79.31
333.629	76.31
333.857	87.31
334.085	95.31
334.314	91.31
334.542	94.31
334.771	92.31
334.999	76.31
335.227	85.31
335.455	78.31
335.684	81.31
335.912	90.31
336.14	80.31
336.369	88.31
336.597	84.31
336.825	88.31
337.053	87.31
337.281	75.31
337.51	88.31
337.738	84.31
337.966	87.31
338.194	87.31
338.422	80.31
338.65	89.31
338.878	85.31
339.106	84.31
339.334	97.31
339.562	81.31
339.79	80.31
340.018	83.31
340.246	103.31
340.474	86.31
340.702	87.31
340.93	79.31
341.158	73.31
341.386	71.31
341.614	76.31
341.842	96.31
342.07	87.31
342.298	80.31
342.526	78.31
342.754	76.31
342.981	87.31
343.209	93.31
343.437	85.31
343.665	74.31
343.893	83.31
344.12	85.31
344.348	77.31
344.576	84.31
344.804	89.31
345.031	88.31
345.259	86.31
345.487	86.31
345.714	90.31
345.942	84.31
346.17	82.31
346.397	82.31
346.625	82.31
346.853	74.31
347.08	97.31
347.308	68.31
347.535	81.31
347.763	86.31
347.99	85.31
348.218	82.31
348.445	76.31
348.673	89.31
348.9	96.31
349.128	106.31
349.355	74.31
349.583	74.31
349.81	74.31
350.037	93.31
350.265	79.31
350.492	88.31
350.72	88.31
350.947	88.31
351.174	90.31
351.402	78.31
351.629	76.31
351.856	75.31
352.083	80.31
352.311	85.31
352.538	85.31
352.765	89.31
352.992	74.31
353.22	95.31
353.447	74.31
353.674	88.31
353.901	87.31
354.128	74.31
354.355	84.31
354.583	89.31
354.81	95.31
355.037	86.31
355.264	87.31
355.491	91.31
355.718	77.31
355.945	76.31
356.172	91.31
356.399	97.31
356.626	94.31
356.853	91.31
357.08	93.31
357.307	94.31
357.534	73.31
357.761	72.31
357.988	88.31
358.215	79.31
358.441	74.31
358.668	75.31
358.895	98.31
359.122	86.31
359.349	77.31
359.576	80.31
359.802	90.31
360.029	90.31
360.256	93.31
360.483	86.31
360.709	91.31
360.936	91.31
361.163	79.31
361.39	76.31
361.616	85.31
361.843	74.31
362.07	84.31
362.296	92.31
362.523	87.31
362.749	70.31
362.976	89.31
363.203	97.31
363.429	83.31
363.656	95.31
363.882	74.31
364.109	86.31
364.335	87.31
364.562	81.31
364.788	76.31
365.015	92.31
365.241	74.31
365.468	95.31
365.694	75.31
365.92	101.31
366.147	79.31
366.373	103.31
366.599	88.31
366.826	84.31
367.052	83.31
367.278	78.31
367.505	79.31
367.731	76.31
367.957	87.31
368.184	78.31
368.41	90.31
368.636	91.31
368.862	95.31
369.089	85.31
369.315	88.31
369.541	76.31
369.767	85.31
369.993	86.31
370.219	81.31
370.445	81.31
370.672	83.31
370.898	91.31
371.124	85.31
371.35	88.31
371.576	83.31
371.802	82.31
372.028	95.31
372.254	99.31
372.48	84.31
372.706	81.31
372.932	95.31
373.158	82.31
373.384	79.31
373.61	74.31
373.835	96.31
374.061	80.31
374.287	86.31
374.513	82.31
374.739	91.31
374.965	82.31
375.191	79.31
375.416	72.31
375.642	73.31
375.868	95.31
376.094	97.31
376.319	80.31
376.545	83.31
376.771	96.31
376.997	85.31
377.222	92.31
377.448	91.31
377.674	75.31
377.899	88.31
378.125	83.31
378.35	79.31
378.576	86.31
378.802	96.31
379.027	89.31
379.253	83.31
379.478	86.31
379.704	77.31
379.929	76.31
380.155	97.31
380.38	87.31
380.606	83.31
380.831	73.31
381.057	93.31
381.282	84.31
381.507	74.31
381.733	76.31
381.958	90.31
382.184	94.31
382.409	87.31
382.634	82.31
382.86	95.31
383.085	73.31
383.31	91.31
383.535	80.31
383.761	101.31
383.986	96.31
384.211	101.31
384.436	91.31
384.662	112.31
384.887	89.31
385.112	94.31
385.337	86.31
385.562	87.31
385.787	84.31
386.013	95.31
386.238	84.31
386.463	80.31
386.688	81.31
386.913	88.31
387.138	77.31
387.363	78.31
387.588	84.31
387.813	84.31
388.038	83.31
388.263	86.31
388.488	88.31
388.713	74.31
388.938	84.31
389.163	85.31
389.387	75.31
389.612	80.31
389.837	84.31
390.062	73.31
390.287	72.31
390.512	88.31
390.736	83.31
390.961	82.31
391.186	85.31
391.411	83.31
391.636	95.31
391.86	89.31
392.085	92.31
392.31	74.31
392.534	90.31
392.759	91.31
392.984	73.31
393.208	83.31
393.433	87.31
393.658	76.31
393.882	81.31
394.107	80.31
394.331	96.31
394.556	89.31
394.78	86.31
395.005	91.31
395.229	75.31
395.454	81.31
395.678	77.31
395.903	72.31
396.127	85.31
396.352	91.31
396.576	86.31
396.801	95.31
397.025	91.31
397.249	88.31
397.474	72.31
397.698	79.31
397.922	76.31
398.147	98.31
398.371	95.31
398.595	82.31
398.82	81.31
399.044	82.31
399.268	91.31
399.492	83.31
399.717	94.31
399.941	93.31
400.165	94.31
400.389	80.31
400.613	85.31
400.837	81.31
401.062	93.31
401.286	88.31
401.51	86.31
401.734	91.31
401.958	89.31
402.182	86.31
402.406	92.31
402.63	71.31
402.854	83.31
403.078	91.31
403.302	87.31
403.526	76.31
403.75	92.31
403.974	80.31
404.198	85.31
404.422	101.31
404.645	85.31
404.869	82.31
405.093	90.31
405.317	92.31
405.541	73.31
405.765	88.31
405.988	85.31
406.212	83.31
406.436	96.31
406.66	92.31
406.883	99.31
407.107	87.31
407.331	88.31
407.555	77.31
407.778	81.31
408.002	83.31
408.226	85.31
408.449	92.31
408.673	95.31
408.896	95.31
409.12	79.31
409.344	80.31
409.567	79.31
409.791	86.31
410.014	88.31
410.238	67.31
410.461	84.31
410.685	91.31
410.908	87.31
411.132	84.31
411.355	86.31
411.578	87.31
411.802	86.31
412.025	70.31
412.249	67.31
412.472	92.31
412.695	72.31
412.919	69.31
413.142	82.31
413.365	79.31
413.589	82.31
413.812	83.31
414.035	100.31
414.258	110.31
414.482	71.31
414.705	85.31
414.928	75.31
415.151	79.31
415.374	89.31
415.597	76.31
415.821	84.31
416.044	87.31
416.267	84.31
416.49	94.31
416.713	79.31
416.936	75.31
417.159	75.31
417.382	95.31
417.605	80.31
417.828	87.31
418.051	82.31
418.274	87.31
418.497	88.31
418.72	97.31
418.943	92.31
419.166	88.31
419.389	75.31
419.611	71.31
419.834	81.31
420.057	94.31
420.28	88.31
420.503	89.31
420.726	87.31
420.948	84.31
421.171	83.31
421.394	88.31
421.617	65.31
421.839	79.31
422.062	71.31
422.285	78.31
422.507	67.31
422.73	91.31
422.953	83.31
423.175	88.31
423.398	83.31
423.621	75.31
423.843	85.31
424.066	80.31
424.288	82.31
424.511	88.31
424.733	95.31
424.956	80.31
425.178	84.31
425.401	82.31
425.623	80.31
425.846	74.31
426.068	78.31
426.291	85.31
426.513	79.31
426.735	83.31
426.958	89.31
427.18	84.31
427.402	94.31
427.625	76.31
427.847	74.31
428.069	78.31
428.292	85.31
428.514	83.31
428.736	89.31
428.958	68.31
429.181	72.31
429.403	83.31
429.625	82.31
429.847	86.31
430.069	77.31
430.292	82.31
430.514	75.31
430.736	94.31
430.958	93.31
431.18	90.31
431.402	88.31
431.624	90.31
431.846	76.31
432.068	82.31
432.29	101.31
432.512	88.31
432.734	71.31
432.956	87.31
433.178	85.31
433.4	91.31
433.622	81.31
433.844	83.31
434.066	83.31
434.287	89.31
434.509	84.31
434.731	94.31
434.953	87.31
435.175	85.31
435.397	78.31
435.618	104.31
435.84	77.31
436.062	83.31
436.284	86.31
436.505	72.31
436.727	79.31
436.949	85.31
437.17	81.31
437.392	83.31
437.614	90.31
437.835	86.31
438.057	103.31
438.278	89.31
438.5	80.31
438.721	94.31
438.943	90.31
439.165	77.31
439.386	82.31
439.608	78.31
439.829	92.31
440.05	89.31
440.272	93.31
440.493	76.31
440.715	84.31
440.936	89.31
441.158	86.31
441.379	99.31
441.6	90.31
441.822	98.31
442.043	79.31
442.264	91.31
442.486	89.31
442.707	95.31
442.928	83.31
443.149	70.31
443.371	91.31
443.592	94.31
443.813	86.31
444.034	89.31
444.255	97.31
444.476	80.31
444.698	80.31
444.919	86.31
445.14	191.31
445.361	134.31
445.582	79.31
445.803	98.31
446.024	90.31
446.245	84.31
446.466	78.31
446.687	81.31
446.908	90.31
447.129	94.31
447.35	68.31
447.571	91.31
447.792	94.31
448.013	85.31
448.234	89.31
448.455	94.31
448.675	85.31
448.896	83.31
449.117	76.31
449.338	83.31
449.559	88.31
449.779	82.31
450	87.31
450.221	77.31
450.442	84.31
450.662	91.31
450.883	89.31
451.104	87.31
451.324	79.31
451.545	98.31
451.766	94.31
451.986	81.31
452.207	89.31
452.428	78.31
452.648	89.31
452.869	91.31
453.089	85.31
453.31	78.31
453.53	99.31
453.751	83.31
453.971	85.31
454.192	85.31
454.412	79.31
454.633	83.31
454.853	91.31
455.073	83.31
455.294	87.31
455.514	90.31
455.734	79.31
455.955	83.31
456.175	108.31
456.395	88.31
456.616	90.31
456.836	87.31
457.056	92.31
457.276	89.31
457.497	89.31
457.717	96.31
457.937	98.31
458.157	88.31
458.377	86.31
458.598	82.31
458.818	90.31
459.038	85.31
459.258	80.31
459.478	87.31
459.698	96.31
459.918	100.31
460.138	91.31
460.358	73.31
460.578	95.31
460.798	96.31
461.018	77.31
461.238	84.31
461.458	87.31
461.678	102.31
461.898	90.31
462.118	92.31
462.338	94.31
462.558	86.31
462.777	65.31
462.997	79.31
463.217	94.31
463.437	97.31
463.657	76.31
463.876	89.31
464.096	92.31
464.316	99.31
464.536	90.31
464.755	87.31
464.975	95.31
465.195	91.31
465.414	97.31
465.634	91.31
465.854	93.31
466.073	79.31
466.293	79.31
466.512	93.31
466.732	93.31
466.951	75.31
467.171	98.31
467.391	101.31
467.61	85.31
467.829	88.31
468.049	86.31
468.268	88.31
468.488	87.31
468.707	85.31
468.927	88.31
469.146	78.31
469.365	87.31
469.585	85.31
469.804	100.31
470.023	92.31
470.243	91.31
470.462	98.31
470.681	87.31
470.901	85.31
471.12	105.31
471.339	89.31
471.558	86.31
471.777	80.31
471.997	99.31
472.216	87.31
472.435	95.31
472.654	98.31
472.873	101.31
473.092	91.31
473.311	83.31
473.53	82.31
473.749	84.31
473.968	100.31
474.187	85.31
474.406	90.31
474.625	95.31
474.844	83.31
475.063	78.31
475.282	86.31
475.501	98.31
475.72	88.31
475.939	85.31
476.158	88.31
476.377	88.31
476.596	80.31
476.814	86.31
477.033	98.31
477.252	75.31
477.471	93.31
477.69	94.31
477.908	87.31
478.127	100.31
478.346	73.31
478.564	83.31
478.783	88.31
479.002	86.31
479.22	92.31
479.439	88.31
479.658	87.31
479.876	96.31
480.095	87.31
480.313	86.31
480.532	93.31
480.751	90.31
480.969	87.31
481.188	78.31
481.406	95.31
481.624	88.31
481.843	101.31
482.061	88.31
482.28	84.31
482.498	85.31
482.717	86.31
482.935	99.31
483.153	91.31
483.372	84.31
483.59	95.31
483.808	90.31
484.027	88.31
484.245	93.31
484.463	88.31
484.681	94.31
484.9	92.31
485.118	100.31
485.336	93.31
485.554	98.31
485.772	75.31
485.99	93.31
486.209	83.31
486.427	73.31
486.645	88.31
486.863	108.31
487.081	82.31
487.299	98.31
487.517	79.31
487.735	98.31
487.953	84.31
488.171	83.31
488.389	89.31
488.607	91.31
488.825	75.31
489.043	89.31
489.261	113.31
489.479	98.31
489.696	75.31
489.914	91.31
490.132	87.31
490.35	86.31
490.568	92.31
490.786	97.31
491.003	92.31
491.221	98.31
491.439	92.31
491.657	87.31
491.874	84.31
492.092	95.31
492.31	99.31
492.527	97.31
492.745	105.31
492.963	88.31
493.18	95.31
493.398	84.31
493.615	86.31
493.833	75.31
494.05	90.31
494.268	99.31
494.485	93.31
494.703	102.31
494.92	89.31
495.138	95.31
495.355	78.31
495.573	97.31
495.79	104.31
496.008	96.31
496.225	103.31
496.442	79.31
496.66	83.31
496.877	85.31
497.094	92.31
497.312	88.31
497.529	88.31
497.746	97.31
497.963	91.31
498.181	79.31
498.398	87.31
498.615	91.31
498.832	94.31
499.049	86.31
499.267	115.31
499.484	93.31
499.701	101.31
499.918	116.31
500.135	94.31
500.352	96.31
500.569	107.31
500.786	102.31
501.003	114.31
501.22	114.31
501.437	124.31
501.654	98.31
501.871	110.31
502.088	96.31
502.305	109.31
502.522	106.31
502.739	98.31
502.956	92.31
503.172	108.31
503.389	85.31
503.606	95.31
503.823	96.31
504.04	88.31
504.256	94.31
504.473	99.31
504.69	97.31
504.907	106.31
505.123	89.31
505.34	77.31
505.557	101.31
505.773	94.31
505.99	92.31
506.207	101.31
506.423	87.31
506.64	90.31
506.856	84.31
507.073	96.31
507.289	83.31
507.506	94.31
507.722	98.31
507.939	85.31
508.155	88.31
508.372	86.31
508.588	85.31
508.805	79.31
509.021	95.31
509.238	91.31
509.454	87.31
509.67	98.31
509.887	89.31
510.103	81.31
510.319	86.31
510.536	96.31
510.752	88.31
510.968	83.31
511.184	84.31
511.401	80.31
511.617	100.31
511.833	101.31
512.049	87.31
512.265	80.31
512.481	73.31
512.698	91.31
512.914	101.31
513.13	89.31
513.346	105.31
513.562	90.31
513.778	95.31
513.994	89.31
514.21	91.31
514.426	101.31
514.642	75.31
514.858	98.31
515.074	91.31
515.29	88.31
515.506	87.31
515.721	89.31
515.937	85.31
516.153	88.31
516.369	90.31
516.585	79.31
516.801	91.31
517.016	83.31
517.232	91.31
517.448	100.31
517.664	95.31
517.879	97.31
518.095	96.31
518.311	95.31
518.527	98.31
