Data from Ni(NO3)2@0.0625M.TitratingCurve.Agarose3%dH2O.NegLispCup.LampEnergy10.LIBS07252019_HRD10591_18-14-10-569.txt Node
Date: Thu Jul 25 18:14:10 EDT 2019
User: cochatt
Spectrometer: HR+D1059
Trigger mode: 1
Integration Time (sec): 1.000000E-1
Scans to average: 1
Electric dark correction enabled: true
Nonlinearity correction enabled: false
Boxcar width: 0
XAxis mode: Wavelengths
Number of Pixels in Spectrum: 2048
>>>>>Begin Spectral Data<<<<<
223.165	-14.94
223.4	-14.94
223.635	-14.94
223.869	-32.94
224.104	-27.94
224.338	-15.94
224.573	-20.94
224.808	-8.94
225.042	4.06
225.277	-2.94
225.511	5.06
225.746	23.06
225.98	7.06
226.215	7.06
226.449	10.06
226.683	12.06
226.918	26.06
227.152	30.06
227.387	24.06
227.621	31.06
227.856	61.06
228.09	49.06
228.324	57.06
228.559	65.06
228.793	72.06
229.027	110.06
229.262	124.06
229.496	123.06
229.73	115.06
229.964	126.06
230.199	125.06
230.433	131.06
230.667	134.06
230.901	146.06
231.136	138.06
231.37	157.06
231.604	133.06
231.838	148.06
232.072	156.06
232.306	150.06
232.541	157.06
232.775	144.06
233.009	146.06
233.243	146.06
233.477	156.06
233.711	145.06
233.945	146.06
234.179	163.06
234.413	166.06
234.647	159.06
234.881	144.06
235.115	157.06
235.349	152.06
235.583	151.06
235.817	148.06
236.051	152.06
236.285	170.06
236.519	158.06
236.753	170.06
236.987	158.06
237.221	165.06
237.455	172.06
237.689	171.06
237.922	138.06
238.156	151.06
238.39	167.06
238.624	177.06
238.858	173.06
239.091	179.06
239.325	175.06
239.559	160.06
239.793	179.06
240.027	157.06
240.26	167.06
240.494	170.06
240.728	188.06
240.961	193.06
241.195	185.06
241.429	182.06
241.662	177.06
241.896	205.06
242.13	203.06
242.363	189.06
242.597	201.06
242.83	209.06
243.064	203.06
243.298	204.06
243.531	195.06
243.765	203.06
243.998	213.06
244.232	206.06
244.465	219.06
244.699	205.06
244.932	217.06
245.166	246.06
245.399	225.06
245.633	225.06
245.866	230.06
246.099	248.06
246.333	241.06
246.566	222.06
246.8	225.06
247.033	226.06
247.266	238.06
247.5	233.06
247.733	233.06
247.966	242.06
248.2	243.06
248.433	242.06
248.666	254.06
248.899	246.06
249.133	245.06
249.366	274.06
249.599	255.06
249.832	239.06
250.066	277.06
250.299	250.06
250.532	254.06
250.765	247.06
250.998	261.06
251.231	255.06
251.465	257.06
251.698	277.06
251.931	290.06
252.164	263.06
252.397	290.06
252.63	273.06
252.863	278.06
253.096	282.06
253.329	275.06
253.562	281.06
253.795	293.06
254.028	291.06
254.261	266.06
254.494	299.06
254.727	303.06
254.96	267.06
255.193	283.06
255.426	295.06
255.659	282.06
255.892	309.06
256.124	291.06
256.357	296.06
256.59	293.06
256.823	289.06
257.056	300.06
257.289	298.06
257.521	291.06
257.754	308.06
257.987	305.06
258.22	295.06
258.452	316.06
258.685	314.06
258.918	327.06
259.151	313.06
259.383	338.06
259.616	330.06
259.849	321.06
260.081	315.06
260.314	330.06
260.547	313.06
260.779	317.06
261.012	351.06
261.244	333.06
261.477	356.06
261.71	330.06
261.942	332.06
262.175	341.06
262.407	348.06
262.64	324.06
262.872	341.06
263.105	358.06
263.337	332.06
263.57	346.06
263.802	357.06
264.035	367.06
264.267	350.06
264.499	339.06
264.732	369.06
264.964	366.06
265.197	366.06
265.429	369.06
265.661	377.06
265.894	377.06
266.126	389.06
266.358	367.06
266.591	375.06
266.823	384.06
267.055	364.06
267.287	374.06
267.52	378.06
267.752	362.06
267.984	389.06
268.216	379.06
268.448	383.06
268.681	399.06
268.913	381.06
269.145	383.06
269.377	375.06
269.609	392.06
269.841	387.06
270.073	387.06
270.306	370.06
270.538	390.06
270.77	390.06
271.002	387.06
271.234	392.06
271.466	377.06
271.698	403.06
271.93	395.06
272.162	386.06
272.394	404.06
272.626	397.06
272.858	419.06
273.09	395.06
273.322	401.06
273.553	409.06
273.785	413.06
274.017	426.06
274.249	409.06
274.481	417.06
274.713	414.06
274.945	427.06
275.176	414.06
275.408	425.06
275.64	415.06
275.872	426.06
276.104	458.06
276.335	417.06
276.567	438.06
276.799	412.06
277.031	431.06
277.262	438.06
277.494	418.06
277.726	429.06
277.957	441.06
278.189	442.06
278.421	443.06
278.652	456.06
278.884	456.06
279.115	434.06
279.347	453.06
279.579	436.06
279.81	445.06
280.042	453.06
280.273	463.06
280.505	462.06
280.736	459.06
280.968	474.06
281.199	466.06
281.431	471.06
281.662	479.06
281.894	467.06
282.125	481.06
282.356	467.06
282.588	482.06
282.819	448.06
283.051	491.06
283.282	480.06
283.513	489.06
283.745	472.06
283.976	493.06
284.207	476.06
284.439	497.06
284.67	497.06
284.901	505.06
285.132	489.06
285.364	500.06
285.595	515.06
285.826	517.06
286.057	517.06
286.288	489.06
286.52	492.06
286.751	517.06
286.982	508.06
287.213	517.06
287.444	520.06
287.675	522.06
287.906	491.06
288.138	528.06
288.369	511.06
288.6	529.06
288.831	538.06
289.062	533.06
289.293	513.06
289.524	519.06
289.755	541.06
289.986	547.06
290.217	555.06
290.448	533.06
290.679	529.06
290.91	554.06
291.141	537.06
291.371	544.06
291.602	542.06
291.833	522.06
292.064	532.06
292.295	542.06
292.526	538.06
292.757	503.06
292.987	544.06
293.218	514.06
293.449	543.06
293.68	553.06
293.91	538.06
294.141	550.06
294.372	541.06
294.603	565.06
294.833	543.06
295.064	525.06
295.295	566.06
295.525	556.06
295.756	570.06
295.987	562.06
296.217	557.06
296.448	556.06
296.679	558.06
296.909	565.06
297.14	550.06
297.37	569.06
297.601	577.06
297.831	602.06
298.062	599.06
298.292	604.06
298.523	620.06
298.753	583.06
298.984	598.06
299.214	608.06
299.445	587.06
299.675	584.06
299.905	600.06
300.136	603.06
300.366	587.06
300.597	597.06
300.827	618.06
301.057	627.06
301.288	621.06
301.518	636.06
301.748	635.06
301.979	634.06
302.209	636.06
302.439	620.06
302.669	602.06
302.9	600.06
303.13	607.06
303.36	585.06
303.59	615.06
303.82	589.06
304.051	611.06
304.281	602.06
304.511	596.06
304.741	613.06
304.971	601.06
305.201	603.06
305.431	581.06
305.661	615.06
305.891	613.06
306.121	583.06
306.352	590.06
306.582	600.06
306.812	594.06
307.042	622.06
307.272	604.06
307.502	581.06
307.731	570.06
307.961	603.06
308.191	597.06
308.421	572.06
308.651	586.06
308.881	595.06
309.111	594.06
309.341	589.06
309.571	583.06
309.8	610.06
310.03	602.06
310.26	601.06
310.49	594.06
310.72	590.06
310.949	614.06
311.179	614.06
311.409	604.06
311.639	604.06
311.868	615.06
312.098	591.06
312.328	595.06
312.557	597.06
312.787	633.06
313.017	622.06
313.246	615.06
313.476	610.06
313.706	656.06
313.935	641.06
314.165	633.06
314.394	643.06
314.624	655.06
314.853	633.06
315.083	633.06
315.312	639.06
315.542	615.06
315.771	614.06
316.001	610.06
316.23	637.06
316.46	609.06
316.689	605.06
316.919	636.06
317.148	617.06
317.377	620.06
317.607	635.06
317.836	611.06
318.065	605.06
318.295	613.06
318.524	609.06
318.753	617.06
318.983	614.06
319.212	620.06
319.441	619.06
319.67	614.06
319.9	626.06
320.129	610.06
320.358	609.06
320.587	630.06
320.816	635.06
321.046	618.06
321.275	622.06
321.504	630.06
321.733	630.06
321.962	622.06
322.191	627.06
322.42	632.06
322.649	640.06
322.878	658.06
323.108	630.06
323.337	636.06
323.566	629.06
323.795	630.06
324.024	651.06
324.253	662.06
324.482	645.06
324.71	665.06
324.939	638.06
325.168	646.06
325.397	659.06
325.626	635.06
325.855	645.06
326.084	670.06
326.313	658.06
326.542	679.06
326.77	690.06
326.999	673.06
327.228	664.06
327.457	665.06
327.686	673.06
327.914	689.06
328.143	689.06
328.372	681.06
328.6	694.06
328.829	706.06
329.058	688.06
329.287	682.06
329.515	701.06
329.744	669.06
329.972	677.06
330.201	685.06
330.43	694.06
330.658	690.06
330.887	719.06
331.115	718.06
331.344	715.06
331.572	730.06
331.801	724.06
332.03	764.06
332.258	750.06
332.486	763.06
332.715	789.06
332.943	839.06
333.172	875.06
333.4	948.06
333.629	959.06
333.857	964.06
334.085	921.06
334.314	898.06
334.542	893.06
334.771	861.06
334.999	849.06
335.227	833.06
335.455	855.06
335.684	841.06
335.912	848.06
336.14	819.06
336.369	806.06
336.597	835.06
336.825	826.06
337.053	837.06
337.281	805.06
337.51	776.06
337.738	784.06
337.966	772.06
338.194	757.06
338.422	738.06
338.65	727.06
338.878	747.06
339.106	730.06
339.334	719.06
339.562	728.06
339.79	720.06
340.018	692.06
340.246	709.06
340.474	692.06
340.702	708.06
340.93	706.06
341.158	723.06
341.386	717.06
341.614	684.06
341.842	692.06
342.07	691.06
342.298	695.06
342.526	722.06
342.754	706.06
342.981	722.06
343.209	739.06
343.437	746.06
343.665	783.06
343.893	852.06
344.12	907.06
344.348	871.06
344.576	804.06
344.804	744.06
345.031	751.06
345.259	738.06
345.487	719.06
345.714	723.06
345.942	710.06
346.17	676.06
346.397	721.06
346.625	681.06
346.853	683.06
347.08	710.06
347.308	695.06
347.535	699.06
347.763	723.06
347.99	728.06
348.218	727.06
348.445	712.06
348.673	697.06
348.9	680.06
349.128	682.06
349.355	693.06
349.583	666.06
349.81	671.06
350.037	672.06
350.265	669.06
350.492	692.06
350.72	669.06
350.947	661.06
351.174	658.06
351.402	664.06
351.629	652.06
351.856	668.06
352.083	673.06
352.311	652.06
352.538	665.06
352.765	672.06
352.992	637.06
353.22	667.06
353.447	665.06
353.674	642.06
353.901	639.06
354.128	688.06
354.355	645.06
354.583	674.06
354.81	674.06
355.037	675.06
355.264	671.06
355.491	670.06
355.718	661.06
355.945	691.06
356.172	654.06
356.399	691.06
356.626	651.06
356.853	679.06
357.08	684.06
357.307	653.06
357.534	668.06
357.761	651.06
357.988	684.06
358.215	651.06
358.441	679.06
358.668	652.06
358.895	657.06
359.122	645.06
359.349	669.06
359.576	675.06
359.802	694.06
360.029	680.06
360.256	671.06
360.483	659.06
360.709	669.06
360.936	674.06
361.163	661.06
361.39	670.06
361.616	663.06
361.843	654.06
362.07	663.06
362.296	676.06
362.523	669.06
362.749	676.06
362.976	662.06
363.203	639.06
363.429	661.06
363.656	647.06
363.882	673.06
364.109	665.06
364.335	637.06
364.562	650.06
364.788	674.06
365.015	665.06
365.241	647.06
365.468	685.06
365.694	667.06
365.92	675.06
366.147	663.06
366.373	660.06
366.599	673.06
366.826	657.06
367.052	683.06
367.278	655.06
367.505	677.06
367.731	675.06
367.957	654.06
368.184	661.06
368.41	661.06
368.636	679.06
368.862	653.06
369.089	673.06
369.315	680.06
369.541	680.06
369.767	671.06
369.993	702.06
370.219	706.06
370.445	709.06
370.672	702.06
370.898	704.06
371.124	725.06
371.35	737.06
371.576	716.06
371.802	735.06
372.028	737.06
372.254	725.06
372.48	729.06
372.706	719.06
372.932	745.06
373.158	747.06
373.384	736.06
373.61	710.06
373.835	731.06
374.061	735.06
374.287	736.06
374.513	739.06
374.739	761.06
374.965	797.06
375.191	805.06
375.416	824.06
375.642	791.06
375.868	781.06
376.094	791.06
376.319	717.06
376.545	737.06
376.771	700.06
376.997	720.06
377.222	757.06
377.448	729.06
377.674	701.06
377.899	714.06
378.125	726.06
378.35	707.06
378.576	712.06
378.802	727.06
379.027	715.06
379.253	709.06
379.478	707.06
379.704	714.06
379.929	736.06
380.155	717.06
380.38	722.06
380.606	713.06
380.831	701.06
381.057	721.06
381.282	713.06
381.507	711.06
381.733	734.06
381.958	717.06
382.184	734.06
382.409	755.06
382.634	762.06
382.86	768.06
383.085	790.06
383.31	768.06
383.535	803.06
383.761	823.06
383.986	835.06
384.211	847.06
384.436	866.06
384.662	857.06
384.887	877.06
385.112	874.06
385.337	898.06
385.562	897.06
385.787	883.06
386.013	875.06
386.238	872.06
386.463	909.06
386.688	911.06
386.913	856.06
387.138	886.06
387.363	867.06
387.588	858.06
387.813	861.06
388.038	823.06
388.263	862.06
388.488	888.06
388.713	878.06
388.938	857.06
389.163	835.06
389.387	846.06
389.612	838.06
389.837	849.06
390.062	844.06
390.287	858.06
390.512	829.06
390.736	866.06
390.961	846.06
391.186	890.06
391.411	904.06
391.636	949.06
391.86	973.06
392.085	989.06
392.31	1027.06
392.534	968.06
392.759	925.06
392.984	897.06
393.208	921.06
393.433	934.06
393.658	949.06
393.882	945.06
394.107	912.06
394.331	906.06
394.556	929.06
394.78	939.06
395.005	936.06
395.229	938.06
395.454	975.06
395.678	991.06
395.903	987.06
396.127	956.06
396.352	925.06
396.576	915.06
396.801	912.06
397.025	898.06
397.249	954.06
397.474	962.06
397.698	981.06
397.922	966.06
398.147	951.06
398.371	981.06
398.595	993.06
398.82	1062.06
399.044	1127.06
399.268	1230.06
399.492	1477.06
399.717	1693.06
399.941	1754.06
400.165	1484.06
400.389	1318.06
400.613	1210.06
400.837	1115.06
401.062	1096.06
401.286	1090.06
401.51	1096.06
401.734	1079.06
401.958	1093.06
402.182	1123.06
402.406	1117.06
402.63	1162.06
402.854	1182.06
403.078	1176.06
403.302	1223.06
403.526	1241.06
403.75	1274.06
403.974	1305.06
404.198	1297.06
404.422	1316.06
404.645	1289.06
404.869	1298.06
405.093	1224.06
405.317	1186.06
405.541	1217.06
405.765	1225.06
405.988	1200.06
406.212	1211.06
406.436	1189.06
406.66	1228.06
406.883	1207.06
407.107	1334.06
407.331	1401.06
407.555	1451.06
407.778	1447.06
408.002	1393.06
408.226	1337.06
408.449	1309.06
408.673	1245.06
408.896	1254.06
409.12	1235.06
409.344	1246.06
409.567	1280.06
409.791	1305.06
410.014	1260.06
410.238	1265.06
410.461	1234.06
410.685	1229.06
410.908	1215.06
411.132	1185.06
411.355	1125.06
411.578	1145.06
411.802	1115.06
412.025	1146.06
412.249	1165.06
412.472	1163.06
412.695	1109.06
412.919	1051.06
413.142	1073.06
413.365	1071.06
413.589	1067.06
413.812	1047.06
414.035	1062.06
414.258	1065.06
414.482	1121.06
414.705	1149.06
414.928	1125.06
415.151	1096.06
415.374	1086.06
415.597	1093.06
415.821	1043.06
416.044	1054.06
416.267	1045.06
416.49	1083.06
416.713	1058.06
416.936	1066.06
417.159	1077.06
417.382	1065.06
417.605	1063.06
417.828	1079.06
418.051	1113.06
418.274	1077.06
418.497	1055.06
418.72	1139.06
418.943	1131.06
419.166	1169.06
419.389	1258.06
419.611	1261.06
419.834	1169.06
420.057	1141.06
420.28	1133.06
420.503	1087.06
420.726	1060.06
420.948	1061.06
421.171	1055.06
421.394	1090.06
421.617	1065.06
421.839	1093.06
422.062	1087.06
422.285	1088.06
422.507	1121.06
422.73	1110.06
422.953	1120.06
423.175	1152.06
423.398	1186.06
423.621	1173.06
423.843	1173.06
424.066	1191.06
424.288	1166.06
424.511	1147.06
424.733	1157.06
424.956	1107.06
425.178	1124.06
425.401	1078.06
425.623	1102.06
425.846	1043.06
426.068	1070.06
426.291	1020.06
426.513	1032.06
426.735	1006.06
426.958	1045.06
427.18	965.06
427.402	1006.06
427.625	983.06
427.847	969.06
428.069	959.06
428.292	980.06
428.514	986.06
428.736	961.06
428.958	964.06
429.181	945.06
429.403	927.06
429.625	943.06
429.847	938.06
430.069	930.06
430.292	943.06
430.514	942.06
430.736	951.06
430.958	931.06
431.18	943.06
431.402	940.06
431.624	927.06
431.846	949.06
432.068	966.06
432.29	1006.06
432.512	937.06
432.734	933.06
432.956	970.06
433.178	973.06
433.4	966.06
433.622	962.06
433.844	969.06
434.066	966.06
434.287	962.06
434.509	1015.06
434.731	1051.06
434.953	1054.06
435.175	1122.06
435.397	1079.06
435.618	1027.06
435.84	1010.06
436.062	958.06
436.284	984.06
436.505	967.06
436.727	985.06
436.949	961.06
437.17	989.06
437.392	953.06
437.614	950.06
437.835	925.06
438.057	925.06
438.278	914.06
438.5	926.06
438.721	919.06
438.943	936.06
439.165	936.06
439.386	951.06
439.608	962.06
439.829	960.06
440.05	945.06
440.272	963.06
440.493	948.06
440.715	995.06
440.936	984.06
441.158	1039.06
441.379	1031.06
441.6	1109.06
441.822	1155.06
442.043	1084.06
442.264	1095.06
442.486	1079.06
442.707	1076.06
442.928	1090.06
443.149	1094.06
443.371	1069.06
443.592	1098.06
443.813	1093.06
444.034	1098.06
444.255	1175.06
444.476	1166.06
444.698	1259.06
444.919	1355.06
445.14	1424.06
445.361	1239.06
445.582	1148.06
445.803	1075.06
446.024	1023.06
446.245	1009.06
446.466	1013.06
446.687	984.06
446.908	973.06
447.129	961.06
447.35	952.06
447.571	941.06
447.792	916.06
448.013	918.06
448.234	934.06
448.455	893.06
448.675	894.06
448.896	872.06
449.117	871.06
449.338	881.06
449.559	875.06
449.779	865.06
450	862.06
450.221	896.06
450.442	901.06
450.662	906.06
450.883	901.06
451.104	943.06
451.324	930.06
451.545	923.06
451.766	925.06
451.986	885.06
452.207	899.06
452.428	899.06
452.648	923.06
452.869	898.06
453.089	897.06
453.31	879.06
453.53	898.06
453.751	878.06
453.971	891.06
454.192	871.06
454.412	869.06
454.633	830.06
454.853	858.06
455.073	845.06
455.294	852.06
455.514	870.06
455.734	857.06
455.955	831.06
456.175	850.06
456.395	826.06
456.616	811.06
456.836	803.06
457.056	823.06
457.276	847.06
457.497	819.06
457.717	847.06
457.937	828.06
458.157	838.06
458.377	852.06
458.598	905.06
458.818	891.06
459.038	931.06
459.258	957.06
459.478	961.06
459.698	1012.06
459.918	1039.06
460.138	1090.06
460.358	1145.06
460.578	1159.06
460.798	1190.06
461.018	1168.06
461.238	1175.06
461.458	1138.06
461.678	1124.06
461.898	1134.06
462.118	1166.06
462.338	1209.06
462.558	1247.06
462.777	1285.06
462.997	1409.06
463.217	1610.06
463.437	1653.06
463.657	1485.06
463.876	1371.06
464.096	1363.06
464.316	1390.06
464.536	1427.06
464.755	1327.06
464.975	1233.06
465.195	1193.06
465.414	1158.06
465.634	1047.06
465.854	1047.06
466.073	1010.06
466.293	994.06
466.512	968.06
466.732	941.06
466.951	944.06
467.171	934.06
467.391	952.06
467.61	946.06
467.829	949.06
468.049	931.06
468.268	919.06
468.488	925.06
468.707	909.06
468.927	862.06
469.146	860.06
469.365	885.06
469.585	912.06
469.804	934.06
470.023	955.06
470.243	947.06
470.462	968.06
470.681	968.06
470.901	954.06
471.12	978.06
471.339	962.06
471.558	919.06
471.777	896.06
471.997	920.06
472.216	892.06
472.435	867.06
472.654	872.06
472.873	899.06
473.092	862.06
473.311	851.06
473.53	852.06
473.749	871.06
473.968	886.06
474.187	856.06
474.406	861.06
474.625	875.06
474.844	866.06
475.063	861.06
475.282	880.06
475.501	918.06
475.72	905.06
475.939	899.06
476.158	907.06
476.377	909.06
476.596	908.06
476.814	914.06
477.033	925.06
477.252	933.06
477.471	965.06
477.69	986.06
477.908	1020.06
478.127	1037.06
478.346	1063.06
478.564	1042.06
478.783	1066.06
479.002	1095.06
479.22	1111.06
479.439	1087.06
479.658	1087.06
479.876	1094.06
480.095	1097.06
480.313	1150.06
480.532	1189.06
480.751	1208.06
480.969	1133.06
481.188	1103.06
481.406	1068.06
481.624	1014.06
481.843	1019.06
482.061	997.06
482.28	966.06
482.498	988.06
482.717	974.06
482.935	991.06
483.153	980.06
483.372	993.06
483.59	999.06
483.808	979.06
484.027	979.06
484.245	994.06
484.463	985.06
484.681	1004.06
484.9	1029.06
485.118	1036.06
485.336	1020.06
485.554	1040.06
485.772	1038.06
485.99	1067.06
486.209	1047.06
486.427	1078.06
486.645	1069.06
486.863	1081.06
487.081	1046.06
487.299	1057.06
487.517	1056.06
487.735	1040.06
487.953	1062.06
488.171	1033.06
488.389	1059.06
488.607	1039.06
488.825	1016.06
489.043	1017.06
489.261	1052.06
489.479	1037.06
489.696	1029.06
489.914	1046.06
490.132	1031.06
490.35	1039.06
490.568	1056.06
490.786	1051.06
491.003	1062.06
491.221	1010.06
491.439	1067.06
491.657	1051.06
491.874	1064.06
492.092	1059.06
492.31	1031.06
492.527	1060.06
492.745	1051.06
492.963	1057.06
493.18	1061.06
493.398	1084.06
493.615	1111.06
493.833	1059.06
494.05	1100.06
494.268	1118.06
494.485	1121.06
494.703	1106.06
494.92	1104.06
495.138	1099.06
495.355	1106.06
495.573	1143.06
495.79	1087.06
496.008	1113.06
496.225	1102.06
496.442	1112.06
496.66	1137.06
496.877	1135.06
497.094	1157.06
497.312	1176.06
497.529	1207.06
497.746	1229.06
497.963	1248.06
