Data from Ni(NO3)2@0.0625M.TitratingCurve.Agarose3%dH2O.NegLispCup.LampEnergy10.LIBS07252019_HRD10591_18-16-09-569.txt Node
Date: Thu Jul 25 18:16:09 EDT 2019
User: cochatt
Spectrometer: HR+D1059
Trigger mode: 1
Integration Time (sec): 1.000000E-1
Scans to average: 1
Electric dark correction enabled: true
Nonlinearity correction enabled: false
Boxcar width: 0
XAxis mode: Wavelengths
Number of Pixels in Spectrum: 2048
>>>>>Begin Spectral Data<<<<<
223.165	-21.06
223.4	-21.06
223.635	-21.06
223.869	-15.06
224.104	-25.06
224.338	-24.06
224.573	-3.06
224.808	-9.06
225.042	-6.06
225.277	-10.06
225.511	1.94
225.746	5.94
225.98	6.94
226.215	5.94
226.449	12.94
226.683	22.94
226.918	21.94
227.152	34.94
227.387	35.94
227.621	32.94
227.856	35.94
228.09	35.94
228.324	44.94
228.559	51.94
228.793	72.94
229.027	96.94
229.262	95.94
229.496	117.94
229.73	95.94
229.964	99.94
230.199	106.94
230.433	109.94
230.667	111.94
230.901	117.94
231.136	105.94
231.37	126.94
231.604	125.94
231.838	122.94
232.072	125.94
232.306	110.94
232.541	122.94
232.775	117.94
233.009	118.94
233.243	107.94
233.477	135.94
233.711	121.94
233.945	122.94
234.179	141.94
234.413	138.94
234.647	129.94
234.881	125.94
235.115	123.94
235.349	140.94
235.583	127.94
235.817	119.94
236.051	127.94
236.285	131.94
236.519	128.94
236.753	139.94
236.987	135.94
237.221	129.94
237.455	148.94
237.689	125.94
237.922	135.94
238.156	135.94
238.39	134.94
238.624	138.94
238.858	125.94
239.091	143.94
239.325	129.94
239.559	138.94
239.793	136.94
240.027	145.94
240.26	151.94
240.494	137.94
240.728	139.94
240.961	138.94
241.195	134.94
241.429	159.94
241.662	146.94
241.896	137.94
242.13	147.94
242.363	144.94
242.597	152.94
242.83	153.94
243.064	154.94
243.298	176.94
243.531	156.94
243.765	179.94
243.998	175.94
244.232	160.94
244.465	163.94
244.699	185.94
244.932	167.94
245.166	159.94
245.399	175.94
245.633	163.94
245.866	169.94
246.099	191.94
246.333	193.94
246.566	171.94
246.8	175.94
247.033	179.94
247.266	176.94
247.5	179.94
247.733	181.94
247.966	184.94
248.2	187.94
248.433	197.94
248.666	177.94
248.899	187.94
249.133	200.94
249.366	189.94
249.599	188.94
249.832	196.94
250.066	179.94
250.299	199.94
250.532	196.94
250.765	184.94
250.998	208.94
251.231	194.94
251.465	188.94
251.698	208.94
251.931	204.94
252.164	198.94
252.397	202.94
252.63	210.94
252.863	211.94
253.096	212.94
253.329	201.94
253.562	221.94
253.795	201.94
254.028	215.94
254.261	207.94
254.494	211.94
254.727	193.94
254.96	205.94
255.193	211.94
255.426	214.94
255.659	187.94
255.892	215.94
256.124	206.94
256.357	218.94
256.59	220.94
256.823	213.94
257.056	222.94
257.289	214.94
257.521	226.94
257.754	227.94
257.987	222.94
258.22	230.94
258.452	211.94
258.685	228.94
258.918	224.94
259.151	235.94
259.383	218.94
259.616	242.94
259.849	224.94
260.081	244.94
260.314	228.94
260.547	231.94
260.779	241.94
261.012	240.94
261.244	255.94
261.477	243.94
261.71	244.94
261.942	238.94
262.175	260.94
262.407	233.94
262.64	265.94
262.872	255.94
263.105	242.94
263.337	245.94
263.57	251.94
263.802	253.94
264.035	249.94
264.267	263.94
264.499	266.94
264.732	263.94
264.964	246.94
265.197	268.94
265.429	264.94
265.661	263.94
265.894	265.94
266.126	258.94
266.358	265.94
266.591	253.94
266.823	263.94
267.055	283.94
267.287	274.94
267.52	273.94
267.752	242.94
267.984	273.94
268.216	277.94
268.448	257.94
268.681	267.94
268.913	275.94
269.145	285.94
269.377	282.94
269.609	264.94
269.841	266.94
270.073	291.94
270.306	286.94
270.538	287.94
270.77	288.94
271.002	272.94
271.234	307.94
271.466	295.94
271.698	284.94
271.93	290.94
272.162	273.94
272.394	303.94
272.626	286.94
272.858	295.94
273.09	281.94
273.322	298.94
273.553	297.94
273.785	294.94
274.017	290.94
274.249	291.94
274.481	303.94
274.713	298.94
274.945	304.94
275.176	310.94
275.408	303.94
275.64	303.94
275.872	297.94
276.104	312.94
276.335	305.94
276.567	302.94
276.799	312.94
277.031	289.94
277.262	303.94
277.494	312.94
277.726	282.94
277.957	323.94
278.189	311.94
278.421	312.94
278.652	305.94
278.884	321.94
279.115	328.94
279.347	342.94
279.579	322.94
279.81	315.94
280.042	341.94
280.273	308.94
280.505	312.94
280.736	345.94
280.968	327.94
281.199	324.94
281.431	337.94
281.662	328.94
281.894	333.94
282.125	334.94
282.356	334.94
282.588	324.94
282.819	334.94
283.051	355.94
283.282	346.94
283.513	351.94
283.745	346.94
283.976	329.94
284.207	354.94
284.439	350.94
284.67	344.94
284.901	350.94
285.132	357.94
285.364	351.94
285.595	356.94
285.826	343.94
286.057	352.94
286.288	349.94
286.52	349.94
286.751	338.94
286.982	357.94
287.213	354.94
287.444	359.94
287.675	383.94
287.906	384.94
288.138	367.94
288.369	378.94
288.6	390.94
288.831	369.94
289.062	372.94
289.293	357.94
289.524	383.94
289.755	364.94
289.986	351.94
290.217	360.94
290.448	383.94
290.679	387.94
290.91	385.94
291.141	373.94
291.371	371.94
291.602	372.94
291.833	377.94
292.064	388.94
292.295	381.94
292.526	381.94
292.757	410.94
292.987	384.94
293.218	379.94
293.449	404.94
293.68	374.94
293.91	380.94
294.141	376.94
294.372	379.94
294.603	368.94
294.833	413.94
295.064	380.94
295.295	403.94
295.525	403.94
295.756	392.94
295.987	396.94
296.217	408.94
296.448	386.94
296.679	375.94
296.909	386.94
297.14	389.94
297.37	401.94
297.601	422.94
297.831	420.94
298.062	427.94
298.292	428.94
298.523	404.94
298.753	424.94
298.984	453.94
299.214	419.94
299.445	388.94
299.675	412.94
299.905	441.94
300.136	432.94
300.366	409.94
300.597	429.94
300.827	433.94
301.057	445.94
301.288	449.94
301.518	467.94
301.748	450.94
301.979	431.94
302.209	451.94
302.439	452.94
302.669	442.94
302.9	416.94
303.13	433.94
303.36	419.94
303.59	434.94
303.82	429.94
304.051	427.94
304.281	428.94
304.511	434.94
304.741	421.94
304.971	443.94
305.201	424.94
305.431	439.94
305.661	455.94
305.891	436.94
306.121	444.94
306.352	447.94
306.582	435.94
306.812	380.94
307.042	435.94
307.272	427.94
307.502	410.94
307.731	426.94
307.961	433.94
308.191	433.94
308.421	433.94
308.651	421.94
308.881	412.94
309.111	446.94
309.341	439.94
309.571	436.94
309.8	431.94
310.03	422.94
310.26	439.94
310.49	402.94
310.72	407.94
310.949	409.94
311.179	420.94
311.409	440.94
311.639	422.94
311.868	417.94
312.098	423.94
312.328	441.94
312.557	439.94
312.787	446.94
313.017	449.94
313.246	459.94
313.476	445.94
313.706	469.94
313.935	461.94
314.165	446.94
314.394	458.94
314.624	449.94
314.853	445.94
315.083	461.94
315.312	448.94
315.542	465.94
315.771	454.94
316.001	452.94
316.23	433.94
316.46	427.94
316.689	444.94
316.919	453.94
317.148	431.94
317.377	457.94
317.607	444.94
317.836	431.94
318.065	425.94
318.295	440.94
318.524	437.94
318.753	445.94
318.983	434.94
319.212	436.94
319.441	449.94
319.67	445.94
319.9	458.94
320.129	437.94
320.358	448.94
320.587	444.94
320.816	443.94
321.046	466.94
321.275	445.94
321.504	466.94
321.733	461.94
321.962	452.94
322.191	458.94
322.42	456.94
322.649	445.94
322.878	442.94
323.108	443.94
323.337	459.94
323.566	451.94
323.795	462.94
324.024	464.94
324.253	462.94
324.482	463.94
324.71	471.94
324.939	470.94
325.168	448.94
325.397	463.94
325.626	473.94
325.855	481.94
326.084	505.94
326.313	506.94
326.542	492.94
326.77	493.94
326.999	509.94
327.228	487.94
327.457	497.94
327.686	469.94
327.914	488.94
328.143	490.94
328.372	476.94
328.6	516.94
328.829	509.94
329.058	491.94
329.287	477.94
329.515	490.94
329.744	488.94
329.972	510.94
330.201	509.94
330.43	504.94
330.658	496.94
330.887	504.94
331.115	496.94
331.344	509.94
331.572	525.94
331.801	539.94
332.03	553.94
332.258	575.94
332.486	579.94
332.715	577.94
332.943	581.94
333.172	659.94
333.4	645.94
333.629	683.94
333.857	643.94
334.085	669.94
334.314	635.94
334.542	612.94
334.771	657.94
334.999	600.94
335.227	603.94
335.455	614.94
335.684	611.94
335.912	590.94
336.14	589.94
336.369	590.94
336.597	599.94
336.825	583.94
337.053	584.94
337.281	588.94
337.51	578.94
337.738	574.94
337.966	560.94
338.194	547.94
338.422	525.94
338.65	553.94
338.878	529.94
339.106	519.94
339.334	542.94
339.562	519.94
339.79	508.94
340.018	521.94
340.246	530.94
340.474	508.94
340.702	510.94
340.93	520.94
341.158	523.94
341.386	510.94
341.614	523.94
341.842	512.94
342.07	514.94
342.298	531.94
342.526	515.94
342.754	512.94
342.981	515.94
343.209	522.94
343.437	544.94
343.665	595.94
343.893	645.94
344.12	643.94
344.348	617.94
344.576	593.94
344.804	570.94
345.031	542.94
345.259	553.94
345.487	507.94
345.714	519.94
345.942	512.94
346.17	524.94
346.397	543.94
346.625	513.94
346.853	495.94
347.08	478.94
347.308	511.94
347.535	531.94
347.763	535.94
347.99	524.94
348.218	524.94
348.445	529.94
348.673	517.94
348.9	543.94
349.128	515.94
349.355	517.94
349.583	522.94
349.81	482.94
350.037	491.94
350.265	499.94
350.492	503.94
350.72	482.94
350.947	491.94
351.174	497.94
351.402	475.94
351.629	497.94
351.856	495.94
352.083	508.94
352.311	496.94
352.538	493.94
352.765	489.94
352.992	488.94
353.22	495.94
353.447	477.94
353.674	480.94
353.901	497.94
354.128	476.94
354.355	481.94
354.583	488.94
354.81	481.94
355.037	480.94
355.264	499.94
355.491	503.94
355.718	464.94
355.945	496.94
356.172	481.94
356.399	490.94
356.626	503.94
356.853	495.94
357.08	503.94
357.307	492.94
357.534	481.94
357.761	484.94
357.988	495.94
358.215	497.94
358.441	486.94
358.668	483.94
358.895	488.94
359.122	475.94
359.349	482.94
359.576	488.94
359.802	514.94
360.029	479.94
360.256	499.94
360.483	471.94
360.709	491.94
360.936	467.94
361.163	490.94
361.39	504.94
361.616	501.94
361.843	489.94
362.07	501.94
362.296	496.94
362.523	488.94
362.749	471.94
362.976	470.94
363.203	487.94
363.429	499.94
363.656	501.94
363.882	490.94
364.109	481.94
364.335	499.94
364.562	497.94
364.788	490.94
365.015	473.94
365.241	485.94
365.468	475.94
365.694	467.94
365.92	463.94
366.147	463.94
366.373	466.94
366.599	488.94
366.826	500.94
367.052	475.94
367.278	483.94
367.505	495.94
367.731	500.94
367.957	491.94
368.184	499.94
368.41	498.94
368.636	477.94
368.862	516.94
369.089	514.94
369.315	516.94
369.541	515.94
369.767	514.94
369.993	507.94
370.219	501.94
370.445	520.94
370.672	499.94
370.898	524.94
371.124	526.94
371.35	544.94
371.576	520.94
371.802	512.94
372.028	532.94
372.254	551.94
372.48	518.94
372.706	535.94
372.932	569.94
373.158	549.94
373.384	563.94
373.61	528.94
373.835	543.94
374.061	532.94
374.287	551.94
374.513	572.94
374.739	559.94
374.965	575.94
375.191	582.94
375.416	608.94
375.642	603.94
375.868	571.94
376.094	549.94
376.319	553.94
376.545	537.94
376.771	533.94
376.997	541.94
377.222	554.94
377.448	551.94
377.674	539.94
377.899	513.94
378.125	521.94
378.35	525.94
378.576	517.94
378.802	523.94
379.027	523.94
379.253	548.94
379.478	506.94
379.704	533.94
379.929	530.94
380.155	524.94
380.38	532.94
380.606	547.94
380.831	536.94
381.057	540.94
381.282	536.94
381.507	551.94
381.733	546.94
381.958	545.94
382.184	539.94
382.409	537.94
382.634	546.94
382.86	568.94
383.085	591.94
383.31	584.94
383.535	603.94
383.761	589.94
383.986	554.94
384.211	604.94
384.436	618.94
384.662	632.94
384.887	645.94
385.112	641.94
385.337	665.94
385.562	645.94
385.787	656.94
386.013	653.94
386.238	629.94
386.463	628.94
386.688	656.94
386.913	635.94
387.138	625.94
387.363	641.94
387.588	623.94
387.813	611.94
388.038	620.94
388.263	647.94
388.488	643.94
388.713	635.94
388.938	608.94
389.163	607.94
389.387	600.94
389.612	621.94
389.837	618.94
390.062	627.94
390.287	608.94
390.512	618.94
390.736	643.94
390.961	655.94
391.186	648.94
391.411	678.94
391.636	683.94
391.86	693.94
392.085	727.94
392.31	729.94
392.534	680.94
392.759	680.94
392.984	688.94
393.208	658.94
393.433	670.94
393.658	684.94
393.882	682.94
394.107	692.94
394.331	703.94
394.556	673.94
394.78	670.94
395.005	664.94
395.229	688.94
395.454	687.94
395.678	735.94
395.903	719.94
396.127	715.94
396.352	680.94
396.576	664.94
396.801	625.94
397.025	634.94
397.249	687.94
397.474	709.94
397.698	683.94
397.922	728.94
398.147	691.94
398.371	731.94
398.595	731.94
398.82	762.94
399.044	851.94
399.268	888.94
399.492	1065.94
399.717	1263.94
399.941	1217.94
400.165	1079.94
400.389	931.94
400.613	882.94
400.837	832.94
401.062	777.94
401.286	788.94
401.51	803.94
401.734	791.94
401.958	805.94
402.182	844.94
402.406	803.94
402.63	827.94
402.854	865.94
403.078	884.94
403.302	886.94
403.526	883.94
403.75	929.94
403.974	927.94
404.198	938.94
404.422	953.94
404.645	953.94
404.869	914.94
405.093	917.94
405.317	892.94
405.541	908.94
405.765	887.94
405.988	907.94
406.212	871.94
406.436	881.94
406.66	874.94
406.883	895.94
407.107	957.94
407.331	991.94
407.555	1049.94
407.778	1024.94
408.002	984.94
408.226	988.94
408.449	951.94
408.673	911.94
408.896	929.94
409.12	924.94
409.344	919.94
409.567	911.94
409.791	946.94
410.014	926.94
410.238	923.94
410.461	896.94
410.685	896.94
410.908	864.94
411.132	852.94
411.355	817.94
411.578	805.94
411.802	829.94
412.025	824.94
412.249	835.94
412.472	854.94
412.695	812.94
412.919	785.94
413.142	811.94
413.365	807.94
413.589	786.94
413.812	783.94
414.035	788.94
414.258	801.94
414.482	824.94
414.705	818.94
414.928	804.94
415.151	799.94
415.374	795.94
415.597	779.94
415.821	801.94
416.044	779.94
416.267	759.94
416.49	775.94
416.713	779.94
416.936	800.94
417.159	748.94
417.382	781.94
417.605	765.94
417.828	785.94
418.051	805.94
418.274	825.94
418.497	787.94
418.72	809.94
418.943	804.94
419.166	878.94
419.389	908.94
419.611	873.94
419.834	835.94
420.057	820.94
420.28	801.94
420.503	805.94
420.726	773.94
420.948	784.94
421.171	789.94
421.394	760.94
421.617	761.94
421.839	787.94
422.062	787.94
422.285	777.94
422.507	802.94
422.73	827.94
422.953	827.94
423.175	813.94
423.398	838.94
423.621	836.94
423.843	855.94
424.066	858.94
424.288	842.94
424.511	818.94
424.733	815.94
424.956	808.94
425.178	819.94
425.401	780.94
425.623	794.94
425.846	817.94
426.068	767.94
426.291	745.94
426.513	742.94
426.735	747.94
426.958	758.94
427.18	732.94
427.402	741.94
427.625	716.94
427.847	724.94
428.069	720.94
428.292	724.94
428.514	714.94
428.736	691.94
428.958	723.94
429.181	691.94
429.403	691.94
429.625	703.94
429.847	670.94
430.069	698.94
430.292	670.94
430.514	679.94
430.736	681.94
430.958	673.94
431.18	674.94
431.402	667.94
431.624	674.94
431.846	707.94
432.068	718.94
432.29	714.94
432.512	689.94
432.734	686.94
432.956	698.94
433.178	720.94
433.4	699.94
433.622	715.94
433.844	733.94
434.066	713.94
434.287	703.94
434.509	741.94
434.731	768.94
434.953	793.94
435.175	797.94
435.397	803.94
435.618	757.94
435.84	746.94
436.062	716.94
436.284	729.94
436.505	709.94
436.727	723.94
436.949	704.94
437.17	687.94
437.392	683.94
437.614	695.94
437.835	696.94
438.057	692.94
438.278	671.94
438.5	685.94
438.721	668.94
438.943	692.94
439.165	670.94
439.386	691.94
439.608	711.94
439.829	703.94
440.05	712.94
440.272	699.94
440.493	717.94
440.715	746.94
440.936	754.94
441.158	722.94
441.379	755.94
441.6	801.94
441.822	804.94
442.043	825.94
442.264	793.94
442.486	783.94
442.707	817.94
442.928	796.94
443.149	784.94
443.371	783.94
443.592	797.94
443.813	820.94
444.034	803.94
444.255	832.94
444.476	891.94
444.698	929.94
444.919	993.94
445.14	1033.94
445.361	923.94
445.582	808.94
445.803	785.94
446.024	753.94
446.245	753.94
446.466	725.94
446.687	727.94
446.908	736.94
447.129	720.94
447.35	695.94
447.571	685.94
447.792	681.94
448.013	668.94
448.234	666.94
448.455	670.94
448.675	648.94
448.896	668.94
449.117	635.94
449.338	667.94
449.559	658.94
449.779	660.94
450	650.94
450.221	652.94
450.442	682.94
450.662	677.94
450.883	672.94
451.104	706.94
451.324	680.94
451.545	676.94
451.766	679.94
451.986	675.94
452.207	639.94
452.428	662.94
452.648	653.94
452.869	650.94
453.089	663.94
453.31	658.94
453.53	664.94
453.751	654.94
453.971	645.94
454.192	631.94
454.412	653.94
454.633	630.94
454.853	630.94
455.073	628.94
455.294	634.94
455.514	605.94
455.734	634.94
455.955	603.94
456.175	599.94
456.395	635.94
456.616	610.94
456.836	626.94
457.056	615.94
457.276	628.94
457.497	611.94
457.717	641.94
457.937	618.94
458.157	647.94
458.377	629.94
458.598	647.94
458.818	689.94
459.038	691.94
459.258	702.94
459.478	715.94
459.698	730.94
459.918	745.94
460.138	792.94
460.358	838.94
460.578	867.94
460.798	879.94
461.018	859.94
461.238	849.94
461.458	839.94
461.678	824.94
461.898	815.94
462.118	841.94
462.338	909.94
462.558	924.94
462.777	967.94
462.997	1051.94
463.217	1161.94
463.437	1169.94
463.657	1058.94
463.876	1018.94
464.096	1005.94
464.316	1023.94
464.536	1011.94
464.755	962.94
464.975	939.94
465.195	907.94
465.414	867.94
465.634	777.94
465.854	726.94
466.073	730.94
466.293	709.94
466.512	704.94
466.732	684.94
466.951	704.94
467.171	719.94
467.391	693.94
467.61	699.94
467.829	675.94
468.049	697.94
468.268	659.94
468.488	645.94
468.707	669.94
468.927	642.94
469.146	665.94
469.365	653.94
469.585	698.94
469.804	717.94
470.023	700.94
470.243	704.94
470.462	722.94
470.681	715.94
470.901	727.94
471.12	687.94
471.339	706.94
471.558	679.94
471.777	689.94
471.997	673.94
472.216	672.94
472.435	654.94
472.654	657.94
472.873	657.94
473.092	642.94
473.311	638.94
473.53	646.94
473.749	641.94
473.968	628.94
474.187	641.94
474.406	632.94
474.625	634.94
474.844	624.94
475.063	647.94
475.282	658.94
475.501	670.94
475.72	668.94
475.939	626.94
476.158	662.94
476.377	677.94
476.596	673.94
476.814	711.94
477.033	676.94
477.252	693.94
477.471	700.94
477.69	709.94
477.908	730.94
478.127	785.94
478.346	766.94
478.564	800.94
478.783	795.94
479.002	776.94
479.22	807.94
479.439	836.94
479.658	804.94
479.876	817.94
480.095	810.94
480.313	855.94
480.532	888.94
480.751	880.94
480.969	829.94
481.188	805.94
481.406	756.94
481.624	757.94
481.843	759.94
482.061	710.94
482.28	736.94
482.498	731.94
482.717	724.94
482.935	732.94
483.153	760.94
483.372	737.94
483.59	748.94
483.808	762.94
484.027	729.94
484.245	738.94
484.463	770.94
484.681	773.94
484.9	764.94
485.118	785.94
485.336	758.94
485.554	791.94
485.772	807.94
485.99	815.94
486.209	812.94
486.427	799.94
486.645	817.94
486.863	782.94
487.081	775.94
487.299	794.94
487.517	795.94
487.735	790.94
487.953	783.94
488.171	754.94
488.389	784.94
488.607	767.94
488.825	730.94
489.043	765.94
489.261	753.94
489.479	775.94
489.696	777.94
489.914	770.94
490.132	788.94
490.35	789.94
490.568	773.94
490.786	792.94
491.003	767.94
491.221	791.94
491.439	780.94
491.657	787.94
491.874	792.94
492.092	782.94
492.31	794.94
492.527	770.94
492.745	803.94
492.963	785.94
493.18	771.94
493.398	795.94
493.615	806.94
493.833	799.94
494.05	810.94
494.268	798.94
494.485	804.94
494.703	806.94
494.92	809.94
495.138	786.94
495.355	842.94
495.573	807.94
495.79	808.94
496.008	831.94
496.225	817.94
496.442	836.94
496.66	854.94
496.877	851.94
497.094	880.94
497.312	873.94
497.529	913.94
497.746	897.94
497.963	931.94
498.181	971.94
498.398	991.94
498.615	1048.94
498.832	1139.94
499.049	1241.94
499.267	1354.94
499.484	1535.94
499.701	1645.94
499.918	1797.94
500.135	2138.94
500.352	2443.94
500.569	2557.94
500.786	2528.94
501.003	2351.94
501.22	2083.94
