Data from Ni(NO3)2@0.25M.TitratingCurve.Agarose3%dH2O.NegLispCup.LampEnergy10.LIBS07252019_HRD10591_18-05-34-566.txt Node
Date: Thu Jul 25 18:05:34 EDT 2019
User: cochatt
Spectrometer: HR+D1059
Trigger mode: 1
Integration Time (sec): 1.000000E-1
Scans to average: 1
Electric dark correction enabled: true
Nonlinearity correction enabled: false
Boxcar width: 0
XAxis mode: Wavelengths
Number of Pixels in Spectrum: 2048
>>>>>Begin Spectral Data<<<<<
223.165	-25.44
223.4	-25.44
223.635	-25.44
223.869	-18.44
224.104	-26.44
224.338	-11.44
224.573	-10.44
224.808	-2.44
225.042	-11.44
225.277	-19.44
225.511	-1.44
225.746	-7.44
225.98	13.56
226.215	3.56
226.449	32.56
226.683	26.56
226.918	23.56
227.152	34.56
227.387	29.56
227.621	43.56
227.856	47.56
228.09	40.56
228.324	42.56
228.559	52.56
228.793	64.56
229.027	93.56
229.262	136.56
229.496	128.56
229.73	132.56
229.964	146.56
230.199	138.56
230.433	145.56
230.667	164.56
230.901	153.56
231.136	154.56
231.37	161.56
231.604	158.56
231.838	165.56
232.072	165.56
232.306	173.56
232.541	156.56
232.775	181.56
233.009	152.56
233.243	159.56
233.477	181.56
233.711	161.56
233.945	179.56
234.179	169.56
234.413	167.56
234.647	176.56
234.881	156.56
235.115	180.56
235.349	182.56
235.583	178.56
235.817	179.56
236.051	194.56
236.285	193.56
236.519	173.56
236.753	182.56
236.987	184.56
237.221	193.56
237.455	202.56
237.689	185.56
237.922	186.56
238.156	176.56
238.39	200.56
238.624	197.56
238.858	197.56
239.091	193.56
239.325	205.56
239.559	218.56
239.793	207.56
240.027	203.56
240.26	208.56
240.494	210.56
240.728	219.56
240.961	228.56
241.195	224.56
241.429	217.56
241.662	237.56
241.896	230.56
242.13	245.56
242.363	243.56
242.597	225.56
242.83	228.56
243.064	226.56
243.298	233.56
243.531	241.56
243.765	252.56
243.998	265.56
244.232	264.56
244.465	246.56
244.699	253.56
244.932	259.56
245.166	265.56
245.399	247.56
245.633	246.56
245.866	257.56
246.099	256.56
246.333	279.56
246.566	275.56
246.8	267.56
247.033	268.56
247.266	284.56
247.5	309.56
247.733	307.56
247.966	281.56
248.2	294.56
248.433	313.56
248.666	296.56
248.899	317.56
249.133	290.56
249.366	311.56
249.599	325.56
249.832	305.56
250.066	313.56
250.299	314.56
250.532	329.56
250.765	301.56
250.998	318.56
251.231	317.56
251.465	324.56
251.698	351.56
251.931	343.56
252.164	329.56
252.397	348.56
252.63	355.56
252.863	337.56
253.096	336.56
253.329	356.56
253.562	343.56
253.795	364.56
254.028	374.56
254.261	364.56
254.494	355.56
254.727	362.56
254.96	380.56
255.193	380.56
255.426	368.56
255.659	367.56
255.892	379.56
256.124	372.56
256.357	396.56
256.59	391.56
256.823	384.56
257.056	369.56
257.289	394.56
257.521	376.56
257.754	412.56
257.987	392.56
258.22	408.56
258.452	398.56
258.685	418.56
258.918	395.56
259.151	429.56
259.383	421.56
259.616	405.56
259.849	403.56
260.081	404.56
260.314	421.56
260.547	432.56
260.779	416.56
261.012	428.56
261.244	432.56
261.477	427.56
261.71	448.56
261.942	452.56
262.175	432.56
262.407	442.56
262.64	423.56
262.872	448.56
263.105	454.56
263.337	445.56
263.57	436.56
263.802	466.56
264.035	462.56
264.267	473.56
264.499	453.56
264.732	476.56
264.964	472.56
265.197	483.56
265.429	458.56
265.661	472.56
265.894	469.56
266.126	470.56
266.358	474.56
266.591	475.56
266.823	496.56
267.055	478.56
267.287	496.56
267.52	481.56
267.752	494.56
267.984	488.56
268.216	502.56
268.448	514.56
268.681	509.56
268.913	489.56
269.145	515.56
269.377	535.56
269.609	487.56
269.841	499.56
270.073	512.56
270.306	519.56
270.538	515.56
270.77	529.56
271.002	528.56
271.234	538.56
271.466	523.56
271.698	534.56
271.93	512.56
272.162	523.56
272.394	535.56
272.626	502.56
272.858	545.56
273.09	540.56
273.322	540.56
273.553	537.56
273.785	541.56
274.017	545.56
274.249	553.56
274.481	562.56
274.713	548.56
274.945	569.56
275.176	556.56
275.408	547.56
275.64	548.56
275.872	550.56
276.104	590.56
276.335	553.56
276.567	581.56
276.799	582.56
277.031	599.56
277.262	597.56
277.494	565.56
277.726	598.56
277.957	582.56
278.189	600.56
278.421	589.56
278.652	593.56
278.884	612.56
279.115	615.56
279.347	612.56
279.579	589.56
279.81	605.56
280.042	618.56
280.273	601.56
280.505	612.56
280.736	607.56
280.968	636.56
281.199	650.56
281.431	636.56
281.662	631.56
281.894	622.56
282.125	636.56
282.356	625.56
282.588	638.56
282.819	675.56
283.051	632.56
283.282	666.56
283.513	661.56
283.745	626.56
283.976	653.56
284.207	648.56
284.439	643.56
284.67	647.56
284.901	661.56
285.132	645.56
285.364	655.56
285.595	674.56
285.826	675.56
286.057	658.56
286.288	657.56
286.52	674.56
286.751	693.56
286.982	704.56
287.213	681.56
287.444	681.56
287.675	673.56
287.906	669.56
288.138	662.56
288.369	686.56
288.6	676.56
288.831	709.56
289.062	694.56
289.293	684.56
289.524	669.56
289.755	680.56
289.986	697.56
290.217	688.56
290.448	675.56
290.679	700.56
290.91	693.56
291.141	672.56
291.371	704.56
291.602	717.56
291.833	737.56
292.064	715.56
292.295	717.56
292.526	736.56
292.757	680.56
292.987	704.56
293.218	695.56
293.449	717.56
293.68	724.56
293.91	717.56
294.141	710.56
294.372	705.56
294.603	718.56
294.833	721.56
295.064	747.56
295.295	720.56
295.525	737.56
295.756	717.56
295.987	708.56
296.217	732.56
296.448	725.56
296.679	727.56
296.909	720.56
297.14	725.56
297.37	744.56
297.601	772.56
297.831	767.56
298.062	763.56
298.292	796.56
298.523	806.56
298.753	783.56
298.984	760.56
299.214	795.56
299.445	779.56
299.675	787.56
299.905	754.56
300.136	782.56
300.366	804.56
300.597	774.56
300.827	798.56
301.057	816.56
301.288	777.56
301.518	789.56
301.748	816.56
301.979	824.56
302.209	842.56
302.439	824.56
302.669	834.56
302.9	804.56
303.13	785.56
303.36	810.56
303.59	813.56
303.82	827.56
304.051	829.56
304.281	811.56
304.511	805.56
304.741	822.56
304.971	834.56
305.201	854.56
305.431	804.56
305.661	802.56
305.891	800.56
306.121	803.56
306.352	804.56
306.582	802.56
306.812	791.56
307.042	819.56
307.272	809.56
307.502	786.56
307.731	809.56
307.961	776.56
308.191	799.56
308.421	791.56
308.651	785.56
308.881	786.56
309.111	821.56
309.341	813.56
309.571	800.56
309.8	795.56
310.03	804.56
310.26	820.56
310.49	809.56
310.72	806.56
310.949	808.56
311.179	816.56
311.409	838.56
311.639	838.56
311.868	835.56
312.098	830.56
312.328	838.56
312.557	812.56
312.787	832.56
313.017	834.56
313.246	869.56
313.476	866.56
313.706	852.56
313.935	873.56
314.165	890.56
314.394	886.56
314.624	864.56
314.853	882.56
315.083	871.56
315.312	877.56
315.542	880.56
315.771	869.56
316.001	872.56
316.23	886.56
316.46	854.56
316.689	876.56
316.919	880.56
317.148	867.56
317.377	867.56
317.607	861.56
317.836	857.56
318.065	887.56
318.295	886.56
318.524	900.56
318.753	866.56
318.983	903.56
319.212	860.56
319.441	879.56
319.67	888.56
319.9	875.56
320.129	877.56
320.358	869.56
320.587	905.56
320.816	896.56
321.046	873.56
321.275	878.56
321.504	887.56
321.733	896.56
321.962	928.56
322.191	895.56
322.42	900.56
322.649	903.56
322.878	897.56
323.108	872.56
323.337	927.56
323.566	893.56
323.795	916.56
324.024	925.56
324.253	906.56
324.482	915.56
324.71	908.56
324.939	942.56
325.168	960.56
325.397	941.56
325.626	966.56
325.855	985.56
326.084	990.56
326.313	964.56
326.542	962.56
326.77	995.56
326.999	982.56
327.228	951.56
327.457	973.56
327.686	958.56
327.914	992.56
328.143	999.56
328.372	995.56
328.6	1017.56
328.829	1004.56
329.058	1009.56
329.287	986.56
329.515	1015.56
329.744	1008.56
329.972	1029.56
330.201	1032.56
330.43	1037.56
330.658	1030.56
330.887	1050.56
331.115	1074.56
331.344	1067.56
331.572	1081.56
331.801	1110.56
332.03	1130.56
332.258	1136.56
332.486	1144.56
332.715	1200.56
332.943	1208.56
333.172	1273.56
333.4	1303.56
333.629	1345.56
333.857	1331.56
334.085	1356.56
334.314	1359.56
334.542	1347.56
334.771	1330.56
334.999	1348.56
335.227	1326.56
335.455	1346.56
335.684	1299.56
335.912	1304.56
336.14	1277.56
336.369	1270.56
336.597	1275.56
336.825	1275.56
337.053	1275.56
337.281	1212.56
337.51	1234.56
337.738	1189.56
337.966	1166.56
338.194	1162.56
338.422	1142.56
338.65	1108.56
338.878	1144.56
339.106	1132.56
339.334	1141.56
339.562	1146.56
339.79	1116.56
340.018	1133.56
340.246	1112.56
340.474	1110.56
340.702	1088.56
340.93	1099.56
341.158	1067.56
341.386	1094.56
341.614	1126.56
341.842	1101.56
342.07	1068.56
342.298	1033.56
342.526	1071.56
342.754	1090.56
342.981	1089.56
343.209	1139.56
343.437	1133.56
343.665	1241.56
343.893	1266.56
344.12	1312.56
344.348	1292.56
344.576	1262.56
344.804	1176.56
345.031	1178.56
345.259	1118.56
345.487	1108.56
345.714	1113.56
345.942	1073.56
346.17	1084.56
346.397	1050.56
346.625	1047.56
346.853	1051.56
347.08	1027.56
347.308	1037.56
347.535	1045.56
347.763	1056.56
347.99	1067.56
348.218	1036.56
348.445	1022.56
348.673	1024.56
348.9	1009.56
349.128	1042.56
349.355	1056.56
349.583	992.56
349.81	1021.56
350.037	988.56
350.265	993.56
350.492	1000.56
350.72	1008.56
350.947	1003.56
351.174	1023.56
351.402	1007.56
351.629	990.56
351.856	978.56
352.083	1016.56
352.311	990.56
352.538	1024.56
352.765	1008.56
352.992	975.56
353.22	961.56
353.447	1001.56
353.674	962.56
353.901	998.56
354.128	981.56
354.355	963.56
354.583	1028.56
354.81	991.56
355.037	990.56
355.264	995.56
355.491	1002.56
355.718	967.56
355.945	979.56
356.172	993.56
356.399	1008.56
356.626	1022.56
356.853	1003.56
357.08	1001.56
357.307	1001.56
357.534	1005.56
357.761	1004.56
357.988	995.56
358.215	1016.56
358.441	1003.56
358.668	1000.56
358.895	984.56
359.122	992.56
359.349	1012.56
359.576	1018.56
359.802	1003.56
360.029	1022.56
360.256	1017.56
360.483	1021.56
360.709	993.56
360.936	995.56
361.163	984.56
361.39	964.56
361.616	1027.56
361.843	1006.56
362.07	1027.56
362.296	1015.56
362.523	982.56
362.749	1014.56
362.976	972.56
363.203	1023.56
363.429	994.56
363.656	993.56
363.882	991.56
364.109	993.56
364.335	988.56
364.562	971.56
364.788	987.56
365.015	953.56
365.241	968.56
365.468	1005.56
365.694	1012.56
365.92	986.56
366.147	980.56
366.373	1011.56
366.599	971.56
366.826	1008.56
367.052	980.56
367.278	1001.56
367.505	1020.56
367.731	998.56
367.957	981.56
368.184	1001.56
368.41	992.56
368.636	999.56
368.862	1001.56
369.089	1015.56
369.315	1017.56
369.541	999.56
369.767	1026.56
369.993	1028.56
370.219	1020.56
370.445	1038.56
370.672	1045.56
370.898	1045.56
371.124	1050.56
371.35	1067.56
371.576	1070.56
371.802	1076.56
372.028	1049.56
372.254	1056.56
372.48	1064.56
372.706	1104.56
372.932	1077.56
373.158	1089.56
373.384	1098.56
373.61	1083.56
373.835	1074.56
374.061	1080.56
374.287	1099.56
374.513	1113.56
374.739	1161.56
374.965	1174.56
375.191	1187.56
375.416	1123.56
375.642	1132.56
375.868	1137.56
376.094	1097.56
376.319	1122.56
376.545	1121.56
376.771	1086.56
376.997	1084.56
377.222	1085.56
377.448	1057.56
377.674	1054.56
377.899	1051.56
378.125	1063.56
378.35	1069.56
378.576	1045.56
378.802	1059.56
379.027	1045.56
379.253	1050.56
379.478	1004.56
379.704	1076.56
379.929	1039.56
380.155	1068.56
380.38	1107.56
380.606	1068.56
380.831	1045.56
381.057	1056.56
381.282	1036.56
381.507	1068.56
381.733	1078.56
381.958	1095.56
382.184	1096.56
382.409	1109.56
382.634	1119.56
382.86	1111.56
383.085	1117.56
383.31	1141.56
383.535	1162.56
383.761	1160.56
383.986	1182.56
384.211	1166.56
384.436	1235.56
384.662	1248.56
384.887	1248.56
385.112	1240.56
385.337	1261.56
385.562	1284.56
385.787	1280.56
386.013	1284.56
386.238	1299.56
386.463	1317.56
386.688	1323.56
386.913	1266.56
387.138	1299.56
387.363	1298.56
387.588	1249.56
387.813	1302.56
388.038	1312.56
388.263	1260.56
388.488	1330.56
388.713	1259.56
388.938	1284.56
389.163	1290.56
389.387	1286.56
389.612	1253.56
389.837	1276.56
390.062	1282.56
390.287	1277.56
390.512	1292.56
390.736	1295.56
390.961	1318.56
391.186	1344.56
391.411	1379.56
391.636	1435.56
391.86	1435.56
392.085	1461.56
392.31	1467.56
392.534	1441.56
392.759	1418.56
392.984	1442.56
393.208	1415.56
393.433	1354.56
393.658	1377.56
393.882	1407.56
394.107	1356.56
394.331	1402.56
394.556	1386.56
394.78	1400.56
395.005	1422.56
395.229	1411.56
395.454	1431.56
395.678	1437.56
395.903	1477.56
396.127	1450.56
396.352	1450.56
396.576	1415.56
396.801	1385.56
397.025	1426.56
397.249	1444.56
397.474	1504.56
397.698	1504.56
397.922	1523.56
398.147	1508.56
398.371	1538.56
398.595	1605.56
398.82	1662.56
399.044	1777.56
399.268	1990.56
399.492	2180.56
399.717	2295.56
399.941	2339.56
400.165	2189.56
400.389	2052.56
400.613	1918.56
400.837	1797.56
401.062	1768.56
401.286	1701.56
401.51	1705.56
401.734	1672.56
401.958	1691.56
402.182	1686.56
402.406	1665.56
402.63	1716.56
402.854	1736.56
403.078	1749.56
403.302	1777.56
403.526	1798.56
403.75	1799.56
403.974	1850.56
404.198	1807.56
404.422	1894.56
404.645	1826.56
404.869	1823.56
405.093	1848.56
405.317	1837.56
405.541	1848.56
405.765	1824.56
405.988	1825.56
406.212	1841.56
406.436	1818.56
406.66	1908.56
406.883	1894.56
407.107	1972.56
407.331	2061.56
407.555	2097.56
407.778	2153.56
408.002	2058.56
408.226	1979.56
408.449	2018.56
408.673	1880.56
408.896	1906.56
409.12	1834.56
409.344	1872.56
409.567	1818.56
409.791	1876.56
410.014	1843.56
410.238	1806.56
410.461	1856.56
410.685	1796.56
410.908	1787.56
411.132	1762.56
411.355	1717.56
411.578	1731.56
411.802	1698.56
412.025	1752.56
412.249	1768.56
412.472	1762.56
412.695	1690.56
412.919	1704.56
413.142	1691.56
413.365	1689.56
413.589	1685.56
413.812	1665.56
414.035	1687.56
414.258	1676.56
414.482	1687.56
414.705	1703.56
414.928	1676.56
415.151	1696.56
415.374	1670.56
415.597	1644.56
415.821	1602.56
416.044	1592.56
416.267	1636.56
416.49	1622.56
416.713	1623.56
416.936	1622.56
417.159	1609.56
417.382	1620.56
417.605	1592.56
417.828	1643.56
418.051	1621.56
418.274	1633.56
418.497	1684.56
418.72	1689.56
418.943	1672.56
419.166	1777.56
419.389	1913.56
419.611	1889.56
419.834	1796.56
420.057	1745.56
420.28	1664.56
420.503	1653.56
420.726	1627.56
420.948	1656.56
421.171	1623.56
421.394	1659.56
421.617	1648.56
421.839	1643.56
422.062	1624.56
422.285	1625.56
422.507	1668.56
422.73	1654.56
422.953	1643.56
423.175	1698.56
423.398	1699.56
423.621	1641.56
423.843	1717.56
424.066	1692.56
424.288	1657.56
424.511	1680.56
424.733	1676.56
424.956	1659.56
425.178	1643.56
425.401	1660.56
425.623	1636.56
425.846	1565.56
426.068	1601.56
426.291	1546.56
426.513	1590.56
426.735	1593.56
426.958	1587.56
427.18	1472.56
427.402	1540.56
427.625	1494.56
427.847	1477.56
428.069	1485.56
428.292	1517.56
428.514	1506.56
428.736	1506.56
428.958	1474.56
429.181	1428.56
429.403	1426.56
429.625	1421.56
429.847	1415.56
430.069	1431.56
430.292	1471.56
430.514	1413.56
430.736	1445.56
430.958	1401.56
431.18	1420.56
431.402	1429.56
431.624	1446.56
431.846	1474.56
432.068	1469.56
432.29	1508.56
432.512	1449.56
432.734	1490.56
432.956	1452.56
433.178	1488.56
433.4	1472.56
433.622	1466.56
433.844	1473.56
434.066	1500.56
434.287	1515.56
434.509	1574.56
434.731	1578.56
434.953	1638.56
435.175	1656.56
435.397	1650.56
435.618	1551.56
435.84	1545.56
436.062	1485.56
436.284	1452.56
436.505	1448.56
436.727	1439.56
436.949	1468.56
437.17	1442.56
437.392	1401.56
437.614	1416.56
437.835	1393.56
438.057	1397.56
438.278	1385.56
438.5	1388.56
438.721	1400.56
438.943	1436.56
439.165	1406.56
439.386	1428.56
439.608	1436.56
439.829	1435.56
440.05	1466.56
440.272	1443.56
440.493	1476.56
440.715	1520.56
440.936	1568.56
441.158	1544.56
441.379	1581.56
441.6	1599.56
441.822	1640.56
442.043	1637.56
442.264	1658.56
442.486	1584.56
442.707	1626.56
442.928	1619.56
443.149	1600.56
443.371	1588.56
443.592	1655.56
443.813	1656.56
444.034	1692.56
444.255	1697.56
444.476	1757.56
444.698	1858.56
444.919	1864.56
445.14	1989.56
445.361	1843.56
445.582	1744.56
445.803	1644.56
446.024	1596.56
446.245	1557.56
446.466	1563.56
446.687	1531.56
446.908	1501.56
447.129	1467.56
447.35	1453.56
447.571	1434.56
447.792	1402.56
448.013	1401.56
448.234	1387.56
448.455	1357.56
448.675	1325.56
448.896	1360.56
449.117	1326.56
449.338	1345.56
449.559	1299.56
449.779	1344.56
450	1355.56
450.221	1365.56
450.442	1377.56
450.662	1310.56
450.883	1378.56
451.104	1344.56
451.324	1371.56
451.545	1367.56
451.766	1306.56
451.986	1333.56
452.207	1317.56
452.428	1318.56
452.648	1302.56
452.869	1261.56
453.089	1273.56
453.31	1280.56
453.53	1267.56
453.751	1285.56
453.971	1276.56
454.192	1316.56
454.412	1264.56
454.633	1248.56
454.853	1289.56
455.073	1250.56
455.294	1237.56
455.514	1236.56
455.734	1270.56
455.955	1237.56
456.175	1232.56
456.395	1244.56
456.616	1232.56
456.836	1226.56
457.056	1225.56
457.276	1233.56
457.497	1248.56
457.717	1213.56
457.937	1238.56
458.157	1332.56
458.377	1271.56
458.598	1329.56
458.818	1357.56
459.038	1381.56
459.258	1475.56
459.478	1499.56
459.698	1517.56
459.918	1542.56
460.138	1626.56
460.358	1690.56
460.578	1722.56
460.798	1738.56
461.018	1765.56
461.238	1723.56
461.458	1721.56
461.678	1699.56
461.898	1802.56
462.118	1778.56
462.338	1875.56
462.558	1901.56
462.777	2014.56
462.997	2103.56
463.217	2228.56
463.437	2294.56
463.657	2122.56
463.876	2037.56
464.096	2033.56
464.316	2012.56
464.536	1988.56
464.755	1935.56
464.975	1887.56
465.195	1782.56
465.414	1683.56
465.634	1598.56
465.854	1559.56
466.073	1518.56
466.293	1498.56
466.512	1451.56
466.732	1446.56
466.951	1440.56
467.171	1380.56
467.391	1442.56
467.61	1383.56
467.829	1366.56
468.049	1402.56
468.268	1334.56
468.488	1363.56
468.707	1358.56
468.927	1364.56
469.146	1325.56
469.365	1373.56
469.585	1345.56
469.804	1448.56
470.023	1432.56
470.243	1417.56
470.462	1432.56
470.681	1454.56
470.901	1422.56
471.12	1422.56
471.339	1426.56
471.558	1389.56
471.777	1383.56
471.997	1374.56
472.216	1365.56
472.435	1334.56
472.654	1324.56
472.873	1282.56
473.092	1322.56
473.311	1305.56
473.53	1276.56
473.749	1276.56
473.968	1289.56
474.187	1282.56
474.406	1300.56
474.625	1308.56
474.844	1296.56
475.063	1314.56
475.282	1320.56
475.501	1309.56
475.72	1320.56
475.939	1327.56
476.158	1337.56
476.377	1382.56
476.596	1369.56
476.814	1369.56
477.033	1394.56
477.252	1424.56
477.471	1455.56
477.69	1445.56
477.908	1498.56
478.127	1538.56
478.346	1544.56
478.564	1593.56
478.783	1579.56
479.002	1626.56
479.22	1666.56
479.439	1634.56
479.658	1626.56
479.876	1672.56
480.095	1637.56
480.313	1701.56
480.532	1697.56
480.751	1698.56
480.969	1660.56
481.188	1621.56
481.406	1600.56
481.624	1518.56
481.843	1480.56
482.061	1531.56
482.28	1485.56
482.498	1494.56
482.717	1464.56
482.935	1486.56
483.153	1482.56
483.372	1469.56
483.59	1518.56
483.808	1505.56
484.027	1464.56
484.245	1474.56
484.463	1471.56
484.681	1495.56
484.9	1536.56
485.118	1493.56
485.336	1522.56
485.554	1547.56
485.772	1556.56
485.99	1547.56
486.209	1578.56
486.427	1578.56
486.645	1528.56
486.863	1556.56
487.081	1559.56
487.299	1568.56
487.517	1517.56
487.735	1568.56
487.953	1548.56
488.171	1589.56
488.389	1503.56
488.607	1560.56
488.825	1509.56
489.043	1528.56
489.261	1556.56
489.479	1505.56
489.696	1528.56
489.914	1525.56
490.132	1584.56
490.35	1582.56
490.568	1571.56
490.786	1577.56
491.003	1595.56
491.221	1571.56
491.439	1569.56
491.657	1565.56
491.874	1596.56
492.092	1576.56
