Data from Ni(NO3)2Standard.Agarose3%.GreenCap.LampEnergy5.5.E.O_HRD10591_14-41-40-188.txt Node
Date: Mon Jul 22 14:41:40 EDT 2019
User: cochatt
Spectrometer: HR+D1059
Trigger mode: 1
Integration Time (sec): 1.000000E-1
Scans to average: 1
Electric dark correction enabled: true
Nonlinearity correction enabled: false
Boxcar width: 0
XAxis mode: Wavelengths
Number of Pixels in Spectrum: 2048
>>>>>Begin Spectral Data<<<<<
223.165	-7.5
223.4	-7.5
223.635	-7.5
223.869	-12.5
224.104	-10.5
224.338	-22.5
224.573	-20.5
224.808	-8.5
225.042	-3.5
225.277	-9.5
225.511	-12.5
225.746	0.5
225.98	13.5
226.215	17.5
226.449	10.5
226.683	3.5
226.918	33.5
227.152	28.5
227.387	32.5
227.621	31.5
227.856	34.5
228.09	50.5
228.324	49.5
228.559	54.5
228.793	73.5
229.027	57.5
229.262	68.5
229.496	67.5
229.73	73.5
229.964	91.5
230.199	67.5
230.433	75.5
230.667	69.5
230.901	75.5
231.136	63.5
231.37	67.5
231.604	90.5
231.838	78.5
232.072	91.5
232.306	70.5
232.541	74.5
232.775	80.5
233.009	72.5
233.243	71.5
233.477	87.5
233.711	73.5
233.945	80.5
234.179	93.5
234.413	68.5
234.647	76.5
234.881	92.5
235.115	77.5
235.349	89.5
235.583	76.5
235.817	82.5
236.051	84.5
236.285	71.5
236.519	74.5
236.753	71.5
236.987	82.5
237.221	89.5
237.455	77.5
237.689	78.5
237.922	84.5
238.156	78.5
238.39	90.5
238.624	82.5
238.858	64.5
239.091	74.5
239.325	76.5
239.559	62.5
239.793	86.5
240.027	83.5
240.26	68.5
240.494	82.5
240.728	84.5
240.961	69.5
241.195	95.5
241.429	75.5
241.662	63.5
241.896	83.5
242.13	77.5
242.363	73.5
242.597	72.5
242.83	67.5
243.064	78.5
243.298	83.5
243.531	90.5
243.765	79.5
243.998	83.5
244.232	72.5
244.465	81.5
244.699	73.5
244.932	67.5
245.166	58.5
245.399	75.5
245.633	82.5
245.866	83.5
246.099	68.5
246.333	81.5
246.566	68.5
246.8	74.5
247.033	81.5
247.266	73.5
247.5	82.5
247.733	83.5
247.966	76.5
248.2	80.5
248.433	75.5
248.666	73.5
248.899	81.5
249.133	95.5
249.366	83.5
249.599	84.5
249.832	81.5
250.066	85.5
250.299	84.5
250.532	82.5
250.765	83.5
250.998	80.5
251.231	73.5
251.465	59.5
251.698	84.5
251.931	61.5
252.164	85.5
252.397	89.5
252.63	83.5
252.863	74.5
253.096	94.5
253.329	77.5
253.562	97.5
253.795	69.5
254.028	85.5
254.261	90.5
254.494	81.5
254.727	76.5
254.96	85.5
255.193	94.5
255.426	76.5
255.659	82.5
255.892	99.5
256.124	93.5
256.357	90.5
256.59	88.5
256.823	83.5
257.056	70.5
257.289	86.5
257.521	80.5
257.754	77.5
257.987	80.5
258.22	86.5
258.452	76.5
258.685	87.5
258.918	86.5
259.151	79.5
259.383	83.5
259.616	81.5
259.849	78.5
260.081	85.5
260.314	95.5
260.547	86.5
260.779	84.5
261.012	100.5
261.244	94.5
261.477	69.5
261.71	84.5
261.942	91.5
262.175	83.5
262.407	80.5
262.64	74.5
262.872	79.5
263.105	99.5
263.337	95.5
263.57	98.5
263.802	87.5
264.035	86.5
264.267	82.5
264.499	87.5
264.732	93.5
264.964	100.5
265.197	85.5
265.429	85.5
265.661	84.5
265.894	74.5
266.126	84.5
266.358	90.5
266.591	88.5
266.823	78.5
267.055	88.5
267.287	92.5
267.52	81.5
267.752	77.5
267.984	93.5
268.216	82.5
268.448	83.5
268.681	91.5
268.913	79.5
269.145	87.5
269.377	86.5
269.609	99.5
269.841	82.5
270.073	87.5
270.306	95.5
270.538	84.5
270.77	76.5
271.002	75.5
271.234	103.5
271.466	79.5
271.698	94.5
271.93	81.5
272.162	76.5
272.394	80.5
272.626	77.5
272.858	83.5
273.09	88.5
273.322	73.5
273.553	69.5
273.785	89.5
274.017	83.5
274.249	75.5
274.481	85.5
274.713	91.5
274.945	87.5
275.176	84.5
275.408	87.5
275.64	91.5
275.872	91.5
276.104	77.5
276.335	86.5
276.567	81.5
276.799	83.5
277.031	86.5
277.262	89.5
277.494	87.5
277.726	99.5
277.957	82.5
278.189	75.5
278.421	87.5
278.652	89.5
278.884	85.5
279.115	83.5
279.347	82.5
279.579	78.5
279.81	87.5
280.042	76.5
280.273	83.5
280.505	92.5
280.736	85.5
280.968	76.5
281.199	81.5
281.431	80.5
281.662	92.5
281.894	89.5
282.125	77.5
282.356	83.5
282.588	85.5
282.819	74.5
283.051	87.5
283.282	82.5
283.513	89.5
283.745	80.5
283.976	84.5
284.207	80.5
284.439	99.5
284.67	93.5
284.901	95.5
285.132	82.5
285.364	83.5
285.595	93.5
285.826	92.5
286.057	92.5
286.288	93.5
286.52	88.5
286.751	82.5
286.982	73.5
287.213	83.5
287.444	87.5
287.675	90.5
287.906	81.5
288.138	76.5
288.369	91.5
288.6	86.5
288.831	87.5
289.062	76.5
289.293	88.5
289.524	92.5
289.755	87.5
289.986	64.5
290.217	91.5
290.448	89.5
290.679	82.5
290.91	88.5
291.141	106.5
291.371	91.5
291.602	90.5
291.833	72.5
292.064	91.5
292.295	80.5
292.526	83.5
292.757	80.5
292.987	83.5
293.218	82.5
293.449	69.5
293.68	86.5
293.91	87.5
294.141	90.5
294.372	95.5
294.603	90.5
294.833	74.5
295.064	92.5
295.295	91.5
295.525	88.5
295.756	93.5
295.987	95.5
296.217	94.5
296.448	83.5
296.679	74.5
296.909	77.5
297.14	68.5
297.37	89.5
297.601	91.5
297.831	86.5
298.062	78.5
298.292	79.5
298.523	92.5
298.753	93.5
298.984	90.5
299.214	97.5
299.445	100.5
299.675	82.5
299.905	89.5
300.136	97.5
300.366	106.5
300.597	91.5
300.827	72.5
301.057	83.5
301.288	84.5
301.518	81.5
301.748	73.5
301.979	84.5
302.209	84.5
302.439	80.5
302.669	87.5
302.9	100.5
303.13	85.5
303.36	104.5
303.59	103.5
303.82	83.5
304.051	76.5
304.281	96.5
304.511	85.5
304.741	101.5
304.971	68.5
305.201	98.5
305.431	96.5
305.661	101.5
305.891	97.5
306.121	78.5
306.352	77.5
306.582	65.5
306.812	81.5
307.042	77.5
307.272	98.5
307.502	84.5
307.731	87.5
307.961	92.5
308.191	81.5
308.421	94.5
308.651	94.5
308.881	99.5
309.111	81.5
309.341	85.5
309.571	91.5
309.8	85.5
310.03	93.5
310.26	83.5
310.49	104.5
310.72	61.5
310.949	81.5
311.179	96.5
311.409	77.5
311.639	74.5
311.868	96.5
312.098	77.5
312.328	87.5
312.557	85.5
312.787	97.5
313.017	81.5
313.246	87.5
313.476	83.5
313.706	89.5
313.935	83.5
314.165	82.5
314.394	97.5
314.624	90.5
314.853	91.5
315.083	84.5
315.312	93.5
315.542	85.5
315.771	96.5
316.001	99.5
316.23	100.5
316.46	93.5
316.689	95.5
316.919	85.5
317.148	84.5
317.377	95.5
317.607	93.5
317.836	87.5
318.065	88.5
318.295	87.5
318.524	90.5
318.753	78.5
318.983	86.5
319.212	94.5
319.441	82.5
319.67	88.5
319.9	88.5
320.129	87.5
320.358	73.5
320.587	85.5
320.816	79.5
321.046	93.5
321.275	81.5
321.504	76.5
321.733	81.5
321.962	87.5
322.191	107.5
322.42	91.5
322.649	86.5
322.878	85.5
323.108	99.5
323.337	95.5
323.566	96.5
323.795	90.5
324.024	77.5
324.253	90.5
324.482	84.5
324.71	80.5
324.939	83.5
325.168	88.5
325.397	84.5
325.626	93.5
325.855	88.5
326.084	81.5
326.313	89.5
326.542	94.5
326.77	83.5
326.999	95.5
327.228	93.5
327.457	99.5
327.686	81.5
327.914	90.5
328.143	85.5
328.372	96.5
328.6	85.5
328.829	78.5
329.058	80.5
329.287	97.5
329.515	89.5
329.744	92.5
329.972	87.5
330.201	86.5
330.43	92.5
330.658	92.5
330.887	88.5
331.115	89.5
331.344	106.5
331.572	90.5
331.801	88.5
332.03	88.5
332.258	97.5
332.486	95.5
332.715	82.5
332.943	82.5
333.172	86.5
333.4	84.5
333.629	85.5
333.857	81.5
334.085	87.5
334.314	90.5
334.542	92.5
334.771	91.5
334.999	74.5
335.227	88.5
335.455	104.5
335.684	95.5
335.912	82.5
336.14	96.5
336.369	94.5
336.597	99.5
336.825	99.5
337.053	84.5
337.281	94.5
337.51	81.5
337.738	84.5
337.966	87.5
338.194	77.5
338.422	86.5
338.65	84.5
338.878	92.5
339.106	75.5
339.334	79.5
339.562	80.5
339.79	82.5
340.018	99.5
340.246	93.5
340.474	106.5
340.702	75.5
340.93	101.5
341.158	83.5
341.386	84.5
341.614	81.5
341.842	86.5
342.07	97.5
342.298	96.5
342.526	92.5
342.754	76.5
342.981	88.5
343.209	95.5
343.437	87.5
343.665	85.5
343.893	92.5
344.12	78.5
344.348	89.5
344.576	76.5
344.804	96.5
345.031	94.5
345.259	93.5
345.487	71.5
345.714	88.5
345.942	80.5
346.17	85.5
346.397	92.5
346.625	94.5
346.853	82.5
347.08	100.5
347.308	97.5
347.535	93.5
347.763	96.5
347.99	75.5
348.218	89.5
348.445	87.5
348.673	74.5
348.9	81.5
349.128	97.5
349.355	97.5
349.583	97.5
349.81	79.5
350.037	94.5
350.265	92.5
350.492	72.5
350.72	82.5
350.947	85.5
351.174	101.5
351.402	92.5
351.629	92.5
351.856	65.5
352.083	95.5
352.311	84.5
352.538	91.5
352.765	89.5
352.992	108.5
353.22	89.5
353.447	92.5
353.674	84.5
353.901	81.5
354.128	85.5
354.355	99.5
354.583	88.5
354.81	99.5
355.037	86.5
355.264	104.5
355.491	89.5
355.718	103.5
355.945	91.5
356.172	91.5
356.399	88.5
356.626	96.5
356.853	79.5
357.08	82.5
357.307	95.5
357.534	89.5
357.761	77.5
357.988	86.5
358.215	91.5
358.441	89.5
358.668	89.5
358.895	86.5
359.122	101.5
359.349	76.5
359.576	84.5
359.802	91.5
360.029	92.5
360.256	81.5
360.483	79.5
360.709	83.5
360.936	93.5
361.163	76.5
361.39	86.5
361.616	85.5
361.843	81.5
362.07	92.5
362.296	91.5
362.523	100.5
362.749	100.5
362.976	72.5
363.203	94.5
363.429	86.5
363.656	87.5
363.882	87.5
364.109	88.5
364.335	76.5
364.562	85.5
364.788	82.5
365.015	84.5
365.241	91.5
365.468	82.5
365.694	89.5
365.92	81.5
366.147	90.5
366.373	84.5
366.599	93.5
366.826	93.5
367.052	88.5
367.278	85.5
367.505	84.5
367.731	93.5
367.957	73.5
368.184	85.5
368.41	71.5
368.636	95.5
368.862	88.5
369.089	70.5
369.315	83.5
369.541	99.5
369.767	87.5
369.993	76.5
370.219	81.5
370.445	85.5
370.672	77.5
370.898	87.5
371.124	97.5
371.35	86.5
371.576	87.5
371.802	81.5
372.028	89.5
372.254	93.5
372.48	86.5
372.706	77.5
372.932	71.5
373.158	88.5
373.384	82.5
373.61	85.5
373.835	81.5
374.061	88.5
374.287	90.5
374.513	91.5
374.739	84.5
374.965	93.5
375.191	95.5
375.416	95.5
375.642	83.5
375.868	108.5
376.094	73.5
376.319	75.5
376.545	89.5
376.771	82.5
376.997	91.5
377.222	87.5
377.448	92.5
377.674	78.5
377.899	94.5
378.125	83.5
378.35	81.5
378.576	68.5
378.802	94.5
379.027	77.5
379.253	86.5
379.478	89.5
379.704	88.5
379.929	81.5
380.155	88.5
380.38	85.5
380.606	81.5
380.831	92.5
381.057	90.5
381.282	92.5
381.507	89.5
381.733	80.5
381.958	96.5
382.184	77.5
382.409	78.5
382.634	91.5
382.86	76.5
383.085	88.5
383.31	84.5
383.535	82.5
383.761	88.5
383.986	87.5
384.211	68.5
384.436	88.5
384.662	68.5
384.887	85.5
385.112	83.5
385.337	77.5
385.562	85.5
385.787	89.5
386.013	84.5
386.238	90.5
386.463	73.5
386.688	78.5
386.913	77.5
387.138	82.5
387.363	91.5
387.588	92.5
387.813	87.5
388.038	84.5
388.263	88.5
388.488	90.5
388.713	86.5
388.938	90.5
389.163	77.5
389.387	97.5
389.612	80.5
389.837	93.5
390.062	87.5
390.287	82.5
390.512	73.5
390.736	85.5
390.961	71.5
391.186	90.5
391.411	81.5
391.636	97.5
391.86	85.5
392.085	79.5
392.31	74.5
392.534	95.5
392.759	94.5
392.984	93.5
393.208	93.5
393.433	93.5
393.658	90.5
393.882	83.5
394.107	84.5
394.331	84.5
394.556	88.5
394.78	87.5
395.005	101.5
395.229	85.5
395.454	96.5
395.678	96.5
395.903	76.5
396.127	72.5
396.352	75.5
396.576	75.5
396.801	81.5
397.025	80.5
397.249	61.5
397.474	88.5
397.698	85.5
397.922	88.5
398.147	89.5
398.371	86.5
398.595	93.5
398.82	83.5
399.044	86.5
399.268	75.5
399.492	83.5
399.717	89.5
399.941	76.5
400.165	79.5
400.389	71.5
400.613	92.5
400.837	106.5
401.062	98.5
401.286	82.5
401.51	95.5
401.734	74.5
401.958	83.5
402.182	86.5
402.406	69.5
402.63	92.5
402.854	82.5
403.078	83.5
403.302	88.5
403.526	100.5
403.75	79.5
403.974	62.5
404.198	83.5
404.422	92.5
404.645	81.5
404.869	84.5
405.093	88.5
405.317	96.5
405.541	94.5
405.765	93.5
405.988	76.5
406.212	70.5
406.436	82.5
406.66	82.5
406.883	74.5
407.107	88.5
407.331	84.5
407.555	86.5
407.778	83.5
408.002	77.5
408.226	84.5
408.449	94.5
408.673	88.5
408.896	91.5
409.12	93.5
409.344	93.5
409.567	92.5
409.791	66.5
410.014	81.5
410.238	91.5
410.461	83.5
410.685	95.5
410.908	81.5
411.132	94.5
411.355	91.5
411.578	92.5
411.802	76.5
412.025	84.5
412.249	70.5
412.472	77.5
412.695	85.5
412.919	78.5
413.142	88.5
413.365	72.5
413.589	85.5
413.812	76.5
414.035	70.5
414.258	85.5
414.482	81.5
414.705	78.5
414.928	90.5
415.151	84.5
415.374	83.5
415.597	90.5
415.821	87.5
416.044	85.5
416.267	79.5
416.49	83.5
416.713	94.5
416.936	80.5
417.159	92.5
417.382	87.5
417.605	75.5
417.828	78.5
418.051	71.5
418.274	77.5
418.497	87.5
418.72	90.5
418.943	81.5
419.166	88.5
419.389	91.5
419.611	94.5
419.834	81.5
420.057	90.5
420.28	85.5
420.503	81.5
420.726	91.5
420.948	92.5
421.171	81.5
421.394	77.5
421.617	79.5
421.839	101.5
422.062	87.5
422.285	90.5
422.507	83.5
422.73	73.5
422.953	68.5
423.175	75.5
423.398	86.5
423.621	91.5
423.843	84.5
424.066	80.5
424.288	82.5
424.511	87.5
424.733	96.5
424.956	80.5
425.178	81.5
425.401	83.5
425.623	81.5
425.846	92.5
426.068	84.5
426.291	83.5
426.513	75.5
426.735	97.5
426.958	91.5
427.18	84.5
427.402	75.5
427.625	89.5
427.847	83.5
428.069	83.5
428.292	87.5
428.514	83.5
428.736	89.5
428.958	79.5
429.181	72.5
429.403	83.5
429.625	79.5
429.847	80.5
430.069	87.5
430.292	80.5
430.514	82.5
430.736	87.5
430.958	86.5
431.18	83.5
431.402	69.5
431.624	80.5
431.846	106.5
432.068	91.5
432.29	106.5
432.512	99.5
432.734	79.5
432.956	82.5
433.178	73.5
433.4	85.5
433.622	86.5
433.844	87.5
434.066	80.5
434.287	63.5
434.509	87.5
434.731	66.5
434.953	75.5
435.175	79.5
435.397	99.5
435.618	68.5
435.84	83.5
436.062	85.5
436.284	94.5
436.505	80.5
436.727	90.5
436.949	76.5
437.17	92.5
437.392	82.5
437.614	80.5
437.835	76.5
438.057	87.5
438.278	85.5
438.5	97.5
438.721	78.5
438.943	90.5
439.165	75.5
439.386	83.5
439.608	80.5
439.829	86.5
440.05	77.5
440.272	81.5
440.493	73.5
440.715	77.5
440.936	87.5
441.158	85.5
441.379	84.5
441.6	83.5
441.822	88.5
442.043	79.5
442.264	75.5
442.486	82.5
442.707	74.5
442.928	93.5
443.149	71.5
443.371	93.5
443.592	83.5
443.813	91.5
444.034	84.5
444.255	93.5
444.476	90.5
444.698	79.5
444.919	85.5
445.14	191.5
445.361	132.5
445.582	81.5
445.803	63.5
446.024	96.5
446.245	89.5
446.466	89.5
446.687	85.5
446.908	88.5
447.129	85.5
447.35	76.5
447.571	78.5
447.792	75.5
448.013	83.5
448.234	69.5
448.455	81.5
448.675	90.5
448.896	97.5
449.117	89.5
449.338	80.5
449.559	75.5
449.779	87.5
450	88.5
450.221	80.5
450.442	80.5
450.662	99.5
450.883	78.5
451.104	87.5
451.324	81.5
451.545	86.5
451.766	76.5
451.986	81.5
452.207	75.5
452.428	83.5
452.648	95.5
452.869	81.5
453.089	87.5
453.31	92.5
453.53	90.5
453.751	95.5
453.971	82.5
454.192	88.5
454.412	70.5
454.633	90.5
454.853	86.5
455.073	88.5
455.294	87.5
455.514	92.5
455.734	91.5
455.955	75.5
456.175	88.5
456.395	89.5
456.616	90.5
456.836	82.5
457.056	76.5
457.276	83.5
457.497	85.5
457.717	84.5
457.937	83.5
458.157	95.5
458.377	80.5
458.598	90.5
458.818	74.5
459.038	96.5
459.258	77.5
459.478	94.5
459.698	98.5
459.918	92.5
460.138	103.5
460.358	81.5
460.578	86.5
460.798	86.5
461.018	89.5
461.238	87.5
461.458	92.5
461.678	80.5
461.898	87.5
462.118	85.5
462.338	93.5
462.558	97.5
462.777	84.5
462.997	88.5
463.217	87.5
463.437	83.5
463.657	96.5
463.876	87.5
464.096	85.5
464.316	76.5
464.536	95.5
464.755	92.5
464.975	74.5
465.195	100.5
465.414	87.5
465.634	95.5
465.854	83.5
466.073	80.5
466.293	84.5
466.512	84.5
466.732	91.5
466.951	80.5
467.171	82.5
467.391	78.5
467.61	93.5
467.829	89.5
468.049	68.5
468.268	88.5
468.488	94.5
468.707	85.5
468.927	85.5
469.146	83.5
469.365	93.5
469.585	73.5
469.804	87.5
470.023	98.5
470.243	83.5
470.462	87.5
470.681	93.5
470.901	89.5
471.12	83.5
471.339	83.5
471.558	73.5
471.777	83.5
471.997	89.5
472.216	83.5
472.435	88.5
472.654	75.5
472.873	89.5
473.092	80.5
473.311	92.5
473.53	81.5
473.749	95.5
473.968	89.5
474.187	89.5
474.406	76.5
474.625	85.5
474.844	85.5
475.063	88.5
475.282	88.5
475.501	96.5
475.72	79.5
475.939	81.5
476.158	80.5
476.377	89.5
476.596	99.5
476.814	91.5
477.033	82.5
477.252	106.5
477.471	95.5
477.69	87.5
477.908	91.5
478.127	89.5
478.346	81.5
478.564	86.5
478.783	78.5
479.002	99.5
479.22	88.5
479.439	103.5
479.658	83.5
479.876	84.5
480.095	88.5
480.313	86.5
480.532	103.5
480.751	79.5
480.969	98.5
481.188	92.5
481.406	82.5
481.624	91.5
481.843	98.5
482.061	87.5
482.28	85.5
482.498	87.5
482.717	83.5
482.935	84.5
483.153	81.5
483.372	92.5
483.59	91.5
483.808	84.5
484.027	80.5
484.245	82.5
484.463	87.5
484.681	102.5
484.9	98.5
485.118	99.5
485.336	90.5
485.554	88.5
485.772	98.5
485.99	79.5
486.209	90.5
486.427	98.5
486.645	104.5
486.863	85.5
487.081	90.5
487.299	84.5
487.517	107.5
487.735	95.5
487.953	84.5
488.171	91.5
488.389	104.5
488.607	82.5
488.825	79.5
489.043	100.5
489.261	98.5
489.479	99.5
489.696	91.5
489.914	84.5
490.132	83.5
490.35	86.5
490.568	90.5
490.786	90.5
491.003	87.5
491.221	95.5
491.439	88.5
491.657	82.5
491.874	96.5
492.092	104.5
492.31	110.5
492.527	109.5
492.745	90.5
492.963	88.5
493.18	94.5
493.398	88.5
493.615	98.5
493.833	90.5
494.05	100.5
494.268	80.5
494.485	91.5
494.703	83.5
494.92	90.5
495.138	81.5
495.355	97.5
495.573	107.5
495.79	82.5
496.008	75.5
496.225	107.5
496.442	94.5
496.66	92.5
496.877	113.5
497.094	91.5
497.312	83.5
497.529	91.5
497.746	98.5
497.963	98.5
498.181	97.5
498.398	92.5
498.615	99.5
498.832	105.5
499.049	88.5
499.267	107.5
499.484	98.5
499.701	108.5
499.918	85.5
500.135	95.5
500.352	111.5
500.569	99.5
500.786	97.5
501.003	103.5
501.22	119.5
501.437	114.5
501.654	114.5
501.871	88.5
502.088	102.5
502.305	94.5
502.522	90.5
502.739	92.5
502.956	97.5
503.172	96.5
503.389	96.5
503.606	96.5
503.823	79.5
504.04	97.5
504.256	98.5
504.473	96.5
504.69	103.5
504.907	93.5
505.123	100.5
505.34	103.5
505.557	84.5
505.773	94.5
505.99	98.5
506.207	82.5
506.423	109.5
506.64	87.5
506.856	91.5
507.073	92.5
507.289	86.5
507.506	102.5
507.722	77.5
507.939	88.5
508.155	96.5
508.372	88.5
508.588	100.5
508.805	117.5
509.021	87.5
509.238	105.5
509.454	77.5
509.67	86.5
509.887	83.5
510.103	95.5
510.319	92.5
510.536	84.5
510.752	91.5
510.968	91.5
511.184	88.5
511.401	95.5
511.617	90.5
511.833	85.5
512.049	95.5
512.265	88.5
512.481	84.5
512.698	85.5
512.914	92.5
513.13	85.5
513.346	93.5
513.562	85.5
513.778	89.5
513.994	90.5
514.21	75.5
514.426	97.5
514.642	95.5
514.858	90.5
515.074	96.5
515.29	100.5
515.506	69.5
515.721	81.5
515.937	90.5
516.153	91.5
516.369	90.5
516.585	112.5
516.801	85.5
517.016	79.5
517.232	98.5
517.448	93.5
517.664	94.5
517.879	95.5
518.095	89.5
518.311	83.5
518.527	101.5
518.742	85.5
518.958	86.5
519.173	109.5
519.389	71.5
519.605	85.5
519.82	85.5
520.036	84.5
520.251	76.5
520.467	97.5
520.682	82.5
520.898	78.5
521.113	83.5
521.329	89.5
521.544	91.5
521.76	88.5
521.975	84.5
522.19	80.5
522.406	86.5
522.621	78.5
522.836	80.5
523.052	88.5
523.267	81.5
523.482	87.5
523.698	88.5
523.913	95.5
524.128	100.5
524.343	91.5
524.559	97.5
524.774	97.5
524.989	92.5
525.204	84.5
525.419	92.5
525.634	92.5
525.849	85.5
526.064	71.5
526.28	86.5
526.495	76.5
526.71	84.5
526.925	83.5
527.14	83.5
527.355	90.5
527.57	86.5
527.785	89.5
527.999	103.5
528.214	83.5
528.429	97.5
528.644	103.5
528.859	100.5
529.074	91.5
529.289	88.5
529.503	98.5
529.718	96.5
529.933	101.5
530.148	98.5
530.363	98.5
530.577	87.5
530.792	100.5
531.007	88.5
531.221	95.5
531.436	97.5
531.651	89.5
531.865	89.5
532.08	92.5
532.295	94.5
532.509	83.5
532.724	98.5
532.938	82.5
533.153	80.5
533.367	105.5
533.582	79.5
533.796	97.5
534.011	112.5
534.225	89.5
534.44	90.5
534.654	84.5
534.868	94.5
535.083	91.5
535.297	89.5
535.511	95.5
535.726	96.5
535.94	94.5
536.154	88.5
536.369	92.5
536.583	92.5
536.797	95.5
537.011	83.5
537.225	92.5
537.44	86.5
537.654	100.5
537.868	94.5
538.082	76.5
538.296	84.5
538.51	83.5
538.724	95.5
