Data from Ni(NO3)2@0.0625M.TitratingCurve.Agarose3%dH2O.NegLispCup.LampEnergy10.LIBS07252019_HRD10591_18-14-58-569.txt Node
Date: Thu Jul 25 18:14:58 EDT 2019
User: cochatt
Spectrometer: HR+D1059
Trigger mode: 1
Integration Time (sec): 1.000000E-1
Scans to average: 1
Electric dark correction enabled: true
Nonlinearity correction enabled: false
Boxcar width: 0
XAxis mode: Wavelengths
Number of Pixels in Spectrum: 2048
>>>>>Begin Spectral Data<<<<<
223.165	-15.06
223.4	-15.06
223.635	-15.06
223.869	-25.06
224.104	-11.06
224.338	-17.06
224.573	-22.06
224.808	-3.06
225.042	-1.06
225.277	-5.06
225.511	-1.06
225.746	15.94
225.98	4.94
226.215	-1.06
226.449	12.94
226.683	21.94
226.918	22.94
227.152	22.94
227.387	24.94
227.621	41.94
227.856	54.94
228.09	47.94
228.324	41.94
228.559	74.94
228.793	64.94
229.027	103.94
229.262	89.94
229.496	91.94
229.73	114.94
229.964	113.94
230.199	138.94
230.433	128.94
230.667	118.94
230.901	118.94
231.136	127.94
231.37	130.94
231.604	132.94
231.838	150.94
232.072	150.94
232.306	146.94
232.541	131.94
232.775	118.94
233.009	140.94
233.243	134.94
233.477	130.94
233.711	131.94
233.945	144.94
234.179	127.94
234.413	130.94
234.647	144.94
234.881	138.94
235.115	139.94
235.349	142.94
235.583	143.94
235.817	146.94
236.051	141.94
236.285	135.94
236.519	146.94
236.753	149.94
236.987	148.94
237.221	130.94
237.455	159.94
237.689	151.94
237.922	152.94
238.156	144.94
238.39	150.94
238.624	158.94
238.858	151.94
239.091	158.94
239.325	151.94
239.559	158.94
239.793	165.94
240.027	151.94
240.26	154.94
240.494	134.94
240.728	157.94
240.961	160.94
241.195	171.94
241.429	178.94
241.662	167.94
241.896	159.94
242.13	163.94
242.363	159.94
242.597	178.94
242.83	157.94
243.064	174.94
243.298	168.94
243.531	175.94
243.765	193.94
243.998	186.94
244.232	184.94
244.465	193.94
244.699	187.94
244.932	189.94
245.166	192.94
245.399	184.94
245.633	184.94
245.866	193.94
246.099	199.94
246.333	189.94
246.566	180.94
246.8	198.94
247.033	186.94
247.266	184.94
247.5	196.94
247.733	212.94
247.966	209.94
248.2	204.94
248.433	194.94
248.666	204.94
248.899	212.94
249.133	203.94
249.366	216.94
249.599	212.94
249.832	209.94
250.066	216.94
250.299	214.94
250.532	231.94
250.765	208.94
250.998	217.94
251.231	222.94
251.465	235.94
251.698	211.94
251.931	246.94
252.164	244.94
252.397	223.94
252.63	232.94
252.863	235.94
253.096	256.94
253.329	245.94
253.562	247.94
253.795	240.94
254.028	243.94
254.261	238.94
254.494	243.94
254.727	238.94
254.96	237.94
255.193	234.94
255.426	252.94
255.659	251.94
255.892	254.94
256.124	237.94
256.357	224.94
256.59	256.94
256.823	256.94
257.056	251.94
257.289	260.94
257.521	234.94
257.754	248.94
257.987	265.94
258.22	281.94
258.452	256.94
258.685	261.94
258.918	258.94
259.151	248.94
259.383	281.94
259.616	263.94
259.849	265.94
260.081	268.94
260.314	273.94
260.547	276.94
260.779	273.94
261.012	267.94
261.244	289.94
261.477	284.94
261.71	277.94
261.942	277.94
262.175	282.94
262.407	275.94
262.64	271.94
262.872	302.94
263.105	278.94
263.337	291.94
263.57	289.94
263.802	281.94
264.035	292.94
264.267	298.94
264.499	296.94
264.732	288.94
264.964	301.94
265.197	287.94
265.429	287.94
265.661	291.94
265.894	305.94
266.126	298.94
266.358	312.94
266.591	308.94
266.823	301.94
267.055	308.94
267.287	309.94
267.52	315.94
267.752	322.94
267.984	310.94
268.216	322.94
268.448	317.94
268.681	328.94
268.913	306.94
269.145	326.94
269.377	306.94
269.609	306.94
269.841	296.94
270.073	324.94
270.306	316.94
270.538	315.94
270.77	325.94
271.002	297.94
271.234	317.94
271.466	318.94
271.698	338.94
271.93	344.94
272.162	312.94
272.394	332.94
272.626	329.94
272.858	326.94
273.09	327.94
273.322	326.94
273.553	340.94
273.785	358.94
274.017	341.94
274.249	359.94
274.481	342.94
274.713	347.94
274.945	346.94
275.176	362.94
275.408	343.94
275.64	339.94
275.872	347.94
276.104	370.94
276.335	367.94
276.567	362.94
276.799	352.94
277.031	364.94
277.262	342.94
277.494	359.94
277.726	353.94
277.957	360.94
278.189	362.94
278.421	360.94
278.652	350.94
278.884	382.94
279.115	374.94
279.347	350.94
279.579	341.94
279.81	375.94
280.042	377.94
280.273	393.94
280.505	395.94
280.736	372.94
280.968	393.94
281.199	395.94
281.431	383.94
281.662	368.94
281.894	386.94
282.125	385.94
282.356	375.94
282.588	390.94
282.819	395.94
283.051	384.94
283.282	393.94
283.513	395.94
283.745	423.94
283.976	394.94
284.207	402.94
284.439	409.94
284.67	418.94
284.901	406.94
285.132	408.94
285.364	416.94
285.595	417.94
285.826	409.94
286.057	418.94
286.288	431.94
286.52	419.94
286.751	422.94
286.982	435.94
287.213	441.94
287.444	431.94
287.675	430.94
287.906	431.94
288.138	439.94
288.369	421.94
288.6	419.94
288.831	423.94
289.062	421.94
289.293	432.94
289.524	428.94
289.755	436.94
289.986	425.94
290.217	426.94
290.448	423.94
290.679	436.94
290.91	448.94
291.141	434.94
291.371	459.94
291.602	487.94
291.833	451.94
292.064	434.94
292.295	451.94
292.526	434.94
292.757	442.94
292.987	454.94
293.218	443.94
293.449	451.94
293.68	464.94
293.91	440.94
294.141	464.94
294.372	446.94
294.603	460.94
294.833	451.94
295.064	463.94
295.295	460.94
295.525	460.94
295.756	449.94
295.987	462.94
296.217	445.94
296.448	445.94
296.679	454.94
296.909	464.94
297.14	461.94
297.37	468.94
297.601	496.94
297.831	480.94
298.062	480.94
298.292	492.94
298.523	523.94
298.753	492.94
298.984	495.94
299.214	511.94
299.445	484.94
299.675	490.94
299.905	488.94
300.136	481.94
300.366	510.94
300.597	506.94
300.827	506.94
301.057	521.94
301.288	517.94
301.518	519.94
301.748	514.94
301.979	497.94
302.209	512.94
302.439	517.94
302.669	498.94
302.9	493.94
303.13	510.94
303.36	500.94
303.59	514.94
303.82	499.94
304.051	523.94
304.281	497.94
304.511	496.94
304.741	496.94
304.971	485.94
305.201	504.94
305.431	507.94
305.661	529.94
305.891	502.94
306.121	488.94
306.352	496.94
306.582	487.94
306.812	479.94
307.042	498.94
307.272	472.94
307.502	491.94
307.731	496.94
307.961	472.94
308.191	489.94
308.421	506.94
308.651	502.94
308.881	489.94
309.111	502.94
309.341	494.94
309.571	471.94
309.8	498.94
310.03	484.94
310.26	501.94
310.49	491.94
310.72	515.94
310.949	498.94
311.179	504.94
311.409	506.94
311.639	516.94
311.868	483.94
312.098	498.94
312.328	498.94
312.557	552.94
312.787	502.94
313.017	527.94
313.246	510.94
313.476	525.94
313.706	547.94
313.935	536.94
314.165	526.94
314.394	533.94
314.624	532.94
314.853	514.94
315.083	529.94
315.312	515.94
315.542	528.94
315.771	519.94
316.001	532.94
316.23	499.94
316.46	502.94
316.689	511.94
316.919	522.94
317.148	512.94
317.377	527.94
317.607	523.94
317.836	512.94
318.065	501.94
318.295	519.94
318.524	529.94
318.753	501.94
318.983	510.94
319.212	528.94
319.441	512.94
319.67	508.94
319.9	517.94
320.129	518.94
320.358	525.94
320.587	523.94
320.816	510.94
321.046	525.94
321.275	535.94
321.504	545.94
321.733	556.94
321.962	535.94
322.191	533.94
322.42	535.94
322.649	502.94
322.878	518.94
323.108	531.94
323.337	530.94
323.566	528.94
323.795	537.94
324.024	534.94
324.253	540.94
324.482	530.94
324.71	536.94
324.939	555.94
325.168	542.94
325.397	553.94
325.626	542.94
325.855	551.94
326.084	571.94
326.313	579.94
326.542	582.94
326.77	570.94
326.999	580.94
327.228	563.94
327.457	569.94
327.686	571.94
327.914	561.94
328.143	560.94
328.372	570.94
328.6	561.94
328.829	576.94
329.058	578.94
329.287	575.94
329.515	564.94
329.744	563.94
329.972	582.94
330.201	570.94
330.43	575.94
330.658	592.94
330.887	583.94
331.115	585.94
331.344	584.94
331.572	593.94
331.801	607.94
332.03	638.94
332.258	611.94
332.486	667.94
332.715	689.94
332.943	692.94
333.172	734.94
333.4	768.94
333.629	764.94
333.857	809.94
334.085	779.94
334.314	740.94
334.542	734.94
334.771	742.94
334.999	717.94
335.227	733.94
335.455	722.94
335.684	699.94
335.912	689.94
336.14	680.94
336.369	694.94
336.597	681.94
336.825	683.94
337.053	675.94
337.281	673.94
337.51	689.94
337.738	648.94
337.966	653.94
338.194	633.94
338.422	620.94
338.65	621.94
338.878	625.94
339.106	611.94
339.334	608.94
339.562	604.94
339.79	596.94
340.018	600.94
340.246	587.94
340.474	598.94
340.702	608.94
340.93	615.94
341.158	601.94
341.386	593.94
341.614	601.94
341.842	600.94
342.07	597.94
342.298	593.94
342.526	586.94
342.754	618.94
342.981	607.94
343.209	612.94
343.437	633.94
343.665	682.94
343.893	745.94
344.12	738.94
344.348	715.94
344.576	679.94
344.804	643.94
345.031	607.94
345.259	636.94
345.487	600.94
345.714	612.94
345.942	619.94
346.17	602.94
346.397	584.94
346.625	584.94
346.853	587.94
347.08	591.94
347.308	581.94
347.535	594.94
347.763	604.94
347.99	615.94
348.218	624.94
348.445	596.94
348.673	604.94
348.9	576.94
349.128	593.94
349.355	569.94
349.583	569.94
349.81	595.94
350.037	583.94
350.265	583.94
350.492	543.94
350.72	575.94
350.947	570.94
351.174	564.94
351.402	556.94
351.629	588.94
351.856	584.94
352.083	562.94
352.311	546.94
352.538	567.94
352.765	570.94
352.992	546.94
353.22	560.94
353.447	542.94
353.674	550.94
353.901	562.94
354.128	551.94
354.355	549.94
354.583	552.94
354.81	551.94
355.037	535.94
355.264	544.94
355.491	562.94
355.718	562.94
355.945	568.94
356.172	566.94
356.399	575.94
356.626	574.94
356.853	570.94
357.08	574.94
357.307	551.94
357.534	547.94
357.761	565.94
357.988	570.94
358.215	553.94
358.441	550.94
358.668	531.94
358.895	570.94
359.122	558.94
359.349	553.94
359.576	571.94
359.802	568.94
360.029	546.94
360.256	578.94
360.483	549.94
360.709	569.94
360.936	581.94
361.163	572.94
361.39	558.94
361.616	549.94
361.843	544.94
362.07	575.94
362.296	579.94
362.523	530.94
362.749	538.94
362.976	545.94
363.203	560.94
363.429	563.94
363.656	563.94
363.882	575.94
364.109	543.94
364.335	565.94
364.562	546.94
364.788	559.94
365.015	542.94
365.241	556.94
365.468	553.94
365.694	560.94
365.92	560.94
366.147	546.94
366.373	566.94
366.599	549.94
366.826	544.94
367.052	549.94
367.278	560.94
367.505	533.94
367.731	560.94
367.957	569.94
368.184	570.94
368.41	565.94
368.636	566.94
368.862	569.94
369.089	563.94
369.315	574.94
369.541	581.94
369.767	575.94
369.993	588.94
370.219	598.94
370.445	601.94
370.672	588.94
370.898	603.94
371.124	602.94
371.35	608.94
371.576	620.94
371.802	624.94
372.028	615.94
372.254	612.94
372.48	610.94
372.706	646.94
372.932	642.94
373.158	654.94
373.384	613.94
373.61	616.94
373.835	597.94
374.061	606.94
374.287	611.94
374.513	616.94
374.739	662.94
374.965	672.94
375.191	688.94
375.416	664.94
375.642	670.94
375.868	670.94
376.094	626.94
376.319	644.94
376.545	636.94
376.771	599.94
376.997	632.94
377.222	616.94
377.448	606.94
377.674	624.94
377.899	596.94
378.125	598.94
378.35	619.94
378.576	598.94
378.802	612.94
379.027	609.94
379.253	628.94
379.478	594.94
379.704	596.94
379.929	601.94
380.155	607.94
380.38	593.94
380.606	611.94
380.831	617.94
381.057	607.94
381.282	624.94
381.507	614.94
381.733	608.94
381.958	610.94
382.184	610.94
382.409	625.94
382.634	648.94
382.86	643.94
383.085	637.94
383.31	639.94
383.535	700.94
383.761	672.94
383.986	703.94
384.211	714.94
384.436	723.94
384.662	722.94
384.887	748.94
385.112	746.94
385.337	754.94
385.562	755.94
385.787	728.94
386.013	753.94
386.238	731.94
386.463	720.94
386.688	761.94
386.913	741.94
387.138	720.94
387.363	713.94
387.588	691.94
387.813	747.94
388.038	703.94
388.263	731.94
388.488	708.94
388.713	737.94
388.938	743.94
389.163	714.94
389.387	704.94
389.612	695.94
389.837	706.94
390.062	673.94
390.287	689.94
390.512	692.94
390.736	694.94
390.961	726.94
391.186	734.94
391.411	761.94
391.636	795.94
391.86	818.94
392.085	818.94
392.31	836.94
392.534	806.94
392.759	794.94
392.984	775.94
393.208	781.94
393.433	750.94
393.658	758.94
393.882	797.94
394.107	792.94
394.331	802.94
394.556	794.94
394.78	787.94
395.005	792.94
395.229	796.94
395.454	787.94
395.678	836.94
395.903	816.94
396.127	816.94
396.352	799.94
396.576	778.94
396.801	745.94
397.025	766.94
397.249	779.94
397.474	808.94
397.698	816.94
397.922	835.94
398.147	811.94
398.371	822.94
398.595	848.94
398.82	891.94
399.044	945.94
399.268	1068.94
399.492	1254.94
399.717	1420.94
399.941	1354.94
400.165	1255.94
400.389	1101.94
400.613	1009.94
400.837	967.94
401.062	954.94
401.286	918.94
401.51	913.94
401.734	920.94
401.958	929.94
402.182	932.94
402.406	951.94
402.63	936.94
402.854	962.94
403.078	988.94
403.302	1037.94
403.526	1054.94
403.75	1051.94
403.974	1051.94
404.198	1082.94
404.422	1107.94
404.645	1082.94
404.869	1035.94
405.093	1035.94
405.317	1008.94
405.541	1016.94
405.765	1023.94
405.988	993.94
406.212	1006.94
406.436	1009.94
406.66	1027.94
406.883	1042.94
407.107	1116.94
407.331	1188.94
407.555	1228.94
407.778	1238.94
408.002	1171.94
408.226	1114.94
408.449	1106.94
408.673	1059.94
408.896	1034.94
409.12	1061.94
409.344	1043.94
409.567	1038.94
409.791	1086.94
410.014	1098.94
410.238	1094.94
410.461	1048.94
410.685	1032.94
410.908	978.94
411.132	966.94
411.355	975.94
411.578	971.94
411.802	923.94
412.025	988.94
412.249	946.94
412.472	970.94
412.695	930.94
412.919	906.94
413.142	921.94
413.365	907.94
413.589	944.94
413.812	904.94
414.035	901.94
414.258	922.94
414.482	914.94
414.705	917.94
414.928	942.94
415.151	945.94
415.374	929.94
415.597	934.94
415.821	897.94
416.044	902.94
416.267	904.94
416.49	898.94
416.713	914.94
416.936	917.94
417.159	910.94
417.382	903.94
417.605	900.94
417.828	898.94
418.051	915.94
418.274	916.94
418.497	933.94
418.72	931.94
418.943	946.94
419.166	1011.94
419.389	1046.94
419.611	1023.94
419.834	941.94
420.057	946.94
420.28	938.94
420.503	893.94
420.726	885.94
420.948	890.94
421.171	913.94
421.394	922.94
421.617	909.94
421.839	912.94
422.062	899.94
422.285	903.94
422.507	908.94
422.73	966.94
422.953	917.94
423.175	939.94
423.398	961.94
423.621	931.94
423.843	1006.94
424.066	970.94
424.288	979.94
424.511	976.94
424.733	930.94
424.956	942.94
425.178	909.94
425.401	916.94
425.623	914.94
425.846	876.94
426.068	882.94
426.291	852.94
426.513	841.94
426.735	871.94
426.958	863.94
427.18	835.94
427.402	851.94
427.625	868.94
427.847	809.94
428.069	809.94
428.292	822.94
428.514	790.94
428.736	795.94
428.958	801.94
429.181	790.94
429.403	775.94
429.625	806.94
429.847	797.94
430.069	786.94
430.292	779.94
430.514	775.94
430.736	792.94
430.958	793.94
431.18	785.94
431.402	800.94
431.624	810.94
431.846	818.94
432.068	833.94
432.29	838.94
432.512	824.94
432.734	820.94
432.956	795.94
433.178	814.94
433.4	820.94
433.622	812.94
433.844	831.94
434.066	848.94
434.287	851.94
434.509	858.94
434.731	889.94
434.953	930.94
435.175	957.94
435.397	918.94
435.618	878.94
435.84	856.94
436.062	839.94
436.284	853.94
436.505	817.94
436.727	832.94
436.949	832.94
437.17	819.94
437.392	804.94
437.614	812.94
437.835	794.94
438.057	794.94
438.278	761.94
438.5	763.94
438.721	764.94
438.943	795.94
439.165	772.94
439.386	802.94
439.608	840.94
439.829	831.94
440.05	830.94
440.272	856.94
440.493	844.94
440.715	835.94
440.936	875.94
441.158	863.94
441.379	862.94
441.6	933.94
441.822	937.94
442.043	945.94
442.264	908.94
442.486	890.94
442.707	937.94
442.928	894.94
443.149	916.94
443.371	914.94
443.592	917.94
443.813	911.94
444.034	924.94
444.255	968.94
444.476	1021.94
444.698	1071.94
444.919	1119.94
445.14	1167.94
445.361	1060.94
445.582	979.94
445.803	879.94
446.024	892.94
446.245	878.94
446.466	860.94
446.687	830.94
446.908	844.94
447.129	824.94
447.35	792.94
447.571	802.94
447.792	780.94
448.013	770.94
448.234	752.94
448.455	769.94
448.675	761.94
448.896	789.94
449.117	745.94
449.338	741.94
449.559	718.94
449.779	742.94
450	755.94
450.221	754.94
450.442	779.94
450.662	750.94
450.883	786.94
451.104	803.94
451.324	814.94
451.545	776.94
451.766	776.94
451.986	757.94
452.207	771.94
452.428	759.94
452.648	762.94
452.869	743.94
453.089	742.94
453.31	775.94
453.53	743.94
453.751	747.94
453.971	770.94
454.192	753.94
454.412	734.94
454.633	728.94
454.853	705.94
455.073	720.94
455.294	722.94
455.514	729.94
455.734	724.94
455.955	687.94
456.175	707.94
456.395	705.94
456.616	691.94
456.836	724.94
457.056	707.94
457.276	678.94
457.497	712.94
457.717	711.94
457.937	707.94
458.157	722.94
458.377	690.94
458.598	742.94
458.818	776.94
459.038	830.94
459.258	809.94
459.478	867.94
459.698	882.94
459.918	888.94
460.138	922.94
460.358	975.94
460.578	946.94
460.798	979.94
461.018	997.94
461.238	944.94
461.458	995.94
461.678	969.94
461.898	976.94
462.118	976.94
462.338	1041.94
462.558	1087.94
462.777	1105.94
462.997	1204.94
463.217	1311.94
463.437	1370.94
463.657	1235.94
463.876	1146.94
464.096	1146.94
464.316	1151.94
464.536	1174.94
464.755	1109.94
464.975	1090.94
465.195	1006.94
465.414	945.94
465.634	887.94
465.854	872.94
466.073	839.94
466.293	822.94
466.512	808.94
466.732	798.94
466.951	812.94
467.171	807.94
467.391	794.94
467.61	791.94
467.829	804.94
468.049	788.94
468.268	771.94
468.488	768.94
468.707	754.94
468.927	755.94
469.146	766.94
469.365	756.94
469.585	771.94
469.804	785.94
470.023	791.94
470.243	804.94
470.462	801.94
470.681	844.94
470.901	834.94
471.12	787.94
471.339	812.94
471.558	792.94
471.777	752.94
471.997	769.94
472.216	757.94
472.435	772.94
472.654	730.94
472.873	725.94
473.092	735.94
473.311	720.94
473.53	723.94
473.749	734.94
473.968	753.94
474.187	734.94
474.406	725.94
474.625	715.94
474.844	734.94
475.063	758.94
475.282	778.94
475.501	714.94
475.72	803.94
475.939	752.94
476.158	767.94
476.377	763.94
476.596	776.94
476.814	796.94
477.033	808.94
477.252	797.94
477.471	798.94
477.69	864.94
477.908	861.94
478.127	886.94
478.346	864.94
478.564	923.94
478.783	911.94
479.002	958.94
479.22	937.94
479.439	950.94
479.658	926.94
479.876	901.94
480.095	930.94
480.313	960.94
480.532	1016.94
480.751	1034.94
480.969	963.94
481.188	948.94
481.406	924.94
481.624	859.94
481.843	881.94
482.061	856.94
482.28	860.94
482.498	836.94
482.717	844.94
482.935	837.94
483.153	867.94
483.372	850.94
483.59	866.94
483.808	831.94
484.027	843.94
484.245	874.94
484.463	862.94
484.681	885.94
484.9	872.94
485.118	888.94
485.336	896.94
485.554	919.94
485.772	928.94
485.99	917.94
486.209	909.94
486.427	911.94
486.645	914.94
486.863	921.94
487.081	919.94
487.299	920.94
487.517	914.94
487.735	892.94
487.953	914.94
488.171	934.94
488.389	890.94
488.607	887.94
488.825	899.94
489.043	892.94
489.261	900.94
489.479	898.94
489.696	893.94
489.914	899.94
490.132	886.94
490.35	902.94
490.568	895.94
490.786	904.94
491.003	924.94
491.221	940.94
491.439	894.94
491.657	880.94
491.874	914.94
492.092	892.94
492.31	917.94
492.527	931.94
492.745	922.94
492.963	942.94
493.18	904.94
493.398	905.94
493.615	960.94
493.833	918.94
494.05	930.94
494.268	938.94
494.485	951.94
494.703	957.94
494.92	939.94
495.138	950.94
495.355	943.94
495.573	914.94
495.79	952.94
496.008	955.94
496.225	953.94
496.442	945.94
496.66	987.94
496.877	952.94
497.094	978.94
497.312	1008.94
497.529	1024.94
497.746	1073.94
497.963	1072.94
498.181	1132.94
498.398	1200.94
498.615	1253.94
498.832	1338.94
499.049	1376.94
499.267	1526.94
499.484	1702.94
499.701	1874.94
499.918	2072.94
500.135	2459.94
500.352	2825.94
