Data from Ni(NO3)2@0.0625M.TitratingCurve.Agarose3%dH2O.NegLispCup.LampEnergy10.LIBS07252019_HRD10591_18-13-16-574.txt Node
Date: Thu Jul 25 18:13:16 EDT 2019
User: cochatt
Spectrometer: HR+D1059
Trigger mode: 1
Integration Time (sec): 1.000000E-1
Scans to average: 1
Electric dark correction enabled: true
Nonlinearity correction enabled: false
Boxcar width: 0
XAxis mode: Wavelengths
Number of Pixels in Spectrum: 2048
>>>>>Begin Spectral Data<<<<<
223.165	-5.75
223.4	-5.75
223.635	-5.75
223.869	-26.75
224.104	-23.75
224.338	-15.75
224.573	-14.75
224.808	-16.75
225.042	-18.75
225.277	-2.75
225.511	9.25
225.746	-7.75
225.98	21.25
226.215	17.25
226.449	19.25
226.683	13.25
226.918	18.25
227.152	34.25
227.387	31.25
227.621	46.25
227.856	40.25
228.09	53.25
228.324	49.25
228.559	50.25
228.793	63.25
229.027	125.25
229.262	119.25
229.496	137.25
229.73	127.25
229.964	138.25
230.199	143.25
230.433	162.25
230.667	141.25
230.901	154.25
231.136	135.25
231.37	144.25
231.604	148.25
231.838	153.25
232.072	149.25
232.306	164.25
232.541	133.25
232.775	166.25
233.009	154.25
233.243	161.25
233.477	162.25
233.711	157.25
233.945	154.25
234.179	157.25
234.413	171.25
234.647	185.25
234.881	169.25
235.115	175.25
235.349	162.25
235.583	173.25
235.817	167.25
236.051	161.25
236.285	169.25
236.519	165.25
236.753	171.25
236.987	182.25
237.221	158.25
237.455	163.25
237.689	189.25
237.922	177.25
238.156	192.25
238.39	178.25
238.624	171.25
238.858	192.25
239.091	196.25
239.325	186.25
239.559	192.25
239.793	201.25
240.027	179.25
240.26	185.25
240.494	199.25
240.728	208.25
240.961	205.25
241.195	211.25
241.429	204.25
241.662	197.25
241.896	220.25
242.13	217.25
242.363	210.25
242.597	206.25
242.83	222.25
243.064	226.25
243.298	224.25
243.531	226.25
243.765	228.25
243.998	238.25
244.232	258.25
244.465	244.25
244.699	232.25
244.932	259.25
245.166	247.25
245.399	255.25
245.633	251.25
245.866	229.25
246.099	230.25
246.333	250.25
246.566	265.25
246.8	261.25
247.033	257.25
247.266	245.25
247.5	262.25
247.733	251.25
247.966	254.25
248.2	261.25
248.433	287.25
248.666	266.25
248.899	281.25
249.133	280.25
249.366	283.25
249.599	294.25
249.832	296.25
250.066	299.25
250.299	285.25
250.532	298.25
250.765	289.25
250.998	283.25
251.231	288.25
251.465	298.25
251.698	301.25
251.931	289.25
252.164	290.25
252.397	301.25
252.63	301.25
252.863	312.25
253.096	307.25
253.329	323.25
253.562	310.25
253.795	319.25
254.028	319.25
254.261	313.25
254.494	332.25
254.727	323.25
254.96	311.25
255.193	313.25
255.426	308.25
255.659	354.25
255.892	318.25
256.124	326.25
256.357	347.25
256.59	322.25
256.823	358.25
257.056	330.25
257.289	340.25
257.521	329.25
257.754	351.25
257.987	346.25
258.22	354.25
258.452	343.25
258.685	355.25
258.918	349.25
259.151	348.25
259.383	357.25
259.616	356.25
259.849	353.25
260.081	342.25
260.314	357.25
260.547	353.25
260.779	361.25
261.012	369.25
261.244	365.25
261.477	367.25
261.71	366.25
261.942	368.25
262.175	401.25
262.407	375.25
262.64	370.25
262.872	383.25
263.105	392.25
263.337	381.25
263.57	409.25
263.802	397.25
264.035	388.25
264.267	396.25
264.499	406.25
264.732	420.25
264.964	409.25
265.197	421.25
265.429	416.25
265.661	423.25
265.894	401.25
266.126	392.25
266.358	404.25
266.591	408.25
266.823	426.25
267.055	435.25
267.287	427.25
267.52	408.25
267.752	431.25
267.984	438.25
268.216	435.25
268.448	436.25
268.681	443.25
268.913	446.25
269.145	424.25
269.377	454.25
269.609	442.25
269.841	424.25
270.073	414.25
270.306	434.25
270.538	440.25
270.77	431.25
271.002	422.25
271.234	443.25
271.466	426.25
271.698	421.25
271.93	453.25
272.162	458.25
272.394	435.25
272.626	433.25
272.858	439.25
273.09	450.25
273.322	474.25
273.553	458.25
273.785	479.25
274.017	460.25
274.249	471.25
274.481	470.25
274.713	466.25
274.945	488.25
275.176	476.25
275.408	465.25
275.64	487.25
275.872	505.25
276.104	502.25
276.335	486.25
276.567	474.25
276.799	483.25
277.031	490.25
277.262	493.25
277.494	495.25
277.726	497.25
277.957	506.25
278.189	521.25
278.421	507.25
278.652	513.25
278.884	506.25
279.115	496.25
279.347	504.25
279.579	507.25
279.81	502.25
280.042	516.25
280.273	524.25
280.505	543.25
280.736	524.25
280.968	504.25
281.199	530.25
281.431	529.25
281.662	522.25
281.894	548.25
282.125	549.25
282.356	530.25
282.588	559.25
282.819	528.25
283.051	589.25
283.282	551.25
283.513	541.25
283.745	548.25
283.976	529.25
284.207	559.25
284.439	554.25
284.67	563.25
284.901	573.25
285.132	576.25
285.364	562.25
285.595	553.25
285.826	559.25
286.057	568.25
286.288	559.25
286.52	586.25
286.751	601.25
286.982	595.25
287.213	578.25
287.444	601.25
287.675	584.25
287.906	581.25
288.138	631.25
288.369	599.25
288.6	598.25
288.831	592.25
289.062	599.25
289.293	607.25
289.524	619.25
289.755	614.25
289.986	598.25
290.217	608.25
290.448	611.25
290.679	623.25
290.91	595.25
291.141	610.25
291.371	594.25
291.602	633.25
291.833	599.25
292.064	600.25
292.295	614.25
292.526	623.25
292.757	625.25
292.987	607.25
293.218	609.25
293.449	594.25
293.68	595.25
293.91	633.25
294.141	622.25
294.372	604.25
294.603	631.25
294.833	615.25
295.064	633.25
295.295	637.25
295.525	621.25
295.756	644.25
295.987	631.25
296.217	642.25
296.448	641.25
296.679	641.25
296.909	645.25
297.14	660.25
297.37	660.25
297.601	665.25
297.831	660.25
298.062	648.25
298.292	676.25
298.523	705.25
298.753	703.25
298.984	677.25
299.214	660.25
299.445	679.25
299.675	658.25
299.905	669.25
300.136	680.25
300.366	679.25
300.597	695.25
300.827	705.25
301.057	698.25
301.288	692.25
301.518	713.25
301.748	703.25
301.979	713.25
302.209	744.25
302.439	702.25
302.669	707.25
302.9	678.25
303.13	679.25
303.36	700.25
303.59	693.25
303.82	708.25
304.051	683.25
304.281	698.25
304.511	703.25
304.741	703.25
304.971	706.25
305.201	685.25
305.431	687.25
305.661	706.25
305.891	682.25
306.121	686.25
306.352	688.25
306.582	663.25
306.812	685.25
307.042	687.25
307.272	665.25
307.502	672.25
307.731	671.25
307.961	689.25
308.191	658.25
308.421	669.25
308.651	680.25
308.881	699.25
309.111	675.25
309.341	695.25
309.571	656.25
309.8	698.25
310.03	701.25
310.26	673.25
310.49	676.25
310.72	691.25
310.949	677.25
311.179	679.25
311.409	687.25
311.639	699.25
311.868	702.25
312.098	690.25
312.328	672.25
312.557	707.25
312.787	730.25
313.017	710.25
313.246	731.25
313.476	710.25
313.706	767.25
313.935	727.25
314.165	726.25
314.394	751.25
314.624	747.25
314.853	713.25
315.083	742.25
315.312	738.25
315.542	726.25
315.771	711.25
316.001	737.25
316.23	720.25
316.46	715.25
316.689	724.25
316.919	720.25
317.148	719.25
317.377	711.25
317.607	700.25
317.836	745.25
318.065	731.25
318.295	730.25
318.524	708.25
318.753	687.25
318.983	721.25
319.212	683.25
319.441	714.25
319.67	695.25
319.9	709.25
320.129	698.25
320.358	740.25
320.587	699.25
320.816	701.25
321.046	726.25
321.275	720.25
321.504	719.25
321.733	735.25
321.962	721.25
322.191	714.25
322.42	697.25
322.649	710.25
322.878	727.25
323.108	733.25
323.337	743.25
323.566	758.25
323.795	749.25
324.024	745.25
324.253	739.25
324.482	726.25
324.71	735.25
324.939	755.25
325.168	781.25
325.397	765.25
325.626	753.25
325.855	756.25
326.084	781.25
326.313	779.25
326.542	769.25
326.77	815.25
326.999	813.25
327.228	782.25
327.457	756.25
327.686	795.25
327.914	792.25
328.143	835.25
328.372	797.25
328.6	802.25
328.829	796.25
329.058	805.25
329.287	790.25
329.515	798.25
329.744	810.25
329.972	776.25
330.201	807.25
330.43	813.25
330.658	835.25
330.887	811.25
331.115	831.25
331.344	838.25
331.572	827.25
331.801	877.25
332.03	893.25
332.258	892.25
332.486	907.25
332.715	958.25
332.943	957.25
333.172	1042.25
333.4	1058.25
333.629	1103.25
333.857	1113.25
334.085	1098.25
334.314	1057.25
334.542	1028.25
334.771	1051.25
334.999	1013.25
335.227	997.25
335.455	999.25
335.684	983.25
335.912	977.25
336.14	962.25
336.369	945.25
336.597	977.25
336.825	968.25
337.053	935.25
337.281	938.25
337.51	913.25
337.738	891.25
337.966	901.25
338.194	867.25
338.422	892.25
338.65	866.25
338.878	857.25
339.106	860.25
339.334	879.25
339.562	859.25
339.79	832.25
340.018	829.25
340.246	840.25
340.474	841.25
340.702	820.25
340.93	838.25
341.158	857.25
341.386	833.25
341.614	842.25
341.842	837.25
342.07	818.25
342.298	824.25
342.526	815.25
342.754	823.25
342.981	842.25
343.209	839.25
343.437	866.25
343.665	935.25
343.893	1027.25
344.12	1081.25
344.348	1028.25
344.576	949.25
344.804	905.25
345.031	895.25
345.259	867.25
345.487	858.25
345.714	850.25
345.942	823.25
346.17	832.25
346.397	829.25
346.625	807.25
346.853	795.25
347.08	814.25
347.308	788.25
347.535	810.25
347.763	819.25
347.99	834.25
348.218	838.25
348.445	816.25
348.673	814.25
348.9	816.25
349.128	808.25
349.355	804.25
349.583	803.25
349.81	790.25
350.037	785.25
350.265	783.25
350.492	782.25
350.72	769.25
350.947	775.25
351.174	794.25
351.402	789.25
351.629	793.25
351.856	775.25
352.083	770.25
352.311	774.25
352.538	758.25
352.765	779.25
352.992	782.25
353.22	767.25
353.447	764.25
353.674	761.25
353.901	761.25
354.128	797.25
354.355	769.25
354.583	773.25
354.81	792.25
355.037	767.25
355.264	796.25
355.491	798.25
355.718	780.25
355.945	789.25
356.172	793.25
356.399	754.25
356.626	769.25
356.853	802.25
357.08	783.25
357.307	798.25
357.534	796.25
357.761	766.25
357.988	769.25
358.215	789.25
358.441	759.25
358.668	785.25
358.895	792.25
359.122	787.25
359.349	778.25
359.576	777.25
359.802	792.25
360.029	785.25
360.256	794.25
360.483	772.25
360.709	772.25
360.936	790.25
361.163	786.25
361.39	776.25
361.616	747.25
361.843	773.25
362.07	757.25
362.296	791.25
362.523	762.25
362.749	799.25
362.976	759.25
363.203	775.25
363.429	792.25
363.656	781.25
363.882	782.25
364.109	767.25
364.335	768.25
364.562	783.25
364.788	774.25
365.015	787.25
365.241	768.25
365.468	779.25
365.694	752.25
365.92	766.25
366.147	767.25
366.373	789.25
366.599	786.25
366.826	788.25
367.052	777.25
367.278	745.25
367.505	785.25
367.731	756.25
367.957	785.25
368.184	767.25
368.41	792.25
368.636	761.25
368.862	788.25
369.089	791.25
369.315	821.25
369.541	797.25
369.767	847.25
369.993	801.25
370.219	815.25
370.445	833.25
370.672	813.25
370.898	826.25
371.124	837.25
371.35	845.25
371.576	844.25
371.802	863.25
372.028	833.25
372.254	825.25
372.48	822.25
372.706	833.25
372.932	875.25
373.158	884.25
373.384	859.25
373.61	833.25
373.835	841.25
374.061	817.25
374.287	850.25
374.513	833.25
374.739	872.25
374.965	908.25
375.191	957.25
375.416	943.25
375.642	886.25
375.868	915.25
376.094	877.25
376.319	864.25
376.545	879.25
376.771	861.25
376.997	869.25
377.222	878.25
377.448	857.25
377.674	839.25
377.899	850.25
378.125	833.25
378.35	839.25
378.576	839.25
378.802	814.25
379.027	833.25
379.253	878.25
379.478	827.25
379.704	833.25
379.929	819.25
380.155	821.25
380.38	831.25
380.606	850.25
380.831	838.25
381.057	849.25
381.282	851.25
381.507	832.25
381.733	859.25
381.958	873.25
382.184	884.25
382.409	879.25
382.634	900.25
382.86	885.25
383.085	887.25
383.31	902.25
383.535	922.25
383.761	937.25
383.986	980.25
384.211	1010.25
384.436	980.25
384.662	1053.25
384.887	1039.25
385.112	1049.25
385.337	1007.25
385.562	1046.25
385.787	1007.25
386.013	1043.25
386.238	1034.25
386.463	1040.25
386.688	1039.25
386.913	1002.25
387.138	1025.25
387.363	1046.25
387.588	1035.25
387.813	977.25
388.038	982.25
388.263	1020.25
388.488	1014.25
388.713	998.25
388.938	978.25
389.163	1010.25
389.387	1017.25
389.612	1000.25
389.837	996.25
390.062	983.25
390.287	994.25
390.512	996.25
390.736	1005.25
390.961	974.25
391.186	1021.25
391.411	1054.25
391.636	1081.25
391.86	1129.25
392.085	1172.25
392.31	1153.25
392.534	1116.25
392.759	1111.25
392.984	1082.25
393.208	1063.25
393.433	1097.25
393.658	1086.25
393.882	1086.25
394.107	1102.25
394.331	1103.25
394.556	1070.25
394.78	1077.25
395.005	1113.25
395.229	1108.25
395.454	1105.25
395.678	1164.25
395.903	1167.25
396.127	1130.25
396.352	1081.25
396.576	1060.25
396.801	1053.25
397.025	1117.25
397.249	1095.25
397.474	1126.25
397.698	1134.25
397.922	1138.25
398.147	1124.25
398.371	1159.25
398.595	1179.25
398.82	1226.25
399.044	1346.25
399.268	1488.25
399.492	1803.25
399.717	2076.25
399.941	2037.25
400.165	1757.25
400.389	1567.25
400.613	1415.25
400.837	1353.25
401.062	1317.25
401.286	1311.25
401.51	1256.25
401.734	1298.25
401.958	1317.25
402.182	1337.25
402.406	1305.25
402.63	1354.25
402.854	1377.25
403.078	1391.25
403.302	1441.25
403.526	1470.25
403.75	1489.25
403.974	1512.25
404.198	1538.25
404.422	1530.25
404.645	1503.25
404.869	1489.25
405.093	1492.25
405.317	1447.25
405.541	1413.25
405.765	1439.25
405.988	1404.25
406.212	1439.25
406.436	1400.25
406.66	1434.25
406.883	1437.25
407.107	1570.25
407.331	1608.25
407.555	1720.25
407.778	1680.25
408.002	1670.25
408.226	1537.25
408.449	1569.25
408.673	1479.25
408.896	1457.25
409.12	1417.25
409.344	1454.25
409.567	1461.25
409.791	1455.25
410.014	1485.25
410.238	1473.25
410.461	1438.25
410.685	1433.25
410.908	1349.25
411.132	1393.25
411.355	1344.25
411.578	1305.25
411.802	1327.25
412.025	1347.25
412.249	1393.25
412.472	1354.25
412.695	1305.25
412.919	1277.25
413.142	1283.25
413.365	1283.25
413.589	1282.25
413.812	1266.25
414.035	1261.25
414.258	1275.25
414.482	1256.25
414.705	1311.25
414.928	1297.25
415.151	1315.25
415.374	1287.25
415.597	1272.25
415.821	1236.25
416.044	1254.25
416.267	1235.25
416.49	1237.25
416.713	1203.25
416.936	1263.25
417.159	1246.25
417.382	1245.25
417.605	1251.25
417.828	1263.25
418.051	1295.25
418.274	1291.25
418.497	1282.25
418.72	1318.25
418.943	1303.25
419.166	1348.25
419.389	1508.25
419.611	1431.25
419.834	1351.25
420.057	1325.25
420.28	1259.25
420.503	1239.25
420.726	1257.25
420.948	1253.25
421.171	1242.25
421.394	1250.25
421.617	1246.25
421.839	1276.25
422.062	1253.25
422.285	1260.25
422.507	1330.25
422.73	1305.25
422.953	1287.25
423.175	1354.25
423.398	1352.25
423.621	1360.25
423.843	1381.25
424.066	1393.25
424.288	1370.25
424.511	1348.25
424.733	1342.25
424.956	1295.25
425.178	1317.25
425.401	1267.25
425.623	1241.25
425.846	1245.25
426.068	1208.25
426.291	1210.25
426.513	1190.25
426.735	1215.25
426.958	1185.25
427.18	1155.25
427.402	1145.25
427.625	1181.25
427.847	1099.25
428.069	1133.25
428.292	1145.25
428.514	1107.25
428.736	1098.25
428.958	1133.25
429.181	1062.25
429.403	1091.25
429.625	1093.25
429.847	1069.25
430.069	1086.25
430.292	1105.25
430.514	1087.25
430.736	1110.25
430.958	1091.25
431.18	1078.25
431.402	1126.25
431.624	1085.25
431.846	1087.25
432.068	1121.25
432.29	1123.25
432.512	1144.25
432.734	1114.25
432.956	1105.25
433.178	1099.25
433.4	1143.25
433.622	1120.25
433.844	1143.25
434.066	1139.25
434.287	1157.25
434.509	1187.25
434.731	1245.25
434.953	1281.25
435.175	1281.25
435.397	1272.25
435.618	1185.25
435.84	1160.25
436.062	1179.25
436.284	1126.25
436.505	1113.25
436.727	1108.25
436.949	1161.25
437.17	1143.25
437.392	1102.25
437.614	1071.25
437.835	1090.25
438.057	1093.25
438.278	1044.25
438.5	1075.25
438.721	1069.25
438.943	1085.25
439.165	1046.25
439.386	1111.25
439.608	1122.25
439.829	1107.25
440.05	1091.25
440.272	1149.25
440.493	1151.25
440.715	1135.25
440.936	1155.25
441.158	1157.25
441.379	1242.25
441.6	1280.25
441.822	1299.25
442.043	1297.25
442.264	1237.25
442.486	1210.25
442.707	1226.25
442.928	1255.25
443.149	1269.25
443.371	1236.25
443.592	1290.25
443.813	1286.25
444.034	1304.25
444.255	1305.25
444.476	1432.25
444.698	1467.25
444.919	1557.25
445.14	1602.25
445.361	1466.25
445.582	1340.25
445.803	1269.25
446.024	1207.25
446.245	1191.25
446.466	1187.25
446.687	1112.25
446.908	1125.25
447.129	1117.25
447.35	1125.25
447.571	1076.25
447.792	1057.25
448.013	1066.25
448.234	1011.25
448.455	1043.25
448.675	1049.25
448.896	1060.25
449.117	1034.25
449.338	1030.25
449.559	1020.25
449.779	996.25
450	1024.25
450.221	989.25
450.442	1034.25
450.662	1039.25
450.883	1030.25
451.104	1073.25
451.324	1096.25
451.545	1045.25
451.766	1045.25
451.986	1033.25
452.207	1014.25
452.428	1021.25
452.648	1047.25
452.869	1023.25
453.089	985.25
453.31	1017.25
453.53	1009.25
453.751	1020.25
453.971	1009.25
454.192	984.25
454.412	950.25
454.633	982.25
454.853	1005.25
455.073	969.25
455.294	984.25
455.514	950.25
455.734	965.25
455.955	990.25
456.175	971.25
456.395	940.25
456.616	945.25
456.836	964.25
457.056	941.25
457.276	951.25
457.497	971.25
457.717	948.25
457.937	947.25
458.157	965.25
458.377	995.25
458.598	1031.25
458.818	1027.25
459.038	1069.25
459.258	1106.25
459.478	1136.25
459.698	1177.25
459.918	1193.25
460.138	1225.25
460.358	1342.25
460.578	1364.25
460.798	1377.25
461.018	1409.25
461.238	1328.25
461.458	1322.25
461.678	1298.25
461.898	1307.25
462.118	1356.25
462.338	1440.25
462.558	1459.25
462.777	1498.25
462.997	1644.25
463.217	1878.25
463.437	1877.25
463.657	1676.25
463.876	1577.25
464.096	1572.25
464.316	1569.25
464.536	1615.25
464.755	1502.25
464.975	1480.25
465.195	1383.25
465.414	1331.25
465.634	1230.25
465.854	1191.25
466.073	1167.25
466.293	1151.25
466.512	1114.25
466.732	1089.25
466.951	1058.25
467.171	1072.25
467.391	1103.25
467.61	1053.25
467.829	1081.25
468.049	1065.25
468.268	998.25
468.488	1036.25
468.707	988.25
468.927	1018.25
469.146	1029.25
469.365	1025.25
469.585	1047.25
469.804	1073.25
470.023	1071.25
470.243	1078.25
470.462	1101.25
470.681	1115.25
470.901	1138.25
471.12	1104.25
471.339	1093.25
471.558	1063.25
471.777	1025.25
471.997	1032.25
472.216	1033.25
472.435	1019.25
472.654	991.25
472.873	960.25
473.092	978.25
473.311	1010.25
473.53	971.25
473.749	996.25
473.968	995.25
474.187	986.25
474.406	997.25
474.625	1012.25
474.844	991.25
475.063	999.25
475.282	984.25
475.501	1020.25
475.72	1019.25
475.939	1025.25
476.158	1042.25
476.377	1045.25
476.596	1058.25
476.814	1059.25
477.033	1045.25
477.252	1078.25
477.471	1089.25
477.69	1136.25
477.908	1159.25
478.127	1222.25
478.346	1197.25
478.564	1242.25
478.783	1234.25
479.002	1291.25
479.22	1302.25
479.439	1297.25
479.658	1258.25
479.876	1277.25
480.095	1285.25
480.313	1341.25
480.532	1434.25
480.751	1471.25
480.969	1315.25
481.188	1279.25
481.406	1230.25
481.624	1204.25
481.843	1194.25
482.061	1165.25
482.28	1125.25
482.498	1153.25
482.717	1161.25
482.935	1145.25
483.153	1161.25
483.372	1142.25
483.59	1139.25
483.808	1158.25
484.027	1149.25
484.245	1144.25
484.463	1149.25
484.681	1159.25
484.9	1191.25
485.118	1188.25
485.336	1203.25
485.554	1209.25
485.772	1208.25
485.99	1224.25
486.209	1218.25
486.427	1233.25
486.645	1239.25
486.863	1225.25
487.081	1213.25
487.299	1204.25
487.517	1217.25
487.735	1222.25
487.953	1205.25
488.171	1211.25
488.389	1206.25
488.607	1185.25
488.825	1173.25
489.043	1153.25
489.261	1148.25
489.479	1225.25
489.696	1213.25
489.914	1184.25
490.132	1193.25
490.35	1225.25
490.568	1181.25
490.786	1191.25
491.003	1200.25
491.221	1187.25
491.439	1197.25
491.657	1226.25
491.874	1215.25
492.092	1234.25
492.31	1191.25
492.527	1241.25
492.745	1270.25
492.963	1252.25
493.18	1258.25
493.398	1251.25
493.615	1251.25
493.833	1258.25
494.05	1307.25
494.268	1256.25
494.485	1258.25
494.703	1252.25
494.92	1273.25
495.138	1242.25
