Data from Ni(NO3)2@0.125M.TitratingCurve.Agarose3%dH2O.NegLispCup.LampEnergy10.LIBS07252019_HRD10591_18-09-07-568.txt Node
Date: Thu Jul 25 18:09:07 EDT 2019
User: cochatt
Spectrometer: HR+D1059
Trigger mode: 1
Integration Time (sec): 1.000000E-1
Scans to average: 1
Electric dark correction enabled: true
Nonlinearity correction enabled: false
Boxcar width: 0
XAxis mode: Wavelengths
Number of Pixels in Spectrum: 2048
>>>>>Begin Spectral Data<<<<<
223.165	-13.25
223.4	-13.25
223.635	-13.25
223.869	-14.25
224.104	-13.25
224.338	-8.25
224.573	-28.25
224.808	-18.25
225.042	-12.25
225.277	-8.25
225.511	1.75
225.746	6.75
225.98	7.75
226.215	16.75
226.449	9.75
226.683	18.75
226.918	19.75
227.152	34.75
227.387	36.75
227.621	31.75
227.856	52.75
228.09	54.75
228.324	48.75
228.559	45.75
228.793	67.75
229.027	96.75
229.262	98.75
229.496	105.75
229.73	81.75
229.964	95.75
230.199	103.75
230.433	118.75
230.667	121.75
230.901	117.75
231.136	113.75
231.37	127.75
231.604	117.75
231.838	132.75
232.072	124.75
232.306	137.75
232.541	124.75
232.775	122.75
233.009	109.75
233.243	130.75
233.477	139.75
233.711	124.75
233.945	136.75
234.179	145.75
234.413	141.75
234.647	123.75
234.881	126.75
235.115	145.75
235.349	131.75
235.583	132.75
235.817	130.75
236.051	135.75
236.285	145.75
236.519	127.75
236.753	153.75
236.987	133.75
237.221	129.75
237.455	146.75
237.689	145.75
237.922	133.75
238.156	140.75
238.39	161.75
238.624	141.75
238.858	130.75
239.091	127.75
239.325	140.75
239.559	153.75
239.793	150.75
240.027	143.75
240.26	165.75
240.494	168.75
240.728	146.75
240.961	136.75
241.195	151.75
241.429	149.75
241.662	163.75
241.896	160.75
242.13	156.75
242.363	145.75
242.597	168.75
242.83	153.75
243.064	168.75
243.298	158.75
243.531	168.75
243.765	169.75
243.998	185.75
244.232	177.75
244.465	185.75
244.699	179.75
244.932	181.75
245.166	175.75
245.399	181.75
245.633	179.75
245.866	172.75
246.099	178.75
246.333	190.75
246.566	168.75
246.8	172.75
247.033	182.75
247.266	198.75
247.5	192.75
247.733	204.75
247.966	199.75
248.2	202.75
248.433	199.75
248.666	188.75
248.899	185.75
249.133	223.75
249.366	183.75
249.599	194.75
249.832	203.75
250.066	208.75
250.299	193.75
250.532	214.75
250.765	200.75
250.998	214.75
251.231	225.75
251.465	211.75
251.698	221.75
251.931	219.75
252.164	222.75
252.397	231.75
252.63	231.75
252.863	227.75
253.096	221.75
253.329	240.75
253.562	237.75
253.795	237.75
254.028	221.75
254.261	233.75
254.494	231.75
254.727	227.75
254.96	247.75
255.193	243.75
255.426	222.75
255.659	226.75
255.892	246.75
256.124	253.75
256.357	243.75
256.59	236.75
256.823	232.75
257.056	244.75
257.289	251.75
257.521	266.75
257.754	233.75
257.987	223.75
258.22	245.75
258.452	249.75
258.685	250.75
258.918	231.75
259.151	256.75
259.383	240.75
259.616	257.75
259.849	248.75
260.081	252.75
260.314	254.75
260.547	264.75
260.779	251.75
261.012	261.75
261.244	282.75
261.477	272.75
261.71	250.75
261.942	267.75
262.175	280.75
262.407	264.75
262.64	263.75
262.872	281.75
263.105	292.75
263.337	274.75
263.57	277.75
263.802	277.75
264.035	281.75
264.267	276.75
264.499	278.75
264.732	275.75
264.964	280.75
265.197	275.75
265.429	284.75
265.661	300.75
265.894	284.75
266.126	287.75
266.358	288.75
266.591	283.75
266.823	291.75
267.055	290.75
267.287	299.75
267.52	296.75
267.752	284.75
267.984	305.75
268.216	283.75
268.448	300.75
268.681	301.75
268.913	309.75
269.145	280.75
269.377	314.75
269.609	311.75
269.841	289.75
270.073	303.75
270.306	282.75
270.538	299.75
270.77	304.75
271.002	313.75
271.234	308.75
271.466	307.75
271.698	314.75
271.93	327.75
272.162	321.75
272.394	313.75
272.626	331.75
272.858	308.75
273.09	310.75
273.322	327.75
273.553	315.75
273.785	334.75
274.017	315.75
274.249	324.75
274.481	339.75
274.713	343.75
274.945	349.75
275.176	345.75
275.408	344.75
275.64	344.75
275.872	332.75
276.104	355.75
276.335	347.75
276.567	322.75
276.799	341.75
277.031	349.75
277.262	342.75
277.494	357.75
277.726	351.75
277.957	352.75
278.189	333.75
278.421	354.75
278.652	343.75
278.884	348.75
279.115	367.75
279.347	357.75
279.579	345.75
279.81	351.75
280.042	355.75
280.273	356.75
280.505	352.75
280.736	354.75
280.968	377.75
281.199	348.75
281.431	369.75
281.662	360.75
281.894	376.75
282.125	375.75
282.356	376.75
282.588	370.75
282.819	379.75
283.051	387.75
283.282	356.75
283.513	374.75
283.745	383.75
283.976	379.75
284.207	380.75
284.439	384.75
284.67	384.75
284.901	387.75
285.132	376.75
285.364	387.75
285.595	407.75
285.826	387.75
286.057	399.75
286.288	422.75
286.52	402.75
286.751	384.75
286.982	393.75
287.213	372.75
287.444	399.75
287.675	407.75
287.906	407.75
288.138	394.75
288.369	410.75
288.6	413.75
288.831	412.75
289.062	400.75
289.293	401.75
289.524	419.75
289.755	421.75
289.986	402.75
290.217	411.75
290.448	419.75
290.679	415.75
290.91	409.75
291.141	404.75
291.371	426.75
291.602	417.75
291.833	421.75
292.064	396.75
292.295	416.75
292.526	419.75
292.757	415.75
292.987	418.75
293.218	421.75
293.449	407.75
293.68	436.75
293.91	436.75
294.141	421.75
294.372	426.75
294.603	413.75
294.833	433.75
295.064	416.75
295.295	412.75
295.525	410.75
295.756	441.75
295.987	440.75
296.217	447.75
296.448	447.75
296.679	441.75
296.909	436.75
297.14	445.75
297.37	456.75
297.601	464.75
297.831	449.75
298.062	452.75
298.292	468.75
298.523	478.75
298.753	468.75
298.984	453.75
299.214	458.75
299.445	470.75
299.675	449.75
299.905	443.75
300.136	452.75
300.366	471.75
300.597	464.75
300.827	472.75
301.057	473.75
301.288	485.75
301.518	468.75
301.748	484.75
301.979	471.75
302.209	495.75
302.439	471.75
302.669	459.75
302.9	458.75
303.13	471.75
303.36	492.75
303.59	506.75
303.82	464.75
304.051	460.75
304.281	485.75
304.511	472.75
304.741	469.75
304.971	471.75
305.201	475.75
305.431	463.75
305.661	459.75
305.891	490.75
306.121	456.75
306.352	466.75
306.582	475.75
306.812	452.75
307.042	453.75
307.272	449.75
307.502	461.75
307.731	461.75
307.961	454.75
308.191	471.75
308.421	471.75
308.651	470.75
308.881	477.75
309.111	458.75
309.341	461.75
309.571	463.75
309.8	460.75
310.03	473.75
310.26	465.75
310.49	471.75
310.72	461.75
310.949	458.75
311.179	491.75
311.409	479.75
311.639	474.75
311.868	467.75
312.098	459.75
312.328	500.75
312.557	499.75
312.787	496.75
313.017	500.75
313.246	488.75
313.476	505.75
313.706	507.75
313.935	517.75
314.165	528.75
314.394	504.75
314.624	516.75
314.853	498.75
315.083	484.75
315.312	497.75
315.542	500.75
315.771	491.75
316.001	482.75
316.23	497.75
316.46	512.75
316.689	503.75
316.919	497.75
317.148	505.75
317.377	514.75
317.607	507.75
317.836	506.75
318.065	504.75
318.295	493.75
318.524	503.75
318.753	482.75
318.983	470.75
319.212	470.75
319.441	492.75
319.67	478.75
319.9	482.75
320.129	499.75
320.358	497.75
320.587	482.75
320.816	497.75
321.046	506.75
321.275	523.75
321.504	519.75
321.733	490.75
321.962	511.75
322.191	518.75
322.42	501.75
322.649	513.75
322.878	491.75
323.108	489.75
323.337	513.75
323.566	515.75
323.795	517.75
324.024	507.75
324.253	515.75
324.482	519.75
324.71	545.75
324.939	514.75
325.168	537.75
325.397	519.75
325.626	529.75
325.855	554.75
326.084	567.75
326.313	563.75
326.542	565.75
326.77	577.75
326.999	556.75
327.228	543.75
327.457	549.75
327.686	541.75
327.914	564.75
328.143	552.75
328.372	556.75
328.6	541.75
328.829	536.75
329.058	564.75
329.287	558.75
329.515	555.75
329.744	547.75
329.972	563.75
330.201	598.75
330.43	585.75
330.658	555.75
330.887	556.75
331.115	592.75
331.344	573.75
331.572	594.75
331.801	610.75
332.03	604.75
332.258	623.75
332.486	633.75
332.715	668.75
332.943	650.75
333.172	704.75
333.4	761.75
333.629	769.75
333.857	752.75
334.085	731.75
334.314	714.75
334.542	691.75
334.771	706.75
334.999	681.75
335.227	679.75
335.455	667.75
335.684	714.75
335.912	687.75
336.14	671.75
336.369	675.75
336.597	672.75
336.825	693.75
337.053	663.75
337.281	649.75
337.51	635.75
337.738	649.75
337.966	647.75
338.194	633.75
338.422	607.75
338.65	615.75
338.878	629.75
339.106	603.75
339.334	633.75
339.562	621.75
339.79	589.75
340.018	577.75
340.246	573.75
340.474	589.75
340.702	595.75
340.93	588.75
341.158	607.75
341.386	603.75
341.614	583.75
341.842	605.75
342.07	601.75
342.298	586.75
342.526	595.75
342.754	590.75
342.981	593.75
343.209	605.75
343.437	632.75
343.665	657.75
343.893	714.75
344.12	739.75
344.348	721.75
344.576	651.75
344.804	659.75
345.031	618.75
345.259	624.75
345.487	599.75
345.714	600.75
345.942	580.75
346.17	612.75
346.397	569.75
346.625	591.75
346.853	578.75
347.08	588.75
347.308	572.75
347.535	595.75
347.763	583.75
347.99	582.75
348.218	584.75
348.445	577.75
348.673	580.75
348.9	573.75
349.128	565.75
349.355	554.75
349.583	563.75
349.81	559.75
350.037	562.75
350.265	566.75
350.492	549.75
350.72	554.75
350.947	559.75
351.174	549.75
351.402	549.75
351.629	536.75
351.856	568.75
352.083	551.75
352.311	551.75
352.538	574.75
352.765	568.75
352.992	548.75
353.22	534.75
353.447	560.75
353.674	547.75
353.901	546.75
354.128	539.75
354.355	536.75
354.583	540.75
354.81	557.75
355.037	569.75
355.264	564.75
355.491	543.75
355.718	576.75
355.945	565.75
356.172	559.75
356.399	566.75
356.626	578.75
356.853	559.75
357.08	541.75
357.307	561.75
357.534	556.75
357.761	551.75
357.988	557.75
358.215	555.75
358.441	575.75
358.668	544.75
358.895	546.75
359.122	545.75
359.349	544.75
359.576	557.75
359.802	545.75
360.029	547.75
360.256	552.75
360.483	547.75
360.709	566.75
360.936	554.75
361.163	549.75
361.39	535.75
361.616	551.75
361.843	538.75
362.07	563.75
362.296	549.75
362.523	533.75
362.749	553.75
362.976	551.75
363.203	545.75
363.429	553.75
363.656	544.75
363.882	536.75
364.109	552.75
364.335	565.75
364.562	563.75
364.788	551.75
365.015	532.75
365.241	562.75
365.468	538.75
365.694	557.75
365.92	557.75
366.147	519.75
366.373	552.75
366.599	551.75
366.826	528.75
367.052	554.75
367.278	544.75
367.505	553.75
367.731	553.75
367.957	543.75
368.184	544.75
368.41	551.75
368.636	577.75
368.862	574.75
369.089	561.75
369.315	577.75
369.541	575.75
369.767	578.75
369.993	580.75
370.219	569.75
370.445	564.75
370.672	580.75
370.898	569.75
371.124	593.75
371.35	603.75
371.576	631.75
371.802	592.75
372.028	600.75
372.254	585.75
372.48	593.75
372.706	616.75
372.932	603.75
373.158	614.75
373.384	592.75
373.61	587.75
373.835	585.75
374.061	618.75
374.287	616.75
374.513	604.75
374.739	615.75
374.965	670.75
375.191	677.75
375.416	637.75
375.642	637.75
375.868	633.75
376.094	613.75
376.319	615.75
376.545	612.75
376.771	600.75
376.997	615.75
377.222	609.75
377.448	591.75
377.674	606.75
377.899	582.75
378.125	594.75
378.35	625.75
378.576	596.75
378.802	581.75
379.027	604.75
379.253	599.75
379.478	580.75
379.704	575.75
379.929	598.75
380.155	606.75
380.38	593.75
380.606	578.75
380.831	566.75
381.057	589.75
381.282	587.75
381.507	576.75
381.733	599.75
381.958	606.75
382.184	611.75
382.409	614.75
382.634	618.75
382.86	614.75
383.085	641.75
383.31	635.75
383.535	670.75
383.761	655.75
383.986	653.75
384.211	668.75
384.436	649.75
384.662	722.75
384.887	721.75
385.112	707.75
385.337	715.75
385.562	696.75
385.787	712.75
386.013	734.75
386.238	724.75
386.463	694.75
386.688	718.75
386.913	717.75
387.138	695.75
387.363	707.75
387.588	704.75
387.813	684.75
388.038	702.75
388.263	684.75
388.488	691.75
388.713	701.75
388.938	698.75
389.163	679.75
389.387	691.75
389.612	671.75
389.837	708.75
390.062	696.75
390.287	707.75
390.512	687.75
390.736	693.75
390.961	711.75
391.186	716.75
391.411	758.75
391.636	751.75
391.86	774.75
392.085	765.75
392.31	782.75
392.534	782.75
392.759	769.75
392.984	769.75
393.208	747.75
393.433	754.75
393.658	755.75
393.882	760.75
394.107	763.75
394.331	773.75
394.556	771.75
394.78	768.75
395.005	775.75
395.229	753.75
395.454	770.75
395.678	803.75
395.903	809.75
396.127	759.75
396.352	747.75
396.576	753.75
396.801	730.75
397.025	771.75
397.249	756.75
397.474	801.75
397.698	811.75
397.922	792.75
398.147	792.75
398.371	801.75
398.595	825.75
398.82	875.75
399.044	910.75
399.268	1027.75
399.492	1211.75
399.717	1343.75
399.941	1355.75
400.165	1175.75
400.389	1039.75
400.613	979.75
400.837	939.75
401.062	905.75
401.286	861.75
401.51	881.75
401.734	883.75
401.958	874.75
402.182	907.75
402.406	884.75
402.63	930.75
402.854	940.75
403.078	951.75
403.302	1000.75
403.526	1003.75
403.75	1002.75
403.974	1008.75
404.198	1029.75
404.422	1031.75
404.645	1021.75
404.869	994.75
405.093	1000.75
405.317	955.75
405.541	1003.75
405.765	953.75
405.988	960.75
406.212	979.75
406.436	991.75
406.66	988.75
406.883	967.75
407.107	1039.75
407.331	1126.75
407.555	1145.75
407.778	1128.75
408.002	1109.75
408.226	1096.75
408.449	1027.75
408.673	1002.75
408.896	986.75
409.12	1009.75
409.344	1025.75
409.567	1010.75
409.791	1047.75
410.014	1004.75
410.238	1009.75
410.461	1031.75
410.685	991.75
410.908	966.75
411.132	937.75
411.355	962.75
411.578	948.75
411.802	918.75
412.025	919.75
412.249	942.75
412.472	948.75
412.695	898.75
412.919	894.75
413.142	884.75
413.365	890.75
413.589	890.75
413.812	905.75
414.035	856.75
414.258	874.75
414.482	895.75
414.705	925.75
414.928	907.75
415.151	899.75
415.374	881.75
415.597	907.75
415.821	867.75
416.044	855.75
416.267	844.75
416.49	862.75
416.713	886.75
416.936	889.75
417.159	885.75
417.382	879.75
417.605	853.75
417.828	900.75
418.051	866.75
418.274	886.75
418.497	871.75
418.72	897.75
418.943	902.75
419.166	944.75
419.389	1044.75
419.611	994.75
419.834	963.75
420.057	962.75
420.28	901.75
420.503	851.75
420.726	886.75
420.948	867.75
421.171	887.75
421.394	865.75
421.617	873.75
421.839	875.75
422.062	884.75
422.285	876.75
422.507	907.75
422.73	897.75
422.953	916.75
423.175	944.75
423.398	945.75
423.621	935.75
423.843	962.75
424.066	952.75
424.288	915.75
424.511	939.75
424.733	910.75
424.956	907.75
425.178	920.75
425.401	883.75
425.623	911.75
425.846	853.75
426.068	872.75
426.291	867.75
426.513	882.75
426.735	842.75
426.958	842.75
427.18	811.75
427.402	816.75
427.625	806.75
427.847	785.75
428.069	799.75
428.292	826.75
428.514	799.75
428.736	784.75
428.958	785.75
429.181	771.75
429.403	783.75
429.625	773.75
429.847	754.75
430.069	774.75
430.292	779.75
430.514	760.75
430.736	765.75
430.958	781.75
431.18	776.75
431.402	779.75
431.624	796.75
431.846	824.75
432.068	810.75
432.29	799.75
432.512	791.75
432.734	812.75
432.956	811.75
433.178	832.75
433.4	838.75
433.622	779.75
433.844	802.75
434.066	833.75
434.287	826.75
434.509	835.75
434.731	884.75
434.953	885.75
435.175	893.75
435.397	903.75
435.618	843.75
435.84	810.75
436.062	815.75
436.284	811.75
436.505	823.75
436.727	832.75
436.949	821.75
437.17	812.75
437.392	804.75
437.614	801.75
437.835	792.75
438.057	767.75
438.278	759.75
438.5	761.75
438.721	771.75
438.943	777.75
439.165	778.75
439.386	782.75
439.608	780.75
439.829	809.75
440.05	802.75
440.272	829.75
440.493	801.75
440.715	831.75
440.936	839.75
441.158	851.75
441.379	870.75
441.6	929.75
441.822	923.75
442.043	901.75
442.264	897.75
442.486	876.75
442.707	890.75
442.928	917.75
443.149	898.75
443.371	905.75
443.592	908.75
443.813	912.75
444.034	919.75
444.255	931.75
444.476	996.75
444.698	1041.75
444.919	1109.75
445.14	1166.75
445.361	1041.75
445.582	951.75
445.803	870.75
446.024	858.75
446.245	899.75
446.466	836.75
446.687	824.75
446.908	805.75
447.129	793.75
447.35	777.75
447.571	796.75
447.792	769.75
448.013	757.75
448.234	744.75
448.455	748.75
448.675	733.75
448.896	773.75
449.117	738.75
449.338	718.75
449.559	740.75
449.779	736.75
450	752.75
450.221	747.75
450.442	756.75
450.662	737.75
450.883	769.75
451.104	772.75
451.324	771.75
451.545	778.75
451.766	754.75
451.986	775.75
452.207	779.75
452.428	754.75
452.648	741.75
452.869	761.75
453.089	731.75
453.31	749.75
453.53	726.75
453.751	720.75
453.971	725.75
454.192	699.75
454.412	710.75
454.633	710.75
454.853	705.75
455.073	699.75
455.294	703.75
455.514	691.75
455.734	688.75
455.955	707.75
456.175	693.75
456.395	675.75
456.616	725.75
456.836	671.75
457.056	695.75
457.276	679.75
457.497	685.75
457.717	697.75
457.937	674.75
458.157	701.75
458.377	687.75
458.598	728.75
458.818	713.75
459.038	753.75
459.258	754.75
459.478	820.75
459.698	824.75
459.918	842.75
460.138	893.75
460.358	948.75
460.578	961.75
460.798	964.75
461.018	957.75
461.238	940.75
461.458	929.75
461.678	927.75
461.898	961.75
462.118	947.75
462.338	1016.75
462.558	1050.75
462.777	1085.75
462.997	1153.75
463.217	1305.75
463.437	1268.75
463.657	1195.75
463.876	1104.75
464.096	1096.75
464.316	1071.75
464.536	1105.75
464.755	1063.75
464.975	1005.75
465.195	964.75
465.414	929.75
465.634	880.75
465.854	857.75
466.073	837.75
466.293	828.75
466.512	785.75
466.732	785.75
466.951	780.75
467.171	780.75
467.391	779.75
467.61	794.75
467.829	794.75
468.049	747.75
468.268	742.75
468.488	737.75
468.707	746.75
468.927	743.75
469.146	751.75
469.365	779.75
469.585	749.75
469.804	751.75
470.023	797.75
470.243	815.75
470.462	811.75
470.681	827.75
470.901	800.75
471.12	799.75
471.339	792.75
471.558	781.75
471.777	756.75
471.997	754.75
472.216	728.75
472.435	722.75
472.654	729.75
472.873	721.75
473.092	720.75
473.311	712.75
473.53	700.75
473.749	724.75
473.968	718.75
474.187	717.75
474.406	738.75
474.625	751.75
474.844	725.75
475.063	722.75
475.282	730.75
475.501	756.75
475.72	723.75
475.939	751.75
476.158	761.75
476.377	755.75
476.596	745.75
476.814	759.75
477.033	761.75
477.252	777.75
477.471	774.75
477.69	827.75
477.908	828.75
478.127	844.75
478.346	855.75
478.564	843.75
478.783	897.75
479.002	903.75
479.22	902.75
479.439	904.75
479.658	889.75
479.876	893.75
480.095	877.75
480.313	908.75
480.532	977.75
480.751	995.75
480.969	922.75
481.188	866.75
481.406	859.75
481.624	852.75
481.843	828.75
482.061	831.75
482.28	831.75
482.498	783.75
482.717	796.75
482.935	829.75
483.153	839.75
483.372	826.75
483.59	831.75
483.808	839.75
484.027	826.75
484.245	840.75
484.463	860.75
484.681	837.75
484.9	853.75
485.118	872.75
485.336	853.75
485.554	858.75
485.772	870.75
485.99	852.75
486.209	867.75
486.427	864.75
486.645	885.75
486.863	893.75
487.081	872.75
487.299	871.75
487.517	857.75
487.735	862.75
487.953	871.75
488.171	876.75
488.389	873.75
488.607	885.75
488.825	835.75
489.043	843.75
489.261	840.75
489.479	857.75
489.696	851.75
489.914	860.75
490.132	882.75
490.35	892.75
490.568	880.75
490.786	869.75
491.003	880.75
491.221	887.75
491.439	883.75
491.657	891.75
491.874	881.75
492.092	913.75
492.31	896.75
492.527	945.75
492.745	908.75
492.963	917.75
493.18	910.75
493.398	903.75
493.615	927.75
493.833	907.75
494.05	912.75
494.268	917.75
494.485	894.75
494.703	903.75
494.92	920.75
495.138	934.75
495.355	917.75
495.573	919.75
495.79	897.75
496.008	951.75
496.225	971.75
496.442	931.75
496.66	965.75
496.877	920.75
497.094	956.75
497.312	992.75
497.529	1012.75
497.746	1052.75
497.963	1075.75
498.181	1092.75
498.398	1147.75
498.615	1228.75
498.832	1282.75
499.049	1369.75
499.267	1496.75
499.484	1619.75
499.701	1827.75
499.918	2041.75
500.135	2303.75
500.352	2708.75
500.569	2797.75
500.786	2791.75
