Data from Ni(NO3)2Standard.Agarose3%.GreenCap.LampEnergy5.5.E.O_HRD10591_14-41-04-187.txt Node
Date: Mon Jul 22 14:41:04 EDT 2019
User: cochatt
Spectrometer: HR+D1059
Trigger mode: 1
Integration Time (sec): 1.000000E-1
Scans to average: 1
Electric dark correction enabled: true
Nonlinearity correction enabled: false
Boxcar width: 0
XAxis mode: Wavelengths
Number of Pixels in Spectrum: 2048
>>>>>Begin Spectral Data<<<<<
223.165	-4.81
223.4	-4.81
223.635	-4.81
223.869	-16.81
224.104	-15.81
224.338	-34.81
224.573	-15.81
224.808	-12.81
225.042	-15.81
225.277	8.19
225.511	-1.81
225.746	7.19
225.98	11.19
226.215	7.19
226.449	18.19
226.683	16.19
226.918	41.19
227.152	9.19
227.387	37.19
227.621	47.19
227.856	61.19
228.09	53.19
228.324	74.19
228.559	57.19
228.793	52.19
229.027	69.19
229.262	64.19
229.496	74.19
229.73	72.19
229.964	75.19
230.199	63.19
230.433	74.19
230.667	76.19
230.901	95.19
231.136	78.19
231.37	68.19
231.604	81.19
231.838	74.19
232.072	90.19
232.306	91.19
232.541	82.19
232.775	90.19
233.009	84.19
233.243	80.19
233.477	75.19
233.711	83.19
233.945	100.19
234.179	74.19
234.413	85.19
234.647	85.19
234.881	78.19
235.115	85.19
235.349	75.19
235.583	98.19
235.817	81.19
236.051	78.19
236.285	87.19
236.519	86.19
236.753	84.19
236.987	77.19
237.221	88.19
237.455	86.19
237.689	84.19
237.922	80.19
238.156	74.19
238.39	64.19
238.624	77.19
238.858	84.19
239.091	66.19
239.325	86.19
239.559	88.19
239.793	85.19
240.027	76.19
240.26	91.19
240.494	88.19
240.728	81.19
240.961	82.19
241.195	86.19
241.429	91.19
241.662	89.19
241.896	85.19
242.13	81.19
242.363	76.19
242.597	58.19
242.83	84.19
243.064	80.19
243.298	74.19
243.531	75.19
243.765	95.19
243.998	79.19
244.232	89.19
244.465	85.19
244.699	79.19
244.932	76.19
245.166	72.19
245.399	61.19
245.633	83.19
245.866	83.19
246.099	83.19
246.333	76.19
246.566	85.19
246.8	80.19
247.033	78.19
247.266	77.19
247.5	78.19
247.733	90.19
247.966	84.19
248.2	88.19
248.433	86.19
248.666	77.19
248.899	79.19
249.133	85.19
249.366	96.19
249.599	70.19
249.832	76.19
250.066	101.19
250.299	75.19
250.532	83.19
250.765	84.19
250.998	83.19
251.231	82.19
251.465	89.19
251.698	80.19
251.931	101.19
252.164	70.19
252.397	91.19
252.63	90.19
252.863	73.19
253.096	86.19
253.329	86.19
253.562	78.19
253.795	77.19
254.028	91.19
254.261	80.19
254.494	84.19
254.727	92.19
254.96	93.19
255.193	84.19
255.426	88.19
255.659	80.19
255.892	72.19
256.124	83.19
256.357	79.19
256.59	86.19
256.823	93.19
257.056	88.19
257.289	85.19
257.521	81.19
257.754	88.19
257.987	76.19
258.22	95.19
258.452	89.19
258.685	84.19
258.918	89.19
259.151	87.19
259.383	92.19
259.616	82.19
259.849	64.19
260.081	86.19
260.314	87.19
260.547	99.19
260.779	78.19
261.012	86.19
261.244	71.19
261.477	85.19
261.71	84.19
261.942	78.19
262.175	76.19
262.407	92.19
262.64	86.19
262.872	84.19
263.105	69.19
263.337	82.19
263.57	100.19
263.802	92.19
264.035	75.19
264.267	97.19
264.499	88.19
264.732	79.19
264.964	91.19
265.197	77.19
265.429	89.19
265.661	86.19
265.894	88.19
266.126	89.19
266.358	90.19
266.591	88.19
266.823	90.19
267.055	86.19
267.287	89.19
267.52	83.19
267.752	71.19
267.984	85.19
268.216	106.19
268.448	90.19
268.681	86.19
268.913	91.19
269.145	80.19
269.377	77.19
269.609	98.19
269.841	99.19
270.073	85.19
270.306	91.19
270.538	94.19
270.77	85.19
271.002	76.19
271.234	85.19
271.466	86.19
271.698	86.19
271.93	71.19
272.162	86.19
272.394	102.19
272.626	85.19
272.858	78.19
273.09	90.19
273.322	85.19
273.553	80.19
273.785	80.19
274.017	88.19
274.249	88.19
274.481	93.19
274.713	85.19
274.945	88.19
275.176	89.19
275.408	90.19
275.64	96.19
275.872	89.19
276.104	91.19
276.335	81.19
276.567	88.19
276.799	96.19
277.031	93.19
277.262	92.19
277.494	95.19
277.726	69.19
277.957	87.19
278.189	86.19
278.421	95.19
278.652	98.19
278.884	79.19
279.115	84.19
279.347	92.19
279.579	93.19
279.81	85.19
280.042	93.19
280.273	87.19
280.505	77.19
280.736	89.19
280.968	88.19
281.199	95.19
281.431	91.19
281.662	102.19
281.894	74.19
282.125	88.19
282.356	80.19
282.588	86.19
282.819	114.19
283.051	95.19
283.282	72.19
283.513	89.19
283.745	81.19
283.976	88.19
284.207	91.19
284.439	90.19
284.67	89.19
284.901	98.19
285.132	94.19
285.364	91.19
285.595	93.19
285.826	89.19
286.057	74.19
286.288	97.19
286.52	89.19
286.751	87.19
286.982	85.19
287.213	101.19
287.444	88.19
287.675	81.19
287.906	88.19
288.138	90.19
288.369	95.19
288.6	81.19
288.831	90.19
289.062	85.19
289.293	90.19
289.524	93.19
289.755	91.19
289.986	94.19
290.217	110.19
290.448	88.19
290.679	90.19
290.91	87.19
291.141	94.19
291.371	103.19
291.602	92.19
291.833	87.19
292.064	92.19
292.295	89.19
292.526	94.19
292.757	99.19
292.987	83.19
293.218	86.19
293.449	83.19
293.68	87.19
293.91	87.19
294.141	88.19
294.372	79.19
294.603	74.19
294.833	99.19
295.064	103.19
295.295	86.19
295.525	88.19
295.756	87.19
295.987	92.19
296.217	95.19
296.448	95.19
296.679	85.19
296.909	108.19
297.14	90.19
297.37	92.19
297.601	102.19
297.831	74.19
298.062	106.19
298.292	105.19
298.523	88.19
298.753	84.19
298.984	91.19
299.214	96.19
299.445	91.19
299.675	85.19
299.905	95.19
300.136	103.19
300.366	102.19
300.597	76.19
300.827	90.19
301.057	103.19
301.288	102.19
301.518	82.19
301.748	85.19
301.979	86.19
302.209	92.19
302.439	97.19
302.669	77.19
302.9	84.19
303.13	85.19
303.36	91.19
303.59	101.19
303.82	100.19
304.051	93.19
304.281	80.19
304.511	108.19
304.741	82.19
304.971	86.19
305.201	103.19
305.431	87.19
305.661	84.19
305.891	90.19
306.121	91.19
306.352	93.19
306.582	81.19
306.812	89.19
307.042	98.19
307.272	98.19
307.502	77.19
307.731	90.19
307.961	100.19
308.191	91.19
308.421	72.19
308.651	95.19
308.881	92.19
309.111	94.19
309.341	92.19
309.571	99.19
309.8	83.19
310.03	70.19
310.26	84.19
310.49	84.19
310.72	86.19
310.949	83.19
311.179	91.19
311.409	95.19
311.639	93.19
311.868	81.19
312.098	90.19
312.328	84.19
312.557	72.19
312.787	94.19
313.017	94.19
313.246	86.19
313.476	99.19
313.706	101.19
313.935	76.19
314.165	109.19
314.394	93.19
314.624	93.19
314.853	87.19
315.083	94.19
315.312	92.19
315.542	100.19
315.771	99.19
316.001	90.19
316.23	84.19
316.46	86.19
316.689	84.19
316.919	97.19
317.148	100.19
317.377	97.19
317.607	88.19
317.836	75.19
318.065	90.19
318.295	95.19
318.524	94.19
318.753	83.19
318.983	98.19
319.212	96.19
319.441	98.19
319.67	82.19
319.9	86.19
320.129	90.19
320.358	85.19
320.587	103.19
320.816	84.19
321.046	93.19
321.275	78.19
321.504	88.19
321.733	88.19
321.962	74.19
322.191	103.19
322.42	93.19
322.649	90.19
322.878	80.19
323.108	90.19
323.337	88.19
323.566	77.19
323.795	86.19
324.024	85.19
324.253	94.19
324.482	87.19
324.71	97.19
324.939	75.19
325.168	98.19
325.397	83.19
325.626	95.19
325.855	89.19
326.084	91.19
326.313	99.19
326.542	84.19
326.77	83.19
326.999	72.19
327.228	97.19
327.457	96.19
327.686	90.19
327.914	87.19
328.143	87.19
328.372	84.19
328.6	85.19
328.829	77.19
329.058	88.19
329.287	88.19
329.515	98.19
329.744	91.19
329.972	80.19
330.201	85.19
330.43	86.19
330.658	77.19
330.887	105.19
331.115	92.19
331.344	86.19
331.572	87.19
331.801	93.19
332.03	89.19
332.258	86.19
332.486	99.19
332.715	88.19
332.943	99.19
333.172	79.19
333.4	92.19
333.629	91.19
333.857	82.19
334.085	87.19
334.314	98.19
334.542	86.19
334.771	84.19
334.999	100.19
335.227	106.19
335.455	95.19
335.684	91.19
335.912	97.19
336.14	84.19
336.369	89.19
336.597	85.19
336.825	79.19
337.053	84.19
337.281	95.19
337.51	92.19
337.738	92.19
337.966	90.19
338.194	95.19
338.422	96.19
338.65	105.19
338.878	91.19
339.106	94.19
339.334	99.19
339.562	75.19
339.79	96.19
340.018	85.19
340.246	89.19
340.474	96.19
340.702	88.19
340.93	79.19
341.158	95.19
341.386	89.19
341.614	91.19
341.842	102.19
342.07	105.19
342.298	74.19
342.526	87.19
342.754	83.19
342.981	90.19
343.209	95.19
343.437	99.19
343.665	89.19
343.893	86.19
344.12	93.19
344.348	81.19
344.576	92.19
344.804	83.19
345.031	91.19
345.259	92.19
345.487	96.19
345.714	88.19
345.942	92.19
346.17	89.19
346.397	83.19
346.625	85.19
346.853	84.19
347.08	73.19
347.308	91.19
347.535	102.19
347.763	83.19
347.99	90.19
348.218	108.19
348.445	86.19
348.673	87.19
348.9	87.19
349.128	83.19
349.355	82.19
349.583	92.19
349.81	91.19
350.037	86.19
350.265	97.19
350.492	82.19
350.72	90.19
350.947	93.19
351.174	81.19
351.402	91.19
351.629	90.19
351.856	88.19
352.083	92.19
352.311	101.19
352.538	88.19
352.765	84.19
352.992	93.19
353.22	82.19
353.447	91.19
353.674	95.19
353.901	76.19
354.128	99.19
354.355	92.19
354.583	79.19
354.81	100.19
355.037	79.19
355.264	84.19
355.491	102.19
355.718	84.19
355.945	93.19
356.172	97.19
356.399	94.19
356.626	92.19
356.853	86.19
357.08	94.19
357.307	88.19
357.534	99.19
357.761	89.19
357.988	94.19
358.215	92.19
358.441	88.19
358.668	93.19
358.895	75.19
359.122	79.19
359.349	83.19
359.576	83.19
359.802	83.19
360.029	102.19
360.256	86.19
360.483	92.19
360.709	83.19
360.936	91.19
361.163	69.19
361.39	91.19
361.616	90.19
361.843	81.19
362.07	88.19
362.296	89.19
362.523	84.19
362.749	81.19
362.976	86.19
363.203	95.19
363.429	94.19
363.656	87.19
363.882	77.19
364.109	77.19
364.335	97.19
364.562	96.19
364.788	91.19
365.015	84.19
365.241	87.19
365.468	82.19
365.694	81.19
365.92	84.19
366.147	98.19
366.373	83.19
366.599	79.19
366.826	89.19
367.052	86.19
367.278	94.19
367.505	79.19
367.731	85.19
367.957	86.19
368.184	99.19
368.41	93.19
368.636	89.19
368.862	91.19
369.089	85.19
369.315	91.19
369.541	76.19
369.767	83.19
369.993	83.19
370.219	84.19
370.445	81.19
370.672	89.19
370.898	75.19
371.124	93.19
371.35	91.19
371.576	95.19
371.802	92.19
372.028	98.19
372.254	104.19
372.48	87.19
372.706	89.19
372.932	90.19
373.158	91.19
373.384	88.19
373.61	86.19
373.835	111.19
374.061	94.19
374.287	83.19
374.513	92.19
374.739	100.19
374.965	90.19
375.191	86.19
375.416	91.19
375.642	89.19
375.868	85.19
376.094	87.19
376.319	96.19
376.545	93.19
376.771	90.19
376.997	99.19
377.222	89.19
377.448	94.19
377.674	87.19
377.899	95.19
378.125	79.19
378.35	100.19
378.576	80.19
378.802	92.19
379.027	80.19
379.253	83.19
379.478	86.19
379.704	71.19
379.929	84.19
380.155	100.19
380.38	85.19
380.606	80.19
380.831	89.19
381.057	98.19
381.282	66.19
381.507	86.19
381.733	90.19
381.958	87.19
382.184	92.19
382.409	86.19
382.634	77.19
382.86	83.19
383.085	92.19
383.31	80.19
383.535	84.19
383.761	83.19
383.986	92.19
384.211	93.19
384.436	84.19
384.662	87.19
384.887	83.19
385.112	92.19
385.337	77.19
385.562	94.19
385.787	100.19
386.013	99.19
386.238	83.19
386.463	74.19
386.688	89.19
386.913	81.19
387.138	89.19
387.363	88.19
387.588	88.19
387.813	92.19
388.038	90.19
388.263	100.19
388.488	72.19
388.713	84.19
388.938	80.19
389.163	98.19
389.387	62.19
389.612	94.19
389.837	89.19
390.062	91.19
390.287	93.19
390.512	93.19
390.736	98.19
390.961	93.19
391.186	92.19
391.411	74.19
391.636	99.19
391.86	84.19
392.085	79.19
392.31	75.19
392.534	97.19
392.759	96.19
392.984	92.19
393.208	99.19
393.433	92.19
393.658	95.19
393.882	92.19
394.107	97.19
394.331	74.19
394.556	78.19
394.78	87.19
395.005	80.19
395.229	79.19
395.454	80.19
395.678	102.19
395.903	90.19
396.127	72.19
396.352	111.19
396.576	91.19
396.801	80.19
397.025	79.19
397.249	94.19
397.474	100.19
397.698	82.19
397.922	91.19
398.147	93.19
398.371	88.19
398.595	95.19
398.82	74.19
399.044	80.19
399.268	91.19
399.492	85.19
399.717	92.19
399.941	101.19
400.165	100.19
400.389	97.19
400.613	77.19
400.837	82.19
401.062	85.19
401.286	86.19
401.51	99.19
401.734	81.19
401.958	81.19
402.182	94.19
402.406	94.19
402.63	92.19
402.854	91.19
403.078	90.19
403.302	80.19
403.526	87.19
403.75	90.19
403.974	92.19
404.198	86.19
404.422	83.19
404.645	89.19
404.869	84.19
405.093	87.19
405.317	86.19
405.541	97.19
405.765	85.19
405.988	86.19
406.212	99.19
406.436	90.19
406.66	101.19
406.883	87.19
407.107	100.19
407.331	99.19
407.555	84.19
407.778	80.19
408.002	96.19
408.226	83.19
408.449	98.19
408.673	99.19
408.896	99.19
409.12	72.19
409.344	85.19
409.567	87.19
409.791	70.19
410.014	90.19
410.238	78.19
410.461	90.19
410.685	92.19
410.908	94.19
411.132	94.19
411.355	105.19
411.578	75.19
411.802	84.19
412.025	78.19
412.249	87.19
412.472	84.19
412.695	83.19
412.919	86.19
413.142	98.19
413.365	104.19
413.589	87.19
413.812	93.19
414.035	93.19
414.258	83.19
414.482	89.19
414.705	100.19
414.928	88.19
415.151	83.19
415.374	88.19
415.597	87.19
415.821	91.19
416.044	86.19
416.267	87.19
416.49	78.19
416.713	89.19
416.936	83.19
417.159	85.19
417.382	77.19
417.605	96.19
417.828	91.19
418.051	79.19
418.274	99.19
418.497	94.19
418.72	98.19
418.943	75.19
419.166	92.19
419.389	88.19
419.611	86.19
419.834	77.19
420.057	100.19
420.28	102.19
420.503	88.19
420.726	94.19
420.948	83.19
421.171	83.19
421.394	85.19
421.617	94.19
421.839	87.19
422.062	84.19
422.285	96.19
422.507	91.19
422.73	85.19
422.953	82.19
423.175	87.19
423.398	88.19
423.621	94.19
423.843	99.19
424.066	101.19
424.288	96.19
424.511	80.19
424.733	87.19
424.956	93.19
425.178	87.19
425.401	91.19
425.623	99.19
425.846	95.19
426.068	86.19
426.291	106.19
426.513	87.19
426.735	94.19
426.958	84.19
427.18	80.19
427.402	95.19
427.625	89.19
427.847	107.19
428.069	87.19
428.292	87.19
428.514	75.19
428.736	88.19
428.958	80.19
429.181	86.19
429.403	93.19
429.625	80.19
429.847	99.19
430.069	90.19
430.292	97.19
430.514	96.19
430.736	86.19
430.958	80.19
431.18	90.19
431.402	83.19
431.624	90.19
431.846	95.19
432.068	94.19
432.29	103.19
432.512	88.19
432.734	86.19
432.956	95.19
433.178	85.19
433.4	90.19
433.622	91.19
433.844	91.19
434.066	83.19
434.287	83.19
434.509	99.19
434.731	91.19
434.953	98.19
435.175	82.19
435.397	102.19
435.618	96.19
435.84	86.19
436.062	100.19
436.284	93.19
436.505	94.19
436.727	79.19
436.949	84.19
437.17	78.19
437.392	83.19
437.614	89.19
437.835	78.19
438.057	94.19
438.278	98.19
438.5	91.19
438.721	82.19
438.943	96.19
439.165	98.19
439.386	107.19
439.608	86.19
439.829	111.19
440.05	84.19
440.272	76.19
440.493	99.19
440.715	98.19
440.936	95.19
441.158	86.19
441.379	93.19
441.6	87.19
441.822	93.19
442.043	99.19
442.264	98.19
442.486	89.19
442.707	106.19
442.928	92.19
443.149	87.19
443.371	94.19
443.592	83.19
443.813	86.19
444.034	87.19
444.255	91.19
444.476	97.19
444.698	96.19
444.919	89.19
445.14	220.19
445.361	154.19
445.582	91.19
445.803	91.19
446.024	94.19
446.245	96.19
446.466	92.19
446.687	80.19
446.908	92.19
447.129	81.19
447.35	86.19
447.571	86.19
447.792	90.19
448.013	77.19
448.234	101.19
448.455	92.19
448.675	82.19
448.896	87.19
449.117	99.19
449.338	83.19
449.559	81.19
449.779	96.19
450	88.19
450.221	78.19
450.442	94.19
450.662	85.19
450.883	94.19
451.104	91.19
451.324	74.19
451.545	104.19
451.766	81.19
451.986	90.19
452.207	98.19
452.428	79.19
452.648	86.19
452.869	91.19
453.089	93.19
453.31	84.19
453.53	93.19
453.751	84.19
453.971	92.19
454.192	96.19
454.412	94.19
454.633	85.19
454.853	87.19
455.073	95.19
455.294	89.19
455.514	100.19
455.734	94.19
455.955	79.19
456.175	90.19
456.395	78.19
456.616	93.19
456.836	97.19
457.056	84.19
457.276	92.19
457.497	96.19
457.717	81.19
457.937	90.19
458.157	83.19
458.377	94.19
458.598	82.19
458.818	81.19
459.038	90.19
459.258	92.19
459.478	113.19
459.698	82.19
459.918	86.19
460.138	87.19
460.358	90.19
460.578	84.19
460.798	96.19
461.018	90.19
461.238	101.19
461.458	97.19
461.678	74.19
461.898	90.19
462.118	94.19
462.338	100.19
462.558	88.19
462.777	93.19
462.997	88.19
463.217	87.19
463.437	80.19
463.657	97.19
463.876	84.19
464.096	99.19
464.316	102.19
464.536	83.19
464.755	100.19
464.975	96.19
465.195	86.19
465.414	103.19
465.634	77.19
465.854	80.19
466.073	97.19
466.293	86.19
466.512	80.19
466.732	83.19
466.951	85.19
467.171	111.19
467.391	87.19
467.61	102.19
467.829	86.19
468.049	99.19
468.268	94.19
468.488	92.19
468.707	75.19
468.927	80.19
469.146	96.19
469.365	87.19
469.585	90.19
469.804	83.19
470.023	88.19
470.243	79.19
470.462	85.19
470.681	85.19
470.901	103.19
471.12	90.19
471.339	99.19
471.558	100.19
471.777	100.19
471.997	86.19
472.216	90.19
472.435	78.19
472.654	86.19
472.873	80.19
473.092	98.19
473.311	89.19
473.53	101.19
473.749	80.19
473.968	104.19
474.187	79.19
474.406	81.19
474.625	92.19
474.844	92.19
475.063	82.19
475.282	97.19
475.501	78.19
475.72	92.19
475.939	91.19
476.158	87.19
476.377	82.19
476.596	85.19
476.814	99.19
477.033	89.19
477.252	83.19
477.471	96.19
477.69	97.19
477.908	102.19
478.127	104.19
478.346	96.19
478.564	79.19
478.783	96.19
479.002	103.19
479.22	94.19
479.439	98.19
479.658	115.19
479.876	90.19
480.095	94.19
480.313	90.19
480.532	95.19
480.751	98.19
480.969	89.19
481.188	106.19
481.406	94.19
481.624	94.19
481.843	79.19
482.061	100.19
482.28	98.19
482.498	89.19
482.717	87.19
482.935	88.19
483.153	93.19
483.372	90.19
483.59	92.19
483.808	86.19
484.027	111.19
484.245	99.19
484.463	98.19
484.681	100.19
484.9	94.19
485.118	98.19
485.336	76.19
485.554	110.19
485.772	85.19
485.99	106.19
486.209	109.19
486.427	93.19
486.645	91.19
486.863	92.19
487.081	93.19
487.299	95.19
487.517	86.19
487.735	85.19
487.953	105.19
488.171	101.19
488.389	83.19
488.607	82.19
488.825	99.19
489.043	106.19
489.261	102.19
489.479	122.19
489.696	93.19
489.914	82.19
490.132	100.19
490.35	95.19
490.568	99.19
490.786	92.19
491.003	115.19
491.221	101.19
491.439	99.19
491.657	106.19
491.874	101.19
492.092	105.19
492.31	108.19
492.527	102.19
492.745	111.19
492.963	95.19
493.18	107.19
493.398	88.19
493.615	109.19
493.833	87.19
494.05	94.19
494.268	104.19
494.485	103.19
494.703	104.19
494.92	98.19
495.138	102.19
495.355	111.19
495.573	92.19
495.79	90.19
496.008	86.19
496.225	103.19
496.442	117.19
496.66	105.19
496.877	103.19
497.094	100.19
497.312	101.19
497.529	92.19
497.746	103.19
497.963	107.19
498.181	91.19
498.398	104.19
498.615	109.19
498.832	89.19
499.049	103.19
499.267	106.19
499.484	109.19
499.701	103.19
499.918	103.19
500.135	112.19
500.352	124.19
500.569	119.19
500.786	120.19
501.003	115.19
501.22	98.19
501.437	100.19
501.654	101.19
501.871	106.19
502.088	104.19
502.305	98.19
502.522	100.19
502.739	91.19
502.956	92.19
503.172	105.19
503.389	101.19
503.606	89.19
503.823	99.19
504.04	109.19
504.256	107.19
504.473	89.19
504.69	90.19
504.907	99.19
505.123	110.19
505.34	99.19
505.557	102.19
505.773	87.19
505.99	87.19
506.207	103.19
506.423	84.19
506.64	86.19
506.856	103.19
507.073	101.19
507.289	85.19
507.506	105.19
507.722	101.19
507.939	94.19
508.155	89.19
508.372	103.19
508.588	94.19
508.805	101.19
509.021	104.19
509.238	94.19
509.454	94.19
509.67	93.19
509.887	95.19
510.103	101.19
510.319	104.19
510.536	90.19
510.752	88.19
510.968	94.19
511.184	88.19
511.401	99.19
511.617	104.19
511.833	93.19
512.049	90.19
512.265	108.19
512.481	103.19
512.698	90.19
512.914	102.19
513.13	90.19
513.346	85.19
513.562	101.19
513.778	103.19
513.994	91.19
514.21	95.19
514.426	93.19
514.642	96.19
514.858	99.19
515.074	100.19
515.29	102.19
515.506	103.19
515.721	90.19
515.937	104.19
516.153	91.19
516.369	93.19
516.585	113.19
516.801	100.19
517.016	94.19
