Data from Ni(NO3)2@0.25M.TitratingCurve.Agarose3%dH2O.NegLispCup.LampEnergy10.LIBS07252019_HRD10591_18-03-58-566.txt Node
Date: Thu Jul 25 18:03:58 EDT 2019
User: cochatt
Spectrometer: HR+D1059
Trigger mode: 1
Integration Time (sec): 1.000000E-1
Scans to average: 1
Electric dark correction enabled: true
Nonlinearity correction enabled: false
Boxcar width: 0
XAxis mode: Wavelengths
Number of Pixels in Spectrum: 2048
>>>>>Begin Spectral Data<<<<<
223.165	-24.38
223.4	-24.38
223.635	-24.38
223.869	-17.38
224.104	-34.38
224.338	-21.38
224.573	-23.38
224.808	-8.38
225.042	-11.38
225.277	1.62
225.511	-13.38
225.746	2.62
225.98	29.62
226.215	13.62
226.449	19.62
226.683	25.62
226.918	30.62
227.152	30.62
227.387	25.62
227.621	42.62
227.856	38.62
228.09	54.62
228.324	50.62
228.559	45.62
228.793	64.62
229.027	70.62
229.262	73.62
229.496	95.62
229.73	87.62
229.964	83.62
230.199	116.62
230.433	100.62
230.667	105.62
230.901	115.62
231.136	112.62
231.37	96.62
231.604	111.62
231.838	112.62
232.072	102.62
232.306	126.62
232.541	110.62
232.775	123.62
233.009	113.62
233.243	129.62
233.477	124.62
233.711	116.62
233.945	116.62
234.179	120.62
234.413	126.62
234.647	107.62
234.881	126.62
235.115	116.62
235.349	120.62
235.583	118.62
235.817	113.62
236.051	113.62
236.285	114.62
236.519	126.62
236.753	132.62
236.987	123.62
237.221	122.62
237.455	119.62
237.689	106.62
237.922	115.62
238.156	116.62
238.39	126.62
238.624	110.62
238.858	125.62
239.091	127.62
239.325	136.62
239.559	139.62
239.793	116.62
240.027	130.62
240.26	128.62
240.494	132.62
240.728	127.62
240.961	132.62
241.195	123.62
241.429	130.62
241.662	128.62
241.896	137.62
242.13	148.62
242.363	126.62
242.597	135.62
242.83	128.62
243.064	147.62
243.298	136.62
243.531	148.62
243.765	147.62
243.998	138.62
244.232	142.62
244.465	150.62
244.699	149.62
244.932	155.62
245.166	160.62
245.399	149.62
245.633	142.62
245.866	152.62
246.099	153.62
246.333	153.62
246.566	147.62
246.8	155.62
247.033	166.62
247.266	158.62
247.5	169.62
247.733	152.62
247.966	162.62
248.2	181.62
248.433	160.62
248.666	167.62
248.899	169.62
249.133	173.62
249.366	176.62
249.599	180.62
249.832	184.62
250.066	183.62
250.299	167.62
250.532	178.62
250.765	170.62
250.998	198.62
251.231	197.62
251.465	207.62
251.698	192.62
251.931	196.62
252.164	200.62
252.397	202.62
252.63	195.62
252.863	207.62
253.096	203.62
253.329	206.62
253.562	203.62
253.795	216.62
254.028	214.62
254.261	219.62
254.494	242.62
254.727	228.62
254.96	221.62
255.193	210.62
255.426	211.62
255.659	226.62
255.892	226.62
256.124	245.62
256.357	238.62
256.59	233.62
256.823	227.62
257.056	241.62
257.289	229.62
257.521	248.62
257.754	237.62
257.987	243.62
258.22	260.62
258.452	258.62
258.685	248.62
258.918	246.62
259.151	248.62
259.383	259.62
259.616	254.62
259.849	244.62
260.081	255.62
260.314	250.62
260.547	274.62
260.779	266.62
261.012	247.62
261.244	265.62
261.477	272.62
261.71	272.62
261.942	274.62
262.175	283.62
262.407	276.62
262.64	267.62
262.872	258.62
263.105	280.62
263.337	284.62
263.57	296.62
263.802	296.62
264.035	276.62
264.267	271.62
264.499	264.62
264.732	288.62
264.964	287.62
265.197	280.62
265.429	312.62
265.661	299.62
265.894	292.62
266.126	296.62
266.358	291.62
266.591	288.62
266.823	302.62
267.055	283.62
267.287	313.62
267.52	291.62
267.752	283.62
267.984	310.62
268.216	310.62
268.448	307.62
268.681	303.62
268.913	315.62
269.145	288.62
269.377	302.62
269.609	310.62
269.841	320.62
270.073	314.62
270.306	313.62
270.538	316.62
270.77	320.62
271.002	322.62
271.234	305.62
271.466	340.62
271.698	307.62
271.93	303.62
272.162	315.62
272.394	323.62
272.626	321.62
272.858	319.62
273.09	318.62
273.322	320.62
273.553	332.62
273.785	333.62
274.017	311.62
274.249	334.62
274.481	319.62
274.713	323.62
274.945	330.62
275.176	325.62
275.408	338.62
275.64	318.62
275.872	328.62
276.104	326.62
276.335	325.62
276.567	337.62
276.799	329.62
277.031	345.62
277.262	345.62
277.494	345.62
277.726	318.62
277.957	331.62
278.189	337.62
278.421	350.62
278.652	333.62
278.884	330.62
279.115	336.62
279.347	346.62
279.579	356.62
279.81	336.62
280.042	350.62
280.273	337.62
280.505	350.62
280.736	326.62
280.968	338.62
281.199	342.62
281.431	384.62
281.662	340.62
281.894	337.62
282.125	353.62
282.356	367.62
282.588	361.62
282.819	353.62
283.051	340.62
283.282	365.62
283.513	362.62
283.745	355.62
283.976	360.62
284.207	367.62
284.439	347.62
284.67	376.62
284.901	350.62
285.132	373.62
285.364	346.62
285.595	367.62
285.826	350.62
286.057	380.62
286.288	350.62
286.52	370.62
286.751	378.62
286.982	372.62
287.213	365.62
287.444	343.62
287.675	358.62
287.906	387.62
288.138	360.62
288.369	366.62
288.6	369.62
288.831	371.62
289.062	370.62
289.293	378.62
289.524	368.62
289.755	371.62
289.986	376.62
290.217	375.62
290.448	378.62
290.679	371.62
290.91	363.62
291.141	358.62
291.371	367.62
291.602	357.62
291.833	373.62
292.064	368.62
292.295	370.62
292.526	374.62
292.757	355.62
292.987	354.62
293.218	360.62
293.449	373.62
293.68	386.62
293.91	394.62
294.141	384.62
294.372	375.62
294.603	372.62
294.833	371.62
295.064	368.62
295.295	399.62
295.525	357.62
295.756	392.62
295.987	371.62
296.217	374.62
296.448	380.62
296.679	377.62
296.909	393.62
297.14	402.62
297.37	392.62
297.601	382.62
297.831	389.62
298.062	377.62
298.292	388.62
298.523	403.62
298.753	411.62
298.984	410.62
299.214	408.62
299.445	402.62
299.675	401.62
299.905	394.62
300.136	412.62
300.366	410.62
300.597	420.62
300.827	417.62
301.057	405.62
301.288	414.62
301.518	413.62
301.748	409.62
301.979	419.62
302.209	428.62
302.439	407.62
302.669	411.62
302.9	434.62
303.13	408.62
303.36	426.62
303.59	426.62
303.82	427.62
304.051	425.62
304.281	419.62
304.511	422.62
304.741	422.62
304.971	432.62
305.201	424.62
305.431	428.62
305.661	439.62
305.891	430.62
306.121	446.62
306.352	423.62
306.582	414.62
306.812	423.62
307.042	412.62
307.272	421.62
307.502	426.62
307.731	434.62
307.961	417.62
308.191	440.62
308.421	432.62
308.651	437.62
308.881	422.62
309.111	405.62
309.341	430.62
309.571	444.62
309.8	440.62
310.03	441.62
310.26	462.62
310.49	466.62
310.72	448.62
310.949	447.62
311.179	452.62
311.409	455.62
311.639	459.62
311.868	454.62
312.098	441.62
312.328	462.62
312.557	457.62
312.787	457.62
313.017	465.62
313.246	460.62
313.476	467.62
313.706	462.62
313.935	472.62
314.165	484.62
314.394	476.62
314.624	484.62
314.853	473.62
315.083	478.62
315.312	489.62
315.542	495.62
315.771	516.62
316.001	500.62
316.23	505.62
316.46	522.62
316.689	476.62
316.919	505.62
317.148	500.62
317.377	497.62
317.607	512.62
317.836	505.62
318.065	518.62
318.295	506.62
318.524	510.62
318.753	503.62
318.983	535.62
319.212	529.62
319.441	535.62
319.67	517.62
319.9	522.62
320.129	537.62
320.358	529.62
320.587	528.62
320.816	548.62
321.046	527.62
321.275	532.62
321.504	538.62
321.733	539.62
321.962	548.62
322.191	571.62
322.42	551.62
322.649	554.62
322.878	567.62
323.108	589.62
323.337	597.62
323.566	592.62
323.795	578.62
324.024	596.62
324.253	566.62
324.482	593.62
324.71	584.62
324.939	589.62
325.168	618.62
325.397	615.62
325.626	617.62
325.855	609.62
326.084	626.62
326.313	635.62
326.542	617.62
326.77	638.62
326.999	634.62
327.228	630.62
327.457	629.62
327.686	635.62
327.914	642.62
328.143	648.62
328.372	652.62
328.6	638.62
328.829	650.62
329.058	625.62
329.287	645.62
329.515	652.62
329.744	664.62
329.972	668.62
330.201	639.62
330.43	657.62
330.658	659.62
330.887	691.62
331.115	696.62
331.344	704.62
331.572	698.62
331.801	703.62
332.03	724.62
332.258	706.62
332.486	722.62
332.715	764.62
332.943	745.62
333.172	770.62
333.4	778.62
333.629	817.62
333.857	825.62
334.085	824.62
334.314	816.62
334.542	802.62
334.771	812.62
334.999	831.62
335.227	808.62
335.455	857.62
335.684	838.62
335.912	838.62
336.14	819.62
336.369	807.62
336.597	828.62
336.825	818.62
337.053	806.62
337.281	815.62
337.51	793.62
337.738	795.62
337.966	786.62
338.194	779.62
338.422	770.62
338.65	756.62
338.878	755.62
339.106	770.62
339.334	768.62
339.562	777.62
339.79	749.62
340.018	750.62
340.246	750.62
340.474	740.62
340.702	743.62
340.93	743.62
341.158	728.62
341.386	747.62
341.614	751.62
341.842	774.62
342.07	724.62
342.298	750.62
342.526	754.62
342.754	736.62
342.981	750.62
343.209	756.62
343.437	750.62
343.665	780.62
343.893	824.62
344.12	838.62
344.348	831.62
344.576	814.62
344.804	818.62
345.031	779.62
345.259	796.62
345.487	767.62
345.714	741.62
345.942	748.62
346.17	782.62
346.397	760.62
346.625	738.62
346.853	716.62
347.08	714.62
347.308	746.62
347.535	730.62
347.763	721.62
347.99	722.62
348.218	732.62
348.445	703.62
348.673	694.62
348.9	722.62
349.128	710.62
349.355	751.62
349.583	747.62
349.81	710.62
350.037	683.62
350.265	723.62
350.492	731.62
350.72	716.62
350.947	720.62
351.174	714.62
351.402	703.62
351.629	720.62
351.856	700.62
352.083	712.62
352.311	721.62
352.538	710.62
352.765	709.62
352.992	701.62
353.22	658.62
353.447	681.62
353.674	677.62
353.901	688.62
354.128	694.62
354.355	675.62
354.583	678.62
354.81	684.62
355.037	698.62
355.264	687.62
355.491	686.62
355.718	686.62
355.945	675.62
356.172	682.62
356.399	680.62
356.626	715.62
356.853	704.62
357.08	683.62
357.307	674.62
357.534	675.62
357.761	683.62
357.988	696.62
358.215	674.62
358.441	708.62
358.668	685.62
358.895	690.62
359.122	659.62
359.349	688.62
359.576	703.62
359.802	691.62
360.029	700.62
360.256	703.62
360.483	700.62
360.709	677.62
360.936	679.62
361.163	692.62
361.39	679.62
361.616	692.62
361.843	715.62
362.07	719.62
362.296	698.62
362.523	669.62
362.749	686.62
362.976	690.62
363.203	664.62
363.429	667.62
363.656	660.62
363.882	681.62
364.109	710.62
364.335	690.62
364.562	679.62
364.788	666.62
365.015	692.62
365.241	656.62
365.468	657.62
365.694	655.62
365.92	678.62
366.147	683.62
366.373	703.62
366.599	673.62
366.826	680.62
367.052	663.62
367.278	687.62
367.505	695.62
367.731	687.62
367.957	657.62
368.184	677.62
368.41	681.62
368.636	692.62
368.862	650.62
369.089	677.62
369.315	683.62
369.541	689.62
369.767	689.62
369.993	700.62
370.219	719.62
370.445	678.62
370.672	705.62
370.898	704.62
371.124	700.62
371.35	684.62
371.576	728.62
371.802	687.62
372.028	691.62
372.254	711.62
372.48	722.62
372.706	715.62
372.932	729.62
373.158	688.62
373.384	726.62
373.61	689.62
373.835	705.62
374.061	687.62
374.287	718.62
374.513	712.62
374.739	769.62
374.965	732.62
375.191	716.62
375.416	746.62
375.642	710.62
375.868	750.62
376.094	718.62
376.319	688.62
376.545	715.62
376.771	697.62
376.997	696.62
377.222	692.62
377.448	687.62
377.674	689.62
377.899	711.62
378.125	667.62
378.35	703.62
378.576	703.62
378.802	696.62
379.027	683.62
379.253	669.62
379.478	678.62
379.704	678.62
379.929	663.62
380.155	665.62
380.38	683.62
380.606	669.62
380.831	674.62
381.057	683.62
381.282	666.62
381.507	653.62
381.733	659.62
381.958	709.62
382.184	686.62
382.409	692.62
382.634	680.62
382.86	715.62
383.085	689.62
383.31	696.62
383.535	710.62
383.761	723.62
383.986	729.62
384.211	712.62
384.436	744.62
384.662	754.62
384.887	757.62
385.112	760.62
385.337	739.62
385.562	780.62
385.787	764.62
386.013	773.62
386.238	783.62
386.463	758.62
386.688	792.62
386.913	755.62
387.138	777.62
387.363	787.62
387.588	756.62
387.813	768.62
388.038	751.62
388.263	754.62
388.488	784.62
388.713	784.62
388.938	762.62
389.163	759.62
389.387	765.62
389.612	773.62
389.837	760.62
390.062	786.62
390.287	776.62
390.512	768.62
390.736	783.62
390.961	814.62
391.186	805.62
391.411	807.62
391.636	820.62
391.86	829.62
392.085	859.62
392.31	831.62
392.534	835.62
392.759	818.62
392.984	825.62
393.208	835.62
393.433	810.62
393.658	827.62
393.882	816.62
394.107	810.62
394.331	829.62
394.556	821.62
394.78	802.62
395.005	834.62
395.229	819.62
395.454	843.62
395.678	847.62
395.903	868.62
396.127	868.62
396.352	824.62
396.576	831.62
396.801	815.62
397.025	841.62
397.249	878.62
397.474	860.62
397.698	898.62
397.922	890.62
398.147	906.62
398.371	909.62
398.595	914.62
398.82	989.62
399.044	985.62
399.268	1038.62
399.492	1098.62
399.717	1192.62
399.941	1194.62
400.165	1148.62
400.389	1108.62
400.613	1070.62
400.837	1038.62
401.062	1010.62
401.286	978.62
401.51	954.62
401.734	981.62
401.958	973.62
402.182	963.62
402.406	979.62
402.63	988.62
402.854	979.62
403.078	978.62
403.302	1010.62
403.526	959.62
403.75	989.62
403.974	1035.62
404.198	1012.62
404.422	1021.62
404.645	1018.62
404.869	1034.62
405.093	1040.62
405.317	1027.62
405.541	1008.62
405.765	1030.62
405.988	1008.62
406.212	1036.62
406.436	1061.62
406.66	1080.62
406.883	1062.62
407.107	1114.62
407.331	1092.62
407.555	1146.62
407.778	1162.62
408.002	1163.62
408.226	1139.62
408.449	1114.62
408.673	1100.62
408.896	1114.62
409.12	1095.62
409.344	1087.62
409.567	1110.62
409.791	1089.62
410.014	1099.62
410.238	1081.62
410.461	1060.62
410.685	1061.62
410.908	1070.62
411.132	1056.62
411.355	1024.62
411.578	1042.62
411.802	1028.62
412.025	1018.62
412.249	1060.62
412.472	1040.62
412.695	1022.62
412.919	1006.62
413.142	998.62
413.365	1020.62
413.589	997.62
413.812	979.62
414.035	1022.62
414.258	1006.62
414.482	1002.62
414.705	1006.62
414.928	1017.62
415.151	979.62
415.374	1012.62
415.597	1003.62
415.821	991.62
416.044	966.62
416.267	982.62
416.49	971.62
416.713	975.62
416.936	985.62
417.159	972.62
417.382	964.62
417.605	979.62
417.828	989.62
418.051	977.62
418.274	1012.62
418.497	989.62
418.72	997.62
418.943	977.62
419.166	1051.62
419.389	1122.62
419.611	1121.62
419.834	1054.62
420.057	1046.62
420.28	1042.62
420.503	992.62
420.726	998.62
420.948	981.62
421.171	976.62
421.394	991.62
421.617	996.62
421.839	1042.62
422.062	1014.62
422.285	1030.62
422.507	1012.62
422.73	1012.62
422.953	1033.62
423.175	996.62
423.398	1022.62
423.621	1012.62
423.843	1037.62
424.066	1045.62
424.288	1023.62
424.511	1026.62
424.733	1012.62
424.956	994.62
425.178	1018.62
425.401	1009.62
425.623	1023.62
425.846	1029.62
426.068	994.62
426.291	998.62
426.513	988.62
426.735	993.62
426.958	999.62
427.18	959.62
427.402	999.62
427.625	965.62
427.847	947.62
428.069	958.62
428.292	988.62
428.514	965.62
428.736	965.62
428.958	984.62
429.181	981.62
429.403	951.62
429.625	952.62
429.847	956.62
430.069	912.62
430.292	938.62
430.514	930.62
430.736	975.62
430.958	971.62
431.18	971.62
431.402	966.62
431.624	978.62
431.846	984.62
432.068	942.62
432.29	959.62
432.512	969.62
432.734	987.62
432.956	962.62
433.178	1015.62
433.4	971.62
433.622	1006.62
433.844	1012.62
434.066	962.62
434.287	981.62
434.509	1029.62
434.731	999.62
434.953	1060.62
435.175	1040.62
435.397	1062.62
435.618	1017.62
435.84	1022.62
436.062	1022.62
436.284	986.62
436.505	987.62
436.727	987.62
436.949	966.62
437.17	977.62
437.392	978.62
437.614	953.62
437.835	940.62
438.057	922.62
438.278	935.62
438.5	933.62
438.721	934.62
438.943	958.62
439.165	963.62
439.386	979.62
439.608	959.62
439.829	998.62
440.05	969.62
440.272	1009.62
440.493	979.62
440.715	978.62
440.936	999.62
441.158	1026.62
441.379	1047.62
441.6	1059.62
441.822	1057.62
442.043	1071.62
442.264	1059.62
442.486	1036.62
442.707	1048.62
442.928	1031.62
443.149	1060.62
443.371	1051.62
443.592	1050.62
443.813	1084.62
444.034	1097.62
444.255	1080.62
444.476	1077.62
444.698	1165.62
444.919	1140.62
445.14	1216.62
445.361	1157.62
445.582	1118.62
445.803	1096.62
446.024	1056.62
446.245	1018.62
446.466	1029.62
446.687	1032.62
446.908	999.62
447.129	978.62
447.35	952.62
447.571	976.62
447.792	966.62
448.013	938.62
448.234	958.62
448.455	959.62
448.675	922.62
448.896	932.62
449.117	927.62
449.338	906.62
449.559	900.62
449.779	930.62
450	871.62
450.221	894.62
450.442	926.62
450.662	922.62
450.883	909.62
451.104	922.62
451.324	900.62
451.545	919.62
451.766	916.62
451.986	922.62
452.207	919.62
452.428	896.62
452.648	917.62
452.869	902.62
453.089	873.62
453.31	896.62
453.53	891.62
453.751	884.62
453.971	847.62
454.192	892.62
454.412	858.62
454.633	837.62
454.853	871.62
455.073	879.62
455.294	880.62
455.514	861.62
455.734	862.62
455.955	878.62
456.175	852.62
456.395	872.62
456.616	844.62
456.836	865.62
457.056	867.62
457.276	849.62
457.497	847.62
457.717	860.62
457.937	862.62
458.157	871.62
458.377	867.62
458.598	914.62
458.818	932.62
459.038	925.62
459.258	953.62
459.478	989.62
459.698	988.62
459.918	998.62
460.138	1040.62
460.358	1053.62
460.578	1054.62
460.798	1071.62
461.018	1098.62
461.238	1135.62
461.458	1115.62
461.678	1112.62
461.898	1130.62
462.118	1133.62
462.338	1138.62
462.558	1199.62
462.777	1215.62
462.997	1259.62
463.217	1330.62
463.437	1308.62
463.657	1279.62
463.876	1275.62
464.096	1243.62
464.316	1212.62
464.536	1182.62
464.755	1172.62
464.975	1171.62
465.195	1118.62
465.414	1098.62
465.634	1052.62
465.854	1028.62
466.073	1026.62
466.293	1011.62
466.512	972.62
466.732	971.62
466.951	953.62
467.171	980.62
467.391	964.62
467.61	983.62
467.829	957.62
468.049	979.62
468.268	931.62
468.488	928.62
468.707	916.62
468.927	936.62
469.146	929.62
469.365	948.62
469.585	936.62
469.804	918.62
470.023	963.62
470.243	963.62
470.462	961.62
470.681	964.62
470.901	975.62
471.12	972.62
471.339	962.62
471.558	952.62
471.777	972.62
471.997	966.62
472.216	940.62
472.435	919.62
472.654	929.62
472.873	881.62
473.092	918.62
473.311	916.62
473.53	907.62
473.749	920.62
473.968	921.62
474.187	919.62
474.406	898.62
474.625	929.62
474.844	947.62
475.063	938.62
475.282	934.62
475.501	886.62
475.72	928.62
475.939	929.62
476.158	965.62
476.377	973.62
476.596	980.62
476.814	944.62
477.033	952.62
477.252	1033.62
477.471	1015.62
477.69	1024.62
477.908	1043.62
478.127	1054.62
478.346	1040.62
478.564	1094.62
478.783	1061.62
479.002	1088.62
479.22	1102.62
479.439	1125.62
479.658	1070.62
479.876	1103.62
480.095	1108.62
480.313	1123.62
480.532	1128.62
480.751	1132.62
480.969	1092.62
481.188	1092.62
481.406	1096.62
481.624	1081.62
481.843	1074.62
482.061	1029.62
482.28	1020.62
482.498	1048.62
482.717	1009.62
482.935	1065.62
483.153	1050.62
483.372	1064.62
483.59	1079.62
483.808	1058.62
484.027	1082.62
484.245	1082.62
484.463	1073.62
484.681	1068.62
484.9	1088.62
485.118	1090.62
485.336	1074.62
485.554	1096.62
485.772	1100.62
485.99	1081.62
486.209	1073.62
486.427	1108.62
486.645	1104.62
486.863	1136.62
487.081	1126.62
487.299	1118.62
487.517	1113.62
487.735	1134.62
487.953	1120.62
488.171	1110.62
488.389	1132.62
488.607	1106.62
488.825	1078.62
489.043	1097.62
489.261	1064.62
489.479	1096.62
489.696	1108.62
489.914	1138.62
490.132	1118.62
490.35	1146.62
490.568	1129.62
490.786	1149.62
491.003	1136.62
491.221	1134.62
491.439	1160.62
491.657	1177.62
491.874	1144.62
492.092	1170.62
492.31	1186.62
492.527	1175.62
492.745	1166.62
492.963	1163.62
493.18	1175.62
493.398	1154.62
493.615	1191.62
493.833	1162.62
494.05	1214.62
494.268	1236.62
494.485	1207.62
494.703	1214.62
494.92	1238.62
495.138	1227.62
495.355	1213.62
495.573	1230.62
495.79	1248.62
496.008	1245.62
496.225	1294.62
496.442	1269.62
496.66	1298.62
496.877	1256.62
497.094	1302.62
497.312	1359.62
497.529	1353.62
497.746	1424.62
497.963	1420.62
498.181	1436.62
