Data from Ni(NO3)2@0.25M.TitratingCurve.Agarose3%dH2O.NegLispCup.LampEnergy10.LIBS07252019_HRD10591_18-04-10-566.txt Node
Date: Thu Jul 25 18:04:10 EDT 2019
User: cochatt
Spectrometer: HR+D1059
Trigger mode: 1
Integration Time (sec): 1.000000E-1
Scans to average: 1
Electric dark correction enabled: true
Nonlinearity correction enabled: false
Boxcar width: 0
XAxis mode: Wavelengths
Number of Pixels in Spectrum: 2048
>>>>>Begin Spectral Data<<<<<
223.165	-17.88
223.4	-17.88
223.635	-17.88
223.869	-20.88
224.104	-21.88
224.338	-22.88
224.573	-9.88
224.808	-6.88
225.042	-0.88
225.277	-12.88
225.511	0.12
225.746	1.12
225.98	12.12
226.215	13.12
226.449	13.12
226.683	20.12
226.918	22.12
227.152	32.12
227.387	14.12
227.621	46.12
227.856	39.12
228.09	31.12
228.324	58.12
228.559	66.12
228.793	68.12
229.027	83.12
229.262	88.12
229.496	80.12
229.73	93.12
229.964	95.12
230.199	106.12
230.433	111.12
230.667	104.12
230.901	85.12
231.136	102.12
231.37	94.12
231.604	109.12
231.838	103.12
232.072	123.12
232.306	125.12
232.541	109.12
232.775	102.12
233.009	107.12
233.243	96.12
233.477	104.12
233.711	99.12
233.945	101.12
234.179	101.12
234.413	124.12
234.647	118.12
234.881	105.12
235.115	106.12
235.349	103.12
235.583	120.12
235.817	92.12
236.051	122.12
236.285	102.12
236.519	98.12
236.753	109.12
236.987	114.12
237.221	124.12
237.455	119.12
237.689	98.12
237.922	93.12
238.156	119.12
238.39	101.12
238.624	109.12
238.858	109.12
239.091	111.12
239.325	103.12
239.559	114.12
239.793	130.12
240.027	126.12
240.26	112.12
240.494	126.12
240.728	118.12
240.961	119.12
241.195	131.12
241.429	121.12
241.662	115.12
241.896	130.12
242.13	140.12
242.363	131.12
242.597	119.12
242.83	117.12
243.064	130.12
243.298	116.12
243.531	110.12
243.765	128.12
243.998	123.12
244.232	136.12
244.465	148.12
244.699	136.12
244.932	130.12
245.166	144.12
245.399	134.12
245.633	144.12
245.866	138.12
246.099	142.12
246.333	131.12
246.566	133.12
246.8	132.12
247.033	156.12
247.266	152.12
247.5	145.12
247.733	148.12
247.966	152.12
248.2	142.12
248.433	148.12
248.666	141.12
248.899	166.12
249.133	128.12
249.366	140.12
249.599	162.12
249.832	150.12
250.066	162.12
250.299	145.12
250.532	165.12
250.765	158.12
250.998	168.12
251.231	158.12
251.465	166.12
251.698	183.12
251.931	157.12
252.164	173.12
252.397	173.12
252.63	162.12
252.863	170.12
253.096	178.12
253.329	166.12
253.562	172.12
253.795	175.12
254.028	162.12
254.261	200.12
254.494	168.12
254.727	195.12
254.96	191.12
255.193	176.12
255.426	174.12
255.659	182.12
255.892	181.12
256.124	173.12
256.357	180.12
256.59	180.12
256.823	183.12
257.056	172.12
257.289	182.12
257.521	194.12
257.754	205.12
257.987	183.12
258.22	185.12
258.452	201.12
258.685	193.12
258.918	174.12
259.151	182.12
259.383	194.12
259.616	195.12
259.849	211.12
260.081	193.12
260.314	217.12
260.547	214.12
260.779	208.12
261.012	195.12
261.244	196.12
261.477	210.12
261.71	205.12
261.942	229.12
262.175	209.12
262.407	206.12
262.64	208.12
262.872	206.12
263.105	215.12
263.337	221.12
263.57	215.12
263.802	228.12
264.035	229.12
264.267	228.12
264.499	223.12
264.732	221.12
264.964	219.12
265.197	223.12
265.429	205.12
265.661	220.12
265.894	223.12
266.126	226.12
266.358	218.12
266.591	218.12
266.823	225.12
267.055	229.12
267.287	224.12
267.52	227.12
267.752	223.12
267.984	205.12
268.216	245.12
268.448	239.12
268.681	246.12
268.913	230.12
269.145	213.12
269.377	231.12
269.609	236.12
269.841	235.12
270.073	246.12
270.306	240.12
270.538	239.12
270.77	225.12
271.002	246.12
271.234	232.12
271.466	244.12
271.698	234.12
271.93	226.12
272.162	243.12
272.394	239.12
272.626	254.12
272.858	240.12
273.09	242.12
273.322	246.12
273.553	267.12
273.785	262.12
274.017	242.12
274.249	254.12
274.481	242.12
274.713	233.12
274.945	245.12
275.176	261.12
275.408	251.12
275.64	266.12
275.872	246.12
276.104	257.12
276.335	251.12
276.567	253.12
276.799	258.12
277.031	255.12
277.262	246.12
277.494	262.12
277.726	244.12
277.957	260.12
278.189	256.12
278.421	270.12
278.652	265.12
278.884	263.12
279.115	258.12
279.347	268.12
279.579	266.12
279.81	252.12
280.042	259.12
280.273	268.12
280.505	247.12
280.736	278.12
280.968	265.12
281.199	283.12
281.431	262.12
281.662	260.12
281.894	272.12
282.125	275.12
282.356	280.12
282.588	277.12
282.819	277.12
283.051	283.12
283.282	267.12
283.513	274.12
283.745	279.12
283.976	274.12
284.207	270.12
284.439	299.12
284.67	282.12
284.901	287.12
285.132	272.12
285.364	290.12
285.595	272.12
285.826	292.12
286.057	298.12
286.288	264.12
286.52	284.12
286.751	309.12
286.982	296.12
287.213	287.12
287.444	309.12
287.675	298.12
287.906	284.12
288.138	301.12
288.369	278.12
288.6	306.12
288.831	300.12
289.062	303.12
289.293	294.12
289.524	287.12
289.755	282.12
289.986	293.12
290.217	284.12
290.448	292.12
290.679	301.12
290.91	293.12
291.141	292.12
291.371	295.12
291.602	291.12
291.833	296.12
292.064	301.12
292.295	302.12
292.526	288.12
292.757	304.12
292.987	292.12
293.218	291.12
293.449	303.12
293.68	302.12
293.91	305.12
294.141	308.12
294.372	290.12
294.603	293.12
294.833	285.12
295.064	291.12
295.295	314.12
295.525	294.12
295.756	287.12
295.987	294.12
296.217	319.12
296.448	302.12
296.679	314.12
296.909	315.12
297.14	316.12
297.37	315.12
297.601	322.12
297.831	314.12
298.062	326.12
298.292	336.12
298.523	336.12
298.753	307.12
298.984	342.12
299.214	312.12
299.445	317.12
299.675	334.12
299.905	326.12
300.136	329.12
300.366	334.12
300.597	339.12
300.827	339.12
301.057	332.12
301.288	329.12
301.518	343.12
301.748	325.12
301.979	331.12
302.209	330.12
302.439	327.12
302.669	330.12
302.9	333.12
303.13	345.12
303.36	339.12
303.59	337.12
303.82	343.12
304.051	334.12
304.281	349.12
304.511	334.12
304.741	336.12
304.971	343.12
305.201	351.12
305.431	349.12
305.661	337.12
305.891	339.12
306.121	328.12
306.352	324.12
306.582	347.12
306.812	325.12
307.042	326.12
307.272	335.12
307.502	341.12
307.731	329.12
307.961	330.12
308.191	335.12
308.421	330.12
308.651	322.12
308.881	341.12
309.111	349.12
309.341	335.12
309.571	349.12
309.8	349.12
310.03	346.12
310.26	360.12
310.49	346.12
310.72	337.12
310.949	350.12
311.179	340.12
311.409	336.12
311.639	350.12
311.868	363.12
312.098	336.12
312.328	364.12
312.557	361.12
312.787	348.12
313.017	380.12
313.246	392.12
313.476	373.12
313.706	377.12
313.935	359.12
314.165	374.12
314.394	396.12
314.624	380.12
314.853	362.12
315.083	363.12
315.312	359.12
315.542	380.12
315.771	390.12
316.001	371.12
316.23	378.12
316.46	388.12
316.689	372.12
316.919	376.12
317.148	382.12
317.377	370.12
317.607	375.12
317.836	357.12
318.065	370.12
318.295	370.12
318.524	363.12
318.753	358.12
318.983	363.12
319.212	381.12
319.441	390.12
319.67	380.12
319.9	373.12
320.129	384.12
320.358	381.12
320.587	390.12
320.816	388.12
321.046	395.12
321.275	392.12
321.504	378.12
321.733	377.12
321.962	411.12
322.191	404.12
322.42	396.12
322.649	375.12
322.878	412.12
323.108	406.12
323.337	421.12
323.566	418.12
323.795	419.12
324.024	398.12
324.253	402.12
324.482	400.12
324.71	421.12
324.939	410.12
325.168	425.12
325.397	412.12
325.626	429.12
325.855	434.12
326.084	446.12
326.313	434.12
326.542	448.12
326.77	464.12
326.999	461.12
327.228	443.12
327.457	438.12
327.686	440.12
327.914	451.12
328.143	461.12
328.372	435.12
328.6	443.12
328.829	429.12
329.058	464.12
329.287	454.12
329.515	453.12
329.744	444.12
329.972	468.12
330.201	459.12
330.43	460.12
330.658	448.12
330.887	478.12
331.115	470.12
331.344	467.12
331.572	463.12
331.801	504.12
332.03	513.12
332.258	523.12
332.486	527.12
332.715	523.12
332.943	551.12
333.172	549.12
333.4	566.12
333.629	584.12
333.857	604.12
334.085	568.12
334.314	584.12
334.542	585.12
334.771	588.12
334.999	558.12
335.227	585.12
335.455	573.12
335.684	554.12
335.912	574.12
336.14	575.12
336.369	562.12
336.597	564.12
336.825	571.12
337.053	573.12
337.281	570.12
337.51	551.12
337.738	538.12
337.966	546.12
338.194	548.12
338.422	543.12
338.65	526.12
338.878	539.12
339.106	500.12
339.334	525.12
339.562	529.12
339.79	502.12
340.018	512.12
340.246	496.12
340.474	519.12
340.702	508.12
340.93	491.12
341.158	486.12
341.386	503.12
341.614	538.12
341.842	518.12
342.07	508.12
342.298	504.12
342.526	492.12
342.754	490.12
342.981	507.12
343.209	513.12
343.437	524.12
343.665	563.12
343.893	581.12
344.12	592.12
344.348	566.12
344.576	549.12
344.804	558.12
345.031	534.12
345.259	514.12
345.487	544.12
345.714	500.12
345.942	505.12
346.17	509.12
346.397	527.12
346.625	511.12
346.853	494.12
347.08	470.12
347.308	494.12
347.535	498.12
347.763	510.12
347.99	473.12
348.218	504.12
348.445	485.12
348.673	484.12
348.9	467.12
349.128	495.12
349.355	474.12
349.583	493.12
349.81	479.12
350.037	462.12
350.265	471.12
350.492	463.12
350.72	458.12
350.947	489.12
351.174	481.12
351.402	479.12
351.629	484.12
351.856	470.12
352.083	488.12
352.311	494.12
352.538	487.12
352.765	502.12
352.992	446.12
353.22	464.12
353.447	442.12
353.674	462.12
353.901	468.12
354.128	454.12
354.355	472.12
354.583	470.12
354.81	471.12
355.037	470.12
355.264	471.12
355.491	450.12
355.718	463.12
355.945	463.12
356.172	466.12
356.399	465.12
356.626	480.12
356.853	461.12
357.08	461.12
357.307	463.12
357.534	456.12
357.761	463.12
357.988	447.12
358.215	479.12
358.441	469.12
358.668	468.12
358.895	471.12
359.122	461.12
359.349	456.12
359.576	472.12
359.802	468.12
360.029	465.12
360.256	449.12
360.483	476.12
360.709	468.12
360.936	454.12
361.163	472.12
361.39	469.12
361.616	475.12
361.843	485.12
362.07	499.12
362.296	486.12
362.523	476.12
362.749	476.12
362.976	475.12
363.203	475.12
363.429	471.12
363.656	461.12
363.882	454.12
364.109	461.12
364.335	467.12
364.562	460.12
364.788	456.12
365.015	447.12
365.241	459.12
365.468	463.12
365.694	452.12
365.92	445.12
366.147	452.12
366.373	463.12
366.599	438.12
366.826	441.12
367.052	461.12
367.278	446.12
367.505	444.12
367.731	471.12
367.957	460.12
368.184	470.12
368.41	454.12
368.636	481.12
368.862	461.12
369.089	476.12
369.315	459.12
369.541	482.12
369.767	491.12
369.993	484.12
370.219	475.12
370.445	499.12
370.672	488.12
370.898	479.12
371.124	479.12
371.35	475.12
371.576	495.12
371.802	499.12
372.028	508.12
372.254	477.12
372.48	501.12
372.706	490.12
372.932	503.12
373.158	479.12
373.384	510.12
373.61	508.12
373.835	489.12
374.061	482.12
374.287	502.12
374.513	503.12
374.739	506.12
374.965	521.12
375.191	528.12
375.416	524.12
375.642	512.12
375.868	518.12
376.094	519.12
376.319	482.12
376.545	498.12
376.771	488.12
376.997	494.12
377.222	493.12
377.448	474.12
377.674	471.12
377.899	479.12
378.125	476.12
378.35	480.12
378.576	465.12
378.802	468.12
379.027	469.12
379.253	472.12
379.478	459.12
379.704	476.12
379.929	477.12
380.155	476.12
380.38	482.12
380.606	491.12
380.831	482.12
381.057	484.12
381.282	470.12
381.507	461.12
381.733	494.12
381.958	463.12
382.184	511.12
382.409	479.12
382.634	474.12
382.86	506.12
383.085	511.12
383.31	508.12
383.535	528.12
383.761	515.12
383.986	506.12
384.211	523.12
384.436	527.12
384.662	538.12
384.887	564.12
385.112	548.12
385.337	560.12
385.562	567.12
385.787	573.12
386.013	576.12
386.238	559.12
386.463	542.12
386.688	572.12
386.913	539.12
387.138	556.12
387.363	575.12
387.588	555.12
387.813	551.12
388.038	550.12
388.263	552.12
388.488	572.12
388.713	544.12
388.938	556.12
389.163	556.12
389.387	554.12
389.612	558.12
389.837	548.12
390.062	556.12
390.287	524.12
390.512	547.12
390.736	566.12
390.961	554.12
391.186	569.12
391.411	568.12
391.636	599.12
391.86	604.12
392.085	630.12
392.31	607.12
392.534	598.12
392.759	616.12
392.984	571.12
393.208	580.12
393.433	590.12
393.658	590.12
393.882	584.12
394.107	601.12
394.331	587.12
394.556	589.12
394.78	579.12
395.005	604.12
395.229	591.12
395.454	628.12
395.678	631.12
395.903	604.12
396.127	599.12
396.352	626.12
396.576	611.12
396.801	606.12
397.025	624.12
397.249	628.12
397.474	640.12
397.698	651.12
397.922	610.12
398.147	621.12
398.371	644.12
398.595	678.12
398.82	694.12
399.044	723.12
399.268	802.12
399.492	870.12
399.717	940.12
399.941	939.12
400.165	822.12
400.389	804.12
400.613	750.12
400.837	760.12
401.062	717.12
401.286	708.12
401.51	720.12
401.734	682.12
401.958	705.12
402.182	728.12
402.406	704.12
402.63	699.12
402.854	738.12
403.078	721.12
403.302	750.12
403.526	766.12
403.75	765.12
403.974	771.12
404.198	755.12
404.422	762.12
404.645	744.12
404.869	752.12
405.093	772.12
405.317	743.12
405.541	749.12
405.765	770.12
405.988	737.12
406.212	748.12
406.436	759.12
406.66	776.12
406.883	804.12
407.107	810.12
407.331	839.12
407.555	866.12
407.778	864.12
408.002	844.12
408.226	837.12
408.449	819.12
408.673	811.12
408.896	792.12
409.12	771.12
409.344	772.12
409.567	763.12
409.791	788.12
410.014	803.12
410.238	790.12
410.461	789.12
410.685	761.12
410.908	755.12
411.132	736.12
411.355	731.12
411.578	714.12
411.802	729.12
412.025	757.12
412.249	763.12
412.472	751.12
412.695	718.12
412.919	728.12
413.142	712.12
413.365	713.12
413.589	735.12
413.812	712.12
414.035	688.12
414.258	728.12
414.482	726.12
414.705	717.12
414.928	746.12
415.151	703.12
415.374	702.12
415.597	716.12
415.821	732.12
416.044	702.12
416.267	715.12
416.49	712.12
416.713	731.12
416.936	698.12
417.159	711.12
417.382	689.12
417.605	674.12
417.828	714.12
418.051	706.12
418.274	717.12
418.497	710.12
418.72	734.12
418.943	740.12
419.166	754.12
419.389	808.12
419.611	783.12
419.834	774.12
420.057	764.12
420.28	746.12
420.503	698.12
420.726	706.12
420.948	719.12
421.171	746.12
421.394	708.12
421.617	720.12
421.839	714.12
422.062	721.12
422.285	688.12
422.507	726.12
422.73	726.12
422.953	707.12
423.175	719.12
423.398	726.12
423.621	712.12
423.843	743.12
424.066	742.12
424.288	720.12
424.511	751.12
424.733	726.12
424.956	729.12
425.178	739.12
425.401	717.12
425.623	732.12
425.846	710.12
426.068	727.12
426.291	711.12
426.513	692.12
426.735	680.12
426.958	690.12
427.18	674.12
427.402	687.12
427.625	706.12
427.847	676.12
428.069	679.12
428.292	673.12
428.514	686.12
428.736	675.12
428.958	683.12
429.181	675.12
429.403	666.12
429.625	680.12
429.847	653.12
430.069	654.12
430.292	660.12
430.514	662.12
430.736	653.12
430.958	676.12
431.18	676.12
431.402	652.12
431.624	664.12
431.846	679.12
432.068	668.12
432.29	698.12
432.512	673.12
432.734	696.12
432.956	670.12
433.178	681.12
433.4	685.12
433.622	695.12
433.844	710.12
434.066	686.12
434.287	682.12
434.509	730.12
434.731	732.12
434.953	734.12
435.175	744.12
435.397	762.12
435.618	715.12
435.84	705.12
436.062	666.12
436.284	678.12
436.505	664.12
436.727	680.12
436.949	685.12
437.17	683.12
437.392	681.12
437.614	671.12
437.835	646.12
438.057	656.12
438.278	660.12
438.5	654.12
438.721	638.12
438.943	687.12
439.165	684.12
439.386	685.12
439.608	661.12
439.829	703.12
440.05	694.12
440.272	682.12
440.493	694.12
440.715	749.12
440.936	706.12
441.158	734.12
441.379	749.12
441.6	778.12
441.822	738.12
442.043	747.12
442.264	762.12
442.486	751.12
442.707	752.12
442.928	754.12
443.149	740.12
443.371	745.12
443.592	769.12
443.813	774.12
444.034	773.12
444.255	779.12
444.476	829.12
444.698	832.12
444.919	855.12
445.14	942.12
445.361	859.12
445.582	790.12
445.803	776.12
446.024	732.12
446.245	752.12
446.466	727.12
446.687	716.12
446.908	710.12
447.129	692.12
447.35	698.12
447.571	676.12
447.792	661.12
448.013	673.12
448.234	651.12
448.455	652.12
448.675	635.12
448.896	646.12
449.117	634.12
449.338	646.12
449.559	621.12
449.779	640.12
450	640.12
450.221	660.12
450.442	639.12
450.662	639.12
450.883	623.12
451.104	646.12
451.324	660.12
451.545	637.12
451.766	646.12
451.986	636.12
452.207	644.12
452.428	630.12
452.648	630.12
452.869	632.12
453.089	632.12
453.31	628.12
453.53	607.12
453.751	624.12
453.971	635.12
454.192	600.12
454.412	598.12
454.633	601.12
454.853	600.12
455.073	605.12
455.294	615.12
455.514	586.12
455.734	599.12
455.955	591.12
456.175	602.12
456.395	591.12
456.616	615.12
456.836	597.12
457.056	569.12
457.276	577.12
457.497	605.12
457.717	584.12
457.937	608.12
458.157	604.12
458.377	618.12
458.598	633.12
458.818	640.12
459.038	637.12
459.258	654.12
459.478	687.12
459.698	719.12
459.918	732.12
460.138	736.12
460.358	727.12
460.578	764.12
460.798	788.12
461.018	800.12
461.238	778.12
461.458	798.12
461.678	791.12
461.898	794.12
462.118	804.12
462.338	814.12
462.558	871.12
462.777	894.12
462.997	940.12
463.217	969.12
463.437	1016.12
463.657	913.12
463.876	874.12
464.096	898.12
464.316	878.12
464.536	872.12
464.755	893.12
464.975	831.12
465.195	815.12
465.414	774.12
465.634	722.12
465.854	708.12
466.073	709.12
466.293	702.12
466.512	692.12
466.732	660.12
466.951	687.12
467.171	661.12
467.391	670.12
467.61	679.12
467.829	666.12
468.049	634.12
468.268	660.12
468.488	655.12
468.707	641.12
468.927	635.12
469.146	624.12
469.365	656.12
469.585	658.12
469.804	694.12
470.023	667.12
470.243	676.12
470.462	695.12
470.681	705.12
470.901	697.12
471.12	673.12
471.339	651.12
471.558	654.12
471.777	672.12
471.997	645.12
472.216	635.12
472.435	641.12
472.654	611.12
472.873	640.12
473.092	638.12
473.311	630.12
473.53	645.12
473.749	634.12
473.968	644.12
474.187	636.12
474.406	607.12
474.625	631.12
474.844	654.12
475.063	642.12
475.282	651.12
475.501	648.12
475.72	613.12
475.939	651.12
476.158	662.12
476.377	670.12
476.596	643.12
476.814	650.12
477.033	654.12
477.252	672.12
477.471	666.12
477.69	684.12
477.908	711.12
478.127	731.12
478.346	751.12
478.564	754.12
478.783	747.12
479.002	790.12
479.22	777.12
479.439	788.12
479.658	755.12
479.876	758.12
480.095	752.12
480.313	802.12
480.532	806.12
480.751	794.12
480.969	777.12
481.188	770.12
481.406	726.12
481.624	713.12
481.843	698.12
482.061	703.12
482.28	723.12
482.498	751.12
482.717	690.12
482.935	692.12
483.153	729.12
483.372	733.12
483.59	706.12
483.808	729.12
484.027	722.12
484.245	746.12
484.463	732.12
484.681	722.12
484.9	741.12
485.118	766.12
485.336	742.12
485.554	756.12
485.772	733.12
485.99	720.12
486.209	724.12
486.427	741.12
486.645	750.12
486.863	742.12
487.081	726.12
487.299	749.12
487.517	748.12
487.735	749.12
487.953	767.12
488.171	788.12
488.389	758.12
488.607	740.12
488.825	747.12
489.043	722.12
489.261	741.12
489.479	736.12
489.696	731.12
489.914	742.12
490.132	759.12
490.35	780.12
490.568	772.12
490.786	767.12
491.003	790.12
491.221	778.12
491.439	783.12
491.657	756.12
491.874	781.12
492.092	794.12
492.31	805.12
492.527	792.12
492.745	834.12
492.963	805.12
493.18	805.12
493.398	808.12
493.615	812.12
493.833	826.12
494.05	809.12
494.268	849.12
494.485	798.12
494.703	820.12
494.92	854.12
495.138	839.12
495.355	831.12
495.573	808.12
495.79	843.12
496.008	831.12
496.225	847.12
496.442	842.12
496.66	878.12
496.877	915.12
497.094	863.12
497.312	890.12
497.529	897.12
497.746	895.12
497.963	919.12
498.181	957.12
498.398	1016.12
498.615	1053.12
498.832	1103.12
499.049	1178.12
499.267	1246.12
499.484	1377.12
499.701	1462.12
499.918	1596.12
500.135	1733.12
500.352	1918.12
500.569	1972.12
500.786	1942.12
501.003	1817.12
501.22	1673.12
501.437	1507.12
