Data from Ni(NO3)2@0.5M.TitratingCurve.Agarose3%dH2O.NegLispCup.LampEnergy10.LIBS07252019_HRD10591_17-57-53-564.txt Node
Date: Thu Jul 25 17:57:53 EDT 2019
User: cochatt
Spectrometer: HR+D1059
Trigger mode: 1
Integration Time (sec): 1.000000E-1
Scans to average: 1
Electric dark correction enabled: true
Nonlinearity correction enabled: false
Boxcar width: 0
XAxis mode: Wavelengths
Number of Pixels in Spectrum: 2048
>>>>>Begin Spectral Data<<<<<
223.165	-20.69
223.4	-20.69
223.635	-20.69
223.869	-27.69
224.104	-26.69
224.338	-15.69
224.573	-19.69
224.808	-6.69
225.042	-15.69
225.277	-9.69
225.511	8.31
225.746	3.31
225.98	16.31
226.215	17.31
226.449	34.31
226.683	15.31
226.918	26.31
227.152	21.31
227.387	37.31
227.621	55.31
227.856	29.31
228.09	38.31
228.324	38.31
228.559	58.31
228.793	75.31
229.027	116.31
229.262	152.31
229.496	144.31
229.73	149.31
229.964	174.31
230.199	213.31
230.433	218.31
230.667	216.31
230.901	197.31
231.136	169.31
231.37	178.31
231.604	206.31
231.838	229.31
232.072	222.31
232.306	221.31
232.541	203.31
232.775	170.31
233.009	174.31
233.243	166.31
233.477	170.31
233.711	177.31
233.945	186.31
234.179	202.31
234.413	199.31
234.647	186.31
234.881	188.31
235.115	190.31
235.349	171.31
235.583	155.31
235.817	169.31
236.051	162.31
236.285	177.31
236.519	157.31
236.753	180.31
236.987	180.31
237.221	191.31
237.455	178.31
237.689	174.31
237.922	162.31
238.156	169.31
238.39	173.31
238.624	195.31
238.858	167.31
239.091	191.31
239.325	182.31
239.559	206.31
239.793	257.31
240.027	245.31
240.26	185.31
240.494	200.31
240.728	199.31
240.961	202.31
241.195	198.31
241.429	210.31
241.662	230.31
241.896	264.31
242.13	265.31
242.363	225.31
242.597	218.31
242.83	212.31
243.064	214.31
243.298	224.31
243.531	219.31
243.765	222.31
243.998	229.31
244.232	258.31
244.465	246.31
244.699	231.31
244.932	234.31
245.166	232.31
245.399	249.31
245.633	242.31
245.866	250.31
246.099	237.31
246.333	238.31
246.566	256.31
246.8	241.31
247.033	246.31
247.266	262.31
247.5	256.31
247.733	270.31
247.966	260.31
248.2	260.31
248.433	265.31
248.666	271.31
248.899	284.31
249.133	286.31
249.366	280.31
249.599	270.31
249.832	285.31
250.066	289.31
250.299	291.31
250.532	305.31
250.765	308.31
250.998	326.31
251.231	349.31
251.465	353.31
251.698	333.31
251.931	345.31
252.164	318.31
252.397	318.31
252.63	331.31
252.863	326.31
253.096	338.31
253.329	346.31
253.562	329.31
253.795	323.31
254.028	345.31
254.261	356.31
254.494	368.31
254.727	370.31
254.96	363.31
255.193	365.31
255.426	365.31
255.659	360.31
255.892	349.31
256.124	376.31
256.357	368.31
256.59	371.31
256.823	389.31
257.056	381.31
257.289	375.31
257.521	398.31
257.754	389.31
257.987	379.31
258.22	378.31
258.452	393.31
258.685	407.31
258.918	393.31
259.151	387.31
259.383	398.31
259.616	409.31
259.849	402.31
260.081	407.31
260.314	429.31
260.547	424.31
260.779	409.31
261.012	428.31
261.244	456.31
261.477	421.31
261.71	452.31
261.942	440.31
262.175	434.31
262.407	442.31
262.64	444.31
262.872	436.31
263.105	466.31
263.337	458.31
263.57	450.31
263.802	458.31
264.035	440.31
264.267	456.31
264.499	473.31
264.732	462.31
264.964	472.31
265.197	481.31
265.429	463.31
265.661	462.31
265.894	471.31
266.126	470.31
266.358	452.31
266.591	462.31
266.823	477.31
267.055	469.31
267.287	484.31
267.52	486.31
267.752	475.31
267.984	501.31
268.216	472.31
268.448	487.31
268.681	525.31
268.913	503.31
269.145	496.31
269.377	484.31
269.609	500.31
269.841	502.31
270.073	494.31
270.306	509.31
270.538	502.31
270.77	517.31
271.002	528.31
271.234	496.31
271.466	525.31
271.698	516.31
271.93	502.31
272.162	540.31
272.394	536.31
272.626	533.31
272.858	525.31
273.09	545.31
273.322	539.31
273.553	538.31
273.785	525.31
274.017	520.31
274.249	536.31
274.481	542.31
274.713	550.31
274.945	536.31
275.176	566.31
275.408	558.31
275.64	561.31
275.872	550.31
276.104	556.31
276.335	571.31
276.567	556.31
276.799	555.31
277.031	569.31
277.262	552.31
277.494	554.31
277.726	576.31
277.957	578.31
278.189	563.31
278.421	574.31
278.652	608.31
278.884	588.31
279.115	590.31
279.347	626.31
279.579	589.31
279.81	572.31
280.042	581.31
280.273	592.31
280.505	591.31
280.736	596.31
280.968	593.31
281.199	595.31
281.431	606.31
281.662	615.31
281.894	590.31
282.125	611.31
282.356	608.31
282.588	615.31
282.819	591.31
283.051	588.31
283.282	612.31
283.513	616.31
283.745	612.31
283.976	637.31
284.207	600.31
284.439	598.31
284.67	610.31
284.901	638.31
285.132	619.31
285.364	604.31
285.595	626.31
285.826	621.31
286.057	632.31
286.288	632.31
286.52	632.31
286.751	633.31
286.982	626.31
287.213	625.31
287.444	638.31
287.675	654.31
287.906	636.31
288.138	646.31
288.369	630.31
288.6	631.31
288.831	661.31
289.062	637.31
289.293	654.31
289.524	649.31
289.755	644.31
289.986	650.31
290.217	641.31
290.448	657.31
290.679	667.31
290.91	637.31
291.141	677.31
291.371	665.31
291.602	642.31
291.833	651.31
292.064	653.31
292.295	660.31
292.526	656.31
292.757	650.31
292.987	636.31
293.218	653.31
293.449	667.31
293.68	657.31
293.91	653.31
294.141	649.31
294.372	658.31
294.603	668.31
294.833	664.31
295.064	638.31
295.295	666.31
295.525	664.31
295.756	674.31
295.987	662.31
296.217	664.31
296.448	670.31
296.679	669.31
296.909	684.31
297.14	678.31
297.37	680.31
297.601	676.31
297.831	679.31
298.062	685.31
298.292	685.31
298.523	699.31
298.753	679.31
298.984	688.31
299.214	688.31
299.445	723.31
299.675	694.31
299.905	702.31
300.136	706.31
300.366	720.31
300.597	727.31
300.827	742.31
301.057	739.31
301.288	753.31
301.518	728.31
301.748	732.31
301.979	715.31
302.209	702.31
302.439	705.31
302.669	730.31
302.9	725.31
303.13	727.31
303.36	732.31
303.59	742.31
303.82	760.31
304.051	759.31
304.281	749.31
304.511	733.31
304.741	758.31
304.971	739.31
305.201	794.31
305.431	768.31
305.661	777.31
305.891	766.31
306.121	755.31
306.352	757.31
306.582	758.31
306.812	740.31
307.042	736.31
307.272	755.31
307.502	781.31
307.731	745.31
307.961	754.31
308.191	752.31
308.421	747.31
308.651	767.31
308.881	768.31
309.111	761.31
309.341	758.31
309.571	775.31
309.8	800.31
310.03	803.31
310.26	844.31
310.49	850.31
310.72	788.31
310.949	806.31
311.179	779.31
311.409	767.31
311.639	797.31
311.868	794.31
312.098	794.31
312.328	795.31
312.557	824.31
312.787	804.31
313.017	829.31
313.246	832.31
313.476	859.31
313.706	857.31
313.935	853.31
314.165	839.31
314.394	851.31
314.624	864.31
314.853	841.31
315.083	870.31
315.312	837.31
315.542	858.31
315.771	847.31
316.001	848.31
316.23	869.31
316.46	846.31
316.689	856.31
316.919	904.31
317.148	894.31
317.377	884.31
317.607	859.31
317.836	885.31
318.065	884.31
318.295	913.31
318.524	903.31
318.753	875.31
318.983	880.31
319.212	900.31
319.441	924.31
319.67	921.31
319.9	905.31
320.129	914.31
320.358	922.31
320.587	946.31
320.816	920.31
321.046	926.31
321.275	944.31
321.504	955.31
321.733	971.31
321.962	942.31
322.191	966.31
322.42	979.31
322.649	975.31
322.878	950.31
323.108	965.31
323.337	983.31
323.566	968.31
323.795	973.31
324.024	982.31
324.253	1006.31
324.482	956.31
324.71	976.31
324.939	986.31
325.168	989.31
325.397	1005.31
325.626	958.31
325.855	992.31
326.084	1005.31
326.313	1014.31
326.542	1043.31
326.77	1028.31
326.999	1036.31
327.228	1002.31
327.457	1024.31
327.686	1030.31
327.914	1039.31
328.143	1050.31
328.372	1049.31
328.6	1057.31
328.829	1036.31
329.058	1027.31
329.287	1045.31
329.515	1054.31
329.744	1054.31
329.972	1064.31
330.201	1042.31
330.43	1096.31
330.658	1080.31
330.887	1067.31
331.115	1085.31
331.344	1093.31
331.572	1073.31
331.801	1070.31
332.03	1099.31
332.258	1106.31
332.486	1093.31
332.715	1112.31
332.943	1114.31
333.172	1082.31
333.4	1124.31
333.629	1097.31
333.857	1119.31
334.085	1093.31
334.314	1133.31
334.542	1145.31
334.771	1132.31
334.999	1140.31
335.227	1144.31
335.455	1146.31
335.684	1118.31
335.912	1134.31
336.14	1190.31
336.369	1145.31
336.597	1179.31
336.825	1197.31
337.053	1194.31
337.281	1170.31
337.51	1158.31
337.738	1182.31
337.966	1174.31
338.194	1168.31
338.422	1184.31
338.65	1129.31
338.878	1127.31
339.106	1131.31
339.334	1173.31
339.562	1172.31
339.79	1140.31
340.018	1122.31
340.246	1106.31
340.474	1120.31
340.702	1114.31
340.93	1137.31
341.158	1126.31
341.386	1152.31
341.614	1230.31
341.842	1190.31
342.07	1092.31
342.298	1149.31
342.526	1168.31
342.754	1126.31
342.981	1116.31
343.209	1121.31
343.437	1164.31
343.665	1154.31
343.893	1166.31
344.12	1159.31
344.348	1153.31
344.576	1161.31
344.804	1184.31
345.031	1137.31
345.259	1129.31
345.487	1124.31
345.714	1153.31
345.942	1176.31
346.17	1195.31
346.397	1178.31
346.625	1118.31
346.853	1096.31
347.08	1100.31
347.308	1113.31
347.535	1091.31
347.763	1132.31
347.99	1062.31
348.218	1096.31
348.445	1137.31
348.673	1109.31
348.9	1108.31
349.128	1137.31
349.355	1166.31
349.583	1149.31
349.81	1153.31
350.037	1111.31
350.265	1084.31
350.492	1109.31
350.72	1085.31
350.947	1130.31
351.174	1144.31
351.402	1138.31
351.629	1184.31
351.856	1128.31
352.083	1119.31
352.311	1089.31
352.538	1145.31
352.765	1171.31
352.992	1105.31
353.22	1050.31
353.447	1033.31
353.674	1090.31
353.901	1079.31
354.128	1081.31
354.355	1045.31
354.583	1078.31
354.81	1094.31
355.037	1112.31
355.264	1070.31
355.491	1081.31
355.718	1056.31
355.945	1095.31
356.172	1064.31
356.399	1088.31
356.626	1145.31
356.853	1155.31
357.08	1129.31
357.307	1099.31
357.534	1099.31
357.761	1079.31
357.988	1086.31
358.215	1069.31
358.441	1087.31
358.668	1060.31
358.895	1066.31
359.122	1044.31
359.349	1074.31
359.576	1074.31
359.802	1105.31
360.029	1129.31
360.256	1085.31
360.483	1069.31
360.709	1080.31
360.936	1122.31
361.163	1120.31
361.39	1108.31
361.616	1118.31
361.843	1131.31
362.07	1192.31
362.296	1160.31
362.523	1094.31
362.749	1090.31
362.976	1067.31
363.203	1074.31
363.429	1101.31
363.656	1109.31
363.882	1102.31
364.109	1078.31
364.335	1042.31
364.562	1072.31
364.788	1082.31
365.015	1094.31
365.241	1093.31
365.468	1140.31
365.694	1104.31
365.92	1122.31
366.147	1099.31
366.373	1101.31
366.599	1106.31
366.826	1084.31
367.052	1094.31
367.278	1081.31
367.505	1124.31
367.731	1129.31
367.957	1099.31
368.184	1094.31
368.41	1120.31
368.636	1097.31
368.862	1089.31
369.089	1121.31
369.315	1094.31
369.541	1108.31
369.767	1140.31
369.993	1120.31
370.219	1093.31
370.445	1088.31
370.672	1133.31
370.898	1113.31
371.124	1128.31
371.35	1127.31
371.576	1137.31
371.802	1142.31
372.028	1143.31
372.254	1144.31
372.48	1121.31
372.706	1105.31
372.932	1145.31
373.158	1102.31
373.384	1116.31
373.61	1141.31
373.835	1156.31
374.061	1127.31
374.287	1144.31
374.513	1132.31
374.739	1125.31
374.965	1154.31
375.191	1128.31
375.416	1152.31
375.642	1135.31
375.868	1142.31
376.094	1134.31
376.319	1108.31
376.545	1110.31
376.771	1093.31
376.997	1113.31
377.222	1085.31
377.448	1106.31
377.674	1090.31
377.899	1118.31
378.125	1102.31
378.35	1066.31
378.576	1061.31
378.802	1081.31
379.027	1098.31
379.253	1100.31
379.478	1088.31
379.704	1089.31
379.929	1096.31
380.155	1072.31
380.38	1097.31
380.606	1107.31
380.831	1095.31
381.057	1118.31
381.282	1089.31
381.507	1076.31
381.733	1091.31
381.958	1125.31
382.184	1094.31
382.409	1099.31
382.634	1085.31
382.86	1111.31
383.085	1117.31
383.31	1126.31
383.535	1123.31
383.761	1123.31
383.986	1092.31
384.211	1108.31
384.436	1121.31
384.662	1156.31
384.887	1128.31
385.112	1129.31
385.337	1114.31
385.562	1132.31
385.787	1140.31
386.013	1141.31
386.238	1175.31
386.463	1142.31
386.688	1186.31
386.913	1126.31
387.138	1144.31
387.363	1155.31
387.588	1152.31
387.813	1187.31
388.038	1123.31
388.263	1135.31
388.488	1177.31
388.713	1173.31
388.938	1178.31
389.163	1123.31
389.387	1183.31
389.612	1138.31
389.837	1155.31
390.062	1174.31
390.287	1174.31
390.512	1174.31
390.736	1158.31
390.961	1163.31
391.186	1187.31
391.411	1204.31
391.636	1194.31
391.86	1193.31
392.085	1202.31
392.31	1186.31
392.534	1197.31
392.759	1200.31
392.984	1191.31
393.208	1206.31
393.433	1230.31
393.658	1202.31
393.882	1169.31
394.107	1186.31
394.331	1168.31
394.556	1163.31
394.78	1162.31
395.005	1173.31
395.229	1200.31
395.454	1192.31
395.678	1204.31
395.903	1173.31
396.127	1199.31
396.352	1206.31
396.576	1181.31
396.801	1214.31
397.025	1216.31
397.249	1227.31
397.474	1217.31
397.698	1201.31
397.922	1235.31
398.147	1247.31
398.371	1234.31
398.595	1257.31
398.82	1275.31
399.044	1281.31
399.268	1291.31
399.492	1344.31
399.717	1347.31
399.941	1339.31
400.165	1340.31
400.389	1332.31
400.613	1317.31
400.837	1290.31
401.062	1294.31
401.286	1295.31
401.51	1309.31
401.734	1280.31
401.958	1259.31
402.182	1293.31
402.406	1286.31
402.63	1291.31
402.854	1298.31
403.078	1268.31
403.302	1269.31
403.526	1250.31
403.75	1288.31
403.974	1290.31
404.198	1300.31
404.422	1340.31
404.645	1302.31
404.869	1276.31
405.093	1300.31
405.317	1289.31
405.541	1298.31
405.765	1306.31
405.988	1279.31
406.212	1334.31
406.436	1301.31
406.66	1306.31
406.883	1303.31
407.107	1347.31
407.331	1373.31
407.555	1367.31
407.778	1387.31
408.002	1369.31
408.226	1386.31
408.449	1369.31
408.673	1338.31
408.896	1365.31
409.12	1372.31
409.344	1339.31
409.567	1353.31
409.791	1370.31
410.014	1329.31
410.238	1344.31
410.461	1324.31
410.685	1322.31
410.908	1314.31
411.132	1339.31
411.355	1288.31
411.578	1316.31
411.802	1276.31
412.025	1281.31
412.249	1307.31
412.472	1289.31
412.695	1273.31
412.919	1249.31
413.142	1336.31
413.365	1289.31
413.589	1269.31
413.812	1262.31
414.035	1251.31
414.258	1280.31
414.482	1313.31
414.705	1266.31
414.928	1270.31
415.151	1305.31
415.374	1294.31
415.597	1253.31
415.821	1270.31
416.044	1241.31
416.267	1274.31
416.49	1269.31
416.713	1258.31
416.936	1256.31
417.159	1260.31
417.382	1226.31
417.605	1237.31
417.828	1241.31
418.051	1233.31
418.274	1238.31
418.497	1264.31
418.72	1240.31
418.943	1267.31
419.166	1293.31
419.389	1371.31
419.611	1332.31
419.834	1280.31
420.057	1258.31
420.28	1225.31
420.503	1243.31
420.726	1205.31
420.948	1200.31
421.171	1197.31
421.394	1268.31
421.617	1238.31
421.839	1204.31
422.062	1234.31
422.285	1214.31
422.507	1229.31
422.73	1218.31
422.953	1209.31
423.175	1236.31
423.398	1236.31
423.621	1220.31
423.843	1272.31
424.066	1212.31
424.288	1241.31
424.511	1253.31
424.733	1231.31
424.956	1225.31
425.178	1244.31
425.401	1252.31
425.623	1273.31
425.846	1229.31
426.068	1229.31
426.291	1229.31
426.513	1275.31
426.735	1259.31
426.958	1231.31
427.18	1205.31
427.402	1239.31
427.625	1226.31
427.847	1200.31
428.069	1197.31
428.292	1219.31
428.514	1243.31
428.736	1211.31
428.958	1225.31
429.181	1219.31
429.403	1212.31
429.625	1229.31
429.847	1219.31
430.069	1213.31
430.292	1227.31
430.514	1204.31
430.736	1247.31
430.958	1202.31
431.18	1195.31
431.402	1225.31
431.624	1203.31
431.846	1193.31
432.068	1220.31
432.29	1250.31
432.512	1230.31
432.734	1242.31
432.956	1229.31
433.178	1223.31
433.4	1303.31
433.622	1312.31
433.844	1258.31
434.066	1229.31
434.287	1233.31
434.509	1262.31
434.731	1239.31
434.953	1259.31
435.175	1317.31
435.397	1343.31
435.618	1280.31
435.84	1231.31
436.062	1198.31
436.284	1237.31
436.505	1226.31
436.727	1230.31
436.949	1242.31
437.17	1245.31
437.392	1241.31
437.614	1194.31
437.835	1173.31
438.057	1192.31
438.278	1209.31
438.5	1176.31
438.721	1232.31
438.943	1214.31
439.165	1204.31
439.386	1204.31
439.608	1227.31
439.829	1214.31
440.05	1208.31
440.272	1239.31
440.493	1239.31
440.715	1275.31
440.936	1229.31
441.158	1243.31
441.379	1243.31
441.6	1263.31
441.822	1274.31
442.043	1276.31
442.264	1245.31
442.486	1265.31
442.707	1273.31
442.928	1275.31
443.149	1261.31
443.371	1313.31
443.592	1361.31
443.813	1313.31
444.034	1323.31
444.255	1278.31
444.476	1279.31
444.698	1342.31
444.919	1342.31
445.14	1444.31
445.361	1393.31
445.582	1315.31
445.803	1284.31
446.024	1249.31
446.245	1251.31
446.466	1242.31
446.687	1180.31
446.908	1230.31
447.129	1205.31
447.35	1187.31
447.571	1155.31
447.792	1163.31
448.013	1174.31
448.234	1146.31
448.455	1162.31
448.675	1145.31
448.896	1147.31
449.117	1131.31
449.338	1171.31
449.559	1156.31
449.779	1137.31
450	1172.31
450.221	1149.31
450.442	1173.31
450.662	1119.31
450.883	1168.31
451.104	1180.31
451.324	1177.31
451.545	1158.31
451.766	1150.31
451.986	1126.31
452.207	1095.31
452.428	1120.31
452.648	1136.31
452.869	1115.31
453.089	1152.31
453.31	1159.31
453.53	1129.31
453.751	1124.31
453.971	1138.31
454.192	1170.31
454.412	1152.31
454.633	1131.31
454.853	1100.31
455.073	1094.31
455.294	1149.31
455.514	1147.31
455.734	1142.31
455.955	1156.31
456.175	1174.31
456.395	1098.31
456.616	1116.31
456.836	1108.31
457.056	1131.31
457.276	1083.31
457.497	1122.31
457.717	1131.31
457.937	1157.31
458.157	1141.31
458.377	1126.31
458.598	1140.31
458.818	1138.31
459.038	1132.31
459.258	1160.31
459.478	1231.31
459.698	1319.31
459.918	1340.31
460.138	1312.31
460.358	1280.31
460.578	1293.31
460.798	1320.31
461.018	1336.31
461.238	1259.31
461.458	1239.31
461.678	1227.31
461.898	1242.31
462.118	1214.31
462.338	1269.31
462.558	1322.31
462.777	1341.31
462.997	1362.31
463.217	1365.31
463.437	1428.31
463.657	1404.31
463.876	1331.31
464.096	1322.31
464.316	1336.31
464.536	1336.31
464.755	1293.31
464.975	1261.31
465.195	1238.31
465.414	1239.31
465.634	1220.31
465.854	1192.31
466.073	1184.31
466.293	1214.31
466.512	1215.31
466.732	1183.31
466.951	1165.31
467.171	1207.31
467.391	1196.31
467.61	1193.31
467.829	1192.31
468.049	1205.31
468.268	1210.31
468.488	1181.31
468.707	1197.31
468.927	1190.31
469.146	1194.31
469.365	1230.31
469.585	1187.31
469.804	1181.31
470.023	1226.31
470.243	1171.31
470.462	1190.31
470.681	1194.31
470.901	1214.31
471.12	1180.31
471.339	1189.31
471.558	1227.31
471.777	1247.31
471.997	1226.31
472.216	1212.31
472.435	1198.31
472.654	1208.31
472.873	1205.31
473.092	1182.31
473.311	1195.31
473.53	1238.31
473.749	1212.31
473.968	1215.31
474.187	1185.31
474.406	1208.31
474.625	1229.31
474.844	1239.31
475.063	1262.31
475.282	1263.31
475.501	1276.31
475.72	1243.31
475.939	1268.31
476.158	1255.31
476.377	1317.31
476.596	1263.31
476.814	1293.31
477.033	1242.31
477.252	1276.31
477.471	1297.31
477.69	1336.31
477.908	1316.31
478.127	1324.31
478.346	1318.31
478.564	1353.31
478.783	1396.31
479.002	1416.31
479.22	1472.31
479.439	1445.31
479.658	1399.31
479.876	1419.31
480.095	1408.31
480.313	1405.31
480.532	1414.31
480.751	1400.31
480.969	1414.31
481.188	1383.31
481.406	1376.31
481.624	1400.31
481.843	1398.31
482.061	1415.31
482.28	1414.31
482.498	1408.31
482.717	1417.31
482.935	1429.31
483.153	1437.31
483.372	1494.31
483.59	1493.31
483.808	1443.31
484.027	1459.31
484.245	1458.31
484.463	1461.31
484.681	1485.31
484.9	1447.31
485.118	1468.31
485.336	1435.31
485.554	1449.31
485.772	1443.31
485.99	1446.31
486.209	1453.31
486.427	1448.31
486.645	1434.31
486.863	1505.31
487.081	1465.31
487.299	1442.31
487.517	1495.31
487.735	1490.31
487.953	1533.31
488.171	1528.31
488.389	1504.31
488.607	1495.31
488.825	1493.31
489.043	1443.31
489.261	1463.31
489.479	1501.31
489.696	1477.31
489.914	1484.31
490.132	1486.31
490.35	1522.31
490.568	1501.31
490.786	1489.31
491.003	1507.31
491.221	1551.31
491.439	1536.31
