Data from Ni(NO3)2@0.25M.TitratingCurve.Agarose3%dH2O.NegLispCup.LampEnergy10.LIBS07252019_HRD10591_18-05-23-566.txt Node
Date: Thu Jul 25 18:05:23 EDT 2019
User: cochatt
Spectrometer: HR+D1059
Trigger mode: 1
Integration Time (sec): 1.000000E-1
Scans to average: 1
Electric dark correction enabled: true
Nonlinearity correction enabled: false
Boxcar width: 0
XAxis mode: Wavelengths
Number of Pixels in Spectrum: 2048
>>>>>Begin Spectral Data<<<<<
223.165	-17.69
223.4	-17.69
223.635	-17.69
223.869	-25.69
224.104	-0.69
224.338	-14.69
224.573	-13.69
224.808	-7.69
225.042	-13.69
225.277	-12.69
225.511	-9.69
225.746	-3.69
225.98	16.31
226.215	10.31
226.449	22.31
226.683	22.31
226.918	13.31
227.152	35.31
227.387	36.31
227.621	38.31
227.856	44.31
228.09	43.31
228.324	50.31
228.559	50.31
228.793	67.31
229.027	114.31
229.262	122.31
229.496	124.31
229.73	110.31
229.964	119.31
230.199	125.31
230.433	131.31
230.667	139.31
230.901	144.31
231.136	130.31
231.37	138.31
231.604	143.31
231.838	149.31
232.072	163.31
232.306	178.31
232.541	163.31
232.775	150.31
233.009	145.31
233.243	172.31
233.477	170.31
233.711	166.31
233.945	171.31
234.179	151.31
234.413	160.31
234.647	150.31
234.881	155.31
235.115	146.31
235.349	152.31
235.583	178.31
235.817	183.31
236.051	172.31
236.285	165.31
236.519	167.31
236.753	164.31
236.987	172.31
237.221	181.31
237.455	176.31
237.689	184.31
237.922	181.31
238.156	166.31
238.39	161.31
238.624	183.31
238.858	172.31
239.091	183.31
239.325	176.31
239.559	179.31
239.793	199.31
240.027	188.31
240.26	190.31
240.494	185.31
240.728	199.31
240.961	205.31
241.195	211.31
241.429	195.31
241.662	202.31
241.896	196.31
242.13	223.31
242.363	204.31
242.597	204.31
242.83	222.31
243.064	200.31
243.298	215.31
243.531	223.31
243.765	226.31
243.998	246.31
244.232	236.31
244.465	232.31
244.699	231.31
244.932	235.31
245.166	241.31
245.399	246.31
245.633	242.31
245.866	246.31
246.099	243.31
246.333	238.31
246.566	258.31
246.8	258.31
247.033	267.31
247.266	248.31
247.5	265.31
247.733	264.31
247.966	272.31
248.2	287.31
248.433	280.31
248.666	272.31
248.899	276.31
249.133	275.31
249.366	295.31
249.599	310.31
249.832	296.31
250.066	297.31
250.299	299.31
250.532	308.31
250.765	306.31
250.998	307.31
251.231	323.31
251.465	307.31
251.698	343.31
251.931	334.31
252.164	335.31
252.397	332.31
252.63	350.31
252.863	339.31
253.096	363.31
253.329	344.31
253.562	343.31
253.795	338.31
254.028	356.31
254.261	354.31
254.494	374.31
254.727	367.31
254.96	372.31
255.193	377.31
255.426	355.31
255.659	368.31
255.892	392.31
256.124	384.31
256.357	380.31
256.59	387.31
256.823	378.31
257.056	404.31
257.289	392.31
257.521	399.31
257.754	408.31
257.987	383.31
258.22	393.31
258.452	410.31
258.685	411.31
258.918	404.31
259.151	402.31
259.383	412.31
259.616	430.31
259.849	418.31
260.081	437.31
260.314	422.31
260.547	424.31
260.779	428.31
261.012	434.31
261.244	434.31
261.477	445.31
261.71	452.31
261.942	447.31
262.175	444.31
262.407	443.31
262.64	452.31
262.872	469.31
263.105	447.31
263.337	458.31
263.57	465.31
263.802	460.31
264.035	463.31
264.267	463.31
264.499	471.31
264.732	476.31
264.964	455.31
265.197	478.31
265.429	473.31
265.661	458.31
265.894	463.31
266.126	489.31
266.358	455.31
266.591	488.31
266.823	486.31
267.055	498.31
267.287	516.31
267.52	485.31
267.752	498.31
267.984	513.31
268.216	510.31
268.448	527.31
268.681	515.31
268.913	533.31
269.145	522.31
269.377	502.31
269.609	500.31
269.841	519.31
270.073	515.31
270.306	526.31
270.538	520.31
270.77	533.31
271.002	546.31
271.234	523.31
271.466	528.31
271.698	546.31
271.93	536.31
272.162	547.31
272.394	555.31
272.626	548.31
272.858	530.31
273.09	560.31
273.322	554.31
273.553	560.31
273.785	539.31
274.017	568.31
274.249	566.31
274.481	554.31
274.713	540.31
274.945	563.31
275.176	575.31
275.408	558.31
275.64	586.31
275.872	582.31
276.104	579.31
276.335	575.31
276.567	574.31
276.799	560.31
277.031	575.31
277.262	569.31
277.494	583.31
277.726	596.31
277.957	582.31
278.189	580.31
278.421	588.31
278.652	587.31
278.884	601.31
279.115	578.31
279.347	600.31
279.579	591.31
279.81	594.31
280.042	627.31
280.273	606.31
280.505	596.31
280.736	601.31
280.968	618.31
281.199	604.31
281.431	643.31
281.662	642.31
281.894	601.31
282.125	609.31
282.356	624.31
282.588	612.31
282.819	634.31
283.051	634.31
283.282	639.31
283.513	644.31
283.745	633.31
283.976	632.31
284.207	649.31
284.439	648.31
284.67	653.31
284.901	674.31
285.132	631.31
285.364	646.31
285.595	631.31
285.826	632.31
286.057	639.31
286.288	648.31
286.52	644.31
286.751	659.31
286.982	638.31
287.213	632.31
287.444	661.31
287.675	657.31
287.906	679.31
288.138	662.31
288.369	696.31
288.6	678.31
288.831	672.31
289.062	663.31
289.293	675.31
289.524	655.31
289.755	667.31
289.986	665.31
290.217	661.31
290.448	676.31
290.679	690.31
290.91	676.31
291.141	680.31
291.371	688.31
291.602	658.31
291.833	659.31
292.064	658.31
292.295	679.31
292.526	673.31
292.757	662.31
292.987	678.31
293.218	671.31
293.449	692.31
293.68	676.31
293.91	667.31
294.141	667.31
294.372	681.31
294.603	672.31
294.833	674.31
295.064	676.31
295.295	676.31
295.525	674.31
295.756	687.31
295.987	702.31
296.217	691.31
296.448	704.31
296.679	696.31
296.909	689.31
297.14	710.31
297.37	723.31
297.601	760.31
297.831	729.31
298.062	715.31
298.292	691.31
298.523	734.31
298.753	734.31
298.984	719.31
299.214	744.31
299.445	708.31
299.675	711.31
299.905	709.31
300.136	740.31
300.366	743.31
300.597	754.31
300.827	734.31
301.057	738.31
301.288	776.31
301.518	758.31
301.748	752.31
301.979	774.31
302.209	736.31
302.439	759.31
302.669	760.31
302.9	758.31
303.13	761.31
303.36	744.31
303.59	779.31
303.82	759.31
304.051	761.31
304.281	787.31
304.511	759.31
304.741	778.31
304.971	778.31
305.201	797.31
305.431	794.31
305.661	806.31
305.891	744.31
306.121	767.31
306.352	775.31
306.582	785.31
306.812	761.31
307.042	780.31
307.272	746.31
307.502	750.31
307.731	770.31
307.961	769.31
308.191	761.31
308.421	792.31
308.651	772.31
308.881	757.31
309.111	779.31
309.341	786.31
309.571	780.31
309.8	812.31
310.03	795.31
310.26	794.31
310.49	791.31
310.72	789.31
310.949	785.31
311.179	808.31
311.409	796.31
311.639	785.31
311.868	792.31
312.098	822.31
312.328	848.31
312.557	821.31
312.787	831.31
313.017	809.31
313.246	843.31
313.476	855.31
313.706	869.31
313.935	851.31
314.165	875.31
314.394	856.31
314.624	859.31
314.853	835.31
315.083	878.31
315.312	898.31
315.542	867.31
315.771	846.31
316.001	851.31
316.23	853.31
316.46	882.31
316.689	856.31
316.919	848.31
317.148	890.31
317.377	864.31
317.607	882.31
317.836	882.31
318.065	874.31
318.295	906.31
318.524	879.31
318.753	882.31
318.983	881.31
319.212	853.31
319.441	871.31
319.67	869.31
319.9	873.31
320.129	907.31
320.358	882.31
320.587	890.31
320.816	908.31
321.046	919.31
321.275	886.31
321.504	915.31
321.733	897.31
321.962	912.31
322.191	927.31
322.42	910.31
322.649	947.31
322.878	932.31
323.108	930.31
323.337	949.31
323.566	960.31
323.795	938.31
324.024	964.31
324.253	929.31
324.482	938.31
324.71	979.31
324.939	966.31
325.168	963.31
325.397	951.31
325.626	976.31
325.855	972.31
326.084	1024.31
326.313	1011.31
326.542	1011.31
326.77	1032.31
326.999	1029.31
327.228	1006.31
327.457	1033.31
327.686	1027.31
327.914	1001.31
328.143	1028.31
328.372	1072.31
328.6	1051.31
328.829	1042.31
329.058	1045.31
329.287	1043.31
329.515	1053.31
329.744	1056.31
329.972	1056.31
330.201	1077.31
330.43	1018.31
330.658	1075.31
330.887	1081.31
331.115	1082.31
331.344	1090.31
331.572	1109.31
331.801	1132.31
332.03	1146.31
332.258	1170.31
332.486	1165.31
332.715	1171.31
332.943	1208.31
333.172	1215.31
333.4	1257.31
333.629	1254.31
333.857	1314.31
334.085	1336.31
334.314	1299.31
334.542	1323.31
334.771	1302.31
334.999	1315.31
335.227	1336.31
335.455	1316.31
335.684	1320.31
335.912	1303.31
336.14	1306.31
336.369	1295.31
336.597	1282.31
336.825	1295.31
337.053	1279.31
337.281	1290.31
337.51	1233.31
337.738	1264.31
337.966	1219.31
338.194	1236.31
338.422	1210.31
338.65	1196.31
338.878	1190.31
339.106	1210.31
339.334	1234.31
339.562	1202.31
339.79	1172.31
340.018	1177.31
340.246	1131.31
340.474	1158.31
340.702	1154.31
340.93	1139.31
341.158	1124.31
341.386	1160.31
341.614	1188.31
341.842	1202.31
342.07	1151.31
342.298	1147.31
342.526	1174.31
342.754	1136.31
342.981	1145.31
343.209	1174.31
343.437	1214.31
343.665	1259.31
343.893	1291.31
344.12	1319.31
344.348	1293.31
344.576	1271.31
344.804	1265.31
345.031	1235.31
345.259	1196.31
345.487	1193.31
345.714	1157.31
345.942	1177.31
346.17	1179.31
346.397	1164.31
346.625	1118.31
346.853	1076.31
347.08	1078.31
347.308	1094.31
347.535	1111.31
347.763	1092.31
347.99	1055.31
348.218	1110.31
348.445	1084.31
348.673	1076.31
348.9	1108.31
349.128	1122.31
349.355	1078.31
349.583	1117.31
349.81	1079.31
350.037	1080.31
350.265	1072.31
350.492	1084.31
350.72	1077.31
350.947	1086.31
351.174	1081.31
351.402	1090.31
351.629	1099.31
351.856	1079.31
352.083	1057.31
352.311	1080.31
352.538	1086.31
352.765	1134.31
352.992	1056.31
353.22	1058.31
353.447	1055.31
353.674	1053.31
353.901	1035.31
354.128	1047.31
354.355	1034.31
354.583	1058.31
354.81	1082.31
355.037	1091.31
355.264	1064.31
355.491	1055.31
355.718	1070.31
355.945	1048.31
356.172	1054.31
356.399	1097.31
356.626	1097.31
356.853	1088.31
357.08	1099.31
357.307	1070.31
357.534	1072.31
357.761	1071.31
357.988	1057.31
358.215	1031.31
358.441	1043.31
358.668	1030.31
358.895	1062.31
359.122	1061.31
359.349	1038.31
359.576	1084.31
359.802	1072.31
360.029	1048.31
360.256	1044.31
360.483	1060.31
360.709	1086.31
360.936	1054.31
361.163	1053.31
361.39	1068.31
361.616	1058.31
361.843	1096.31
362.07	1147.31
362.296	1096.31
362.523	1076.31
362.749	1029.31
362.976	1040.31
363.203	1024.31
363.429	1042.31
363.656	1054.31
363.882	1047.31
364.109	1047.31
364.335	1043.31
364.562	1058.31
364.788	1028.31
365.015	1042.31
365.241	1009.31
365.468	1044.31
365.694	1033.31
365.92	1027.31
366.147	1007.31
366.373	1029.31
366.599	1047.31
366.826	1044.31
367.052	1034.31
367.278	1062.31
367.505	1033.31
367.731	1047.31
367.957	1058.31
368.184	1046.31
368.41	1082.31
368.636	1042.31
368.862	1075.31
369.089	1072.31
369.315	1079.31
369.541	1078.31
369.767	1107.31
369.993	1095.31
370.219	1075.31
370.445	1104.31
370.672	1094.31
370.898	1108.31
371.124	1115.31
371.35	1097.31
371.576	1121.31
371.802	1146.31
372.028	1106.31
372.254	1116.31
372.48	1137.31
372.706	1104.31
372.932	1148.31
373.158	1146.31
373.384	1147.31
373.61	1106.31
373.835	1142.31
374.061	1124.31
374.287	1125.31
374.513	1127.31
374.739	1159.31
374.965	1182.31
375.191	1168.31
375.416	1188.31
375.642	1171.31
375.868	1174.31
376.094	1122.31
376.319	1129.31
376.545	1109.31
376.771	1119.31
376.997	1125.31
377.222	1143.31
377.448	1102.31
377.674	1082.31
377.899	1127.31
378.125	1095.31
378.35	1077.31
378.576	1041.31
378.802	1078.31
379.027	1078.31
379.253	1122.31
379.478	1091.31
379.704	1095.31
379.929	1099.31
380.155	1075.31
380.38	1067.31
380.606	1110.31
380.831	1072.31
381.057	1124.31
381.282	1087.31
381.507	1099.31
381.733	1136.31
381.958	1109.31
382.184	1105.31
382.409	1118.31
382.634	1121.31
382.86	1149.31
383.085	1152.31
383.31	1169.31
383.535	1156.31
383.761	1167.31
383.986	1212.31
384.211	1176.31
384.436	1240.31
384.662	1216.31
384.887	1201.31
385.112	1240.31
385.337	1255.31
385.562	1269.31
385.787	1304.31
386.013	1320.31
386.238	1296.31
386.463	1294.31
386.688	1310.31
386.913	1292.31
387.138	1282.31
387.363	1288.31
387.588	1274.31
387.813	1300.31
388.038	1282.31
388.263	1288.31
388.488	1290.31
388.713	1271.31
388.938	1274.31
389.163	1254.31
389.387	1295.31
389.612	1282.31
389.837	1285.31
390.062	1309.31
390.287	1349.31
390.512	1293.31
390.736	1317.31
390.961	1295.31
391.186	1284.31
391.411	1364.31
391.636	1374.31
391.86	1419.31
392.085	1418.31
392.31	1411.31
392.534	1386.31
392.759	1426.31
392.984	1387.31
393.208	1338.31
393.433	1359.31
393.658	1368.31
393.882	1337.31
394.107	1352.31
394.331	1369.31
394.556	1374.31
394.78	1363.31
395.005	1351.31
395.229	1399.31
395.454	1408.31
395.678	1427.31
395.903	1415.31
396.127	1438.31
396.352	1392.31
396.576	1410.31
396.801	1378.31
397.025	1418.31
397.249	1450.31
397.474	1462.31
397.698	1479.31
397.922	1462.31
398.147	1484.31
398.371	1532.31
398.595	1542.31
398.82	1602.31
399.044	1689.31
399.268	1816.31
399.492	1945.31
399.717	2068.31
399.941	2094.31
400.165	2018.31
400.389	1904.31
400.613	1774.31
400.837	1719.31
401.062	1617.31
401.286	1660.31
401.51	1598.31
401.734	1630.31
401.958	1636.31
402.182	1644.31
402.406	1601.31
402.63	1629.31
402.854	1655.31
403.078	1651.31
403.302	1625.31
403.526	1690.31
403.75	1659.31
403.974	1728.31
404.198	1689.31
404.422	1684.31
404.645	1666.31
404.869	1677.31
405.093	1734.31
405.317	1710.31
405.541	1730.31
405.765	1719.31
405.988	1760.31
406.212	1742.31
406.436	1705.31
406.66	1764.31
406.883	1810.31
407.107	1922.31
407.331	1861.31
407.555	1938.31
407.778	1938.31
408.002	1927.31
408.226	1924.31
408.449	1887.31
408.673	1842.31
408.896	1848.31
409.12	1813.31
409.344	1788.31
409.567	1774.31
409.791	1796.31
410.014	1760.31
410.238	1759.31
410.461	1704.31
410.685	1718.31
410.908	1724.31
411.132	1707.31
411.355	1618.31
411.578	1703.31
411.802	1692.31
412.025	1676.31
412.249	1696.31
412.472	1701.31
412.695	1654.31
412.919	1648.31
413.142	1680.31
413.365	1659.31
413.589	1637.31
413.812	1635.31
414.035	1636.31
414.258	1623.31
414.482	1665.31
414.705	1637.31
414.928	1601.31
415.151	1653.31
415.374	1613.31
415.597	1630.31
415.821	1607.31
416.044	1610.31
416.267	1567.31
416.49	1570.31
416.713	1577.31
416.936	1603.31
417.159	1576.31
417.382	1562.31
417.605	1546.31
417.828	1541.31
418.051	1578.31
418.274	1604.31
418.497	1530.31
418.72	1622.31
418.943	1581.31
419.166	1670.31
419.389	1830.31
419.611	1746.31
419.834	1696.31
420.057	1683.31
420.28	1594.31
420.503	1579.31
420.726	1554.31
420.948	1557.31
421.171	1557.31
421.394	1633.31
421.617	1556.31
421.839	1595.31
422.062	1584.31
422.285	1557.31
422.507	1588.31
422.73	1619.31
422.953	1622.31
423.175	1605.31
423.398	1639.31
423.621	1618.31
423.843	1639.31
424.066	1637.31
424.288	1610.31
424.511	1604.31
424.733	1605.31
424.956	1598.31
425.178	1576.31
425.401	1617.31
425.623	1607.31
425.846	1560.31
426.068	1549.31
426.291	1546.31
426.513	1556.31
426.735	1513.31
426.958	1560.31
427.18	1541.31
427.402	1524.31
427.625	1511.31
427.847	1495.31
428.069	1489.31
428.292	1524.31
428.514	1476.31
428.736	1490.31
428.958	1479.31
429.181	1458.31
429.403	1439.31
429.625	1462.31
429.847	1458.31
430.069	1465.31
430.292	1476.31
430.514	1446.31
430.736	1474.31
430.958	1489.31
431.18	1488.31
431.402	1488.31
431.624	1486.31
431.846	1468.31
432.068	1475.31
432.29	1520.31
432.512	1471.31
432.734	1466.31
432.956	1482.31
433.178	1510.31
433.4	1482.31
433.622	1517.31
433.844	1532.31
434.066	1503.31
434.287	1514.31
434.509	1529.31
434.731	1582.31
434.953	1622.31
435.175	1619.31
435.397	1627.31
435.618	1559.31
435.84	1539.31
436.062	1529.31
436.284	1506.31
436.505	1459.31
436.727	1499.31
436.949	1483.31
437.17	1479.31
437.392	1471.31
437.614	1465.31
437.835	1409.31
438.057	1427.31
438.278	1441.31
438.5	1429.31
438.721	1440.31
438.943	1458.31
439.165	1454.31
439.386	1459.31
439.608	1464.31
439.829	1466.31
440.05	1507.31
440.272	1490.31
440.493	1480.31
440.715	1485.31
440.936	1552.31
441.158	1532.31
441.379	1529.31
441.6	1589.31
441.822	1604.31
442.043	1617.31
442.264	1592.31
442.486	1566.31
442.707	1571.31
442.928	1637.31
443.149	1600.31
443.371	1560.31
443.592	1605.31
443.813	1612.31
444.034	1602.31
444.255	1663.31
444.476	1733.31
444.698	1759.31
444.919	1762.31
445.14	1872.31
445.361	1761.31
445.582	1686.31
445.803	1650.31
446.024	1559.31
446.245	1571.31
446.466	1534.31
446.687	1506.31
446.908	1548.31
447.129	1490.31
447.35	1446.31
447.571	1446.31
447.792	1426.31
448.013	1377.31
448.234	1416.31
448.455	1376.31
448.675	1406.31
448.896	1366.31
449.117	1344.31
449.338	1363.31
449.559	1369.31
449.779	1346.31
450	1372.31
450.221	1337.31
450.442	1377.31
450.662	1350.31
450.883	1394.31
451.104	1392.31
451.324	1385.31
451.545	1327.31
451.766	1317.31
451.986	1321.31
452.207	1330.31
452.428	1334.31
452.648	1323.31
452.869	1324.31
453.089	1279.31
453.31	1323.31
453.53	1320.31
453.751	1283.31
453.971	1296.31
454.192	1296.31
454.412	1278.31
454.633	1282.31
454.853	1292.31
455.073	1287.31
455.294	1271.31
455.514	1244.31
455.734	1258.31
455.955	1249.31
456.175	1290.31
456.395	1265.31
456.616	1248.31
456.836	1279.31
457.056	1292.31
457.276	1272.31
457.497	1271.31
457.717	1303.31
457.937	1257.31
458.157	1312.31
458.377	1363.31
458.598	1350.31
458.818	1374.31
459.038	1383.31
459.258	1476.31
459.478	1486.31
459.698	1504.31
459.918	1554.31
460.138	1591.31
460.358	1634.31
460.578	1674.31
460.798	1658.31
461.018	1711.31
461.238	1658.31
461.458	1714.31
461.678	1678.31
461.898	1757.31
462.118	1737.31
462.338	1817.31
462.558	1866.31
462.777	1866.31
462.997	1956.31
463.217	2059.31
463.437	2056.31
463.657	2011.31
463.876	1928.31
464.096	1950.31
464.316	1913.31
464.536	1857.31
464.755	1855.31
464.975	1814.31
465.195	1746.31
465.414	1673.31
465.634	1595.31
465.854	1534.31
466.073	1534.31
466.293	1494.31
466.512	1476.31
466.732	1451.31
466.951	1423.31
467.171	1417.31
467.391	1434.31
467.61	1375.31
467.829	1404.31
468.049	1410.31
468.268	1375.31
468.488	1388.31
468.707	1373.31
468.927	1372.31
469.146	1354.31
469.365	1392.31
469.585	1356.31
469.804	1395.31
470.023	1382.31
470.243	1406.31
470.462	1444.31
470.681	1424.31
470.901	1462.31
471.12	1424.31
471.339	1426.31
471.558	1410.31
471.777	1426.31
471.997	1396.31
472.216	1390.31
472.435	1404.31
472.654	1388.31
472.873	1346.31
473.092	1378.31
473.311	1361.31
473.53	1334.31
473.749	1371.31
473.968	1349.31
474.187	1352.31
474.406	1370.31
474.625	1351.31
474.844	1356.31
475.063	1363.31
475.282	1366.31
475.501	1382.31
475.72	1380.31
475.939	1413.31
476.158	1426.31
476.377	1425.31
476.596	1417.31
476.814	1466.31
477.033	1430.31
477.252	1485.31
477.471	1495.31
477.69	1518.31
477.908	1521.31
478.127	1555.31
478.346	1596.31
478.564	1626.31
478.783	1640.31
479.002	1664.31
479.22	1651.31
479.439	1664.31
479.658	1671.31
479.876	1669.31
480.095	1660.31
480.313	1694.31
480.532	1714.31
480.751	1692.31
480.969	1684.31
481.188	1630.31
481.406	1662.31
481.624	1609.31
481.843	1654.31
482.061	1607.31
482.28	1572.31
482.498	1587.31
482.717	1543.31
482.935	1618.31
483.153	1568.31
483.372	1566.31
483.59	1588.31
483.808	1618.31
484.027	1586.31
484.245	1592.31
484.463	1623.31
484.681	1640.31
484.9	1630.31
485.118	1635.31
485.336	1603.31
485.554	1580.31
485.772	1615.31
485.99	1658.31
486.209	1643.31
486.427	1652.31
486.645	1659.31
486.863	1628.31
487.081	1650.31
487.299	1629.31
487.517	1616.31
487.735	1618.31
487.953	1651.31
488.171	1654.31
488.389	1635.31
488.607	1629.31
488.825	1612.31
489.043	1647.31
489.261	1629.31
489.479	1638.31
489.696	1614.31
489.914	1646.31
490.132	1654.31
490.35	1650.31
490.568	1697.31
490.786	1674.31
491.003	1672.31
491.221	1641.31
491.439	1662.31
