Data from Ni(NO3)2@0.0625M.TitratingCurve.Agarose3%dH2O.NegLispCup.LampEnergy10.LIBS07252019_HRD10591_18-15-57-570.txt Node
Date: Thu Jul 25 18:15:57 EDT 2019
User: cochatt
Spectrometer: HR+D1059
Trigger mode: 1
Integration Time (sec): 1.000000E-1
Scans to average: 1
Electric dark correction enabled: true
Nonlinearity correction enabled: false
Boxcar width: 0
XAxis mode: Wavelengths
Number of Pixels in Spectrum: 2048
>>>>>Begin Spectral Data<<<<<
223.165	-10.75
223.4	-10.75
223.635	-10.75
223.869	-26.75
224.104	-10.75
224.338	-23.75
224.573	3.25
224.808	-26.75
225.042	-11.75
225.277	-11.75
225.511	-6.75
225.746	-3.75
225.98	8.25
226.215	10.25
226.449	13.25
226.683	27.25
226.918	33.25
227.152	37.25
227.387	44.25
227.621	38.25
227.856	40.25
228.09	36.25
228.324	52.25
228.559	56.25
228.793	66.25
229.027	109.25
229.262	121.25
229.496	125.25
229.73	124.25
229.964	132.25
230.199	131.25
230.433	150.25
230.667	130.25
230.901	138.25
231.136	124.25
231.37	139.25
231.604	130.25
231.838	140.25
232.072	147.25
232.306	146.25
232.541	136.25
232.775	160.25
233.009	170.25
233.243	147.25
233.477	144.25
233.711	159.25
233.945	153.25
234.179	148.25
234.413	160.25
234.647	156.25
234.881	156.25
235.115	153.25
235.349	169.25
235.583	170.25
235.817	165.25
236.051	178.25
236.285	164.25
236.519	148.25
236.753	170.25
236.987	165.25
237.221	154.25
237.455	186.25
237.689	160.25
237.922	162.25
238.156	170.25
238.39	156.25
238.624	182.25
238.858	195.25
239.091	175.25
239.325	180.25
239.559	179.25
239.793	176.25
240.027	194.25
240.26	203.25
240.494	200.25
240.728	182.25
240.961	190.25
241.195	184.25
241.429	202.25
241.662	190.25
241.896	178.25
242.13	203.25
242.363	182.25
242.597	213.25
242.83	196.25
243.064	207.25
243.298	206.25
243.531	204.25
243.765	213.25
243.998	220.25
244.232	219.25
244.465	222.25
244.699	221.25
244.932	217.25
245.166	228.25
245.399	222.25
245.633	223.25
245.866	236.25
246.099	217.25
246.333	235.25
246.566	228.25
246.8	242.25
247.033	244.25
247.266	246.25
247.5	256.25
247.733	242.25
247.966	243.25
248.2	247.25
248.433	253.25
248.666	261.25
248.899	248.25
249.133	259.25
249.366	263.25
249.599	281.25
249.832	252.25
250.066	269.25
250.299	267.25
250.532	264.25
250.765	257.25
250.998	277.25
251.231	282.25
251.465	283.25
251.698	277.25
251.931	275.25
252.164	305.25
252.397	287.25
252.63	280.25
252.863	280.25
253.096	288.25
253.329	273.25
253.562	283.25
253.795	280.25
254.028	304.25
254.261	300.25
254.494	292.25
254.727	309.25
254.96	297.25
255.193	293.25
255.426	320.25
255.659	299.25
255.892	299.25
256.124	304.25
256.357	306.25
256.59	321.25
256.823	312.25
257.056	320.25
257.289	319.25
257.521	323.25
257.754	317.25
257.987	334.25
258.22	323.25
258.452	325.25
258.685	322.25
258.918	340.25
259.151	328.25
259.383	322.25
259.616	320.25
259.849	352.25
260.081	328.25
260.314	332.25
260.547	345.25
260.779	340.25
261.012	339.25
261.244	332.25
261.477	332.25
261.71	341.25
261.942	350.25
262.175	346.25
262.407	350.25
262.64	353.25
262.872	355.25
263.105	356.25
263.337	356.25
263.57	370.25
263.802	365.25
264.035	368.25
264.267	376.25
264.499	362.25
264.732	376.25
264.964	374.25
265.197	386.25
265.429	370.25
265.661	377.25
265.894	364.25
266.126	368.25
266.358	372.25
266.591	376.25
266.823	378.25
267.055	397.25
267.287	388.25
267.52	396.25
267.752	409.25
267.984	412.25
268.216	393.25
268.448	388.25
268.681	374.25
268.913	386.25
269.145	398.25
269.377	391.25
269.609	388.25
269.841	410.25
270.073	410.25
270.306	398.25
270.538	412.25
270.77	405.25
271.002	403.25
271.234	399.25
271.466	413.25
271.698	408.25
271.93	412.25
272.162	404.25
272.394	413.25
272.626	424.25
272.858	408.25
273.09	424.25
273.322	441.25
273.553	416.25
273.785	441.25
274.017	434.25
274.249	434.25
274.481	448.25
274.713	411.25
274.945	450.25
275.176	436.25
275.408	442.25
275.64	442.25
275.872	439.25
276.104	469.25
276.335	454.25
276.567	451.25
276.799	454.25
277.031	454.25
277.262	451.25
277.494	453.25
277.726	472.25
277.957	466.25
278.189	477.25
278.421	447.25
278.652	467.25
278.884	498.25
279.115	482.25
279.347	480.25
279.579	480.25
279.81	480.25
280.042	486.25
280.273	488.25
280.505	497.25
280.736	480.25
280.968	482.25
281.199	477.25
281.431	503.25
281.662	514.25
281.894	504.25
282.125	522.25
282.356	505.25
282.588	517.25
282.819	497.25
283.051	496.25
283.282	515.25
283.513	528.25
283.745	518.25
283.976	522.25
284.207	514.25
284.439	537.25
284.67	531.25
284.901	539.25
285.132	528.25
285.364	523.25
285.595	528.25
285.826	516.25
286.057	563.25
286.288	556.25
286.52	539.25
286.751	548.25
286.982	551.25
287.213	551.25
287.444	511.25
287.675	539.25
287.906	563.25
288.138	544.25
288.369	564.25
288.6	583.25
288.831	581.25
289.062	557.25
289.293	578.25
289.524	555.25
289.755	560.25
289.986	579.25
290.217	564.25
290.448	554.25
290.679	553.25
290.91	554.25
291.141	585.25
291.371	568.25
291.602	564.25
291.833	590.25
292.064	587.25
292.295	574.25
292.526	580.25
292.757	579.25
292.987	560.25
293.218	578.25
293.449	582.25
293.68	551.25
293.91	567.25
294.141	574.25
294.372	570.25
294.603	568.25
294.833	603.25
295.064	573.25
295.295	600.25
295.525	588.25
295.756	599.25
295.987	566.25
296.217	606.25
296.448	590.25
296.679	578.25
296.909	577.25
297.14	606.25
297.37	619.25
297.601	637.25
297.831	602.25
298.062	604.25
298.292	612.25
298.523	643.25
298.753	620.25
298.984	630.25
299.214	625.25
299.445	609.25
299.675	632.25
299.905	622.25
300.136	626.25
300.366	642.25
300.597	637.25
300.827	634.25
301.057	645.25
301.288	669.25
301.518	637.25
301.748	645.25
301.979	672.25
302.209	696.25
302.439	664.25
302.669	632.25
302.9	622.25
303.13	643.25
303.36	664.25
303.59	637.25
303.82	656.25
304.051	654.25
304.281	646.25
304.511	631.25
304.741	651.25
304.971	639.25
305.201	632.25
305.431	654.25
305.661	658.25
305.891	642.25
306.121	637.25
306.352	636.25
306.582	626.25
306.812	619.25
307.042	644.25
307.272	654.25
307.502	631.25
307.731	657.25
307.961	644.25
308.191	618.25
308.421	624.25
308.651	638.25
308.881	655.25
309.111	644.25
309.341	632.25
309.571	639.25
309.8	632.25
310.03	640.25
310.26	626.25
310.49	633.25
310.72	621.25
310.949	626.25
311.179	636.25
311.409	633.25
311.639	644.25
311.868	647.25
312.098	672.25
312.328	665.25
312.557	689.25
312.787	658.25
313.017	666.25
313.246	666.25
313.476	653.25
313.706	684.25
313.935	648.25
314.165	694.25
314.394	693.25
314.624	677.25
314.853	668.25
315.083	672.25
315.312	679.25
315.542	679.25
315.771	680.25
316.001	671.25
316.23	679.25
316.46	668.25
316.689	668.25
316.919	655.25
317.148	668.25
317.377	668.25
317.607	669.25
317.836	643.25
318.065	660.25
318.295	667.25
318.524	680.25
318.753	658.25
318.983	654.25
319.212	662.25
319.441	664.25
319.67	691.25
319.9	652.25
320.129	654.25
320.358	666.25
320.587	659.25
320.816	693.25
321.046	677.25
321.275	668.25
321.504	694.25
321.733	661.25
321.962	680.25
322.191	674.25
322.42	680.25
322.649	683.25
322.878	688.25
323.108	682.25
323.337	705.25
323.566	672.25
323.795	698.25
324.024	692.25
324.253	682.25
324.482	713.25
324.71	708.25
324.939	706.25
325.168	716.25
325.397	703.25
325.626	715.25
325.855	740.25
326.084	726.25
326.313	749.25
326.542	738.25
326.77	766.25
326.999	725.25
327.228	714.25
327.457	741.25
327.686	730.25
327.914	726.25
328.143	728.25
328.372	735.25
328.6	742.25
328.829	738.25
329.058	735.25
329.287	712.25
329.515	721.25
329.744	756.25
329.972	763.25
330.201	744.25
330.43	741.25
330.658	757.25
330.887	757.25
331.115	769.25
331.344	802.25
331.572	794.25
331.801	800.25
332.03	826.25
332.258	843.25
332.486	857.25
332.715	886.25
332.943	922.25
333.172	971.25
333.4	993.25
333.629	1003.25
333.857	1026.25
334.085	1003.25
334.314	980.25
334.542	953.25
334.771	967.25
334.999	945.25
335.227	928.25
335.455	956.25
335.684	906.25
335.912	921.25
336.14	912.25
336.369	891.25
336.597	869.25
336.825	893.25
337.053	866.25
337.281	858.25
337.51	867.25
337.738	849.25
337.966	834.25
338.194	829.25
338.422	822.25
338.65	811.25
338.878	795.25
339.106	806.25
339.334	816.25
339.562	803.25
339.79	775.25
340.018	786.25
340.246	768.25
340.474	758.25
340.702	794.25
340.93	796.25
341.158	788.25
341.386	782.25
341.614	789.25
341.842	783.25
342.07	774.25
342.298	783.25
342.526	755.25
342.754	782.25
342.981	773.25
343.209	779.25
343.437	838.25
343.665	885.25
343.893	962.25
344.12	1003.25
344.348	966.25
344.576	880.25
344.804	850.25
345.031	832.25
345.259	803.25
345.487	787.25
345.714	780.25
345.942	755.25
346.17	752.25
346.397	745.25
346.625	761.25
346.853	755.25
347.08	729.25
347.308	746.25
347.535	782.25
347.763	765.25
347.99	758.25
348.218	770.25
348.445	756.25
348.673	750.25
348.9	734.25
349.128	739.25
349.355	760.25
349.583	738.25
349.81	727.25
350.037	725.25
350.265	711.25
350.492	715.25
350.72	737.25
350.947	713.25
351.174	733.25
351.402	726.25
351.629	683.25
351.856	701.25
352.083	709.25
352.311	704.25
352.538	700.25
352.765	710.25
352.992	729.25
353.22	722.25
353.447	716.25
353.674	706.25
353.901	716.25
354.128	733.25
354.355	721.25
354.583	753.25
354.81	744.25
355.037	772.25
355.264	724.25
355.491	719.25
355.718	732.25
355.945	744.25
356.172	713.25
356.399	734.25
356.626	748.25
356.853	716.25
357.08	726.25
357.307	708.25
357.534	715.25
357.761	726.25
357.988	720.25
358.215	708.25
358.441	718.25
358.668	725.25
358.895	728.25
359.122	729.25
359.349	685.25
359.576	720.25
359.802	710.25
360.029	737.25
360.256	725.25
360.483	722.25
360.709	718.25
360.936	721.25
361.163	725.25
361.39	713.25
361.616	715.25
361.843	732.25
362.07	713.25
362.296	709.25
362.523	727.25
362.749	728.25
362.976	737.25
363.203	749.25
363.429	704.25
363.656	710.25
363.882	690.25
364.109	695.25
364.335	725.25
364.562	734.25
364.788	746.25
365.015	716.25
365.241	741.25
365.468	704.25
365.694	707.25
365.92	703.25
366.147	716.25
366.373	707.25
366.599	724.25
366.826	705.25
367.052	714.25
367.278	739.25
367.505	711.25
367.731	745.25
367.957	733.25
368.184	735.25
368.41	713.25
368.636	726.25
368.862	750.25
369.089	740.25
369.315	757.25
369.541	734.25
369.767	745.25
369.993	781.25
370.219	779.25
370.445	778.25
370.672	749.25
370.898	784.25
371.124	782.25
371.35	803.25
371.576	804.25
371.802	806.25
372.028	790.25
372.254	780.25
372.48	768.25
372.706	808.25
372.932	846.25
373.158	830.25
373.384	811.25
373.61	798.25
373.835	816.25
374.061	792.25
374.287	820.25
374.513	822.25
374.739	851.25
374.965	857.25
375.191	886.25
375.416	885.25
375.642	862.25
375.868	859.25
376.094	815.25
376.319	801.25
376.545	843.25
376.771	806.25
376.997	773.25
377.222	804.25
377.448	800.25
377.674	813.25
377.899	788.25
378.125	784.25
378.35	776.25
378.576	774.25
378.802	787.25
379.027	801.25
379.253	783.25
379.478	780.25
379.704	802.25
379.929	802.25
380.155	772.25
380.38	802.25
380.606	793.25
380.831	786.25
381.057	804.25
381.282	804.25
381.507	783.25
381.733	779.25
381.958	809.25
382.184	807.25
382.409	825.25
382.634	846.25
382.86	857.25
383.085	862.25
383.31	854.25
383.535	874.25
383.761	875.25
383.986	896.25
384.211	908.25
384.436	927.25
384.662	950.25
384.887	990.25
385.112	994.25
385.337	983.25
385.562	970.25
385.787	959.25
386.013	990.25
386.238	959.25
386.463	972.25
386.688	986.25
386.913	972.25
387.138	948.25
387.363	945.25
387.588	938.25
387.813	940.25
388.038	920.25
388.263	945.25
388.488	979.25
388.713	976.25
388.938	939.25
389.163	926.25
389.387	930.25
389.612	923.25
389.837	944.25
390.062	949.25
390.287	962.25
390.512	944.25
390.736	960.25
390.961	944.25
391.186	994.25
391.411	1039.25
391.636	1031.25
391.86	1044.25
392.085	1106.25
392.31	1079.25
392.534	1038.25
392.759	1023.25
392.984	1047.25
393.208	1024.25
393.433	1000.25
393.658	1037.25
393.882	1042.25
394.107	1019.25
394.331	992.25
394.556	1038.25
394.78	1021.25
395.005	1032.25
395.229	1047.25
395.454	1057.25
395.678	1090.25
395.903	1109.25
396.127	1048.25
396.352	987.25
396.576	1009.25
396.801	1016.25
397.025	1022.25
397.249	1048.25
397.474	1080.25
397.698	1061.25
397.922	1044.25
398.147	1030.25
398.371	1094.25
398.595	1139.25
398.82	1172.25
399.044	1292.25
399.268	1393.25
399.492	1645.25
399.717	1884.25
399.941	1868.25
400.165	1635.25
400.389	1438.25
400.613	1354.25
400.837	1262.25
401.062	1252.25
401.286	1204.25
401.51	1203.25
401.734	1198.25
401.958	1208.25
402.182	1222.25
402.406	1225.25
402.63	1275.25
402.854	1261.25
403.078	1305.25
403.302	1360.25
403.526	1388.25
403.75	1431.25
403.974	1405.25
404.198	1484.25
404.422	1422.25
404.645	1390.25
404.869	1400.25
405.093	1396.25
405.317	1336.25
405.541	1312.25
405.765	1346.25
405.988	1328.25
406.212	1318.25
406.436	1304.25
406.66	1345.25
406.883	1377.25
407.107	1456.25
407.331	1548.25
407.555	1581.25
407.778	1593.25
408.002	1556.25
408.226	1477.25
408.449	1439.25
408.673	1412.25
408.896	1389.25
409.12	1358.25
409.344	1376.25
409.567	1378.25
409.791	1380.25
410.014	1372.25
410.238	1345.25
410.461	1351.25
410.685	1335.25
410.908	1319.25
411.132	1249.25
411.355	1238.25
411.578	1261.25
411.802	1245.25
412.025	1243.25
412.249	1274.25
412.472	1288.25
412.695	1238.25
412.919	1188.25
413.142	1202.25
413.365	1229.25
413.589	1232.25
413.812	1190.25
414.035	1164.25
414.258	1190.25
414.482	1207.25
414.705	1241.25
414.928	1222.25
415.151	1200.25
415.374	1174.25
415.597	1208.25
415.821	1148.25
416.044	1169.25
416.267	1156.25
416.49	1128.25
416.713	1148.25
416.936	1192.25
417.159	1168.25
417.382	1185.25
417.605	1176.25
417.828	1151.25
418.051	1196.25
418.274	1205.25
418.497	1195.25
418.72	1238.25
418.943	1218.25
419.166	1288.25
419.389	1364.25
419.611	1347.25
419.834	1284.25
420.057	1231.25
420.28	1221.25
420.503	1172.25
420.726	1171.25
420.948	1172.25
421.171	1170.25
421.394	1214.25
421.617	1170.25
421.839	1173.25
422.062	1194.25
422.285	1204.25
422.507	1240.25
422.73	1262.25
422.953	1218.25
423.175	1229.25
423.398	1265.25
423.621	1304.25
423.843	1259.25
424.066	1266.25
424.288	1255.25
424.511	1249.25
424.733	1262.25
424.956	1224.25
425.178	1187.25
425.401	1205.25
425.623	1178.25
425.846	1120.25
426.068	1138.25
426.291	1124.25
426.513	1132.25
426.735	1094.25
426.958	1134.25
427.18	1084.25
427.402	1090.25
427.625	1095.25
427.847	1057.25
428.069	1066.25
428.292	1060.25
428.514	1062.25
428.736	1072.25
428.958	1070.25
429.181	1027.25
429.403	1032.25
429.625	1028.25
429.847	1003.25
430.069	1008.25
430.292	1020.25
430.514	1024.25
430.736	1014.25
430.958	1012.25
431.18	1039.25
431.402	1035.25
431.624	1045.25
431.846	1041.25
432.068	1053.25
432.29	1079.25
432.512	1049.25
432.734	1048.25
432.956	1036.25
433.178	1063.25
433.4	1081.25
433.622	1079.25
433.844	1051.25
434.066	1059.25
434.287	1094.25
434.509	1136.25
434.731	1142.25
434.953	1205.25
435.175	1170.25
435.397	1184.25
435.618	1119.25
435.84	1078.25
436.062	1066.25
436.284	1076.25
436.505	1024.25
436.727	1052.25
436.949	1062.25
437.17	1069.25
437.392	1060.25
437.614	996.25
437.835	1037.25
438.057	992.25
438.278	1016.25
438.5	1013.25
438.721	1006.25
438.943	1016.25
439.165	1001.25
439.386	1012.25
439.608	1021.25
439.829	1069.25
440.05	1067.25
440.272	1062.25
440.493	1068.25
440.715	1051.25
440.936	1096.25
441.158	1132.25
441.379	1138.25
441.6	1184.25
441.822	1208.25
442.043	1224.25
442.264	1149.25
442.486	1138.25
442.707	1176.25
442.928	1186.25
443.149	1156.25
443.371	1176.25
443.592	1185.25
443.813	1180.25
444.034	1190.25
444.255	1207.25
444.476	1310.25
444.698	1378.25
444.919	1461.25
445.14	1444.25
445.361	1346.25
445.582	1222.25
445.803	1127.25
446.024	1098.25
446.245	1102.25
446.466	1069.25
446.687	1053.25
446.908	1048.25
447.129	1018.25
447.35	1015.25
447.571	960.25
447.792	980.25
448.013	986.25
448.234	957.25
448.455	960.25
448.675	938.25
448.896	978.25
449.117	954.25
449.338	958.25
449.559	944.25
449.779	940.25
450	923.25
450.221	974.25
450.442	983.25
450.662	984.25
450.883	964.25
451.104	1013.25
451.324	984.25
451.545	970.25
451.766	971.25
451.986	958.25
452.207	956.25
452.428	965.25
452.648	968.25
452.869	925.25
453.089	950.25
453.31	950.25
453.53	944.25
453.751	919.25
453.971	913.25
454.192	906.25
454.412	922.25
454.633	906.25
454.853	924.25
455.073	912.25
455.294	915.25
455.514	891.25
455.734	912.25
455.955	908.25
456.175	908.25
456.395	902.25
456.616	875.25
456.836	934.25
457.056	886.25
457.276	869.25
457.497	882.25
457.717	889.25
457.937	924.25
458.157	906.25
458.377	922.25
458.598	956.25
458.818	964.25
459.038	991.25
459.258	1034.25
459.478	1069.25
459.698	1117.25
459.918	1120.25
460.138	1160.25
460.358	1221.25
460.578	1240.25
460.798	1258.25
461.018	1293.25
461.238	1232.25
461.458	1237.25
461.678	1233.25
461.898	1266.25
462.118	1279.25
462.338	1324.25
462.558	1363.25
462.777	1393.25
462.997	1533.25
463.217	1706.25
463.437	1733.25
463.657	1561.25
463.876	1449.25
464.096	1454.25
464.316	1498.25
464.536	1500.25
464.755	1400.25
464.975	1364.25
465.195	1287.25
465.414	1171.25
465.634	1128.25
465.854	1090.25
466.073	1077.25
466.293	1070.25
466.512	1038.25
466.732	998.25
466.951	1028.25
467.171	1005.25
467.391	1012.25
467.61	1018.25
467.829	1001.25
468.049	1004.25
468.268	957.25
468.488	941.25
468.707	956.25
468.927	967.25
469.146	973.25
469.365	950.25
469.585	968.25
469.804	989.25
470.023	1016.25
470.243	1012.25
470.462	1048.25
470.681	1069.25
470.901	1044.25
471.12	1010.25
471.339	1010.25
471.558	982.25
471.777	987.25
471.997	946.25
472.216	961.25
472.435	953.25
472.654	937.25
472.873	938.25
473.092	951.25
473.311	908.25
473.53	915.25
473.749	923.25
473.968	915.25
474.187	921.25
474.406	906.25
474.625	922.25
474.844	936.25
475.063	924.25
475.282	924.25
475.501	958.25
475.72	956.25
475.939	967.25
476.158	971.25
476.377	971.25
476.596	959.25
476.814	979.25
477.033	970.25
477.252	972.25
477.471	1013.25
477.69	1078.25
477.908	1022.25
478.127	1099.25
478.346	1123.25
478.564	1136.25
478.783	1155.25
479.002	1192.25
479.22	1194.25
479.439	1170.25
479.658	1172.25
479.876	1155.25
480.095	1181.25
480.313	1254.25
480.532	1296.25
480.751	1312.25
480.969	1209.25
481.188	1184.25
481.406	1123.25
481.624	1123.25
481.843	1076.25
482.061	1082.25
482.28	1122.25
482.498	1091.25
482.717	1054.25
482.935	1085.25
483.153	1086.25
483.372	1081.25
483.59	1079.25
483.808	1107.25
484.027	1088.25
484.245	1072.25
484.463	1102.25
484.681	1117.25
484.9	1109.25
485.118	1094.25
485.336	1091.25
485.554	1123.25
485.772	1116.25
485.99	1126.25
486.209	1154.25
486.427	1150.25
486.645	1163.25
486.863	1107.25
487.081	1129.25
487.299	1115.25
487.517	1103.25
487.735	1102.25
487.953	1116.25
488.171	1105.25
488.389	1102.25
488.607	1088.25
488.825	1118.25
489.043	1113.25
489.261	1089.25
489.479	1096.25
489.696	1127.25
489.914	1120.25
490.132	1155.25
490.35	1124.25
490.568	1148.25
490.786	1129.25
491.003	1121.25
491.221	1122.25
491.439	1138.25
491.657	1120.25
491.874	1125.25
492.092	1120.25
492.31	1166.25
492.527	1152.25
492.745	1141.25
492.963	1125.25
493.18	1151.25
493.398	1133.25
493.615	1169.25
493.833	1185.25
494.05	1170.25
494.268	1196.25
494.485	1170.25
494.703	1197.25
494.92	1166.25
495.138	1168.25
495.355	1204.25
495.573	1182.25
495.79	1160.25
496.008	1209.25
496.225	1177.25
