Data from Ni(NO3)2@0.25M.TitratingCurve.Agarose3%dH2O.NegLispCup.LampEnergy10.LIBS07252019_HRD10591_18-05-26-567.txt Node
Date: Thu Jul 25 18:05:26 EDT 2019
User: cochatt
Spectrometer: HR+D1059
Trigger mode: 1
Integration Time (sec): 1.000000E-1
Scans to average: 1
Electric dark correction enabled: true
Nonlinearity correction enabled: false
Boxcar width: 0
XAxis mode: Wavelengths
Number of Pixels in Spectrum: 2048
>>>>>Begin Spectral Data<<<<<
223.165	-15.94
223.4	-15.94
223.635	-15.94
223.869	-18.94
224.104	-8.94
224.338	-21.94
224.573	-3.94
224.808	-20.94
225.042	-14.94
225.277	-20.94
225.511	0.06
225.746	12.06
225.98	8.06
226.215	10.06
226.449	12.06
226.683	24.06
226.918	28.06
227.152	32.06
227.387	51.06
227.621	34.06
227.856	38.06
228.09	47.06
228.324	46.06
228.559	69.06
228.793	60.06
229.027	72.06
229.262	91.06
229.496	95.06
229.73	90.06
229.964	100.06
230.199	95.06
230.433	100.06
230.667	96.06
230.901	107.06
231.136	87.06
231.37	105.06
231.604	100.06
231.838	104.06
232.072	105.06
232.306	109.06
232.541	108.06
232.775	104.06
233.009	109.06
233.243	108.06
233.477	105.06
233.711	107.06
233.945	95.06
234.179	115.06
234.413	110.06
234.647	106.06
234.881	90.06
235.115	111.06
235.349	103.06
235.583	106.06
235.817	117.06
236.051	90.06
236.285	91.06
236.519	103.06
236.753	103.06
236.987	104.06
237.221	103.06
237.455	118.06
237.689	98.06
237.922	106.06
238.156	111.06
238.39	103.06
238.624	106.06
238.858	122.06
239.091	97.06
239.325	114.06
239.559	120.06
239.793	102.06
240.027	112.06
240.26	111.06
240.494	105.06
240.728	110.06
240.961	119.06
241.195	117.06
241.429	117.06
241.662	108.06
241.896	109.06
242.13	120.06
242.363	121.06
242.597	123.06
242.83	107.06
243.064	120.06
243.298	122.06
243.531	134.06
243.765	129.06
243.998	130.06
244.232	119.06
244.465	121.06
244.699	120.06
244.932	122.06
245.166	131.06
245.399	126.06
245.633	114.06
245.866	124.06
246.099	114.06
246.333	134.06
246.566	140.06
246.8	138.06
247.033	155.06
247.266	140.06
247.5	140.06
247.733	122.06
247.966	126.06
248.2	136.06
248.433	132.06
248.666	138.06
248.899	153.06
249.133	130.06
249.366	141.06
249.599	142.06
249.832	162.06
250.066	155.06
250.299	143.06
250.532	158.06
250.765	147.06
250.998	142.06
251.231	156.06
251.465	161.06
251.698	165.06
251.931	154.06
252.164	156.06
252.397	167.06
252.63	180.06
252.863	147.06
253.096	179.06
253.329	163.06
253.562	164.06
253.795	151.06
254.028	177.06
254.261	169.06
254.494	188.06
254.727	170.06
254.96	170.06
255.193	169.06
255.426	158.06
255.659	156.06
255.892	158.06
256.124	173.06
256.357	182.06
256.59	194.06
256.823	176.06
257.056	160.06
257.289	189.06
257.521	182.06
257.754	191.06
257.987	197.06
258.22	182.06
258.452	191.06
258.685	195.06
258.918	184.06
259.151	191.06
259.383	197.06
259.616	186.06
259.849	193.06
260.081	196.06
260.314	191.06
260.547	204.06
260.779	198.06
261.012	194.06
261.244	208.06
261.477	205.06
261.71	175.06
261.942	187.06
262.175	193.06
262.407	200.06
262.64	194.06
262.872	201.06
263.105	207.06
263.337	209.06
263.57	215.06
263.802	210.06
264.035	214.06
264.267	199.06
264.499	203.06
264.732	199.06
264.964	227.06
265.197	219.06
265.429	213.06
265.661	202.06
265.894	200.06
266.126	212.06
266.358	214.06
266.591	215.06
266.823	222.06
267.055	222.06
267.287	218.06
267.52	228.06
267.752	224.06
267.984	210.06
268.216	210.06
268.448	209.06
268.681	219.06
268.913	216.06
269.145	203.06
269.377	223.06
269.609	227.06
269.841	227.06
270.073	230.06
270.306	226.06
270.538	215.06
270.77	208.06
271.002	215.06
271.234	210.06
271.466	223.06
271.698	223.06
271.93	219.06
272.162	239.06
272.394	222.06
272.626	247.06
272.858	220.06
273.09	242.06
273.322	232.06
273.553	219.06
273.785	242.06
274.017	247.06
274.249	242.06
274.481	232.06
274.713	251.06
274.945	240.06
275.176	250.06
275.408	262.06
275.64	258.06
275.872	225.06
276.104	227.06
276.335	238.06
276.567	227.06
276.799	246.06
277.031	254.06
277.262	250.06
277.494	252.06
277.726	251.06
277.957	252.06
278.189	246.06
278.421	245.06
278.652	224.06
278.884	246.06
279.115	254.06
279.347	254.06
279.579	260.06
279.81	239.06
280.042	247.06
280.273	252.06
280.505	232.06
280.736	253.06
280.968	242.06
281.199	261.06
281.431	264.06
281.662	266.06
281.894	248.06
282.125	247.06
282.356	282.06
282.588	251.06
282.819	264.06
283.051	263.06
283.282	251.06
283.513	248.06
283.745	261.06
283.976	263.06
284.207	246.06
284.439	242.06
284.67	268.06
284.901	263.06
285.132	253.06
285.364	252.06
285.595	275.06
285.826	285.06
286.057	264.06
286.288	258.06
286.52	268.06
286.751	262.06
286.982	262.06
287.213	254.06
287.444	277.06
287.675	262.06
287.906	269.06
288.138	275.06
288.369	260.06
288.6	253.06
288.831	284.06
289.062	290.06
289.293	282.06
289.524	274.06
289.755	276.06
289.986	282.06
290.217	272.06
290.448	270.06
290.679	275.06
290.91	273.06
291.141	272.06
291.371	276.06
291.602	279.06
291.833	270.06
292.064	273.06
292.295	266.06
292.526	290.06
292.757	289.06
292.987	273.06
293.218	269.06
293.449	264.06
293.68	283.06
293.91	283.06
294.141	271.06
294.372	288.06
294.603	278.06
294.833	287.06
295.064	276.06
295.295	288.06
295.525	285.06
295.756	280.06
295.987	280.06
296.217	287.06
296.448	280.06
296.679	279.06
296.909	278.06
297.14	286.06
297.37	285.06
297.601	295.06
297.831	285.06
298.062	282.06
298.292	299.06
298.523	295.06
298.753	279.06
298.984	296.06
299.214	293.06
299.445	299.06
299.675	321.06
299.905	301.06
300.136	280.06
300.366	309.06
300.597	287.06
300.827	303.06
301.057	309.06
301.288	300.06
301.518	296.06
301.748	305.06
301.979	318.06
302.209	311.06
302.439	301.06
302.669	308.06
302.9	304.06
303.13	308.06
303.36	303.06
303.59	295.06
303.82	297.06
304.051	338.06
304.281	303.06
304.511	301.06
304.741	318.06
304.971	308.06
305.201	308.06
305.431	322.06
305.661	302.06
305.891	303.06
306.121	311.06
306.352	327.06
306.582	320.06
306.812	311.06
307.042	306.06
307.272	291.06
307.502	302.06
307.731	306.06
307.961	322.06
308.191	303.06
308.421	306.06
308.651	298.06
308.881	301.06
309.111	312.06
309.341	308.06
309.571	299.06
309.8	306.06
310.03	325.06
310.26	342.06
310.49	327.06
310.72	326.06
310.949	306.06
311.179	324.06
311.409	309.06
311.639	306.06
311.868	329.06
312.098	325.06
312.328	334.06
312.557	318.06
312.787	323.06
313.017	337.06
313.246	340.06
313.476	337.06
313.706	336.06
313.935	335.06
314.165	354.06
314.394	344.06
314.624	359.06
314.853	342.06
315.083	351.06
315.312	340.06
315.542	351.06
315.771	343.06
316.001	342.06
316.23	336.06
316.46	334.06
316.689	342.06
316.919	347.06
317.148	348.06
317.377	346.06
317.607	335.06
317.836	323.06
318.065	351.06
318.295	342.06
318.524	340.06
318.753	353.06
318.983	339.06
319.212	347.06
319.441	343.06
319.67	352.06
319.9	351.06
320.129	361.06
320.358	364.06
320.587	370.06
320.816	350.06
321.046	363.06
321.275	351.06
321.504	361.06
321.733	373.06
321.962	365.06
322.191	374.06
322.42	370.06
322.649	365.06
322.878	370.06
323.108	370.06
323.337	380.06
323.566	389.06
323.795	386.06
324.024	376.06
324.253	390.06
324.482	404.06
324.71	364.06
324.939	376.06
325.168	395.06
325.397	378.06
325.626	384.06
325.855	400.06
326.084	413.06
326.313	395.06
326.542	404.06
326.77	408.06
326.999	418.06
327.228	407.06
327.457	417.06
327.686	422.06
327.914	419.06
328.143	423.06
328.372	407.06
328.6	411.06
328.829	408.06
329.058	422.06
329.287	411.06
329.515	422.06
329.744	443.06
329.972	440.06
330.201	442.06
330.43	448.06
330.658	426.06
330.887	452.06
331.115	450.06
331.344	459.06
331.572	456.06
331.801	451.06
332.03	462.06
332.258	466.06
332.486	483.06
332.715	509.06
332.943	492.06
333.172	522.06
333.4	544.06
333.629	547.06
333.857	530.06
334.085	534.06
334.314	568.06
334.542	539.06
334.771	543.06
334.999	537.06
335.227	546.06
335.455	564.06
335.684	530.06
335.912	560.06
336.14	526.06
336.369	539.06
336.597	528.06
336.825	543.06
337.053	519.06
337.281	517.06
337.51	503.06
337.738	497.06
337.966	486.06
338.194	527.06
338.422	520.06
338.65	485.06
338.878	491.06
339.106	464.06
339.334	489.06
339.562	492.06
339.79	490.06
340.018	470.06
340.246	461.06
340.474	498.06
340.702	452.06
340.93	482.06
341.158	474.06
341.386	487.06
341.614	496.06
341.842	483.06
342.07	471.06
342.298	460.06
342.526	452.06
342.754	469.06
342.981	472.06
343.209	472.06
343.437	497.06
343.665	513.06
343.893	537.06
344.12	552.06
344.348	519.06
344.576	529.06
344.804	520.06
345.031	493.06
345.259	502.06
345.487	469.06
345.714	467.06
345.942	470.06
346.17	475.06
346.397	469.06
346.625	464.06
346.853	426.06
347.08	457.06
347.308	458.06
347.535	445.06
347.763	471.06
347.99	452.06
348.218	439.06
348.445	461.06
348.673	465.06
348.9	455.06
349.128	458.06
349.355	450.06
349.583	460.06
349.81	453.06
350.037	422.06
350.265	421.06
350.492	448.06
350.72	452.06
350.947	422.06
351.174	432.06
351.402	469.06
351.629	464.06
351.856	445.06
352.083	449.06
352.311	462.06
352.538	452.06
352.765	445.06
352.992	454.06
353.22	438.06
353.447	443.06
353.674	424.06
353.901	454.06
354.128	443.06
354.355	418.06
354.583	414.06
354.81	438.06
355.037	426.06
355.264	438.06
355.491	440.06
355.718	444.06
355.945	444.06
356.172	432.06
356.399	442.06
356.626	453.06
356.853	435.06
357.08	435.06
357.307	452.06
357.534	446.06
357.761	434.06
357.988	438.06
358.215	452.06
358.441	435.06
358.668	431.06
358.895	444.06
359.122	461.06
359.349	444.06
359.576	444.06
359.802	447.06
360.029	416.06
360.256	441.06
360.483	444.06
360.709	456.06
360.936	440.06
361.163	439.06
361.39	444.06
361.616	451.06
361.843	426.06
362.07	428.06
362.296	437.06
362.523	416.06
362.749	425.06
362.976	429.06
363.203	421.06
363.429	432.06
363.656	450.06
363.882	425.06
364.109	422.06
364.335	424.06
364.562	436.06
364.788	419.06
365.015	427.06
365.241	442.06
365.468	418.06
365.694	416.06
365.92	454.06
366.147	434.06
366.373	417.06
366.599	420.06
366.826	451.06
367.052	455.06
367.278	421.06
367.505	428.06
367.731	407.06
367.957	428.06
368.184	446.06
368.41	431.06
368.636	447.06
368.862	417.06
369.089	446.06
369.315	440.06
369.541	446.06
369.767	422.06
369.993	454.06
370.219	446.06
370.445	461.06
370.672	465.06
370.898	458.06
371.124	457.06
371.35	468.06
371.576	452.06
371.802	463.06
372.028	490.06
372.254	457.06
372.48	467.06
372.706	472.06
372.932	454.06
373.158	458.06
373.384	463.06
373.61	452.06
373.835	462.06
374.061	459.06
374.287	462.06
374.513	496.06
374.739	487.06
374.965	473.06
375.191	498.06
375.416	494.06
375.642	478.06
375.868	481.06
376.094	485.06
376.319	450.06
376.545	451.06
376.771	462.06
376.997	435.06
377.222	453.06
377.448	458.06
377.674	444.06
377.899	450.06
378.125	435.06
378.35	442.06
378.576	423.06
378.802	450.06
379.027	456.06
379.253	448.06
379.478	438.06
379.704	438.06
379.929	452.06
380.155	441.06
380.38	440.06
380.606	439.06
380.831	446.06
381.057	438.06
381.282	436.06
381.507	450.06
381.733	438.06
381.958	442.06
382.184	453.06
382.409	447.06
382.634	450.06
382.86	468.06
383.085	484.06
383.31	461.06
383.535	464.06
383.761	471.06
383.986	486.06
384.211	502.06
384.436	489.06
384.662	499.06
384.887	511.06
385.112	514.06
385.337	503.06
385.562	505.06
385.787	521.06
386.013	537.06
386.238	547.06
386.463	508.06
386.688	514.06
386.913	503.06
387.138	503.06
387.363	503.06
387.588	506.06
387.813	504.06
388.038	520.06
388.263	507.06
388.488	517.06
388.713	534.06
388.938	525.06
389.163	518.06
389.387	516.06
389.612	503.06
389.837	516.06
390.062	529.06
390.287	530.06
390.512	529.06
390.736	538.06
390.961	546.06
391.186	536.06
391.411	556.06
391.636	559.06
391.86	584.06
392.085	566.06
392.31	595.06
392.534	526.06
392.759	563.06
392.984	567.06
393.208	568.06
393.433	544.06
393.658	541.06
393.882	552.06
394.107	558.06
394.331	582.06
394.556	547.06
394.78	536.06
395.005	566.06
395.229	573.06
395.454	580.06
395.678	581.06
395.903	584.06
396.127	558.06
396.352	560.06
396.576	566.06
396.801	568.06
397.025	578.06
397.249	583.06
397.474	595.06
397.698	559.06
397.922	611.06
398.147	597.06
398.371	594.06
398.595	623.06
398.82	645.06
399.044	679.06
399.268	728.06
399.492	818.06
399.717	847.06
399.941	869.06
400.165	808.06
400.389	761.06
400.613	717.06
400.837	684.06
401.062	672.06
401.286	666.06
401.51	651.06
401.734	653.06
401.958	652.06
402.182	677.06
402.406	672.06
402.63	671.06
402.854	688.06
403.078	670.06
403.302	678.06
403.526	726.06
403.75	688.06
403.974	696.06
404.198	722.06
404.422	705.06
404.645	695.06
404.869	694.06
405.093	686.06
405.317	702.06
405.541	722.06
405.765	696.06
405.988	694.06
406.212	712.06
406.436	695.06
406.66	702.06
406.883	709.06
407.107	736.06
407.331	797.06
407.555	823.06
407.778	775.06
408.002	777.06
408.226	776.06
408.449	755.06
408.673	752.06
408.896	726.06
409.12	732.06
409.344	738.06
409.567	765.06
409.791	730.06
410.014	735.06
410.238	728.06
410.461	727.06
410.685	710.06
410.908	706.06
411.132	708.06
411.355	687.06
411.578	686.06
411.802	700.06
412.025	679.06
412.249	698.06
412.472	696.06
412.695	710.06
412.919	665.06
413.142	687.06
413.365	674.06
413.589	686.06
413.812	671.06
414.035	640.06
414.258	667.06
414.482	650.06
414.705	685.06
414.928	680.06
415.151	663.06
415.374	694.06
415.597	672.06
415.821	674.06
416.044	672.06
416.267	664.06
416.49	668.06
416.713	665.06
416.936	670.06
417.159	656.06
417.382	670.06
417.605	670.06
417.828	648.06
418.051	666.06
418.274	659.06
418.497	650.06
418.72	670.06
418.943	677.06
419.166	700.06
419.389	756.06
419.611	749.06
419.834	730.06
420.057	690.06
420.28	670.06
420.503	662.06
420.726	667.06
420.948	683.06
421.171	694.06
421.394	670.06
421.617	680.06
421.839	680.06
422.062	658.06
422.285	654.06
422.507	691.06
422.73	655.06
422.953	662.06
423.175	666.06
423.398	694.06
423.621	682.06
423.843	692.06
424.066	697.06
424.288	711.06
424.511	681.06
424.733	684.06
424.956	674.06
425.178	684.06
425.401	678.06
425.623	670.06
425.846	660.06
426.068	658.06
426.291	654.06
426.513	642.06
426.735	656.06
426.958	648.06
427.18	628.06
427.402	663.06
427.625	640.06
427.847	630.06
428.069	627.06
428.292	605.06
428.514	619.06
428.736	621.06
428.958	648.06
429.181	620.06
429.403	618.06
429.625	611.06
429.847	608.06
430.069	629.06
430.292	622.06
430.514	638.06
430.736	621.06
430.958	633.06
431.18	611.06
431.402	620.06
431.624	641.06
431.846	639.06
432.068	648.06
432.29	630.06
432.512	626.06
432.734	634.06
432.956	626.06
433.178	660.06
433.4	645.06
433.622	636.06
433.844	664.06
434.066	640.06
434.287	639.06
434.509	669.06
434.731	682.06
434.953	686.06
435.175	692.06
435.397	697.06
435.618	663.06
435.84	664.06
436.062	641.06
436.284	657.06
436.505	636.06
436.727	636.06
436.949	639.06
437.17	642.06
437.392	635.06
437.614	621.06
437.835	612.06
438.057	620.06
438.278	612.06
438.5	628.06
438.721	640.06
438.943	622.06
439.165	622.06
439.386	637.06
439.608	639.06
439.829	643.06
440.05	639.06
440.272	634.06
440.493	654.06
440.715	667.06
440.936	653.06
441.158	663.06
441.379	667.06
441.6	734.06
441.822	703.06
442.043	726.06
442.264	726.06
442.486	704.06
442.707	676.06
442.928	697.06
443.149	691.06
443.371	697.06
443.592	692.06
443.813	695.06
444.034	706.06
444.255	745.06
444.476	739.06
444.698	762.06
444.919	809.06
445.14	904.06
445.361	815.06
445.582	745.06
445.803	698.06
446.024	679.06
446.245	678.06
446.466	670.06
446.687	641.06
446.908	678.06
447.129	655.06
447.35	661.06
447.571	638.06
447.792	626.06
448.013	616.06
448.234	614.06
448.455	639.06
448.675	630.06
448.896	626.06
449.117	610.06
449.338	622.06
449.559	596.06
449.779	607.06
450	608.06
450.221	594.06
450.442	596.06
450.662	602.06
450.883	587.06
451.104	637.06
451.324	610.06
451.545	604.06
451.766	609.06
451.986	588.06
452.207	596.06
452.428	585.06
452.648	584.06
452.869	599.06
453.089	555.06
453.31	564.06
453.53	588.06
453.751	568.06
453.971	564.06
454.192	577.06
454.412	556.06
454.633	550.06
454.853	576.06
455.073	580.06
455.294	575.06
455.514	555.06
455.734	561.06
455.955	543.06
456.175	548.06
456.395	549.06
456.616	544.06
456.836	558.06
457.056	559.06
457.276	548.06
457.497	557.06
457.717	561.06
457.937	578.06
458.157	586.06
458.377	587.06
458.598	604.06
458.818	585.06
459.038	615.06
459.258	616.06
459.478	629.06
459.698	662.06
459.918	692.06
460.138	719.06
460.358	720.06
460.578	720.06
460.798	716.06
461.018	718.06
461.238	741.06
461.458	748.06
461.678	731.06
461.898	782.06
462.118	793.06
462.338	779.06
462.558	794.06
462.777	821.06
462.997	867.06
463.217	922.06
463.437	889.06
463.657	893.06
463.876	853.06
464.096	858.06
464.316	851.06
464.536	838.06
464.755	821.06
464.975	763.06
465.195	739.06
465.414	738.06
465.634	704.06
465.854	692.06
466.073	683.06
466.293	664.06
466.512	656.06
466.732	630.06
466.951	639.06
467.171	633.06
467.391	630.06
467.61	614.06
467.829	619.06
468.049	631.06
468.268	600.06
468.488	598.06
468.707	632.06
468.927	592.06
469.146	597.06
469.365	605.06
469.585	622.06
469.804	643.06
470.023	639.06
470.243	651.06
470.462	651.06
470.681	632.06
470.901	630.06
471.12	635.06
471.339	638.06
471.558	621.06
471.777	621.06
471.997	623.06
472.216	628.06
472.435	607.06
472.654	624.06
472.873	598.06
473.092	588.06
473.311	566.06
473.53	603.06
473.749	599.06
473.968	606.06
474.187	600.06
474.406	577.06
474.625	588.06
474.844	587.06
475.063	597.06
475.282	606.06
475.501	600.06
475.72	630.06
475.939	606.06
476.158	592.06
476.377	624.06
476.596	611.06
476.814	631.06
477.033	623.06
477.252	653.06
477.471	657.06
477.69	642.06
477.908	664.06
478.127	690.06
478.346	683.06
478.564	692.06
478.783	697.06
479.002	731.06
479.22	713.06
479.439	732.06
479.658	739.06
479.876	735.06
480.095	718.06
480.313	758.06
480.532	754.06
480.751	716.06
480.969	720.06
481.188	692.06
481.406	695.06
481.624	703.06
481.843	666.06
482.061	650.06
482.28	682.06
482.498	652.06
482.717	667.06
482.935	677.06
483.153	691.06
483.372	676.06
483.59	675.06
483.808	665.06
484.027	648.06
484.245	664.06
484.463	695.06
484.681	692.06
484.9	702.06
485.118	692.06
485.336	700.06
485.554	668.06
485.772	692.06
485.99	684.06
486.209	702.06
486.427	669.06
486.645	688.06
486.863	695.06
487.081	696.06
487.299	698.06
487.517	681.06
487.735	705.06
487.953	709.06
488.171	726.06
488.389	710.06
488.607	706.06
488.825	678.06
489.043	700.06
489.261	701.06
489.479	687.06
489.696	684.06
489.914	696.06
490.132	679.06
490.35	715.06
490.568	716.06
490.786	720.06
491.003	751.06
491.221	731.06
491.439	723.06
491.657	735.06
491.874	729.06
492.092	745.06
492.31	771.06
492.527	766.06
492.745	762.06
492.963	735.06
493.18	735.06
493.398	740.06
493.615	752.06
493.833	742.06
494.05	746.06
494.268	777.06
494.485	769.06
494.703	762.06
494.92	776.06
495.138	762.06
495.355	771.06
495.573	774.06
495.79	798.06
496.008	769.06
496.225	765.06
496.442	815.06
496.66	811.06
496.877	811.06
497.094	820.06
497.312	839.06
497.529	866.06
497.746	860.06
497.963	909.06
498.181	914.06
498.398	951.06
498.615	1033.06
498.832	1058.06
499.049	1128.06
499.267	1199.06
499.484	1276.06
499.701	1372.06
499.918	1466.06
500.135	1616.06
500.352	1769.06
500.569	1839.06
500.786	1818.06
501.003	1738.06
501.22	1596.06
501.437	1495.06
