Data from Ni(NO3)2@0.0625M.TitratingCurve.Agarose3%dH2O.NegLispCup.LampEnergy10.LIBS07252019_HRD10591_18-15-18-569.txt Node
Date: Thu Jul 25 18:15:18 EDT 2019
User: cochatt
Spectrometer: HR+D1059
Trigger mode: 1
Integration Time (sec): 1.000000E-1
Scans to average: 1
Electric dark correction enabled: true
Nonlinearity correction enabled: false
Boxcar width: 0
XAxis mode: Wavelengths
Number of Pixels in Spectrum: 2048
>>>>>Begin Spectral Data<<<<<
223.165	-17.62
223.4	-17.62
223.635	-17.62
223.869	-10.62
224.104	-27.62
224.338	-17.62
224.573	-17.62
224.808	-8.62
225.042	-12.62
225.277	-6.62
225.511	-8.62
225.746	12.38
225.98	15.38
226.215	1.38
226.449	15.38
226.683	41.38
226.918	22.38
227.152	19.38
227.387	37.38
227.621	32.38
227.856	47.38
228.09	38.38
228.324	51.38
228.559	54.38
228.793	57.38
229.027	93.38
229.262	93.38
229.496	125.38
229.73	112.38
229.964	121.38
230.199	127.38
230.433	131.38
230.667	122.38
230.901	126.38
231.136	123.38
231.37	135.38
231.604	152.38
231.838	151.38
232.072	129.38
232.306	149.38
232.541	125.38
232.775	123.38
233.009	129.38
233.243	139.38
233.477	140.38
233.711	124.38
233.945	148.38
234.179	125.38
234.413	138.38
234.647	136.38
234.881	130.38
235.115	125.38
235.349	135.38
235.583	151.38
235.817	147.38
236.051	142.38
236.285	151.38
236.519	137.38
236.753	140.38
236.987	127.38
237.221	145.38
237.455	142.38
237.689	142.38
237.922	154.38
238.156	141.38
238.39	132.38
238.624	157.38
238.858	155.38
239.091	155.38
239.325	160.38
239.559	154.38
239.793	153.38
240.027	165.38
240.26	151.38
240.494	150.38
240.728	175.38
240.961	170.38
241.195	157.38
241.429	140.38
241.662	168.38
241.896	165.38
242.13	159.38
242.363	178.38
242.597	174.38
242.83	187.38
243.064	183.38
243.298	180.38
243.531	177.38
243.765	182.38
243.998	195.38
244.232	185.38
244.465	182.38
244.699	182.38
244.932	181.38
245.166	176.38
245.399	198.38
245.633	186.38
245.866	199.38
246.099	171.38
246.333	194.38
246.566	199.38
246.8	212.38
247.033	196.38
247.266	199.38
247.5	201.38
247.733	212.38
247.966	221.38
248.2	226.38
248.433	203.38
248.666	215.38
248.899	201.38
249.133	209.38
249.366	211.38
249.599	215.38
249.832	212.38
250.066	210.38
250.299	219.38
250.532	212.38
250.765	205.38
250.998	228.38
251.231	212.38
251.465	229.38
251.698	220.38
251.931	245.38
252.164	233.38
252.397	235.38
252.63	237.38
252.863	248.38
253.096	242.38
253.329	235.38
253.562	231.38
253.795	232.38
254.028	251.38
254.261	258.38
254.494	250.38
254.727	247.38
254.96	262.38
255.193	242.38
255.426	237.38
255.659	244.38
255.892	241.38
256.124	258.38
256.357	241.38
256.59	258.38
256.823	257.38
257.056	255.38
257.289	254.38
257.521	251.38
257.754	250.38
257.987	259.38
258.22	261.38
258.452	237.38
258.685	269.38
258.918	267.38
259.151	267.38
259.383	264.38
259.616	260.38
259.849	273.38
260.081	265.38
260.314	285.38
260.547	277.38
260.779	267.38
261.012	298.38
261.244	275.38
261.477	278.38
261.71	285.38
261.942	283.38
262.175	293.38
262.407	284.38
262.64	283.38
262.872	279.38
263.105	293.38
263.337	292.38
263.57	275.38
263.802	286.38
264.035	289.38
264.267	298.38
264.499	296.38
264.732	299.38
264.964	294.38
265.197	314.38
265.429	322.38
265.661	325.38
265.894	308.38
266.126	323.38
266.358	304.38
266.591	328.38
266.823	312.38
267.055	335.38
267.287	318.38
267.52	311.38
267.752	316.38
267.984	313.38
268.216	302.38
268.448	313.38
268.681	300.38
268.913	325.38
269.145	330.38
269.377	325.38
269.609	319.38
269.841	315.38
270.073	295.38
270.306	325.38
270.538	314.38
270.77	325.38
271.002	325.38
271.234	335.38
271.466	332.38
271.698	327.38
271.93	308.38
272.162	327.38
272.394	338.38
272.626	347.38
272.858	324.38
273.09	345.38
273.322	348.38
273.553	335.38
273.785	362.38
274.017	358.38
274.249	345.38
274.481	349.38
274.713	360.38
274.945	365.38
275.176	353.38
275.408	381.38
275.64	349.38
275.872	355.38
276.104	341.38
276.335	356.38
276.567	350.38
276.799	365.38
277.031	359.38
277.262	358.38
277.494	348.38
277.726	367.38
277.957	357.38
278.189	358.38
278.421	380.38
278.652	369.38
278.884	378.38
279.115	384.38
279.347	372.38
279.579	376.38
279.81	382.38
280.042	356.38
280.273	391.38
280.505	385.38
280.736	381.38
280.968	374.38
281.199	414.38
281.431	393.38
281.662	404.38
281.894	426.38
282.125	389.38
282.356	407.38
282.588	401.38
282.819	401.38
283.051	396.38
283.282	422.38
283.513	407.38
283.745	422.38
283.976	413.38
284.207	408.38
284.439	414.38
284.67	406.38
284.901	410.38
285.132	399.38
285.364	405.38
285.595	408.38
285.826	429.38
286.057	412.38
286.288	416.38
286.52	423.38
286.751	415.38
286.982	414.38
287.213	419.38
287.444	399.38
287.675	441.38
287.906	427.38
288.138	436.38
288.369	445.38
288.6	422.38
288.831	427.38
289.062	449.38
289.293	436.38
289.524	444.38
289.755	444.38
289.986	473.38
290.217	433.38
290.448	438.38
290.679	437.38
290.91	439.38
291.141	425.38
291.371	451.38
291.602	448.38
291.833	460.38
292.064	470.38
292.295	439.38
292.526	453.38
292.757	456.38
292.987	435.38
293.218	442.38
293.449	457.38
293.68	468.38
293.91	468.38
294.141	451.38
294.372	429.38
294.603	457.38
294.833	439.38
295.064	453.38
295.295	459.38
295.525	452.38
295.756	467.38
295.987	471.38
296.217	472.38
296.448	494.38
296.679	486.38
296.909	468.38
297.14	469.38
297.37	486.38
297.601	500.38
297.831	479.38
298.062	513.38
298.292	500.38
298.523	516.38
298.753	503.38
298.984	489.38
299.214	503.38
299.445	479.38
299.675	512.38
299.905	488.38
300.136	482.38
300.366	486.38
300.597	499.38
300.827	517.38
301.057	513.38
301.288	497.38
301.518	537.38
301.748	494.38
301.979	523.38
302.209	529.38
302.439	527.38
302.669	520.38
302.9	515.38
303.13	509.38
303.36	521.38
303.59	533.38
303.82	498.38
304.051	509.38
304.281	498.38
304.511	499.38
304.741	511.38
304.971	490.38
305.201	511.38
305.431	516.38
305.661	510.38
305.891	493.38
306.121	517.38
306.352	491.38
306.582	485.38
306.812	492.38
307.042	513.38
307.272	512.38
307.502	478.38
307.731	519.38
307.961	503.38
308.191	482.38
308.421	494.38
308.651	494.38
308.881	506.38
309.111	504.38
309.341	477.38
309.571	483.38
309.8	485.38
310.03	482.38
310.26	485.38
310.49	488.38
310.72	478.38
310.949	482.38
311.179	515.38
311.409	499.38
311.639	515.38
311.868	499.38
312.098	510.38
312.328	517.38
312.557	488.38
312.787	518.38
313.017	532.38
313.246	519.38
313.476	524.38
313.706	545.38
313.935	555.38
314.165	530.38
314.394	535.38
314.624	532.38
314.853	503.38
315.083	524.38
315.312	524.38
315.542	537.38
315.771	530.38
316.001	526.38
316.23	525.38
316.46	532.38
316.689	537.38
316.919	501.38
317.148	500.38
317.377	527.38
317.607	531.38
317.836	506.38
318.065	514.38
318.295	513.38
318.524	503.38
318.753	542.38
318.983	498.38
319.212	519.38
319.441	528.38
319.67	525.38
319.9	511.38
320.129	502.38
320.358	523.38
320.587	533.38
320.816	529.38
321.046	515.38
321.275	526.38
321.504	534.38
321.733	524.38
321.962	521.38
322.191	519.38
322.42	520.38
322.649	512.38
322.878	530.38
323.108	524.38
323.337	524.38
323.566	525.38
323.795	525.38
324.024	535.38
324.253	515.38
324.482	538.38
324.71	539.38
324.939	523.38
325.168	533.38
325.397	552.38
325.626	548.38
325.855	544.38
326.084	573.38
326.313	569.38
326.542	574.38
326.77	562.38
326.999	563.38
327.228	555.38
327.457	561.38
327.686	551.38
327.914	570.38
328.143	564.38
328.372	579.38
328.6	580.38
328.829	564.38
329.058	572.38
329.287	550.38
329.515	559.38
329.744	574.38
329.972	593.38
330.201	574.38
330.43	569.38
330.658	559.38
330.887	600.38
331.115	584.38
331.344	592.38
331.572	614.38
331.801	623.38
332.03	626.38
332.258	660.38
332.486	643.38
332.715	682.38
332.943	707.38
333.172	728.38
333.4	783.38
333.629	773.38
333.857	775.38
334.085	764.38
334.314	745.38
334.542	755.38
334.771	729.38
334.999	711.38
335.227	720.38
335.455	719.38
335.684	678.38
335.912	712.38
336.14	667.38
336.369	679.38
336.597	702.38
336.825	708.38
337.053	699.38
337.281	682.38
337.51	659.38
337.738	643.38
337.966	647.38
338.194	634.38
338.422	617.38
338.65	619.38
338.878	627.38
339.106	599.38
339.334	633.38
339.562	588.38
339.79	586.38
340.018	592.38
340.246	581.38
340.474	579.38
340.702	602.38
340.93	594.38
341.158	608.38
341.386	582.38
341.614	597.38
341.842	628.38
342.07	585.38
342.298	571.38
342.526	600.38
342.754	580.38
342.981	607.38
343.209	604.38
343.437	646.38
343.665	667.38
343.893	743.38
344.12	741.38
344.348	737.38
344.576	651.38
344.804	654.38
345.031	651.38
345.259	615.38
345.487	605.38
345.714	573.38
345.942	613.38
346.17	603.38
346.397	583.38
346.625	603.38
346.853	580.38
347.08	607.38
347.308	599.38
347.535	621.38
347.763	615.38
347.99	585.38
348.218	610.38
348.445	588.38
348.673	595.38
348.9	584.38
349.128	571.38
349.355	541.38
349.583	579.38
349.81	571.38
350.037	570.38
350.265	548.38
350.492	577.38
350.72	558.38
350.947	545.38
351.174	575.38
351.402	574.38
351.629	545.38
351.856	549.38
352.083	556.38
352.311	535.38
352.538	570.38
352.765	561.38
352.992	574.38
353.22	557.38
353.447	543.38
353.674	568.38
353.901	563.38
354.128	551.38
354.355	571.38
354.583	545.38
354.81	540.38
355.037	572.38
355.264	584.38
355.491	567.38
355.718	555.38
355.945	553.38
356.172	565.38
356.399	571.38
356.626	560.38
356.853	562.38
357.08	579.38
357.307	568.38
357.534	558.38
357.761	564.38
357.988	547.38
358.215	553.38
358.441	581.38
358.668	563.38
358.895	571.38
359.122	546.38
359.349	561.38
359.576	577.38
359.802	572.38
360.029	569.38
360.256	590.38
360.483	550.38
360.709	544.38
360.936	567.38
361.163	563.38
361.39	561.38
361.616	547.38
361.843	551.38
362.07	541.38
362.296	549.38
362.523	559.38
362.749	565.38
362.976	563.38
363.203	540.38
363.429	553.38
363.656	556.38
363.882	566.38
364.109	545.38
364.335	541.38
364.562	536.38
364.788	541.38
365.015	547.38
365.241	533.38
365.468	554.38
365.694	564.38
365.92	552.38
366.147	532.38
366.373	538.38
366.599	553.38
366.826	569.38
367.052	562.38
367.278	575.38
367.505	556.38
367.731	586.38
367.957	584.38
368.184	576.38
368.41	567.38
368.636	573.38
368.862	556.38
369.089	549.38
369.315	571.38
369.541	571.38
369.767	573.38
369.993	566.38
370.219	563.38
370.445	603.38
370.672	583.38
370.898	617.38
371.124	596.38
371.35	610.38
371.576	616.38
371.802	610.38
372.028	618.38
372.254	599.38
372.48	600.38
372.706	644.38
372.932	625.38
373.158	624.38
373.384	600.38
373.61	609.38
373.835	630.38
374.061	602.38
374.287	596.38
374.513	615.38
374.739	652.38
374.965	668.38
375.191	682.38
375.416	684.38
375.642	661.38
375.868	665.38
376.094	623.38
376.319	615.38
376.545	608.38
376.771	628.38
376.997	611.38
377.222	611.38
377.448	627.38
377.674	625.38
377.899	619.38
378.125	609.38
378.35	597.38
378.576	598.38
378.802	594.38
379.027	618.38
379.253	596.38
379.478	600.38
379.704	618.38
379.929	598.38
380.155	602.38
380.38	602.38
380.606	601.38
380.831	607.38
381.057	594.38
381.282	604.38
381.507	606.38
381.733	611.38
381.958	639.38
382.184	616.38
382.409	649.38
382.634	649.38
382.86	632.38
383.085	636.38
383.31	664.38
383.535	660.38
383.761	669.38
383.986	679.38
384.211	726.38
384.436	690.38
384.662	704.38
384.887	745.38
385.112	747.38
385.337	726.38
385.562	715.38
385.787	731.38
386.013	739.38
386.238	740.38
386.463	762.38
386.688	737.38
386.913	738.38
387.138	723.38
387.363	711.38
387.588	704.38
387.813	719.38
388.038	740.38
388.263	750.38
388.488	734.38
388.713	725.38
388.938	713.38
389.163	718.38
389.387	709.38
389.612	712.38
389.837	722.38
390.062	715.38
390.287	729.38
390.512	719.38
390.736	727.38
390.961	754.38
391.186	742.38
391.411	780.38
391.636	776.38
391.86	841.38
392.085	826.38
392.31	844.38
392.534	799.38
392.759	782.38
392.984	778.38
393.208	781.38
393.433	787.38
393.658	782.38
393.882	791.38
394.107	764.38
394.331	777.38
394.556	799.38
394.78	774.38
395.005	784.38
395.229	789.38
395.454	822.38
395.678	837.38
395.903	822.38
396.127	806.38
396.352	791.38
396.576	760.38
396.801	759.38
397.025	769.38
397.249	766.38
397.474	801.38
397.698	813.38
397.922	805.38
398.147	806.38
398.371	802.38
398.595	845.38
398.82	905.38
399.044	944.38
399.268	1060.38
399.492	1226.38
399.717	1413.38
399.941	1372.38
400.165	1189.38
400.389	1101.38
400.613	1029.38
400.837	943.38
401.062	941.38
401.286	895.38
401.51	916.38
401.734	916.38
401.958	919.38
402.182	920.38
402.406	946.38
402.63	969.38
402.854	1002.38
403.078	996.38
403.302	1034.38
403.526	1071.38
403.75	1079.38
403.974	1074.38
404.198	1118.38
404.422	1114.38
404.645	1123.38
404.869	1068.38
405.093	1047.38
405.317	997.38
405.541	1038.38
405.765	1037.38
405.988	1014.38
406.212	1015.38
406.436	1016.38
406.66	1051.38
406.883	1062.38
407.107	1098.38
407.331	1158.38
407.555	1213.38
407.778	1179.38
408.002	1171.38
408.226	1134.38
408.449	1102.38
408.673	1085.38
408.896	1046.38
409.12	1072.38
409.344	1035.38
409.567	1032.38
409.791	1099.38
410.014	1071.38
410.238	1050.38
410.461	1048.38
410.685	1056.38
410.908	1033.38
411.132	941.38
411.355	953.38
411.578	976.38
411.802	953.38
412.025	962.38
412.249	990.38
412.472	972.38
412.695	919.38
412.919	943.38
413.142	902.38
413.365	881.38
413.589	925.38
413.812	896.38
414.035	897.38
414.258	928.38
414.482	907.38
414.705	949.38
414.928	919.38
415.151	908.38
415.374	919.38
415.597	915.38
415.821	886.38
416.044	931.38
416.267	861.38
416.49	863.38
416.713	890.38
416.936	916.38
417.159	875.38
417.382	914.38
417.605	917.38
417.828	900.38
418.051	924.38
418.274	903.38
418.497	938.38
418.72	920.38
418.943	934.38
419.166	1001.38
419.389	1064.38
419.611	1073.38
419.834	991.38
420.057	974.38
420.28	911.38
420.503	917.38
420.726	909.38
420.948	913.38
421.171	873.38
421.394	906.38
421.617	881.38
421.839	897.38
422.062	899.38
422.285	891.38
422.507	925.38
422.73	952.38
422.953	919.38
423.175	969.38
423.398	986.38
423.621	983.38
423.843	992.38
424.066	970.38
424.288	993.38
424.511	980.38
424.733	963.38
424.956	929.38
425.178	954.38
425.401	929.38
425.623	905.38
425.846	851.38
426.068	876.38
426.291	854.38
426.513	851.38
426.735	855.38
426.958	842.38
427.18	799.38
427.402	844.38
427.625	807.38
427.847	823.38
428.069	819.38
428.292	822.38
428.514	798.38
428.736	819.38
428.958	817.38
429.181	781.38
429.403	771.38
429.625	790.38
429.847	772.38
430.069	780.38
430.292	834.38
430.514	780.38
430.736	803.38
430.958	805.38
431.18	797.38
431.402	806.38
431.624	821.38
431.846	799.38
432.068	830.38
432.29	823.38
432.512	823.38
432.734	809.38
432.956	810.38
433.178	813.38
433.4	829.38
433.622	830.38
433.844	831.38
434.066	814.38
434.287	835.38
434.509	870.38
434.731	892.38
434.953	925.38
435.175	913.38
435.397	908.38
435.618	871.38
435.84	861.38
436.062	823.38
436.284	830.38
436.505	829.38
436.727	847.38
436.949	827.38
437.17	817.38
437.392	797.38
437.614	786.38
437.835	788.38
438.057	793.38
438.278	763.38
438.5	790.38
438.721	785.38
438.943	778.38
439.165	789.38
439.386	829.38
439.608	807.38
439.829	803.38
440.05	820.38
440.272	850.38
440.493	820.38
440.715	850.38
440.936	851.38
441.158	877.38
441.379	881.38
441.6	927.38
441.822	919.38
442.043	947.38
442.264	908.38
442.486	894.38
442.707	897.38
442.928	903.38
443.149	916.38
443.371	922.38
443.592	937.38
443.813	919.38
444.034	966.38
444.255	972.38
444.476	1028.38
444.698	1070.38
444.919	1113.38
445.14	1157.38
445.361	1043.38
445.582	953.38
445.803	910.38
446.024	865.38
446.245	858.38
446.466	873.38
446.687	850.38
446.908	839.38
447.129	818.38
447.35	809.38
447.571	810.38
447.792	790.38
448.013	786.38
448.234	760.38
448.455	787.38
448.675	745.38
448.896	743.38
449.117	733.38
449.338	764.38
449.559	743.38
449.779	727.38
450	754.38
450.221	752.38
450.442	758.38
450.662	778.38
450.883	778.38
451.104	797.38
451.324	785.38
451.545	799.38
451.766	787.38
451.986	803.38
452.207	774.38
452.428	748.38
452.648	759.38
452.869	777.38
453.089	737.38
453.31	747.38
453.53	756.38
453.751	749.38
453.971	733.38
454.192	746.38
454.412	725.38
454.633	732.38
454.853	709.38
455.073	701.38
455.294	717.38
455.514	732.38
455.734	684.38
455.955	706.38
456.175	708.38
456.395	703.38
456.616	707.38
456.836	685.38
457.056	707.38
457.276	694.38
457.497	696.38
457.717	701.38
457.937	698.38
458.157	705.38
458.377	703.38
458.598	726.38
458.818	764.38
459.038	792.38
459.258	803.38
459.478	803.38
459.698	841.38
459.918	866.38
460.138	937.38
460.358	957.38
460.578	983.38
460.798	979.38
461.018	983.38
461.238	978.38
461.458	965.38
461.678	954.38
461.898	974.38
462.118	995.38
462.338	1043.38
462.558	1040.38
462.777	1101.38
462.997	1196.38
463.217	1343.38
463.437	1337.38
463.657	1213.38
463.876	1145.38
464.096	1146.38
464.316	1144.38
464.536	1164.38
464.755	1117.38
464.975	1049.38
465.195	986.38
465.414	963.38
465.634	889.38
465.854	859.38
466.073	837.38
466.293	827.38
466.512	826.38
466.732	827.38
466.951	808.38
467.171	809.38
467.391	825.38
467.61	771.38
467.829	787.38
468.049	809.38
468.268	747.38
468.488	731.38
468.707	737.38
468.927	769.38
469.146	738.38
469.365	753.38
469.585	792.38
469.804	789.38
470.023	807.38
470.243	821.38
470.462	816.38
470.681	830.38
470.901	838.38
471.12	783.38
471.339	769.38
471.558	791.38
471.777	763.38
471.997	774.38
472.216	743.38
472.435	747.38
472.654	751.38
472.873	748.38
473.092	718.38
473.311	713.38
473.53	723.38
473.749	749.38
473.968	737.38
474.187	722.38
474.406	735.38
474.625	759.38
474.844	710.38
475.063	738.38
475.282	723.38
475.501	739.38
475.72	753.38
475.939	733.38
476.158	756.38
476.377	759.38
476.596	769.38
476.814	801.38
477.033	804.38
477.252	807.38
477.471	810.38
477.69	823.38
477.908	857.38
478.127	857.38
478.346	879.38
478.564	897.38
478.783	917.38
479.002	915.38
479.22	914.38
479.439	944.38
479.658	916.38
479.876	892.38
480.095	939.38
480.313	971.38
480.532	994.38
480.751	994.38
480.969	938.38
481.188	942.38
481.406	875.38
481.624	866.38
481.843	859.38
482.061	861.38
482.28	855.38
482.498	835.38
482.717	839.38
482.935	827.38
483.153	834.38
483.372	853.38
483.59	850.38
483.808	846.38
484.027	844.38
484.245	885.38
484.463	849.38
484.681	855.38
484.9	889.38
485.118	879.38
485.336	905.38
485.554	879.38
485.772	881.38
485.99	903.38
486.209	935.38
486.427	885.38
486.645	923.38
486.863	907.38
487.081	868.38
487.299	879.38
487.517	909.38
487.735	892.38
487.953	877.38
488.171	870.38
488.389	867.38
488.607	883.38
488.825	842.38
489.043	884.38
489.261	867.38
489.479	884.38
489.696	871.38
489.914	878.38
490.132	895.38
490.35	866.38
490.568	901.38
490.786	904.38
491.003	893.38
491.221	914.38
491.439	916.38
491.657	886.38
491.874	873.38
492.092	855.38
492.31	903.38
492.527	906.38
492.745	901.38
492.963	900.38
493.18	923.38
493.398	924.38
493.615	915.38
493.833	931.38
494.05	929.38
494.268	921.38
494.485	894.38
494.703	917.38
494.92	921.38
495.138	934.38
495.355	950.38
495.573	962.38
495.79	936.38
496.008	907.38
496.225	933.38
496.442	949.38
496.66	948.38
496.877	963.38
497.094	977.38
497.312	997.38
497.529	1010.38
497.746	1029.38
497.963	1077.38
498.181	1095.38
498.398	1172.38
498.615	1269.38
498.832	1316.38
499.049	1390.38
499.267	1554.38
499.484	1679.38
499.701	1884.38
499.918	2089.38
500.135	2392.38
500.352	2758.38
500.569	3018.38
