Data from Ni(NO3)2Standard.Agarose3%.GreenCap.LampEnergy5.5.E.O_HRD10591_14-40-35-188.txt Node
Date: Mon Jul 22 14:40:35 EDT 2019
User: cochatt
Spectrometer: HR+D1059
Trigger mode: 1
Integration Time (sec): 1.000000E-1
Scans to average: 1
Electric dark correction enabled: true
Nonlinearity correction enabled: false
Boxcar width: 0
XAxis mode: Wavelengths
Number of Pixels in Spectrum: 2048
>>>>>Begin Spectral Data<<<<<
223.165	-7.69
223.4	-7.69
223.635	-7.69
223.869	-19.69
224.104	-16.69
224.338	-13.69
224.573	-16.69
224.808	-15.69
225.042	-0.69
225.277	-4.69
225.511	1.31
225.746	10.31
225.98	13.31
226.215	10.31
226.449	9.31
226.683	15.31
226.918	14.31
227.152	21.31
227.387	25.31
227.621	33.31
227.856	50.31
228.09	35.31
228.324	43.31
228.559	58.31
228.793	58.31
229.027	39.31
229.262	58.31
229.496	67.31
229.73	71.31
229.964	70.31
230.199	63.31
230.433	67.31
230.667	74.31
230.901	84.31
231.136	71.31
231.37	78.31
231.604	73.31
231.838	64.31
232.072	69.31
232.306	78.31
232.541	83.31
232.775	87.31
233.009	84.31
233.243	79.31
233.477	71.31
233.711	71.31
233.945	83.31
234.179	75.31
234.413	82.31
234.647	74.31
234.881	79.31
235.115	70.31
235.349	65.31
235.583	79.31
235.817	70.31
236.051	78.31
236.285	63.31
236.519	73.31
236.753	83.31
236.987	88.31
237.221	80.31
237.455	70.31
237.689	81.31
237.922	69.31
238.156	72.31
238.39	77.31
238.624	46.31
238.858	75.31
239.091	73.31
239.325	81.31
239.559	73.31
239.793	77.31
240.027	81.31
240.26	64.31
240.494	57.31
240.728	89.31
240.961	74.31
241.195	65.31
241.429	71.31
241.662	65.31
241.896	64.31
242.13	73.31
242.363	73.31
242.597	82.31
242.83	62.31
243.064	72.31
243.298	80.31
243.531	73.31
243.765	77.31
243.998	90.31
244.232	72.31
244.465	73.31
244.699	67.31
244.932	69.31
245.166	72.31
245.399	66.31
245.633	81.31
245.866	63.31
246.099	76.31
246.333	77.31
246.566	86.31
246.8	68.31
247.033	73.31
247.266	67.31
247.5	79.31
247.733	63.31
247.966	90.31
248.2	66.31
248.433	76.31
248.666	63.31
248.899	75.31
249.133	80.31
249.366	84.31
249.599	70.31
249.832	86.31
250.066	72.31
250.299	77.31
250.532	80.31
250.765	87.31
250.998	92.31
251.231	92.31
251.465	70.31
251.698	56.31
251.931	74.31
252.164	75.31
252.397	80.31
252.63	75.31
252.863	87.31
253.096	77.31
253.329	79.31
253.562	91.31
253.795	69.31
254.028	79.31
254.261	87.31
254.494	74.31
254.727	67.31
254.96	83.31
255.193	83.31
255.426	91.31
255.659	72.31
255.892	72.31
256.124	86.31
256.357	80.31
256.59	85.31
256.823	87.31
257.056	77.31
257.289	76.31
257.521	83.31
257.754	81.31
257.987	71.31
258.22	67.31
258.452	77.31
258.685	75.31
258.918	72.31
259.151	61.31
259.383	73.31
259.616	73.31
259.849	68.31
260.081	69.31
260.314	77.31
260.547	80.31
260.779	76.31
261.012	84.31
261.244	63.31
261.477	74.31
261.71	74.31
261.942	80.31
262.175	91.31
262.407	82.31
262.64	84.31
262.872	80.31
263.105	86.31
263.337	77.31
263.57	74.31
263.802	81.31
264.035	75.31
264.267	74.31
264.499	69.31
264.732	76.31
264.964	88.31
265.197	72.31
265.429	67.31
265.661	90.31
265.894	82.31
266.126	70.31
266.358	79.31
266.591	79.31
266.823	78.31
267.055	81.31
267.287	67.31
267.52	86.31
267.752	77.31
267.984	96.31
268.216	91.31
268.448	64.31
268.681	79.31
268.913	85.31
269.145	82.31
269.377	71.31
269.609	80.31
269.841	76.31
270.073	75.31
270.306	69.31
270.538	81.31
270.77	79.31
271.002	78.31
271.234	85.31
271.466	81.31
271.698	85.31
271.93	71.31
272.162	80.31
272.394	76.31
272.626	83.31
272.858	80.31
273.09	60.31
273.322	80.31
273.553	82.31
273.785	78.31
274.017	78.31
274.249	74.31
274.481	76.31
274.713	87.31
274.945	74.31
275.176	79.31
275.408	84.31
275.64	73.31
275.872	92.31
276.104	84.31
276.335	88.31
276.567	88.31
276.799	84.31
277.031	64.31
277.262	85.31
277.494	93.31
277.726	75.31
277.957	81.31
278.189	71.31
278.421	81.31
278.652	74.31
278.884	77.31
279.115	77.31
279.347	89.31
279.579	74.31
279.81	88.31
280.042	97.31
280.273	80.31
280.505	73.31
280.736	84.31
280.968	100.31
281.199	83.31
281.431	95.31
281.662	101.31
281.894	85.31
282.125	96.31
282.356	75.31
282.588	73.31
282.819	59.31
283.051	87.31
283.282	75.31
283.513	63.31
283.745	76.31
283.976	75.31
284.207	87.31
284.439	82.31
284.67	73.31
284.901	100.31
285.132	85.31
285.364	78.31
285.595	70.31
285.826	72.31
286.057	85.31
286.288	90.31
286.52	90.31
286.751	81.31
286.982	76.31
287.213	86.31
287.444	97.31
287.675	72.31
287.906	79.31
288.138	77.31
288.369	80.31
288.6	81.31
288.831	74.31
289.062	79.31
289.293	66.31
289.524	90.31
289.755	76.31
289.986	86.31
290.217	93.31
290.448	93.31
290.679	94.31
290.91	86.31
291.141	82.31
291.371	79.31
291.602	81.31
291.833	77.31
292.064	86.31
292.295	70.31
292.526	88.31
292.757	74.31
292.987	87.31
293.218	79.31
293.449	77.31
293.68	82.31
293.91	81.31
294.141	87.31
294.372	88.31
294.603	91.31
294.833	85.31
295.064	78.31
295.295	86.31
295.525	80.31
295.756	91.31
295.987	75.31
296.217	72.31
296.448	70.31
296.679	95.31
296.909	77.31
297.14	77.31
297.37	88.31
297.601	78.31
297.831	85.31
298.062	97.31
298.292	91.31
298.523	81.31
298.753	82.31
298.984	86.31
299.214	78.31
299.445	75.31
299.675	76.31
299.905	79.31
300.136	89.31
300.366	70.31
300.597	87.31
300.827	84.31
301.057	72.31
301.288	84.31
301.518	72.31
301.748	84.31
301.979	87.31
302.209	80.31
302.439	93.31
302.669	71.31
302.9	79.31
303.13	80.31
303.36	82.31
303.59	82.31
303.82	79.31
304.051	88.31
304.281	96.31
304.511	80.31
304.741	96.31
304.971	92.31
305.201	79.31
305.431	91.31
305.661	89.31
305.891	71.31
306.121	70.31
306.352	84.31
306.582	83.31
306.812	84.31
307.042	87.31
307.272	80.31
307.502	79.31
307.731	87.31
307.961	87.31
308.191	79.31
308.421	66.31
308.651	68.31
308.881	84.31
309.111	78.31
309.341	91.31
309.571	61.31
309.8	78.31
310.03	89.31
310.26	87.31
310.49	84.31
310.72	85.31
310.949	79.31
311.179	76.31
311.409	79.31
311.639	75.31
311.868	66.31
312.098	92.31
312.328	78.31
312.557	87.31
312.787	76.31
313.017	81.31
313.246	80.31
313.476	76.31
313.706	73.31
313.935	77.31
314.165	81.31
314.394	81.31
314.624	80.31
314.853	78.31
315.083	83.31
315.312	76.31
315.542	67.31
315.771	75.31
316.001	91.31
316.23	92.31
316.46	86.31
316.689	68.31
316.919	87.31
317.148	84.31
317.377	80.31
317.607	83.31
317.836	87.31
318.065	93.31
318.295	82.31
318.524	85.31
318.753	79.31
318.983	72.31
319.212	77.31
319.441	75.31
319.67	90.31
319.9	71.31
320.129	83.31
320.358	88.31
320.587	86.31
320.816	96.31
321.046	92.31
321.275	69.31
321.504	96.31
321.733	85.31
321.962	83.31
322.191	90.31
322.42	90.31
322.649	85.31
322.878	87.31
323.108	88.31
323.337	79.31
323.566	78.31
323.795	87.31
324.024	81.31
324.253	91.31
324.482	70.31
324.71	87.31
324.939	77.31
325.168	77.31
325.397	71.31
325.626	87.31
325.855	68.31
326.084	84.31
326.313	91.31
326.542	73.31
326.77	88.31
326.999	73.31
327.228	78.31
327.457	93.31
327.686	83.31
327.914	79.31
328.143	84.31
328.372	79.31
328.6	86.31
328.829	78.31
329.058	71.31
329.287	83.31
329.515	76.31
329.744	74.31
329.972	95.31
330.201	79.31
330.43	87.31
330.658	88.31
330.887	98.31
331.115	87.31
331.344	97.31
331.572	78.31
331.801	86.31
332.03	80.31
332.258	93.31
332.486	81.31
332.715	87.31
332.943	91.31
333.172	87.31
333.4	76.31
333.629	73.31
333.857	65.31
334.085	104.31
334.314	92.31
334.542	78.31
334.771	90.31
334.999	69.31
335.227	76.31
335.455	71.31
335.684	82.31
335.912	79.31
336.14	86.31
336.369	101.31
336.597	83.31
336.825	95.31
337.053	84.31
337.281	93.31
337.51	80.31
337.738	83.31
337.966	70.31
338.194	91.31
338.422	78.31
338.65	79.31
338.878	86.31
339.106	75.31
339.334	90.31
339.562	81.31
339.79	79.31
340.018	89.31
340.246	76.31
340.474	89.31
340.702	88.31
340.93	91.31
341.158	79.31
341.386	89.31
341.614	99.31
341.842	86.31
342.07	78.31
342.298	68.31
342.526	77.31
342.754	79.31
342.981	86.31
343.209	77.31
343.437	91.31
343.665	93.31
343.893	80.31
344.12	87.31
344.348	78.31
344.576	83.31
344.804	70.31
345.031	71.31
345.259	79.31
345.487	93.31
345.714	88.31
345.942	93.31
346.17	72.31
346.397	83.31
346.625	78.31
346.853	90.31
347.08	91.31
347.308	78.31
347.535	83.31
347.763	84.31
347.99	73.31
348.218	77.31
348.445	69.31
348.673	77.31
348.9	76.31
349.128	78.31
349.355	80.31
349.583	85.31
349.81	66.31
350.037	89.31
350.265	75.31
350.492	96.31
350.72	56.31
350.947	69.31
351.174	73.31
351.402	94.31
351.629	77.31
351.856	92.31
352.083	97.31
352.311	88.31
352.538	77.31
352.765	98.31
352.992	70.31
353.22	78.31
353.447	71.31
353.674	93.31
353.901	100.31
354.128	77.31
354.355	76.31
354.583	89.31
354.81	79.31
355.037	86.31
355.264	79.31
355.491	77.31
355.718	90.31
355.945	67.31
356.172	81.31
356.399	74.31
356.626	77.31
356.853	77.31
357.08	84.31
357.307	89.31
357.534	82.31
357.761	91.31
357.988	92.31
358.215	79.31
358.441	86.31
358.668	81.31
358.895	87.31
359.122	73.31
359.349	81.31
359.576	87.31
359.802	73.31
360.029	72.31
360.256	81.31
360.483	83.31
360.709	75.31
360.936	95.31
361.163	92.31
361.39	81.31
361.616	84.31
361.843	81.31
362.07	82.31
362.296	75.31
362.523	87.31
362.749	85.31
362.976	86.31
363.203	85.31
363.429	84.31
363.656	85.31
363.882	85.31
364.109	81.31
364.335	96.31
364.562	85.31
364.788	82.31
365.015	86.31
365.241	84.31
365.468	83.31
365.694	77.31
365.92	90.31
366.147	91.31
366.373	81.31
366.599	79.31
366.826	78.31
367.052	67.31
367.278	93.31
367.505	89.31
367.731	100.31
367.957	79.31
368.184	81.31
368.41	73.31
368.636	84.31
368.862	79.31
369.089	69.31
369.315	91.31
369.541	78.31
369.767	73.31
369.993	95.31
370.219	78.31
370.445	86.31
370.672	86.31
370.898	81.31
371.124	80.31
371.35	88.31
371.576	77.31
371.802	85.31
372.028	76.31
372.254	84.31
372.48	85.31
372.706	86.31
372.932	76.31
373.158	81.31
373.384	77.31
373.61	77.31
373.835	87.31
374.061	84.31
374.287	72.31
374.513	78.31
374.739	87.31
374.965	88.31
375.191	93.31
375.416	103.31
375.642	94.31
375.868	75.31
376.094	71.31
376.319	80.31
376.545	67.31
376.771	77.31
376.997	87.31
377.222	81.31
377.448	83.31
377.674	88.31
377.899	70.31
378.125	72.31
378.35	77.31
378.576	75.31
378.802	86.31
379.027	72.31
379.253	81.31
379.478	75.31
379.704	75.31
379.929	91.31
380.155	70.31
380.38	57.31
380.606	78.31
380.831	99.31
381.057	81.31
381.282	83.31
381.507	79.31
381.733	80.31
381.958	76.31
382.184	78.31
382.409	76.31
382.634	90.31
382.86	86.31
383.085	77.31
383.31	65.31
383.535	84.31
383.761	78.31
383.986	76.31
384.211	87.31
384.436	65.31
384.662	74.31
384.887	82.31
385.112	93.31
385.337	91.31
385.562	80.31
385.787	75.31
386.013	82.31
386.238	88.31
386.463	75.31
386.688	78.31
386.913	88.31
387.138	86.31
387.363	93.31
387.588	73.31
387.813	73.31
388.038	99.31
388.263	74.31
388.488	79.31
388.713	79.31
388.938	80.31
389.163	73.31
389.387	89.31
389.612	73.31
389.837	74.31
390.062	78.31
390.287	81.31
390.512	77.31
390.736	91.31
390.961	82.31
391.186	78.31
391.411	74.31
391.636	82.31
391.86	80.31
392.085	84.31
392.31	81.31
392.534	81.31
392.759	83.31
392.984	79.31
393.208	95.31
393.433	88.31
393.658	83.31
393.882	80.31
394.107	92.31
394.331	98.31
394.556	82.31
394.78	85.31
395.005	88.31
395.229	95.31
395.454	80.31
395.678	73.31
395.903	89.31
396.127	92.31
396.352	78.31
396.576	88.31
396.801	95.31
397.025	84.31
397.249	93.31
397.474	96.31
397.698	88.31
397.922	78.31
398.147	80.31
398.371	79.31
398.595	79.31
398.82	73.31
399.044	87.31
399.268	79.31
399.492	88.31
399.717	84.31
399.941	88.31
400.165	80.31
400.389	81.31
400.613	75.31
400.837	80.31
401.062	81.31
401.286	85.31
401.51	84.31
401.734	96.31
401.958	76.31
402.182	80.31
402.406	85.31
402.63	73.31
402.854	69.31
403.078	70.31
403.302	83.31
403.526	81.31
403.75	79.31
403.974	69.31
404.198	72.31
404.422	94.31
404.645	77.31
404.869	78.31
405.093	76.31
405.317	86.31
405.541	85.31
405.765	75.31
405.988	81.31
406.212	80.31
406.436	83.31
406.66	69.31
406.883	81.31
407.107	93.31
407.331	84.31
407.555	92.31
407.778	85.31
408.002	83.31
408.226	69.31
408.449	95.31
408.673	82.31
408.896	74.31
409.12	69.31
409.344	72.31
409.567	79.31
409.791	80.31
410.014	88.31
410.238	80.31
410.461	67.31
410.685	69.31
410.908	77.31
411.132	91.31
411.355	79.31
411.578	70.31
411.802	101.31
412.025	79.31
412.249	86.31
412.472	83.31
412.695	80.31
412.919	90.31
413.142	75.31
413.365	92.31
413.589	74.31
413.812	75.31
414.035	81.31
414.258	86.31
414.482	87.31
414.705	73.31
414.928	92.31
415.151	71.31
415.374	88.31
415.597	74.31
415.821	83.31
416.044	77.31
416.267	78.31
416.49	85.31
416.713	76.31
416.936	84.31
417.159	79.31
417.382	85.31
417.605	81.31
417.828	74.31
418.051	73.31
418.274	92.31
418.497	80.31
418.72	80.31
418.943	75.31
419.166	79.31
419.389	90.31
419.611	85.31
419.834	92.31
420.057	79.31
420.28	75.31
420.503	92.31
420.726	73.31
420.948	85.31
421.171	76.31
421.394	68.31
421.617	84.31
421.839	88.31
422.062	76.31
422.285	76.31
422.507	77.31
422.73	67.31
422.953	86.31
423.175	77.31
423.398	91.31
423.621	88.31
423.843	80.31
424.066	93.31
424.288	79.31
424.511	86.31
424.733	84.31
424.956	62.31
425.178	88.31
425.401	93.31
425.623	92.31
425.846	79.31
426.068	79.31
426.291	72.31
426.513	85.31
426.735	82.31
426.958	91.31
427.18	91.31
427.402	77.31
427.625	72.31
427.847	79.31
428.069	79.31
428.292	70.31
428.514	82.31
428.736	78.31
428.958	80.31
429.181	81.31
429.403	81.31
429.625	88.31
429.847	79.31
430.069	89.31
430.292	85.31
430.514	90.31
430.736	75.31
430.958	84.31
431.18	73.31
431.402	84.31
431.624	80.31
431.846	85.31
432.068	84.31
432.29	75.31
432.512	89.31
432.734	78.31
432.956	85.31
433.178	72.31
433.4	72.31
433.622	84.31
433.844	82.31
434.066	76.31
434.287	83.31
434.509	83.31
434.731	78.31
434.953	83.31
435.175	92.31
435.397	90.31
435.618	76.31
435.84	70.31
436.062	71.31
436.284	79.31
436.505	102.31
436.727	81.31
436.949	83.31
437.17	81.31
437.392	76.31
437.614	84.31
437.835	73.31
438.057	92.31
438.278	87.31
438.5	71.31
438.721	80.31
438.943	93.31
439.165	80.31
439.386	84.31
439.608	95.31
439.829	74.31
440.05	82.31
440.272	72.31
440.493	92.31
440.715	75.31
440.936	80.31
441.158	72.31
441.379	94.31
441.6	80.31
441.822	87.31
442.043	91.31
442.264	74.31
442.486	65.31
442.707	86.31
442.928	88.31
443.149	73.31
443.371	82.31
443.592	70.31
443.813	81.31
444.034	73.31
444.255	86.31
444.476	77.31
444.698	89.31
444.919	77.31
445.14	186.31
445.361	151.31
445.582	98.31
445.803	86.31
446.024	71.31
446.245	83.31
446.466	84.31
446.687	75.31
446.908	78.31
447.129	67.31
447.35	83.31
447.571	93.31
447.792	66.31
448.013	75.31
448.234	74.31
448.455	85.31
448.675	91.31
448.896	69.31
449.117	71.31
449.338	80.31
449.559	71.31
449.779	81.31
450	78.31
450.221	76.31
450.442	75.31
450.662	82.31
450.883	76.31
451.104	78.31
451.324	83.31
451.545	79.31
451.766	71.31
451.986	70.31
452.207	83.31
452.428	68.31
452.648	86.31
452.869	83.31
453.089	82.31
453.31	89.31
453.53	72.31
453.751	74.31
453.971	74.31
454.192	80.31
454.412	91.31
454.633	84.31
454.853	78.31
455.073	75.31
455.294	79.31
455.514	74.31
455.734	79.31
455.955	78.31
456.175	95.31
456.395	82.31
456.616	72.31
456.836	78.31
457.056	87.31
457.276	83.31
457.497	74.31
457.717	62.31
457.937	82.31
458.157	77.31
458.377	82.31
458.598	67.31
458.818	71.31
459.038	83.31
459.258	69.31
459.478	82.31
459.698	88.31
459.918	76.31
460.138	70.31
460.358	77.31
460.578	70.31
460.798	69.31
461.018	78.31
461.238	84.31
461.458	90.31
461.678	96.31
461.898	90.31
462.118	93.31
462.338	85.31
462.558	99.31
462.777	88.31
462.997	88.31
463.217	92.31
463.437	85.31
463.657	92.31
463.876	85.31
464.096	96.31
464.316	89.31
464.536	88.31
464.755	99.31
464.975	88.31
465.195	95.31
465.414	85.31
465.634	77.31
465.854	78.31
466.073	85.31
466.293	82.31
466.512	87.31
466.732	79.31
466.951	87.31
467.171	79.31
467.391	90.31
467.61	79.31
467.829	85.31
468.049	96.31
468.268	83.31
468.488	79.31
468.707	72.31
468.927	74.31
469.146	86.31
469.365	83.31
469.585	94.31
469.804	86.31
470.023	91.31
470.243	103.31
470.462	80.31
470.681	79.31
470.901	81.31
471.12	85.31
471.339	98.31
471.558	82.31
471.777	69.31
471.997	91.31
472.216	71.31
472.435	83.31
472.654	102.31
472.873	86.31
473.092	82.31
473.311	94.31
473.53	69.31
473.749	89.31
473.968	88.31
474.187	92.31
474.406	89.31
474.625	89.31
474.844	88.31
475.063	82.31
475.282	86.31
475.501	80.31
475.72	86.31
475.939	87.31
476.158	95.31
476.377	88.31
476.596	73.31
476.814	76.31
477.033	77.31
477.252	84.31
477.471	87.31
477.69	81.31
477.908	70.31
478.127	91.31
478.346	80.31
478.564	78.31
478.783	67.31
479.002	87.31
479.22	87.31
479.439	84.31
479.658	82.31
479.876	94.31
480.095	83.31
480.313	94.31
480.532	75.31
480.751	76.31
480.969	86.31
481.188	103.31
481.406	86.31
481.624	103.31
481.843	87.31
482.061	90.31
482.28	71.31
482.498	78.31
482.717	88.31
482.935	87.31
483.153	89.31
483.372	84.31
483.59	89.31
483.808	81.31
484.027	96.31
484.245	88.31
484.463	85.31
484.681	97.31
484.9	72.31
485.118	93.31
485.336	99.31
485.554	77.31
485.772	83.31
485.99	70.31
486.209	79.31
486.427	86.31
486.645	84.31
486.863	87.31
487.081	90.31
487.299	79.31
487.517	80.31
487.735	87.31
487.953	90.31
488.171	99.31
488.389	94.31
488.607	93.31
488.825	83.31
489.043	78.31
489.261	90.31
489.479	87.31
489.696	94.31
489.914	89.31
490.132	88.31
490.35	99.31
490.568	95.31
490.786	78.31
491.003	85.31
491.221	92.31
491.439	84.31
491.657	98.31
491.874	88.31
492.092	91.31
492.31	91.31
492.527	80.31
492.745	78.31
492.963	97.31
493.18	96.31
493.398	81.31
493.615	96.31
493.833	91.31
494.05	89.31
494.268	97.31
494.485	100.31
494.703	93.31
494.92	87.31
495.138	98.31
495.355	99.31
495.573	85.31
495.79	93.31
496.008	88.31
496.225	90.31
496.442	87.31
496.66	99.31
496.877	89.31
497.094	86.31
497.312	94.31
497.529	91.31
497.746	109.31
497.963	85.31
498.181	93.31
498.398	102.31
498.615	80.31
498.832	83.31
499.049	94.31
499.267	93.31
499.484	95.31
499.701	103.31
499.918	101.31
500.135	103.31
500.352	104.31
500.569	113.31
500.786	116.31
501.003	103.31
501.22	100.31
501.437	101.31
501.654	105.31
501.871	95.31
502.088	86.31
502.305	99.31
502.522	98.31
502.739	82.31
502.956	86.31
503.172	85.31
503.389	94.31
503.606	77.31
503.823	89.31
504.04	92.31
504.256	88.31
504.473	103.31
504.69	93.31
504.907	95.31
505.123	91.31
505.34	90.31
505.557	88.31
505.773	84.31
505.99	70.31
506.207	96.31
506.423	91.31
506.64	98.31
506.856	93.31
507.073	88.31
507.289	82.31
507.506	88.31
507.722	74.31
507.939	98.31
508.155	74.31
508.372	81.31
508.588	97.31
508.805	80.31
509.021	93.31
509.238	85.31
509.454	87.31
509.67	79.31
509.887	80.31
510.103	86.31
510.319	92.31
510.536	88.31
510.752	97.31
510.968	95.31
511.184	96.31
511.401	91.31
511.617	82.31
511.833	83.31
512.049	92.31
512.265	85.31
512.481	82.31
512.698	89.31
512.914	101.31
513.13	94.31
513.346	92.31
513.562	76.31
513.778	79.31
513.994	72.31
514.21	99.31
514.426	92.31
514.642	82.31
514.858	80.31
515.074	85.31
515.29	81.31
515.506	89.31
515.721	98.31
515.937	92.31
516.153	95.31
516.369	91.31
516.585	87.31
516.801	92.31
517.016	98.31
517.232	94.31
517.448	80.31
517.664	74.31
517.879	88.31
518.095	73.31
518.311	94.31
518.527	86.31
518.742	84.31
518.958	81.31
519.173	76.31
