Data from Ni(NO3)2Standard.Agarose3%.GreenCap.LampEnergy5.5.E.O_HRD10591_14-39-50-188.txt Node
Date: Mon Jul 22 14:39:50 EDT 2019
User: cochatt
Spectrometer: HR+D1059
Trigger mode: 1
Integration Time (sec): 1.000000E-1
Scans to average: 1
Electric dark correction enabled: true
Nonlinearity correction enabled: false
Boxcar width: 0
XAxis mode: Wavelengths
Number of Pixels in Spectrum: 2048
>>>>>Begin Spectral Data<<<<<
223.165	-15.81
223.4	-15.81
223.635	-15.81
223.869	-14.81
224.104	-14.81
224.338	0.19
224.573	-19.81
224.808	-24.81
225.042	-20.81
225.277	-5.81
225.511	1.19
225.746	-6.81
225.98	-4.81
226.215	17.19
226.449	22.19
226.683	23.19
226.918	36.19
227.152	28.19
227.387	31.19
227.621	23.19
227.856	42.19
228.09	42.19
228.324	49.19
228.559	55.19
228.793	60.19
229.027	51.19
229.262	74.19
229.496	63.19
229.73	72.19
229.964	68.19
230.199	82.19
230.433	81.19
230.667	84.19
230.901	88.19
231.136	81.19
231.37	69.19
231.604	90.19
231.838	86.19
232.072	76.19
232.306	92.19
232.541	83.19
232.775	80.19
233.009	79.19
233.243	78.19
233.477	96.19
233.711	76.19
233.945	85.19
234.179	80.19
234.413	75.19
234.647	65.19
234.881	83.19
235.115	79.19
235.349	82.19
235.583	82.19
235.817	73.19
236.051	79.19
236.285	78.19
236.519	73.19
236.753	68.19
236.987	75.19
237.221	80.19
237.455	85.19
237.689	96.19
237.922	78.19
238.156	83.19
238.39	72.19
238.624	60.19
238.858	75.19
239.091	80.19
239.325	88.19
239.559	72.19
239.793	79.19
240.027	76.19
240.26	58.19
240.494	86.19
240.728	76.19
240.961	78.19
241.195	89.19
241.429	78.19
241.662	79.19
241.896	87.19
242.13	73.19
242.363	76.19
242.597	57.19
242.83	80.19
243.064	68.19
243.298	62.19
243.531	77.19
243.765	71.19
243.998	87.19
244.232	77.19
244.465	67.19
244.699	73.19
244.932	87.19
245.166	86.19
245.399	90.19
245.633	70.19
245.866	79.19
246.099	84.19
246.333	67.19
246.566	84.19
246.8	78.19
247.033	76.19
247.266	70.19
247.5	79.19
247.733	87.19
247.966	73.19
248.2	83.19
248.433	97.19
248.666	69.19
248.899	87.19
249.133	78.19
249.366	73.19
249.599	75.19
249.832	75.19
250.066	79.19
250.299	74.19
250.532	79.19
250.765	83.19
250.998	71.19
251.231	73.19
251.465	67.19
251.698	59.19
251.931	76.19
252.164	76.19
252.397	72.19
252.63	78.19
252.863	82.19
253.096	66.19
253.329	68.19
253.562	72.19
253.795	84.19
254.028	88.19
254.261	77.19
254.494	68.19
254.727	79.19
254.96	65.19
255.193	83.19
255.426	78.19
255.659	69.19
255.892	75.19
256.124	81.19
256.357	80.19
256.59	79.19
256.823	65.19
257.056	73.19
257.289	81.19
257.521	85.19
257.754	100.19
257.987	82.19
258.22	98.19
258.452	82.19
258.685	78.19
258.918	90.19
259.151	64.19
259.383	71.19
259.616	81.19
259.849	89.19
260.081	94.19
260.314	85.19
260.547	81.19
260.779	73.19
261.012	78.19
261.244	76.19
261.477	87.19
261.71	82.19
261.942	70.19
262.175	74.19
262.407	70.19
262.64	73.19
262.872	82.19
263.105	72.19
263.337	74.19
263.57	75.19
263.802	90.19
264.035	93.19
264.267	78.19
264.499	83.19
264.732	81.19
264.964	82.19
265.197	71.19
265.429	79.19
265.661	77.19
265.894	91.19
266.126	91.19
266.358	95.19
266.591	81.19
266.823	94.19
267.055	94.19
267.287	89.19
267.52	88.19
267.752	79.19
267.984	73.19
268.216	90.19
268.448	81.19
268.681	88.19
268.913	100.19
269.145	89.19
269.377	82.19
269.609	84.19
269.841	90.19
270.073	88.19
270.306	85.19
270.538	71.19
270.77	94.19
271.002	85.19
271.234	66.19
271.466	88.19
271.698	55.19
271.93	85.19
272.162	91.19
272.394	75.19
272.626	74.19
272.858	86.19
273.09	86.19
273.322	76.19
273.553	88.19
273.785	76.19
274.017	84.19
274.249	88.19
274.481	87.19
274.713	89.19
274.945	74.19
275.176	80.19
275.408	64.19
275.64	80.19
275.872	82.19
276.104	86.19
276.335	87.19
276.567	82.19
276.799	72.19
277.031	81.19
277.262	82.19
277.494	80.19
277.726	84.19
277.957	74.19
278.189	89.19
278.421	72.19
278.652	87.19
278.884	90.19
279.115	89.19
279.347	89.19
279.579	76.19
279.81	89.19
280.042	97.19
280.273	88.19
280.505	99.19
280.736	90.19
280.968	91.19
281.199	88.19
281.431	87.19
281.662	81.19
281.894	73.19
282.125	83.19
282.356	90.19
282.588	74.19
282.819	102.19
283.051	89.19
283.282	88.19
283.513	77.19
283.745	84.19
283.976	84.19
284.207	82.19
284.439	96.19
284.67	95.19
284.901	82.19
285.132	79.19
285.364	97.19
285.595	89.19
285.826	76.19
286.057	89.19
286.288	86.19
286.52	79.19
286.751	73.19
286.982	88.19
287.213	71.19
287.444	91.19
287.675	99.19
287.906	79.19
288.138	81.19
288.369	90.19
288.6	81.19
288.831	94.19
289.062	99.19
289.293	88.19
289.524	98.19
289.755	89.19
289.986	77.19
290.217	78.19
290.448	86.19
290.679	96.19
290.91	82.19
291.141	80.19
291.371	86.19
291.602	88.19
291.833	80.19
292.064	91.19
292.295	94.19
292.526	89.19
292.757	93.19
292.987	84.19
293.218	95.19
293.449	83.19
293.68	78.19
293.91	87.19
294.141	79.19
294.372	80.19
294.603	90.19
294.833	86.19
295.064	94.19
295.295	91.19
295.525	91.19
295.756	68.19
295.987	83.19
296.217	92.19
296.448	76.19
296.679	87.19
296.909	75.19
297.14	84.19
297.37	87.19
297.601	92.19
297.831	81.19
298.062	74.19
298.292	82.19
298.523	93.19
298.753	92.19
298.984	93.19
299.214	69.19
299.445	91.19
299.675	88.19
299.905	84.19
300.136	92.19
300.366	96.19
300.597	73.19
300.827	79.19
301.057	87.19
301.288	89.19
301.518	92.19
301.748	88.19
301.979	88.19
302.209	82.19
302.439	95.19
302.669	70.19
302.9	86.19
303.13	89.19
303.36	82.19
303.59	87.19
303.82	71.19
304.051	98.19
304.281	94.19
304.511	84.19
304.741	93.19
304.971	73.19
305.201	81.19
305.431	79.19
305.661	98.19
305.891	78.19
306.121	87.19
306.352	90.19
306.582	76.19
306.812	78.19
307.042	98.19
307.272	96.19
307.502	78.19
307.731	92.19
307.961	83.19
308.191	87.19
308.421	99.19
308.651	74.19
308.881	95.19
309.111	85.19
309.341	81.19
309.571	93.19
309.8	90.19
310.03	82.19
310.26	80.19
310.49	92.19
310.72	94.19
310.949	94.19
311.179	73.19
311.409	73.19
311.639	100.19
311.868	86.19
312.098	77.19
312.328	91.19
312.557	87.19
312.787	80.19
313.017	85.19
313.246	71.19
313.476	63.19
313.706	84.19
313.935	83.19
314.165	87.19
314.394	85.19
314.624	91.19
314.853	87.19
315.083	89.19
315.312	82.19
315.542	101.19
315.771	85.19
316.001	85.19
316.23	74.19
316.46	77.19
316.689	82.19
316.919	91.19
317.148	81.19
317.377	92.19
317.607	89.19
317.836	82.19
318.065	84.19
318.295	94.19
318.524	84.19
318.753	84.19
318.983	94.19
319.212	84.19
319.441	82.19
319.67	89.19
319.9	95.19
320.129	83.19
320.358	102.19
320.587	84.19
320.816	85.19
321.046	76.19
321.275	89.19
321.504	80.19
321.733	73.19
321.962	86.19
322.191	83.19
322.42	96.19
322.649	95.19
322.878	103.19
323.108	91.19
323.337	83.19
323.566	87.19
323.795	89.19
324.024	84.19
324.253	94.19
324.482	92.19
324.71	74.19
324.939	107.19
325.168	83.19
325.397	101.19
325.626	83.19
325.855	90.19
326.084	89.19
326.313	99.19
326.542	86.19
326.77	85.19
326.999	90.19
327.228	93.19
327.457	96.19
327.686	85.19
327.914	83.19
328.143	80.19
328.372	76.19
328.6	83.19
328.829	85.19
329.058	93.19
329.287	84.19
329.515	75.19
329.744	102.19
329.972	77.19
330.201	88.19
330.43	75.19
330.658	70.19
330.887	91.19
331.115	90.19
331.344	99.19
331.572	99.19
331.801	87.19
332.03	101.19
332.258	93.19
332.486	79.19
332.715	91.19
332.943	84.19
333.172	87.19
333.4	100.19
333.629	81.19
333.857	90.19
334.085	97.19
334.314	86.19
334.542	92.19
334.771	80.19
334.999	87.19
335.227	82.19
335.455	88.19
335.684	105.19
335.912	80.19
336.14	88.19
336.369	84.19
336.597	91.19
336.825	70.19
337.053	76.19
337.281	81.19
337.51	96.19
337.738	90.19
337.966	75.19
338.194	90.19
338.422	103.19
338.65	93.19
338.878	84.19
339.106	86.19
339.334	84.19
339.562	91.19
339.79	96.19
340.018	93.19
340.246	92.19
340.474	82.19
340.702	86.19
340.93	90.19
341.158	80.19
341.386	87.19
341.614	88.19
341.842	91.19
342.07	76.19
342.298	81.19
342.526	90.19
342.754	84.19
342.981	95.19
343.209	89.19
343.437	82.19
343.665	89.19
343.893	90.19
344.12	96.19
344.348	101.19
344.576	79.19
344.804	72.19
345.031	92.19
345.259	88.19
345.487	90.19
345.714	89.19
345.942	75.19
346.17	84.19
346.397	82.19
346.625	82.19
346.853	77.19
347.08	76.19
347.308	86.19
347.535	93.19
347.763	81.19
347.99	89.19
348.218	91.19
348.445	83.19
348.673	68.19
348.9	80.19
349.128	88.19
349.355	83.19
349.583	101.19
349.81	92.19
350.037	86.19
350.265	86.19
350.492	72.19
350.72	86.19
350.947	94.19
351.174	87.19
351.402	96.19
351.629	81.19
351.856	76.19
352.083	90.19
352.311	94.19
352.538	74.19
352.765	84.19
352.992	91.19
353.22	101.19
353.447	91.19
353.674	82.19
353.901	86.19
354.128	86.19
354.355	76.19
354.583	87.19
354.81	87.19
355.037	89.19
355.264	87.19
355.491	91.19
355.718	72.19
355.945	103.19
356.172	81.19
356.399	82.19
356.626	89.19
356.853	94.19
357.08	95.19
357.307	83.19
357.534	90.19
357.761	86.19
357.988	93.19
358.215	74.19
358.441	90.19
358.668	83.19
358.895	84.19
359.122	73.19
359.349	87.19
359.576	86.19
359.802	83.19
360.029	73.19
360.256	88.19
360.483	78.19
360.709	84.19
360.936	74.19
361.163	88.19
361.39	74.19
361.616	78.19
361.843	80.19
362.07	76.19
362.296	84.19
362.523	82.19
362.749	84.19
362.976	70.19
363.203	81.19
363.429	73.19
363.656	100.19
363.882	91.19
364.109	86.19
364.335	101.19
364.562	66.19
364.788	74.19
365.015	99.19
365.241	85.19
365.468	83.19
365.694	95.19
365.92	83.19
366.147	69.19
366.373	81.19
366.599	78.19
366.826	82.19
367.052	91.19
367.278	75.19
367.505	88.19
367.731	73.19
367.957	95.19
368.184	78.19
368.41	81.19
368.636	83.19
368.862	82.19
369.089	85.19
369.315	78.19
369.541	86.19
369.767	84.19
369.993	84.19
370.219	80.19
370.445	97.19
370.672	86.19
370.898	100.19
371.124	91.19
371.35	86.19
371.576	83.19
371.802	76.19
372.028	98.19
372.254	80.19
372.48	91.19
372.706	90.19
372.932	90.19
373.158	81.19
373.384	94.19
373.61	87.19
373.835	96.19
374.061	94.19
374.287	90.19
374.513	95.19
374.739	79.19
374.965	82.19
375.191	89.19
375.416	94.19
375.642	91.19
375.868	86.19
376.094	76.19
376.319	67.19
376.545	87.19
376.771	73.19
376.997	87.19
377.222	82.19
377.448	89.19
377.674	76.19
377.899	81.19
378.125	88.19
378.35	82.19
378.576	85.19
378.802	93.19
379.027	88.19
379.253	85.19
379.478	81.19
379.704	75.19
379.929	91.19
380.155	88.19
380.38	94.19
380.606	68.19
380.831	80.19
381.057	94.19
381.282	75.19
381.507	97.19
381.733	91.19
381.958	80.19
382.184	89.19
382.409	83.19
382.634	84.19
382.86	67.19
383.085	78.19
383.31	80.19
383.535	77.19
383.761	95.19
383.986	96.19
384.211	97.19
384.436	86.19
384.662	77.19
384.887	77.19
385.112	76.19
385.337	79.19
385.562	64.19
385.787	98.19
386.013	95.19
386.238	84.19
386.463	88.19
386.688	94.19
386.913	83.19
387.138	83.19
387.363	81.19
387.588	70.19
387.813	86.19
388.038	83.19
388.263	102.19
388.488	87.19
388.713	77.19
388.938	76.19
389.163	79.19
389.387	75.19
389.612	86.19
389.837	81.19
390.062	80.19
390.287	84.19
390.512	75.19
390.736	86.19
390.961	82.19
391.186	66.19
391.411	83.19
391.636	74.19
391.86	83.19
392.085	86.19
392.31	86.19
392.534	91.19
392.759	82.19
392.984	75.19
393.208	96.19
393.433	91.19
393.658	85.19
393.882	72.19
394.107	77.19
394.331	93.19
394.556	91.19
394.78	80.19
395.005	87.19
395.229	102.19
395.454	78.19
395.678	87.19
395.903	78.19
396.127	81.19
396.352	87.19
396.576	92.19
396.801	98.19
397.025	95.19
397.249	74.19
397.474	81.19
397.698	106.19
397.922	87.19
398.147	98.19
398.371	86.19
398.595	87.19
398.82	67.19
399.044	75.19
399.268	80.19
399.492	72.19
399.717	103.19
399.941	88.19
400.165	101.19
400.389	86.19
400.613	81.19
400.837	85.19
401.062	73.19
401.286	81.19
401.51	79.19
401.734	93.19
401.958	77.19
402.182	82.19
402.406	91.19
402.63	93.19
402.854	88.19
403.078	102.19
403.302	82.19
403.526	81.19
403.75	116.19
403.974	86.19
404.198	89.19
404.422	88.19
404.645	85.19
404.869	73.19
405.093	85.19
405.317	91.19
405.541	81.19
405.765	90.19
405.988	88.19
406.212	89.19
406.436	88.19
406.66	98.19
406.883	93.19
407.107	93.19
407.331	87.19
407.555	76.19
407.778	88.19
408.002	68.19
408.226	82.19
408.449	75.19
408.673	104.19
408.896	89.19
409.12	76.19
409.344	91.19
409.567	86.19
409.791	97.19
410.014	82.19
410.238	78.19
410.461	86.19
410.685	90.19
410.908	81.19
411.132	91.19
411.355	77.19
411.578	95.19
411.802	80.19
412.025	88.19
412.249	102.19
412.472	90.19
412.695	83.19
412.919	74.19
413.142	82.19
413.365	81.19
413.589	104.19
413.812	84.19
414.035	86.19
414.258	89.19
414.482	85.19
414.705	96.19
414.928	81.19
415.151	91.19
415.374	101.19
415.597	99.19
415.821	91.19
416.044	88.19
416.267	80.19
416.49	76.19
416.713	87.19
416.936	81.19
417.159	81.19
417.382	86.19
417.605	87.19
417.828	94.19
418.051	93.19
418.274	88.19
418.497	82.19
418.72	78.19
418.943	83.19
419.166	91.19
419.389	88.19
419.611	81.19
419.834	89.19
420.057	89.19
420.28	87.19
420.503	75.19
420.726	88.19
420.948	89.19
421.171	99.19
421.394	97.19
421.617	102.19
421.839	89.19
422.062	95.19
422.285	85.19
422.507	107.19
422.73	85.19
422.953	86.19
423.175	88.19
423.398	90.19
423.621	81.19
423.843	88.19
424.066	93.19
424.288	80.19
424.511	83.19
424.733	96.19
424.956	98.19
425.178	78.19
425.401	83.19
425.623	85.19
425.846	97.19
426.068	98.19
426.291	89.19
426.513	80.19
426.735	79.19
426.958	88.19
427.18	81.19
427.402	74.19
427.625	90.19
427.847	86.19
428.069	89.19
428.292	76.19
428.514	91.19
428.736	86.19
428.958	104.19
429.181	98.19
429.403	71.19
429.625	99.19
429.847	87.19
430.069	103.19
430.292	83.19
430.514	73.19
430.736	81.19
430.958	72.19
431.18	88.19
431.402	86.19
431.624	83.19
431.846	90.19
432.068	92.19
432.29	90.19
432.512	94.19
432.734	83.19
432.956	93.19
433.178	91.19
433.4	72.19
433.622	77.19
433.844	86.19
434.066	82.19
434.287	75.19
434.509	68.19
434.731	89.19
434.953	86.19
435.175	72.19
435.397	94.19
435.618	85.19
435.84	76.19
436.062	97.19
436.284	81.19
436.505	83.19
436.727	89.19
436.949	82.19
437.17	84.19
437.392	87.19
437.614	76.19
437.835	92.19
438.057	77.19
438.278	90.19
438.5	79.19
438.721	83.19
438.943	99.19
439.165	89.19
439.386	86.19
439.608	83.19
439.829	86.19
440.05	85.19
440.272	75.19
440.493	83.19
440.715	82.19
440.936	97.19
441.158	95.19
441.379	94.19
441.6	83.19
441.822	98.19
442.043	76.19
442.264	83.19
442.486	90.19
442.707	88.19
442.928	79.19
443.149	84.19
443.371	96.19
443.592	94.19
443.813	89.19
444.034	93.19
444.255	91.19
444.476	68.19
444.698	85.19
444.919	90.19
445.14	203.19
445.361	151.19
445.582	98.19
445.803	82.19
446.024	88.19
446.245	107.19
446.466	65.19
446.687	74.19
446.908	88.19
447.129	76.19
447.35	72.19
447.571	90.19
447.792	86.19
448.013	86.19
448.234	90.19
448.455	88.19
448.675	77.19
448.896	93.19
449.117	72.19
449.338	80.19
449.559	83.19
449.779	95.19
450	75.19
450.221	81.19
450.442	88.19
450.662	85.19
450.883	80.19
451.104	87.19
451.324	89.19
451.545	95.19
451.766	87.19
451.986	91.19
452.207	82.19
452.428	83.19
452.648	74.19
452.869	94.19
453.089	96.19
453.31	84.19
453.53	77.19
453.751	89.19
453.971	87.19
454.192	84.19
454.412	85.19
454.633	83.19
454.853	83.19
455.073	86.19
455.294	99.19
455.514	87.19
455.734	86.19
455.955	83.19
456.175	96.19
456.395	95.19
456.616	89.19
456.836	90.19
457.056	91.19
457.276	82.19
457.497	93.19
457.717	82.19
457.937	88.19
458.157	82.19
458.377	93.19
458.598	84.19
458.818	75.19
459.038	94.19
459.258	88.19
459.478	79.19
459.698	80.19
459.918	85.19
460.138	82.19
460.358	73.19
460.578	94.19
460.798	93.19
461.018	90.19
461.238	84.19
461.458	87.19
461.678	91.19
461.898	85.19
462.118	88.19
462.338	91.19
462.558	93.19
462.777	93.19
462.997	95.19
463.217	90.19
463.437	100.19
463.657	94.19
463.876	86.19
464.096	94.19
464.316	86.19
464.536	91.19
464.755	89.19
464.975	79.19
465.195	98.19
465.414	69.19
465.634	76.19
465.854	96.19
466.073	85.19
466.293	103.19
466.512	88.19
466.732	90.19
466.951	87.19
467.171	76.19
467.391	92.19
467.61	89.19
467.829	82.19
468.049	86.19
468.268	77.19
468.488	90.19
468.707	86.19
468.927	80.19
469.146	97.19
469.365	83.19
469.585	76.19
469.804	90.19
470.023	89.19
470.243	93.19
470.462	96.19
470.681	89.19
470.901	90.19
471.12	86.19
471.339	81.19
471.558	76.19
471.777	101.19
471.997	82.19
472.216	78.19
472.435	89.19
472.654	90.19
472.873	85.19
473.092	84.19
473.311	82.19
473.53	88.19
473.749	100.19
473.968	107.19
474.187	94.19
474.406	87.19
474.625	92.19
474.844	87.19
475.063	87.19
475.282	99.19
475.501	94.19
475.72	84.19
475.939	99.19
476.158	82.19
476.377	90.19
476.596	83.19
476.814	96.19
477.033	97.19
477.252	96.19
477.471	92.19
477.69	92.19
477.908	79.19
478.127	80.19
478.346	88.19
478.564	89.19
478.783	85.19
479.002	94.19
479.22	82.19
479.439	93.19
479.658	89.19
479.876	95.19
480.095	90.19
480.313	86.19
480.532	97.19
480.751	79.19
480.969	92.19
481.188	98.19
481.406	97.19
481.624	99.19
481.843	92.19
482.061	80.19
482.28	98.19
482.498	92.19
482.717	113.19
482.935	94.19
483.153	97.19
483.372	101.19
483.59	79.19
483.808	88.19
484.027	87.19
484.245	87.19
484.463	85.19
484.681	97.19
484.9	85.19
485.118	91.19
485.336	91.19
485.554	94.19
485.772	103.19
485.99	86.19
486.209	93.19
486.427	102.19
486.645	94.19
486.863	78.19
487.081	91.19
487.299	92.19
487.517	93.19
487.735	84.19
487.953	86.19
488.171	90.19
488.389	98.19
488.607	104.19
488.825	84.19
489.043	81.19
489.261	88.19
489.479	95.19
489.696	98.19
489.914	99.19
490.132	90.19
490.35	92.19
490.568	97.19
490.786	84.19
491.003	86.19
491.221	91.19
491.439	90.19
491.657	114.19
491.874	96.19
492.092	103.19
492.31	94.19
492.527	96.19
492.745	97.19
492.963	88.19
493.18	102.19
493.398	98.19
493.615	87.19
493.833	92.19
494.05	91.19
494.268	103.19
494.485	83.19
494.703	106.19
494.92	94.19
495.138	88.19
495.355	85.19
495.573	113.19
495.79	112.19
496.008	103.19
496.225	110.19
496.442	92.19
496.66	114.19
496.877	94.19
497.094	82.19
497.312	95.19
497.529	91.19
497.746	94.19
497.963	100.19
498.181	97.19
498.398	102.19
498.615	102.19
498.832	89.19
499.049	89.19
499.267	86.19
499.484	98.19
499.701	98.19
499.918	100.19
500.135	117.19
500.352	112.19
500.569	110.19
500.786	125.19
501.003	108.19
501.22	107.19
501.437	114.19
501.654	104.19
501.871	88.19
502.088	106.19
502.305	112.19
502.522	95.19
502.739	115.19
502.956	98.19
503.172	93.19
503.389	94.19
503.606	109.19
503.823	94.19
504.04	96.19
504.256	121.19
504.473	95.19
504.69	91.19
504.907	103.19
505.123	91.19
505.34	94.19
505.557	89.19
505.773	96.19
505.99	86.19
506.207	92.19
506.423	83.19
506.64	88.19
506.856	90.19
507.073	104.19
507.289	82.19
507.506	90.19
507.722	97.19
507.939	95.19
508.155	101.19
508.372	95.19
508.588	75.19
508.805	92.19
509.021	78.19
509.238	92.19
509.454	80.19
509.67	92.19
509.887	89.19
510.103	100.19
510.319	87.19
510.536	87.19
510.752	87.19
510.968	82.19
511.184	94.19
511.401	94.19
511.617	99.19
511.833	105.19
512.049	104.19
512.265	98.19
512.481	95.19
512.698	96.19
512.914	86.19
513.13	101.19
513.346	100.19
513.562	88.19
513.778	82.19
513.994	85.19
514.21	87.19
514.426	99.19
514.642	84.19
514.858	95.19
515.074	90.19
515.29	101.19
515.506	104.19
515.721	103.19
515.937	101.19
516.153	80.19
516.369	102.19
516.585	103.19
516.801	97.19
517.016	96.19
517.232	86.19
517.448	87.19
517.664	89.19
517.879	92.19
518.095	85.19
