Data from Ni(NO3)2@0.0625M.TitratingCurve.Agarose3%dH2O.NegLispCup.LampEnergy10.LIBS07252019_HRD10591_18-13-09-571.txt Node
Date: Thu Jul 25 18:13:09 EDT 2019
User: cochatt
Spectrometer: HR+D1059
Trigger mode: 1
Integration Time (sec): 1.000000E-1
Scans to average: 1
Electric dark correction enabled: true
Nonlinearity correction enabled: false
Boxcar width: 0
XAxis mode: Wavelengths
Number of Pixels in Spectrum: 2048
>>>>>Begin Spectral Data<<<<<
223.165	-7.5
223.4	-7.5
223.635	-7.5
223.869	-19.5
224.104	-25.5
224.338	-5.5
224.573	-6.5
224.808	-6.5
225.042	-12.5
225.277	-6.5
225.511	-17.5
225.746	-0.5
225.98	0.5
226.215	2.5
226.449	27.5
226.683	17.5
226.918	24.5
227.152	35.5
227.387	36.5
227.621	37.5
227.856	48.5
228.09	44.5
228.324	61.5
228.559	43.5
228.793	74.5
229.027	92.5
229.262	108.5
229.496	101.5
229.73	106.5
229.964	106.5
230.199	119.5
230.433	125.5
230.667	137.5
230.901	124.5
231.136	131.5
231.37	128.5
231.604	133.5
231.838	118.5
232.072	135.5
232.306	125.5
232.541	136.5
232.775	143.5
233.009	145.5
233.243	133.5
233.477	134.5
233.711	135.5
233.945	135.5
234.179	135.5
234.413	147.5
234.647	124.5
234.881	149.5
235.115	135.5
235.349	135.5
235.583	128.5
235.817	147.5
236.051	136.5
236.285	157.5
236.519	145.5
236.753	132.5
236.987	148.5
237.221	155.5
237.455	144.5
237.689	140.5
237.922	135.5
238.156	148.5
238.39	152.5
238.624	139.5
238.858	152.5
239.091	161.5
239.325	142.5
239.559	151.5
239.793	165.5
240.027	173.5
240.26	153.5
240.494	177.5
240.728	174.5
240.961	169.5
241.195	163.5
241.429	168.5
241.662	175.5
241.896	181.5
242.13	166.5
242.363	169.5
242.597	190.5
242.83	173.5
243.064	165.5
243.298	188.5
243.531	181.5
243.765	185.5
243.998	181.5
244.232	196.5
244.465	191.5
244.699	191.5
244.932	199.5
245.166	194.5
245.399	183.5
245.633	190.5
245.866	191.5
246.099	191.5
246.333	203.5
246.566	177.5
246.8	210.5
247.033	224.5
247.266	192.5
247.5	202.5
247.733	221.5
247.966	211.5
248.2	221.5
248.433	210.5
248.666	204.5
248.899	219.5
249.133	223.5
249.366	203.5
249.599	214.5
249.832	227.5
250.066	224.5
250.299	216.5
250.532	217.5
250.765	218.5
250.998	230.5
251.231	223.5
251.465	222.5
251.698	244.5
251.931	232.5
252.164	255.5
252.397	234.5
252.63	237.5
252.863	258.5
253.096	251.5
253.329	227.5
253.562	247.5
253.795	250.5
254.028	249.5
254.261	236.5
254.494	240.5
254.727	251.5
254.96	265.5
255.193	239.5
255.426	261.5
255.659	268.5
255.892	261.5
256.124	269.5
256.357	271.5
256.59	269.5
256.823	245.5
257.056	256.5
257.289	272.5
257.521	276.5
257.754	274.5
257.987	270.5
258.22	282.5
258.452	253.5
258.685	253.5
258.918	277.5
259.151	268.5
259.383	269.5
259.616	277.5
259.849	281.5
260.081	277.5
260.314	281.5
260.547	293.5
260.779	297.5
261.012	280.5
261.244	284.5
261.477	275.5
261.71	283.5
261.942	279.5
262.175	310.5
262.407	294.5
262.64	315.5
262.872	297.5
263.105	295.5
263.337	297.5
263.57	297.5
263.802	305.5
264.035	321.5
264.267	312.5
264.499	295.5
264.732	323.5
264.964	330.5
265.197	319.5
265.429	320.5
265.661	286.5
265.894	315.5
266.126	323.5
266.358	311.5
266.591	312.5
266.823	333.5
267.055	310.5
267.287	343.5
267.52	329.5
267.752	331.5
267.984	311.5
268.216	323.5
268.448	344.5
268.681	326.5
268.913	340.5
269.145	341.5
269.377	323.5
269.609	339.5
269.841	320.5
270.073	332.5
270.306	340.5
270.538	345.5
270.77	328.5
271.002	330.5
271.234	339.5
271.466	350.5
271.698	338.5
271.93	337.5
272.162	352.5
272.394	373.5
272.626	319.5
272.858	337.5
273.09	354.5
273.322	338.5
273.553	351.5
273.785	368.5
274.017	352.5
274.249	355.5
274.481	356.5
274.713	383.5
274.945	379.5
275.176	375.5
275.408	355.5
275.64	375.5
275.872	383.5
276.104	348.5
276.335	375.5
276.567	375.5
276.799	364.5
277.031	391.5
277.262	377.5
277.494	386.5
277.726	395.5
277.957	370.5
278.189	380.5
278.421	394.5
278.652	388.5
278.884	368.5
279.115	395.5
279.347	379.5
279.579	402.5
279.81	401.5
280.042	404.5
280.273	402.5
280.505	405.5
280.736	393.5
280.968	412.5
281.199	391.5
281.431	412.5
281.662	409.5
281.894	423.5
282.125	403.5
282.356	403.5
282.588	409.5
282.819	402.5
283.051	416.5
283.282	403.5
283.513	419.5
283.745	392.5
283.976	397.5
284.207	425.5
284.439	428.5
284.67	439.5
284.901	423.5
285.132	439.5
285.364	427.5
285.595	440.5
285.826	432.5
286.057	435.5
286.288	424.5
286.52	441.5
286.751	443.5
286.982	435.5
287.213	421.5
287.444	456.5
287.675	451.5
287.906	449.5
288.138	465.5
288.369	452.5
288.6	463.5
288.831	446.5
289.062	466.5
289.293	460.5
289.524	458.5
289.755	463.5
289.986	464.5
290.217	453.5
290.448	440.5
290.679	451.5
290.91	480.5
291.141	455.5
291.371	452.5
291.602	463.5
291.833	473.5
292.064	479.5
292.295	476.5
292.526	459.5
292.757	471.5
292.987	449.5
293.218	482.5
293.449	465.5
293.68	435.5
293.91	438.5
294.141	464.5
294.372	467.5
294.603	484.5
294.833	473.5
295.064	472.5
295.295	467.5
295.525	447.5
295.756	465.5
295.987	479.5
296.217	492.5
296.448	487.5
296.679	489.5
296.909	476.5
297.14	499.5
297.37	511.5
297.601	515.5
297.831	527.5
298.062	497.5
298.292	498.5
298.523	510.5
298.753	528.5
298.984	528.5
299.214	516.5
299.445	520.5
299.675	491.5
299.905	516.5
300.136	505.5
300.366	522.5
300.597	503.5
300.827	527.5
301.057	530.5
301.288	545.5
301.518	526.5
301.748	526.5
301.979	522.5
302.209	536.5
302.439	531.5
302.669	525.5
302.9	514.5
303.13	527.5
303.36	528.5
303.59	530.5
303.82	505.5
304.051	533.5
304.281	523.5
304.511	508.5
304.741	525.5
304.971	525.5
305.201	535.5
305.431	521.5
305.661	529.5
305.891	539.5
306.121	506.5
306.352	534.5
306.582	520.5
306.812	488.5
307.042	526.5
307.272	528.5
307.502	509.5
307.731	511.5
307.961	521.5
308.191	501.5
308.421	515.5
308.651	531.5
308.881	503.5
309.111	492.5
309.341	516.5
309.571	542.5
309.8	533.5
310.03	520.5
310.26	512.5
310.49	522.5
310.72	530.5
310.949	529.5
311.179	520.5
311.409	496.5
311.639	545.5
311.868	547.5
312.098	538.5
312.328	520.5
312.557	519.5
312.787	539.5
313.017	542.5
313.246	541.5
313.476	548.5
313.706	573.5
313.935	554.5
314.165	546.5
314.394	553.5
314.624	556.5
314.853	547.5
315.083	554.5
315.312	537.5
315.542	556.5
315.771	562.5
316.001	559.5
316.23	536.5
316.46	538.5
316.689	552.5
316.919	537.5
317.148	543.5
317.377	562.5
317.607	520.5
317.836	532.5
318.065	557.5
318.295	524.5
318.524	511.5
318.753	531.5
318.983	521.5
319.212	542.5
319.441	563.5
319.67	549.5
319.9	555.5
320.129	556.5
320.358	540.5
320.587	533.5
320.816	546.5
321.046	550.5
321.275	552.5
321.504	537.5
321.733	563.5
321.962	563.5
322.191	537.5
322.42	542.5
322.649	569.5
322.878	553.5
323.108	569.5
323.337	565.5
323.566	550.5
323.795	559.5
324.024	559.5
324.253	541.5
324.482	542.5
324.71	567.5
324.939	571.5
325.168	571.5
325.397	563.5
325.626	567.5
325.855	582.5
326.084	600.5
326.313	612.5
326.542	619.5
326.77	627.5
326.999	603.5
327.228	598.5
327.457	600.5
327.686	601.5
327.914	594.5
328.143	636.5
328.372	597.5
328.6	597.5
328.829	608.5
329.058	589.5
329.287	594.5
329.515	591.5
329.744	613.5
329.972	610.5
330.201	620.5
330.43	620.5
330.658	627.5
330.887	603.5
331.115	631.5
331.344	634.5
331.572	656.5
331.801	651.5
332.03	659.5
332.258	677.5
332.486	701.5
332.715	721.5
332.943	752.5
333.172	808.5
333.4	831.5
333.629	839.5
333.857	808.5
334.085	827.5
334.314	789.5
334.542	805.5
334.771	759.5
334.999	735.5
335.227	765.5
335.455	760.5
335.684	778.5
335.912	747.5
336.14	722.5
336.369	708.5
336.597	703.5
336.825	734.5
337.053	707.5
337.281	697.5
337.51	688.5
337.738	665.5
337.966	691.5
338.194	659.5
338.422	654.5
338.65	639.5
338.878	644.5
339.106	651.5
339.334	636.5
339.562	632.5
339.79	629.5
340.018	646.5
340.246	620.5
340.474	627.5
340.702	625.5
340.93	631.5
341.158	617.5
341.386	636.5
341.614	614.5
341.842	631.5
342.07	617.5
342.298	614.5
342.526	635.5
342.754	623.5
342.981	631.5
343.209	632.5
343.437	690.5
343.665	723.5
343.893	779.5
344.12	783.5
344.348	747.5
344.576	718.5
344.804	694.5
345.031	664.5
345.259	635.5
345.487	647.5
345.714	654.5
345.942	642.5
346.17	626.5
346.397	612.5
346.625	612.5
346.853	602.5
347.08	621.5
347.308	643.5
347.535	632.5
347.763	618.5
347.99	635.5
348.218	638.5
348.445	631.5
348.673	594.5
348.9	612.5
349.128	626.5
349.355	595.5
349.583	614.5
349.81	607.5
350.037	623.5
350.265	592.5
350.492	595.5
350.72	589.5
350.947	581.5
351.174	591.5
351.402	589.5
351.629	588.5
351.856	586.5
352.083	573.5
352.311	585.5
352.538	590.5
352.765	586.5
352.992	577.5
353.22	566.5
353.447	586.5
353.674	593.5
353.901	604.5
354.128	586.5
354.355	592.5
354.583	575.5
354.81	582.5
355.037	573.5
355.264	612.5
355.491	587.5
355.718	586.5
355.945	586.5
356.172	586.5
356.399	605.5
356.626	600.5
356.853	597.5
357.08	597.5
357.307	581.5
357.534	585.5
357.761	610.5
357.988	585.5
358.215	580.5
358.441	587.5
358.668	596.5
358.895	587.5
359.122	582.5
359.349	585.5
359.576	591.5
359.802	570.5
360.029	576.5
360.256	568.5
360.483	611.5
360.709	602.5
360.936	595.5
361.163	596.5
361.39	603.5
361.616	586.5
361.843	586.5
362.07	605.5
362.296	593.5
362.523	597.5
362.749	570.5
362.976	590.5
363.203	585.5
363.429	594.5
363.656	580.5
363.882	578.5
364.109	575.5
364.335	582.5
364.562	580.5
364.788	581.5
365.015	572.5
365.241	604.5
365.468	596.5
365.694	569.5
365.92	563.5
366.147	593.5
366.373	577.5
366.599	561.5
366.826	578.5
367.052	586.5
367.278	564.5
367.505	619.5
367.731	597.5
367.957	608.5
368.184	617.5
368.41	593.5
368.636	594.5
368.862	604.5
369.089	607.5
369.315	616.5
369.541	588.5
369.767	607.5
369.993	611.5
370.219	615.5
370.445	613.5
370.672	630.5
370.898	624.5
371.124	646.5
371.35	637.5
371.576	646.5
371.802	647.5
372.028	626.5
372.254	643.5
372.48	639.5
372.706	676.5
372.932	678.5
373.158	653.5
373.384	641.5
373.61	635.5
373.835	667.5
374.061	628.5
374.287	630.5
374.513	650.5
374.739	671.5
374.965	689.5
375.191	732.5
375.416	706.5
375.642	689.5
375.868	680.5
376.094	678.5
376.319	654.5
376.545	657.5
376.771	616.5
376.997	653.5
377.222	614.5
377.448	658.5
377.674	653.5
377.899	633.5
378.125	648.5
378.35	663.5
378.576	642.5
378.802	623.5
379.027	618.5
379.253	645.5
379.478	638.5
379.704	619.5
379.929	670.5
380.155	636.5
380.38	636.5
380.606	632.5
380.831	627.5
381.057	621.5
381.282	647.5
381.507	647.5
381.733	631.5
381.958	663.5
382.184	643.5
382.409	669.5
382.634	671.5
382.86	662.5
383.085	669.5
383.31	696.5
383.535	695.5
383.761	732.5
383.986	736.5
384.211	719.5
384.436	769.5
384.662	762.5
384.887	794.5
385.112	736.5
385.337	747.5
385.562	782.5
385.787	759.5
386.013	792.5
386.238	806.5
386.463	803.5
386.688	772.5
386.913	790.5
387.138	780.5
387.363	748.5
387.588	767.5
387.813	762.5
388.038	769.5
388.263	745.5
388.488	784.5
388.713	777.5
388.938	751.5
389.163	739.5
389.387	737.5
389.612	755.5
389.837	763.5
390.062	733.5
390.287	760.5
390.512	751.5
390.736	733.5
390.961	780.5
391.186	780.5
391.411	812.5
391.636	844.5
391.86	861.5
392.085	876.5
392.31	862.5
392.534	854.5
392.759	832.5
392.984	812.5
393.208	800.5
393.433	803.5
393.658	829.5
393.882	819.5
394.107	812.5
394.331	817.5
394.556	847.5
394.78	838.5
395.005	844.5
395.229	821.5
395.454	841.5
395.678	853.5
395.903	853.5
396.127	818.5
396.352	826.5
396.576	822.5
396.801	801.5
397.025	784.5
397.249	830.5
397.474	818.5
397.698	855.5
397.922	849.5
398.147	850.5
398.371	861.5
398.595	911.5
398.82	915.5
399.044	992.5
399.268	1120.5
399.492	1339.5
399.717	1540.5
399.941	1520.5
400.165	1302.5
400.389	1128.5
400.613	1036.5
400.837	1014.5
401.062	958.5
401.286	963.5
401.51	941.5
401.734	930.5
401.958	930.5
402.182	985.5
402.406	966.5
402.63	1004.5
402.854	1053.5
403.078	1036.5
403.302	1076.5
403.526	1122.5
403.75	1147.5
403.974	1117.5
404.198	1131.5
404.422	1173.5
404.645	1119.5
404.869	1080.5
405.093	1112.5
405.317	1060.5
405.541	1054.5
405.765	1058.5
405.988	1039.5
406.212	1074.5
406.436	1072.5
406.66	1066.5
406.883	1104.5
407.107	1147.5
407.331	1233.5
407.555	1274.5
407.778	1271.5
408.002	1216.5
408.226	1203.5
408.449	1149.5
408.673	1086.5
408.896	1096.5
409.12	1082.5
409.344	1085.5
409.567	1096.5
409.791	1116.5
410.014	1112.5
410.238	1079.5
410.461	1096.5
410.685	1073.5
410.908	1064.5
411.132	1059.5
411.355	1008.5
411.578	1008.5
411.802	985.5
412.025	994.5
412.249	1007.5
412.472	992.5
412.695	972.5
412.919	933.5
413.142	955.5
413.365	980.5
413.589	973.5
413.812	964.5
414.035	932.5
414.258	953.5
414.482	936.5
414.705	949.5
414.928	984.5
415.151	965.5
415.374	971.5
415.597	934.5
415.821	928.5
416.044	924.5
416.267	922.5
416.49	932.5
416.713	905.5
416.936	936.5
417.159	945.5
417.382	950.5
417.605	929.5
417.828	959.5
418.051	949.5
418.274	943.5
418.497	944.5
418.72	974.5
418.943	986.5
419.166	1058.5
419.389	1111.5
419.611	1075.5
419.834	1049.5
420.057	992.5
420.28	945.5
420.503	969.5
420.726	959.5
420.948	970.5
421.171	939.5
421.394	956.5
421.617	937.5
421.839	941.5
422.062	934.5
422.285	938.5
422.507	976.5
422.73	976.5
422.953	989.5
423.175	1005.5
423.398	992.5
423.621	1010.5
423.843	1057.5
424.066	1039.5
424.288	1010.5
424.511	1029.5
424.733	981.5
424.956	988.5
425.178	970.5
425.401	965.5
425.623	953.5
425.846	947.5
426.068	936.5
426.291	904.5
426.513	892.5
426.735	892.5
426.958	895.5
427.18	924.5
427.402	892.5
427.625	877.5
427.847	846.5
428.069	864.5
428.292	840.5
428.514	842.5
428.736	821.5
428.958	859.5
429.181	827.5
429.403	796.5
429.625	837.5
429.847	837.5
430.069	844.5
430.292	833.5
430.514	815.5
430.736	836.5
430.958	838.5
431.18	837.5
431.402	829.5
431.624	828.5
431.846	853.5
432.068	843.5
432.29	858.5
432.512	851.5
432.734	839.5
432.956	844.5
433.178	855.5
433.4	850.5
433.622	872.5
433.844	886.5
434.066	872.5
434.287	873.5
434.509	898.5
434.731	931.5
434.953	953.5
435.175	989.5
435.397	952.5
435.618	903.5
435.84	872.5
436.062	879.5
436.284	841.5
436.505	869.5
436.727	869.5
436.949	872.5
437.17	850.5
437.392	829.5
437.614	827.5
437.835	825.5
438.057	823.5
438.278	813.5
438.5	817.5
438.721	810.5
438.943	844.5
439.165	811.5
439.386	823.5
439.608	850.5
439.829	846.5
440.05	860.5
440.272	853.5
440.493	851.5
440.715	872.5
440.936	899.5
441.158	900.5
441.379	919.5
441.6	977.5
441.822	977.5
442.043	952.5
442.264	944.5
442.486	908.5
442.707	936.5
442.928	957.5
443.149	975.5
443.371	963.5
443.592	955.5
443.813	959.5
444.034	976.5
444.255	990.5
444.476	1065.5
444.698	1126.5
444.919	1179.5
445.14	1218.5
445.361	1071.5
445.582	1004.5
445.803	945.5
446.024	908.5
446.245	907.5
446.466	864.5
446.687	869.5
446.908	867.5
447.129	844.5
447.35	828.5
447.571	833.5
447.792	785.5
448.013	807.5
448.234	778.5
448.455	825.5
448.675	794.5
448.896	812.5
449.117	776.5
449.338	767.5
449.559	801.5
449.779	801.5
450	756.5
450.221	774.5
450.442	795.5
450.662	799.5
450.883	811.5
451.104	822.5
451.324	839.5
451.545	816.5
451.766	799.5
451.986	796.5
452.207	799.5
452.428	819.5
452.648	808.5
452.869	773.5
453.089	769.5
453.31	784.5
453.53	781.5
453.751	781.5
453.971	740.5
454.192	774.5
454.412	751.5
454.633	749.5
454.853	773.5
455.073	746.5
455.294	740.5
455.514	747.5
455.734	725.5
455.955	731.5
456.175	725.5
456.395	717.5
456.616	741.5
456.836	732.5
457.056	710.5
457.276	709.5
457.497	730.5
457.717	737.5
457.937	722.5
458.157	742.5
458.377	773.5
458.598	759.5
458.818	786.5
459.038	811.5
459.258	854.5
459.478	870.5
459.698	893.5
459.918	906.5
460.138	928.5
460.358	1012.5
460.578	995.5
460.798	1007.5
461.018	1030.5
461.238	1008.5
461.458	1011.5
461.678	997.5
461.898	1021.5
462.118	1048.5
462.338	1106.5
462.558	1113.5
462.777	1110.5
462.997	1288.5
463.217	1405.5
463.437	1404.5
463.657	1265.5
463.876	1180.5
464.096	1190.5
464.316	1207.5
464.536	1175.5
464.755	1137.5
464.975	1088.5
465.195	1047.5
465.414	986.5
465.634	915.5
465.854	868.5
466.073	836.5
466.293	834.5
466.512	845.5
466.732	813.5
466.951	810.5
467.171	825.5
467.391	828.5
467.61	833.5
467.829	836.5
468.049	803.5
468.268	812.5
468.488	793.5
468.707	789.5
468.927	783.5
469.146	778.5
469.365	796.5
469.585	790.5
469.804	836.5
470.023	843.5
470.243	864.5
470.462	850.5
470.681	867.5
470.901	858.5
471.12	825.5
471.339	827.5
471.558	807.5
471.777	776.5
471.997	784.5
472.216	776.5
472.435	786.5
472.654	771.5
472.873	756.5
473.092	749.5
473.311	754.5
473.53	745.5
473.749	751.5
473.968	740.5
474.187	729.5
474.406	739.5
474.625	759.5
474.844	778.5
475.063	754.5
475.282	789.5
475.501	780.5
475.72	780.5
475.939	797.5
476.158	790.5
476.377	787.5
476.596	774.5
476.814	801.5
477.033	811.5
477.252	819.5
477.471	827.5
477.69	829.5
477.908	867.5
478.127	900.5
478.346	882.5
478.564	905.5
478.783	936.5
479.002	969.5
479.22	961.5
479.439	962.5
479.658	942.5
479.876	923.5
480.095	988.5
480.313	1025.5
480.532	1049.5
480.751	1039.5
480.969	994.5
481.188	925.5
481.406	944.5
481.624	899.5
481.843	878.5
482.061	881.5
482.28	844.5
482.498	862.5
482.717	853.5
482.935	852.5
483.153	872.5
483.372	857.5
483.59	885.5
483.808	872.5
484.027	889.5
484.245	895.5
484.463	870.5
484.681	895.5
484.9	887.5
485.118	929.5
485.336	903.5
485.554	900.5
485.772	923.5
485.99	902.5
486.209	924.5
486.427	939.5
486.645	917.5
486.863	946.5
487.081	921.5
487.299	913.5
487.517	901.5
487.735	916.5
487.953	914.5
488.171	893.5
488.389	911.5
488.607	880.5
488.825	881.5
489.043	869.5
489.261	875.5
489.479	903.5
489.696	915.5
489.914	929.5
490.132	918.5
490.35	913.5
490.568	918.5
490.786	891.5
491.003	884.5
491.221	922.5
491.439	912.5
491.657	921.5
491.874	938.5
492.092	920.5
492.31	921.5
492.527	937.5
492.745	927.5
492.963	932.5
493.18	935.5
493.398	928.5
493.615	967.5
493.833	937.5
494.05	949.5
494.268	957.5
494.485	953.5
494.703	951.5
494.92	961.5
495.138	964.5
495.355	940.5
495.573	937.5
495.79	959.5
496.008	963.5
496.225	979.5
496.442	991.5
496.66	970.5
496.877	1004.5
497.094	1012.5
497.312	1034.5
497.529	1050.5
497.746	1075.5
497.963	1122.5
498.181	1171.5
498.398	1217.5
498.615	1265.5
498.832	1384.5
499.049	1447.5
499.267	1572.5
499.484	1720.5
499.701	1952.5
499.918	2210.5
500.135	2545.5
500.352	3020.5
500.569	3175.5
500.786	3072.5
501.003	2829.5
501.22	2441.5
501.437	2116.5
501.654	1897.5
501.871	1683.5
502.088	1517.5
502.305	1457.5
502.522	1394.5
502.739	1291.5
502.956	1250.5
503.172	1153.5
503.389	1137.5
503.606	1130.5
503.823	1060.5
504.04	1090.5
504.256	1109.5
504.473	1139.5
504.69	1193.5
504.907	1151.5
505.123	1047.5
505.34	1007.5
505.557	965.5
505.773	958.5
505.99	915.5
506.207	904.5
506.423	909.5
506.64	893.5
506.856	845.5
507.073	835.5
507.289	848.5
507.506	855.5
507.722	861.5
507.939	843.5
508.155	844.5
508.372	793.5
508.588	785.5
508.805	815.5
509.021	794.5
509.238	817.5
509.454	810.5
509.67	818.5
509.887	792.5
510.103	797.5
510.319	769.5
510.536	777.5
510.752	788.5
510.968	779.5
511.184	773.5
511.401	783.5
511.617	796.5
511.833	773.5
512.049	786.5
512.265	809.5
512.481	757.5
512.698	789.5
512.914	792.5
513.13	791.5
513.346	793.5
513.562	778.5
513.778	796.5
513.994	768.5
514.21	788.5
514.426	780.5
514.642	770.5
514.858	798.5
515.074	803.5
515.29	825.5
515.506	817.5
515.721	844.5
515.937	837.5
516.153	872.5
516.369	866.5
516.585	895.5
516.801	933.5
517.016	995.5
517.232	1059.5
517.448	1053.5
517.664	1116.5
