Data from Ni(NO3)2@0.25M.TitratingCurve.Agarose3%dH2O.NegLispCup.LampEnergy10.LIBS07252019_HRD10591_18-03-13-565.txt Node
Date: Thu Jul 25 18:03:13 EDT 2019
User: cochatt
Spectrometer: HR+D1059
Trigger mode: 1
Integration Time (sec): 1.000000E-1
Scans to average: 1
Electric dark correction enabled: true
Nonlinearity correction enabled: false
Boxcar width: 0
XAxis mode: Wavelengths
Number of Pixels in Spectrum: 2048
>>>>>Begin Spectral Data<<<<<
223.165	-19.88
223.4	-19.88
223.635	-19.88
223.869	-18.88
224.104	-11.88
224.338	-20.88
224.573	-12.88
224.808	-24.88
225.042	-4.88
225.277	3.12
225.511	-3.88
225.746	0.12
225.98	2.12
226.215	8.12
226.449	17.12
226.683	21.12
226.918	22.12
227.152	44.12
227.387	33.12
227.621	26.12
227.856	26.12
228.09	44.12
228.324	51.12
228.559	53.12
228.793	47.12
229.027	70.12
229.262	75.12
229.496	82.12
229.73	90.12
229.964	79.12
230.199	78.12
230.433	92.12
230.667	92.12
230.901	93.12
231.136	81.12
231.37	87.12
231.604	86.12
231.838	105.12
232.072	101.12
232.306	104.12
232.541	83.12
232.775	105.12
233.009	104.12
233.243	96.12
233.477	92.12
233.711	86.12
233.945	95.12
234.179	92.12
234.413	106.12
234.647	94.12
234.881	90.12
235.115	96.12
235.349	95.12
235.583	101.12
235.817	95.12
236.051	101.12
236.285	99.12
236.519	87.12
236.753	102.12
236.987	124.12
237.221	90.12
237.455	87.12
237.689	97.12
237.922	112.12
238.156	90.12
238.39	99.12
238.624	104.12
238.858	100.12
239.091	97.12
239.325	87.12
239.559	103.12
239.793	108.12
240.027	100.12
240.26	111.12
240.494	100.12
240.728	87.12
240.961	92.12
241.195	98.12
241.429	100.12
241.662	92.12
241.896	107.12
242.13	101.12
242.363	95.12
242.597	111.12
242.83	98.12
243.064	100.12
243.298	103.12
243.531	109.12
243.765	96.12
243.998	115.12
244.232	98.12
244.465	113.12
244.699	107.12
244.932	97.12
245.166	115.12
245.399	111.12
245.633	115.12
245.866	116.12
246.099	106.12
246.333	117.12
246.566	107.12
246.8	117.12
247.033	117.12
247.266	119.12
247.5	120.12
247.733	118.12
247.966	107.12
248.2	127.12
248.433	136.12
248.666	131.12
248.899	123.12
249.133	129.12
249.366	124.12
249.599	139.12
249.832	144.12
250.066	154.12
250.299	138.12
250.532	161.12
250.765	147.12
250.998	151.12
251.231	155.12
251.465	183.12
251.698	156.12
251.931	149.12
252.164	156.12
252.397	166.12
252.63	158.12
252.863	167.12
253.096	177.12
253.329	175.12
253.562	163.12
253.795	168.12
254.028	198.12
254.261	190.12
254.494	185.12
254.727	183.12
254.96	200.12
255.193	179.12
255.426	186.12
255.659	186.12
255.892	201.12
256.124	190.12
256.357	195.12
256.59	205.12
256.823	198.12
257.056	196.12
257.289	216.12
257.521	231.12
257.754	204.12
257.987	229.12
258.22	233.12
258.452	236.12
258.685	240.12
258.918	220.12
259.151	224.12
259.383	222.12
259.616	240.12
259.849	224.12
260.081	230.12
260.314	239.12
260.547	238.12
260.779	244.12
261.012	251.12
261.244	247.12
261.477	225.12
261.71	243.12
261.942	242.12
262.175	248.12
262.407	257.12
262.64	261.12
262.872	263.12
263.105	257.12
263.337	256.12
263.57	273.12
263.802	256.12
264.035	255.12
264.267	247.12
264.499	259.12
264.732	266.12
264.964	259.12
265.197	270.12
265.429	257.12
265.661	259.12
265.894	270.12
266.126	261.12
266.358	271.12
266.591	264.12
266.823	245.12
267.055	276.12
267.287	255.12
267.52	251.12
267.752	254.12
267.984	260.12
268.216	264.12
268.448	274.12
268.681	277.12
268.913	268.12
269.145	290.12
269.377	283.12
269.609	288.12
269.841	273.12
270.073	264.12
270.306	253.12
270.538	279.12
270.77	288.12
271.002	275.12
271.234	260.12
271.466	285.12
271.698	269.12
271.93	266.12
272.162	269.12
272.394	283.12
272.626	267.12
272.858	279.12
273.09	275.12
273.322	295.12
273.553	290.12
273.785	287.12
274.017	298.12
274.249	289.12
274.481	275.12
274.713	294.12
274.945	285.12
275.176	288.12
275.408	280.12
275.64	291.12
275.872	294.12
276.104	276.12
276.335	271.12
276.567	275.12
276.799	284.12
277.031	292.12
277.262	279.12
277.494	295.12
277.726	290.12
277.957	286.12
278.189	283.12
278.421	275.12
278.652	274.12
278.884	296.12
279.115	293.12
279.347	284.12
279.579	280.12
279.81	273.12
280.042	281.12
280.273	287.12
280.505	293.12
280.736	271.12
280.968	295.12
281.199	290.12
281.431	299.12
281.662	291.12
281.894	305.12
282.125	306.12
282.356	275.12
282.588	290.12
282.819	280.12
283.051	290.12
283.282	272.12
283.513	276.12
283.745	279.12
283.976	274.12
284.207	279.12
284.439	291.12
284.67	297.12
284.901	266.12
285.132	267.12
285.364	292.12
285.595	282.12
285.826	277.12
286.057	275.12
286.288	273.12
286.52	298.12
286.751	297.12
286.982	298.12
287.213	284.12
287.444	299.12
287.675	294.12
287.906	288.12
288.138	286.12
288.369	295.12
288.6	274.12
288.831	274.12
289.062	312.12
289.293	309.12
289.524	297.12
289.755	292.12
289.986	289.12
290.217	290.12
290.448	287.12
290.679	277.12
290.91	273.12
291.141	262.12
291.371	293.12
291.602	287.12
291.833	278.12
292.064	297.12
292.295	296.12
292.526	284.12
292.757	274.12
292.987	288.12
293.218	288.12
293.449	288.12
293.68	288.12
293.91	275.12
294.141	263.12
294.372	288.12
294.603	287.12
294.833	277.12
295.064	283.12
295.295	284.12
295.525	292.12
295.756	278.12
295.987	291.12
296.217	283.12
296.448	279.12
296.679	282.12
296.909	309.12
297.14	304.12
297.37	289.12
297.601	268.12
297.831	287.12
298.062	287.12
298.292	285.12
298.523	297.12
298.753	309.12
298.984	296.12
299.214	287.12
299.445	294.12
299.675	298.12
299.905	315.12
300.136	304.12
300.366	290.12
300.597	309.12
300.827	289.12
301.057	307.12
301.288	304.12
301.518	304.12
301.748	319.12
301.979	305.12
302.209	318.12
302.439	309.12
302.669	312.12
302.9	317.12
303.13	299.12
303.36	312.12
303.59	315.12
303.82	308.12
304.051	324.12
304.281	328.12
304.511	318.12
304.741	311.12
304.971	311.12
305.201	340.12
305.431	317.12
305.661	324.12
305.891	314.12
306.121	330.12
306.352	327.12
306.582	317.12
306.812	325.12
307.042	294.12
307.272	319.12
307.502	318.12
307.731	341.12
307.961	335.12
308.191	321.12
308.421	326.12
308.651	333.12
308.881	341.12
309.111	360.12
309.341	330.12
309.571	337.12
309.8	340.12
310.03	345.12
310.26	328.12
310.49	362.12
310.72	319.12
310.949	369.12
311.179	331.12
311.409	360.12
311.639	363.12
311.868	387.12
312.098	354.12
312.328	377.12
312.557	367.12
312.787	353.12
313.017	371.12
313.246	371.12
313.476	383.12
313.706	392.12
313.935	387.12
314.165	385.12
314.394	409.12
314.624	383.12
314.853	385.12
315.083	394.12
315.312	427.12
315.542	419.12
315.771	412.12
316.001	407.12
316.23	432.12
316.46	404.12
316.689	428.12
316.919	435.12
317.148	426.12
317.377	460.12
317.607	451.12
317.836	425.12
318.065	428.12
318.295	454.12
318.524	448.12
318.753	443.12
318.983	449.12
319.212	449.12
319.441	448.12
319.67	467.12
319.9	479.12
320.129	477.12
320.358	484.12
320.587	495.12
320.816	489.12
321.046	462.12
321.275	501.12
321.504	499.12
321.733	504.12
321.962	498.12
322.191	523.12
322.42	511.12
322.649	513.12
322.878	503.12
323.108	529.12
323.337	535.12
323.566	529.12
323.795	538.12
324.024	550.12
324.253	551.12
324.482	563.12
324.71	544.12
324.939	553.12
325.168	588.12
325.397	556.12
325.626	568.12
325.855	591.12
326.084	568.12
326.313	577.12
326.542	585.12
326.77	614.12
326.999	608.12
327.228	616.12
327.457	612.12
327.686	580.12
327.914	613.12
328.143	607.12
328.372	608.12
328.6	596.12
328.829	618.12
329.058	621.12
329.287	626.12
329.515	626.12
329.744	638.12
329.972	632.12
330.201	641.12
330.43	647.12
330.658	671.12
330.887	662.12
331.115	685.12
331.344	681.12
331.572	677.12
331.801	666.12
332.03	709.12
332.258	720.12
332.486	718.12
332.715	731.12
332.943	705.12
333.172	730.12
333.4	725.12
333.629	751.12
333.857	744.12
334.085	752.12
334.314	737.12
334.542	733.12
334.771	743.12
334.999	757.12
335.227	751.12
335.455	752.12
335.684	741.12
335.912	757.12
336.14	753.12
336.369	749.12
336.597	796.12
336.825	780.12
337.053	757.12
337.281	792.12
337.51	770.12
337.738	782.12
337.966	762.12
338.194	755.12
338.422	765.12
338.65	735.12
338.878	748.12
339.106	737.12
339.334	760.12
339.562	755.12
339.79	765.12
340.018	745.12
340.246	734.12
340.474	748.12
340.702	738.12
340.93	746.12
341.158	755.12
341.386	739.12
341.614	746.12
341.842	739.12
342.07	751.12
342.298	720.12
342.526	763.12
342.754	716.12
342.981	765.12
343.209	746.12
343.437	774.12
343.665	737.12
343.893	796.12
344.12	797.12
344.348	780.12
344.576	777.12
344.804	778.12
345.031	756.12
345.259	724.12
345.487	770.12
345.714	773.12
345.942	749.12
346.17	762.12
346.397	747.12
346.625	718.12
346.853	723.12
347.08	738.12
347.308	722.12
347.535	731.12
347.763	738.12
347.99	724.12
348.218	722.12
348.445	718.12
348.673	726.12
348.9	717.12
349.128	716.12
349.355	712.12
349.583	751.12
349.81	732.12
350.037	695.12
350.265	717.12
350.492	709.12
350.72	723.12
350.947	705.12
351.174	718.12
351.402	731.12
351.629	717.12
351.856	720.12
352.083	721.12
352.311	721.12
352.538	699.12
352.765	709.12
352.992	718.12
353.22	691.12
353.447	685.12
353.674	701.12
353.901	700.12
354.128	691.12
354.355	739.12
354.583	721.12
354.81	699.12
355.037	706.12
355.264	712.12
355.491	697.12
355.718	684.12
355.945	693.12
356.172	686.12
356.399	705.12
356.626	697.12
356.853	707.12
357.08	704.12
357.307	695.12
357.534	684.12
357.761	682.12
357.988	710.12
358.215	700.12
358.441	709.12
358.668	696.12
358.895	690.12
359.122	664.12
359.349	679.12
359.576	682.12
359.802	710.12
360.029	673.12
360.256	675.12
360.483	693.12
360.709	683.12
360.936	718.12
361.163	667.12
361.39	688.12
361.616	686.12
361.843	692.12
362.07	698.12
362.296	716.12
362.523	683.12
362.749	713.12
362.976	654.12
363.203	703.12
363.429	688.12
363.656	673.12
363.882	668.12
364.109	676.12
364.335	673.12
364.562	682.12
364.788	688.12
365.015	689.12
365.241	648.12
365.468	693.12
365.694	676.12
365.92	687.12
366.147	705.12
366.373	705.12
366.599	691.12
366.826	684.12
367.052	686.12
367.278	691.12
367.505	684.12
367.731	681.12
367.957	687.12
368.184	691.12
368.41	698.12
368.636	703.12
368.862	672.12
369.089	701.12
369.315	681.12
369.541	680.12
369.767	703.12
369.993	685.12
370.219	676.12
370.445	699.12
370.672	676.12
370.898	658.12
371.124	679.12
371.35	725.12
371.576	692.12
371.802	676.12
372.028	689.12
372.254	684.12
372.48	690.12
372.706	689.12
372.932	681.12
373.158	697.12
373.384	704.12
373.61	686.12
373.835	693.12
374.061	680.12
374.287	698.12
374.513	709.12
374.739	685.12
374.965	663.12
375.191	705.12
375.416	696.12
375.642	672.12
375.868	685.12
376.094	655.12
376.319	697.12
376.545	675.12
376.771	647.12
376.997	667.12
377.222	658.12
377.448	643.12
377.674	661.12
377.899	642.12
378.125	656.12
378.35	679.12
378.576	661.12
378.802	630.12
379.027	630.12
379.253	642.12
379.478	623.12
379.704	653.12
379.929	634.12
380.155	633.12
380.38	641.12
380.606	634.12
380.831	644.12
381.057	664.12
381.282	657.12
381.507	635.12
381.733	653.12
381.958	661.12
382.184	632.12
382.409	648.12
382.634	612.12
382.86	663.12
383.085	643.12
383.31	660.12
383.535	655.12
383.761	636.12
383.986	661.12
384.211	671.12
384.436	685.12
384.662	669.12
384.887	675.12
385.112	672.12
385.337	672.12
385.562	680.12
385.787	679.12
386.013	699.12
386.238	684.12
386.463	700.12
386.688	700.12
386.913	673.12
387.138	676.12
387.363	691.12
387.588	698.12
387.813	693.12
388.038	709.12
388.263	701.12
388.488	700.12
388.713	691.12
388.938	676.12
389.163	673.12
389.387	697.12
389.612	677.12
389.837	681.12
390.062	681.12
390.287	678.12
390.512	689.12
390.736	696.12
390.961	697.12
391.186	723.12
391.411	691.12
391.636	716.12
391.86	711.12
392.085	727.12
392.31	708.12
392.534	717.12
392.759	737.12
392.984	723.12
393.208	733.12
393.433	712.12
393.658	705.12
393.882	716.12
394.107	717.12
394.331	721.12
394.556	728.12
394.78	714.12
395.005	704.12
395.229	709.12
395.454	746.12
395.678	734.12
395.903	709.12
396.127	734.12
396.352	746.12
396.576	725.12
396.801	729.12
397.025	744.12
397.249	765.12
397.474	770.12
397.698	748.12
397.922	754.12
398.147	759.12
398.371	794.12
398.595	777.12
398.82	786.12
399.044	819.12
399.268	833.12
399.492	895.12
399.717	909.12
399.941	919.12
400.165	897.12
400.389	846.12
400.613	869.12
400.837	887.12
401.062	864.12
401.286	819.12
401.51	823.12
401.734	815.12
401.958	839.12
402.182	832.12
402.406	850.12
402.63	833.12
402.854	856.12
403.078	831.12
403.302	808.12
403.526	835.12
403.75	850.12
403.974	844.12
404.198	824.12
404.422	855.12
404.645	869.12
404.869	834.12
405.093	863.12
405.317	850.12
405.541	866.12
405.765	853.12
405.988	859.12
406.212	866.12
406.436	881.12
406.66	863.12
406.883	904.12
407.107	923.12
407.331	906.12
407.555	959.12
407.778	945.12
408.002	928.12
408.226	935.12
408.449	955.12
408.673	916.12
408.896	932.12
409.12	921.12
409.344	927.12
409.567	907.12
409.791	924.12
410.014	920.12
410.238	915.12
410.461	927.12
410.685	904.12
410.908	908.12
411.132	902.12
411.355	883.12
411.578	876.12
411.802	907.12
412.025	905.12
412.249	912.12
412.472	899.12
412.695	893.12
412.919	883.12
413.142	879.12
413.365	900.12
413.589	881.12
413.812	869.12
414.035	885.12
414.258	874.12
414.482	884.12
414.705	873.12
414.928	885.12
415.151	895.12
415.374	882.12
415.597	888.12
415.821	865.12
416.044	860.12
416.267	833.12
416.49	865.12
416.713	851.12
416.936	892.12
417.159	888.12
417.382	880.12
417.605	873.12
417.828	876.12
418.051	881.12
418.274	875.12
418.497	863.12
418.72	881.12
418.943	853.12
419.166	918.12
419.389	994.12
419.611	950.12
419.834	951.12
420.057	916.12
420.28	890.12
420.503	895.12
420.726	887.12
420.948	875.12
421.171	882.12
421.394	897.12
421.617	881.12
421.839	908.12
422.062	891.12
422.285	900.12
422.507	885.12
422.73	908.12
422.953	879.12
423.175	914.12
423.398	909.12
423.621	899.12
423.843	922.12
424.066	933.12
424.288	935.12
424.511	922.12
424.733	936.12
424.956	893.12
425.178	907.12
425.401	915.12
425.623	949.12
425.846	928.12
426.068	904.12
426.291	909.12
426.513	913.12
426.735	908.12
426.958	929.12
427.18	894.12
427.402	899.12
427.625	915.12
427.847	913.12
428.069	907.12
428.292	932.12
428.514	899.12
428.736	888.12
428.958	904.12
429.181	909.12
429.403	910.12
429.625	891.12
429.847	915.12
430.069	907.12
430.292	915.12
430.514	922.12
430.736	907.12
430.958	934.12
431.18	908.12
431.402	918.12
431.624	919.12
431.846	908.12
432.068	916.12
432.29	920.12
432.512	886.12
432.734	930.12
432.956	933.12
433.178	951.12
433.4	951.12
433.622	939.12
433.844	931.12
434.066	951.12
434.287	905.12
434.509	929.12
434.731	927.12
434.953	951.12
435.175	966.12
435.397	986.12
435.618	950.12
435.84	935.12
436.062	962.12
436.284	911.12
436.505	943.12
436.727	962.12
436.949	918.12
437.17	913.12
437.392	908.12
437.614	901.12
437.835	891.12
438.057	920.12
438.278	892.12
438.5	892.12
438.721	907.12
438.943	947.12
439.165	933.12
439.386	933.12
439.608	961.12
439.829	917.12
440.05	948.12
440.272	959.12
440.493	948.12
440.715	960.12
440.936	955.12
441.158	959.12
441.379	956.12
441.6	972.12
441.822	988.12
442.043	972.12
442.264	970.12
442.486	939.12
442.707	970.12
442.928	964.12
443.149	978.12
443.371	949.12
443.592	976.12
443.813	996.12
444.034	987.12
444.255	995.12
444.476	1011.12
444.698	1013.12
444.919	1010.12
445.14	1099.12
445.361	994.12
445.582	977.12
445.803	1000.12
446.024	961.12
446.245	952.12
446.466	980.12
446.687	933.12
446.908	922.12
447.129	958.12
447.35	933.12
447.571	936.12
447.792	888.12
448.013	887.12
448.234	899.12
448.455	900.12
448.675	914.12
448.896	904.12
449.117	855.12
449.338	891.12
449.559	881.12
449.779	896.12
450	889.12
450.221	872.12
450.442	898.12
450.662	865.12
450.883	875.12
451.104	892.12
451.324	885.12
451.545	880.12
451.766	890.12
451.986	866.12
452.207	882.12
452.428	855.12
452.648	871.12
452.869	869.12
453.089	857.12
453.31	877.12
453.53	856.12
453.751	835.12
453.971	853.12
454.192	843.12
454.412	835.12
454.633	849.12
454.853	859.12
455.073	868.12
455.294	864.12
455.514	840.12
455.734	831.12
455.955	832.12
456.175	818.12
456.395	844.12
456.616	817.12
456.836	829.12
457.056	853.12
457.276	832.12
457.497	827.12
457.717	839.12
457.937	840.12
458.157	853.12
458.377	845.12
458.598	882.12
458.818	883.12
459.038	890.12
459.258	893.12
459.478	946.12
459.698	941.12
459.918	939.12
460.138	946.12
460.358	956.12
460.578	955.12
460.798	975.12
461.018	998.12
461.238	973.12
461.458	987.12
461.678	981.12
461.898	977.12
462.118	1012.12
462.338	1011.12
462.558	1053.12
462.777	1054.12
462.997	1079.12
463.217	1118.12
463.437	1104.12
463.657	1065.12
463.876	1072.12
464.096	1058.12
464.316	1046.12
464.536	1087.12
464.755	1047.12
464.975	1016.12
465.195	1008.12
465.414	996.12
465.634	954.12
465.854	960.12
466.073	932.12
466.293	933.12
466.512	920.12
466.732	931.12
466.951	939.12
467.171	900.12
467.391	909.12
467.61	909.12
467.829	929.12
468.049	950.12
468.268	897.12
468.488	906.12
468.707	919.12
468.927	940.12
469.146	938.12
469.365	910.12
469.585	923.12
469.804	941.12
470.023	931.12
470.243	916.12
470.462	916.12
470.681	945.12
470.901	931.12
471.12	947.12
471.339	926.12
471.558	951.12
471.777	938.12
471.997	929.12
472.216	915.12
472.435	924.12
472.654	900.12
472.873	881.12
473.092	903.12
473.311	947.12
473.53	917.12
473.749	928.12
473.968	895.12
474.187	909.12
474.406	945.12
474.625	947.12
474.844	936.12
475.063	932.12
475.282	959.12
475.501	947.12
475.72	948.12
475.939	965.12
476.158	970.12
476.377	1012.12
476.596	989.12
476.814	969.12
477.033	949.12
477.252	991.12
477.471	993.12
477.69	1030.12
477.908	1039.12
478.127	1029.12
478.346	1055.12
478.564	1043.12
478.783	1095.12
479.002	1116.12
479.22	1069.12
479.439	1076.12
479.658	1088.12
479.876	1099.12
480.095	1052.12
480.313	1120.12
480.532	1096.12
480.751	1108.12
480.969	1103.12
481.188	1063.12
481.406	1061.12
481.624	1077.12
481.843	1053.12
482.061	1080.12
482.28	1066.12
482.498	1096.12
482.717	1060.12
482.935	1069.12
483.153	1099.12
483.372	1121.12
483.59	1121.12
483.808	1116.12
484.027	1079.12
484.245	1092.12
484.463	1113.12
484.681	1130.12
484.9	1125.12
485.118	1119.12
485.336	1098.12
485.554	1113.12
485.772	1087.12
485.99	1113.12
486.209	1099.12
486.427	1102.12
486.645	1095.12
486.863	1121.12
487.081	1106.12
487.299	1148.12
487.517	1130.12
487.735	1143.12
487.953	1143.12
488.171	1152.12
488.389	1163.12
488.607	1145.12
488.825	1141.12
489.043	1111.12
489.261	1128.12
489.479	1113.12
489.696	1139.12
489.914	1132.12
490.132	1143.12
490.35	1149.12
490.568	1153.12
490.786	1166.12
491.003	1151.12
491.221	1160.12
491.439	1192.12
491.657	1206.12
491.874	1219.12
492.092	1219.12
492.31	1184.12
492.527	1249.12
492.745	1207.12
492.963	1210.12
493.18	1207.12
493.398	1180.12
493.615	1219.12
493.833	1213.12
494.05	1251.12
494.268	1209.12
494.485	1210.12
494.703	1226.12
494.92	1244.12
495.138	1221.12
495.355	1250.12
495.573	1227.12
495.79	1203.12
496.008	1285.12
496.225	1250.12
496.442	1267.12
496.66	1293.12
496.877	1290.12
497.094	1331.12
497.312	1305.12
497.529	1338.12
497.746	1335.12
497.963	1337.12
498.181	1378.12
498.398	1435.12
498.615	1433.12
498.832	1474.12
499.049	1509.12
499.267	1559.12
499.484	1609.12
499.701	1657.12
499.918	1706.12
500.135	1823.12
500.352	1900.12
