Data from Ni(NO3)2@0.25M.TitratingCurve.Agarose3%dH2O.NegLispCup.LampEnergy10.LIBS07252019_HRD10591_18-04-55-566.txt Node
Date: Thu Jul 25 18:04:55 EDT 2019
User: cochatt
Spectrometer: HR+D1059
Trigger mode: 1
Integration Time (sec): 1.000000E-1
Scans to average: 1
Electric dark correction enabled: true
Nonlinearity correction enabled: false
Boxcar width: 0
XAxis mode: Wavelengths
Number of Pixels in Spectrum: 2048
>>>>>Begin Spectral Data<<<<<
223.165	-17.19
223.4	-17.19
223.635	-17.19
223.869	-19.19
224.104	-29.19
224.338	-13.19
224.573	-14.19
224.808	-17.19
225.042	-12.19
225.277	-2.19
225.511	-8.19
225.746	-1.19
225.98	6.81
226.215	14.81
226.449	29.81
226.683	24.81
226.918	27.81
227.152	29.81
227.387	22.81
227.621	33.81
227.856	34.81
228.09	51.81
228.324	45.81
228.559	53.81
228.793	70.81
229.027	94.81
229.262	95.81
229.496	105.81
229.73	85.81
229.964	119.81
230.199	114.81
230.433	99.81
230.667	120.81
230.901	113.81
231.136	120.81
231.37	115.81
231.604	117.81
231.838	127.81
232.072	136.81
232.306	145.81
232.541	126.81
232.775	135.81
233.009	138.81
233.243	143.81
233.477	139.81
233.711	141.81
233.945	135.81
234.179	115.81
234.413	147.81
234.647	143.81
234.881	142.81
235.115	123.81
235.349	125.81
235.583	145.81
235.817	135.81
236.051	143.81
236.285	108.81
236.519	133.81
236.753	117.81
236.987	138.81
237.221	155.81
237.455	130.81
237.689	145.81
237.922	135.81
238.156	127.81
238.39	147.81
238.624	140.81
238.858	141.81
239.091	150.81
239.325	157.81
239.559	133.81
239.793	150.81
240.027	162.81
240.26	166.81
240.494	147.81
240.728	154.81
240.961	143.81
241.195	169.81
241.429	161.81
241.662	151.81
241.896	162.81
242.13	164.81
242.363	162.81
242.597	179.81
242.83	165.81
243.064	170.81
243.298	166.81
243.531	162.81
243.765	190.81
243.998	166.81
244.232	176.81
244.465	187.81
244.699	182.81
244.932	189.81
245.166	189.81
245.399	188.81
245.633	183.81
245.866	191.81
246.099	197.81
246.333	177.81
246.566	198.81
246.8	181.81
247.033	181.81
247.266	188.81
247.5	186.81
247.733	194.81
247.966	172.81
248.2	177.81
248.433	206.81
248.666	213.81
248.899	217.81
249.133	216.81
249.366	219.81
249.599	232.81
249.832	208.81
250.066	233.81
250.299	229.81
250.532	219.81
250.765	224.81
250.998	232.81
251.231	233.81
251.465	242.81
251.698	244.81
251.931	237.81
252.164	224.81
252.397	251.81
252.63	238.81
252.863	261.81
253.096	262.81
253.329	271.81
253.562	256.81
253.795	252.81
254.028	245.81
254.261	266.81
254.494	263.81
254.727	256.81
254.96	237.81
255.193	266.81
255.426	260.81
255.659	259.81
255.892	261.81
256.124	269.81
256.357	271.81
256.59	259.81
256.823	277.81
257.056	303.81
257.289	295.81
257.521	290.81
257.754	301.81
257.987	299.81
258.22	291.81
258.452	286.81
258.685	292.81
258.918	304.81
259.151	303.81
259.383	297.81
259.616	307.81
259.849	315.81
260.081	295.81
260.314	308.81
260.547	312.81
260.779	315.81
261.012	307.81
261.244	308.81
261.477	318.81
261.71	324.81
261.942	319.81
262.175	305.81
262.407	337.81
262.64	328.81
262.872	330.81
263.105	333.81
263.337	347.81
263.57	339.81
263.802	339.81
264.035	339.81
264.267	338.81
264.499	333.81
264.732	342.81
264.964	344.81
265.197	328.81
265.429	363.81
265.661	345.81
265.894	355.81
266.126	342.81
266.358	354.81
266.591	344.81
266.823	352.81
267.055	348.81
267.287	359.81
267.52	348.81
267.752	339.81
267.984	336.81
268.216	352.81
268.448	338.81
268.681	365.81
268.913	357.81
269.145	367.81
269.377	374.81
269.609	361.81
269.841	369.81
270.073	373.81
270.306	368.81
270.538	348.81
270.77	356.81
271.002	359.81
271.234	361.81
271.466	357.81
271.698	369.81
271.93	387.81
272.162	367.81
272.394	369.81
272.626	399.81
272.858	383.81
273.09	378.81
273.322	388.81
273.553	371.81
273.785	376.81
274.017	381.81
274.249	417.81
274.481	394.81
274.713	383.81
274.945	377.81
275.176	367.81
275.408	386.81
275.64	396.81
275.872	407.81
276.104	399.81
276.335	398.81
276.567	399.81
276.799	408.81
277.031	423.81
277.262	404.81
277.494	438.81
277.726	410.81
277.957	408.81
278.189	416.81
278.421	399.81
278.652	418.81
278.884	448.81
279.115	418.81
279.347	426.81
279.579	432.81
279.81	424.81
280.042	425.81
280.273	414.81
280.505	429.81
280.736	455.81
280.968	423.81
281.199	428.81
281.431	420.81
281.662	439.81
281.894	433.81
282.125	468.81
282.356	440.81
282.588	431.81
282.819	452.81
283.051	431.81
283.282	437.81
283.513	443.81
283.745	467.81
283.976	432.81
284.207	424.81
284.439	480.81
284.67	473.81
284.901	460.81
285.132	461.81
285.364	467.81
285.595	459.81
285.826	449.81
286.057	491.81
286.288	469.81
286.52	466.81
286.751	483.81
286.982	455.81
287.213	464.81
287.444	467.81
287.675	480.81
287.906	476.81
288.138	468.81
288.369	479.81
288.6	485.81
288.831	482.81
289.062	470.81
289.293	464.81
289.524	484.81
289.755	481.81
289.986	484.81
290.217	472.81
290.448	477.81
290.679	481.81
290.91	489.81
291.141	490.81
291.371	475.81
291.602	475.81
291.833	494.81
292.064	473.81
292.295	496.81
292.526	476.81
292.757	480.81
292.987	478.81
293.218	482.81
293.449	495.81
293.68	494.81
293.91	487.81
294.141	471.81
294.372	491.81
294.603	487.81
294.833	487.81
295.064	507.81
295.295	493.81
295.525	494.81
295.756	502.81
295.987	497.81
296.217	477.81
296.448	483.81
296.679	494.81
296.909	480.81
297.14	491.81
297.37	529.81
297.601	522.81
297.831	504.81
298.062	497.81
298.292	513.81
298.523	535.81
298.753	510.81
298.984	539.81
299.214	522.81
299.445	540.81
299.675	499.81
299.905	525.81
300.136	529.81
300.366	545.81
300.597	548.81
300.827	535.81
301.057	555.81
301.288	541.81
301.518	567.81
301.748	566.81
301.979	578.81
302.209	575.81
302.439	564.81
302.669	549.81
302.9	572.81
303.13	547.81
303.36	566.81
303.59	555.81
303.82	555.81
304.051	560.81
304.281	564.81
304.511	557.81
304.741	565.81
304.971	575.81
305.201	556.81
305.431	565.81
305.661	574.81
305.891	560.81
306.121	535.81
306.352	555.81
306.582	544.81
306.812	534.81
307.042	567.81
307.272	539.81
307.502	551.81
307.731	539.81
307.961	561.81
308.191	552.81
308.421	549.81
308.651	553.81
308.881	544.81
309.111	543.81
309.341	545.81
309.571	564.81
309.8	561.81
310.03	576.81
310.26	576.81
310.49	549.81
310.72	548.81
310.949	555.81
311.179	561.81
311.409	562.81
311.639	564.81
311.868	591.81
312.098	566.81
312.328	594.81
312.557	565.81
312.787	580.81
313.017	577.81
313.246	598.81
313.476	575.81
313.706	620.81
313.935	603.81
314.165	603.81
314.394	611.81
314.624	633.81
314.853	613.81
315.083	613.81
315.312	632.81
315.542	614.81
315.771	620.81
316.001	625.81
316.23	605.81
316.46	629.81
316.689	606.81
316.919	604.81
317.148	612.81
317.377	635.81
317.607	617.81
317.836	627.81
318.065	621.81
318.295	611.81
318.524	633.81
318.753	609.81
318.983	615.81
319.212	602.81
319.441	599.81
319.67	625.81
319.9	616.81
320.129	615.81
320.358	647.81
320.587	636.81
320.816	631.81
321.046	631.81
321.275	633.81
321.504	632.81
321.733	657.81
321.962	612.81
322.191	657.81
322.42	651.81
322.649	633.81
322.878	648.81
323.108	662.81
323.337	645.81
323.566	649.81
323.795	635.81
324.024	664.81
324.253	667.81
324.482	650.81
324.71	655.81
324.939	692.81
325.168	668.81
325.397	683.81
325.626	687.81
325.855	695.81
326.084	712.81
326.313	720.81
326.542	686.81
326.77	723.81
326.999	700.81
327.228	711.81
327.457	722.81
327.686	689.81
327.914	709.81
328.143	720.81
328.372	709.81
328.6	713.81
328.829	699.81
329.058	758.81
329.287	727.81
329.515	749.81
329.744	765.81
329.972	738.81
330.201	738.81
330.43	751.81
330.658	747.81
330.887	780.81
331.115	765.81
331.344	765.81
331.572	800.81
331.801	801.81
332.03	793.81
332.258	815.81
332.486	857.81
332.715	877.81
332.943	851.81
333.172	919.81
333.4	957.81
333.629	960.81
333.857	989.81
334.085	971.81
334.314	956.81
334.542	967.81
334.771	987.81
334.999	953.81
335.227	950.81
335.455	954.81
335.684	941.81
335.912	934.81
336.14	923.81
336.369	911.81
336.597	919.81
336.825	949.81
337.053	931.81
337.281	935.81
337.51	901.81
337.738	897.81
337.966	867.81
338.194	887.81
338.422	832.81
338.65	840.81
338.878	829.81
339.106	827.81
339.334	841.81
339.562	840.81
339.79	797.81
340.018	813.81
340.246	786.81
340.474	802.81
340.702	780.81
340.93	815.81
341.158	801.81
341.386	823.81
341.614	829.81
341.842	829.81
342.07	803.81
342.298	771.81
342.526	801.81
342.754	776.81
342.981	808.81
343.209	838.81
343.437	857.81
343.665	894.81
343.893	941.81
344.12	925.81
344.348	936.81
344.576	913.81
344.804	901.81
345.031	856.81
345.259	856.81
345.487	842.81
345.714	813.81
345.942	815.81
346.17	818.81
346.397	813.81
346.625	789.81
346.853	792.81
347.08	786.81
347.308	789.81
347.535	790.81
347.763	791.81
347.99	745.81
348.218	783.81
348.445	776.81
348.673	787.81
348.9	771.81
349.128	760.81
349.355	756.81
349.583	770.81
349.81	771.81
350.037	763.81
350.265	744.81
350.492	754.81
350.72	744.81
350.947	724.81
351.174	767.81
351.402	768.81
351.629	769.81
351.856	753.81
352.083	752.81
352.311	754.81
352.538	735.81
352.765	756.81
352.992	760.81
353.22	749.81
353.447	749.81
353.674	736.81
353.901	734.81
354.128	742.81
354.355	745.81
354.583	741.81
354.81	736.81
355.037	729.81
355.264	731.81
355.491	734.81
355.718	725.81
355.945	753.81
356.172	749.81
356.399	736.81
356.626	761.81
356.853	763.81
357.08	771.81
357.307	743.81
357.534	747.81
357.761	757.81
357.988	747.81
358.215	737.81
358.441	738.81
358.668	743.81
358.895	753.81
359.122	724.81
359.349	737.81
359.576	763.81
359.802	733.81
360.029	718.81
360.256	750.81
360.483	723.81
360.709	738.81
360.936	735.81
361.163	762.81
361.39	733.81
361.616	721.81
361.843	780.81
362.07	767.81
362.296	758.81
362.523	739.81
362.749	747.81
362.976	723.81
363.203	752.81
363.429	733.81
363.656	756.81
363.882	743.81
364.109	736.81
364.335	718.81
364.562	715.81
364.788	742.81
365.015	731.81
365.241	735.81
365.468	731.81
365.694	735.81
365.92	726.81
366.147	722.81
366.373	748.81
366.599	752.81
366.826	697.81
367.052	748.81
367.278	720.81
367.505	717.81
367.731	755.81
367.957	743.81
368.184	732.81
368.41	733.81
368.636	721.81
368.862	765.81
369.089	738.81
369.315	759.81
369.541	760.81
369.767	772.81
369.993	770.81
370.219	789.81
370.445	789.81
370.672	749.81
370.898	739.81
371.124	781.81
371.35	765.81
371.576	809.81
371.802	790.81
372.028	797.81
372.254	780.81
372.48	775.81
372.706	818.81
372.932	817.81
373.158	783.81
373.384	832.81
373.61	801.81
373.835	810.81
374.061	824.81
374.287	775.81
374.513	774.81
374.739	826.81
374.965	877.81
375.191	871.81
375.416	861.81
375.642	847.81
375.868	839.81
376.094	818.81
376.319	811.81
376.545	785.81
376.771	821.81
376.997	793.81
377.222	774.81
377.448	792.81
377.674	790.81
377.899	772.81
378.125	807.81
378.35	739.81
378.576	764.81
378.802	762.81
379.027	774.81
379.253	769.81
379.478	773.81
379.704	742.81
379.929	760.81
380.155	753.81
380.38	771.81
380.606	785.81
380.831	804.81
381.057	790.81
381.282	788.81
381.507	768.81
381.733	788.81
381.958	805.81
382.184	781.81
382.409	788.81
382.634	809.81
382.86	796.81
383.085	824.81
383.31	849.81
383.535	844.81
383.761	857.81
383.986	862.81
384.211	875.81
384.436	851.81
384.662	876.81
384.887	911.81
385.112	870.81
385.337	929.81
385.562	965.81
385.787	929.81
386.013	951.81
386.238	913.81
386.463	957.81
386.688	931.81
386.913	948.81
387.138	921.81
387.363	915.81
387.588	945.81
387.813	923.81
388.038	928.81
388.263	933.81
388.488	929.81
388.713	908.81
388.938	915.81
389.163	891.81
389.387	916.81
389.612	936.81
389.837	925.81
390.062	909.81
390.287	922.81
390.512	900.81
390.736	910.81
390.961	951.81
391.186	969.81
391.411	990.81
391.636	990.81
391.86	1045.81
392.085	1059.81
392.31	1053.81
392.534	1011.81
392.759	989.81
392.984	977.81
393.208	986.81
393.433	1011.81
393.658	1011.81
393.882	973.81
394.107	979.81
394.331	977.81
394.556	1020.81
394.78	1009.81
395.005	1000.81
395.229	1012.81
395.454	1041.81
395.678	1047.81
395.903	1047.81
396.127	1049.81
396.352	1032.81
396.576	1000.81
396.801	989.81
397.025	1012.81
397.249	1059.81
397.474	1087.81
397.698	1060.81
397.922	1088.81
398.147	1096.81
398.371	1099.81
398.595	1126.81
398.82	1165.81
399.044	1318.81
399.268	1379.81
399.492	1501.81
399.717	1629.81
399.941	1626.81
400.165	1573.81
400.389	1519.81
400.613	1377.81
400.837	1324.81
401.062	1298.81
401.286	1222.81
401.51	1213.81
401.734	1199.81
401.958	1223.81
402.182	1233.81
402.406	1236.81
402.63	1241.81
402.854	1250.81
403.078	1242.81
403.302	1286.81
403.526	1281.81
403.75	1305.81
403.974	1288.81
404.198	1288.81
404.422	1294.81
404.645	1292.81
404.869	1288.81
405.093	1270.81
405.317	1273.81
405.541	1308.81
405.765	1315.81
405.988	1319.81
406.212	1292.81
406.436	1323.81
406.66	1347.81
406.883	1363.81
407.107	1469.81
407.331	1493.81
407.555	1510.81
407.778	1541.81
408.002	1479.81
408.226	1447.81
408.449	1411.81
408.673	1405.81
408.896	1356.81
409.12	1353.81
409.344	1384.81
409.567	1339.81
409.791	1353.81
410.014	1375.81
410.238	1320.81
410.461	1327.81
410.685	1291.81
410.908	1306.81
411.132	1276.81
411.355	1252.81
411.578	1254.81
411.802	1239.81
412.025	1271.81
412.249	1277.81
412.472	1310.81
412.695	1257.81
412.919	1241.81
413.142	1238.81
413.365	1231.81
413.589	1225.81
413.812	1229.81
414.035	1196.81
414.258	1200.81
414.482	1179.81
414.705	1235.81
414.928	1222.81
415.151	1254.81
415.374	1238.81
415.597	1230.81
415.821	1185.81
416.044	1182.81
416.267	1166.81
416.49	1171.81
416.713	1165.81
416.936	1203.81
417.159	1191.81
417.382	1196.81
417.605	1167.81
417.828	1226.81
418.051	1195.81
418.274	1160.81
418.497	1208.81
418.72	1200.81
418.943	1204.81
419.166	1330.81
419.389	1434.81
419.611	1375.81
419.834	1296.81
420.057	1249.81
420.28	1216.81
420.503	1221.81
420.726	1202.81
420.948	1177.81
421.171	1205.81
421.394	1190.81
421.617	1201.81
421.839	1197.81
422.062	1213.81
422.285	1217.81
422.507	1208.81
422.73	1224.81
422.953	1234.81
423.175	1212.81
423.398	1239.81
423.621	1210.81
423.843	1247.81
424.066	1239.81
424.288	1228.81
424.511	1260.81
424.733	1195.81
424.956	1210.81
425.178	1219.81
425.401	1218.81
425.623	1205.81
425.846	1169.81
426.068	1171.81
426.291	1165.81
426.513	1176.81
426.735	1176.81
426.958	1140.81
427.18	1089.81
427.402	1151.81
427.625	1127.81
427.847	1126.81
428.069	1108.81
428.292	1105.81
428.514	1108.81
428.736	1125.81
428.958	1129.81
429.181	1097.81
429.403	1104.81
429.625	1086.81
429.847	1080.81
430.069	1070.81
430.292	1067.81
430.514	1059.81
430.736	1088.81
430.958	1077.81
431.18	1053.81
431.402	1065.81
431.624	1050.81
431.846	1071.81
432.068	1103.81
432.29	1097.81
432.512	1095.81
432.734	1102.81
432.956	1071.81
433.178	1129.81
433.4	1077.81
433.622	1101.81
433.844	1094.81
434.066	1107.81
434.287	1126.81
434.509	1134.81
434.731	1171.81
434.953	1199.81
435.175	1233.81
435.397	1245.81
435.618	1156.81
435.84	1112.81
436.062	1112.81
436.284	1107.81
436.505	1120.81
436.727	1119.81
436.949	1094.81
437.17	1096.81
437.392	1094.81
437.614	1075.81
437.835	1071.81
438.057	1073.81
438.278	1065.81
438.5	1048.81
438.721	1065.81
438.943	1067.81
439.165	1073.81
439.386	1077.81
439.608	1111.81
439.829	1098.81
440.05	1091.81
440.272	1085.81
440.493	1126.81
440.715	1124.81
440.936	1159.81
441.158	1171.81
441.379	1209.81
441.6	1230.81
441.822	1254.81
442.043	1246.81
442.264	1208.81
442.486	1180.81
442.707	1188.81
442.928	1178.81
443.149	1223.81
443.371	1215.81
443.592	1222.81
443.813	1229.81
444.034	1230.81
444.255	1269.81
444.476	1295.81
444.698	1351.81
444.919	1423.81
445.14	1479.81
445.361	1400.81
445.582	1316.81
445.803	1239.81
446.024	1188.81
446.245	1203.81
446.466	1200.81
446.687	1135.81
446.908	1135.81
447.129	1085.81
447.35	1086.81
447.571	1093.81
447.792	1089.81
448.013	1070.81
448.234	1045.81
448.455	1050.81
448.675	1071.81
448.896	1019.81
449.117	1050.81
449.338	1022.81
449.559	1021.81
449.779	987.81
450	1046.81
450.221	1041.81
450.442	995.81
450.662	1003.81
450.883	991.81
451.104	1039.81
451.324	1019.81
451.545	1034.81
451.766	1020.81
451.986	1020.81
452.207	996.81
452.428	1014.81
452.648	1007.81
452.869	992.81
453.089	975.81
453.31	986.81
453.53	971.81
453.751	967.81
453.971	955.81
454.192	950.81
454.412	941.81
454.633	947.81
454.853	992.81
455.073	965.81
455.294	943.81
455.514	917.81
455.734	947.81
455.955	915.81
456.175	932.81
456.395	920.81
456.616	957.81
456.836	965.81
457.056	965.81
457.276	942.81
457.497	971.81
457.717	936.81
457.937	932.81
458.157	950.81
458.377	980.81
458.598	1026.81
458.818	1017.81
459.038	1061.81
459.258	1071.81
459.478	1123.81
459.698	1148.81
459.918	1173.81
460.138	1220.81
460.358	1244.81
460.578	1262.81
460.798	1283.81
461.018	1313.81
461.238	1300.81
461.458	1265.81
461.678	1316.81
461.898	1314.81
462.118	1327.81
462.338	1378.81
462.558	1437.81
462.777	1467.81
462.997	1548.81
463.217	1661.81
463.437	1655.81
463.657	1589.81
463.876	1539.81
464.096	1520.81
464.316	1465.81
464.536	1494.81
464.755	1448.81
464.975	1387.81
465.195	1296.81
465.414	1249.81
465.634	1222.81
465.854	1180.81
466.073	1174.81
466.293	1122.81
466.512	1096.81
466.732	1108.81
466.951	1092.81
467.171	1038.81
467.391	1048.81
467.61	1072.81
467.829	1060.81
468.049	1057.81
468.268	1000.81
468.488	1007.81
468.707	1019.81
468.927	1030.81
469.146	1028.81
469.365	1045.81
469.585	1063.81
469.804	1076.81
470.023	1063.81
470.243	1078.81
470.462	1079.81
470.681	1134.81
470.901	1118.81
471.12	1085.81
471.339	1085.81
471.558	1072.81
471.777	1071.81
471.997	1031.81
472.216	1047.81
472.435	1007.81
472.654	1007.81
472.873	997.81
473.092	995.81
473.311	1030.81
473.53	989.81
473.749	981.81
473.968	992.81
474.187	990.81
474.406	995.81
474.625	1017.81
474.844	963.81
475.063	999.81
475.282	1007.81
475.501	1021.81
475.72	1022.81
475.939	1052.81
476.158	1029.81
476.377	1051.81
476.596	1055.81
476.814	1093.81
477.033	1058.81
477.252	1084.81
477.471	1110.81
477.69	1077.81
477.908	1162.81
478.127	1160.81
478.346	1176.81
478.564	1207.81
478.783	1184.81
479.002	1260.81
479.22	1266.81
479.439	1233.81
479.658	1234.81
479.876	1227.81
480.095	1241.81
480.313	1263.81
480.532	1321.81
480.751	1275.81
480.969	1255.81
481.188	1216.81
481.406	1217.81
481.624	1173.81
481.843	1183.81
482.061	1139.81
482.28	1114.81
482.498	1125.81
482.717	1140.81
482.935	1131.81
483.153	1157.81
483.372	1160.81
483.59	1155.81
483.808	1153.81
484.027	1127.81
484.245	1141.81
484.463	1138.81
484.681	1161.81
484.9	1156.81
485.118	1148.81
485.336	1172.81
485.554	1166.81
485.772	1196.81
485.99	1219.81
486.209	1179.81
486.427	1156.81
486.645	1177.81
486.863	1179.81
487.081	1199.81
487.299	1197.81
487.517	1174.81
487.735	1177.81
487.953	1172.81
488.171	1200.81
488.389	1172.81
488.607	1173.81
488.825	1171.81
489.043	1141.81
489.261	1155.81
489.479	1162.81
489.696	1151.81
489.914	1183.81
490.132	1216.81
490.35	1197.81
490.568	1178.81
490.786	1188.81
491.003	1223.81
491.221	1160.81
491.439	1222.81
491.657	1186.81
491.874	1234.81
492.092	1235.81
492.31	1232.81
492.527	1249.81
492.745	1247.81
492.963	1235.81
493.18	1244.81
493.398	1210.81
493.615	1228.81
493.833	1248.81
494.05	1255.81
494.268	1279.81
494.485	1281.81
494.703	1261.81
494.92	1337.81
495.138	1287.81
495.355	1306.81
495.573	1314.81
495.79	1325.81
