Data from Ni(NO3)2Standard.Agarose3%.GreenCap.LampEnergy5.5.E.O_HRD10591_14-43-08-188.txt Node
Date: Mon Jul 22 14:43:08 EDT 2019
User: cochatt
Spectrometer: HR+D1059
Trigger mode: 1
Integration Time (sec): 1.000000E-1
Scans to average: 1
Electric dark correction enabled: true
Nonlinearity correction enabled: false
Boxcar width: 0
XAxis mode: Wavelengths
Number of Pixels in Spectrum: 2048
>>>>>Begin Spectral Data<<<<<
223.165	-17.69
223.4	-17.69
223.635	-17.69
223.869	-25.69
224.104	-20.69
224.338	-14.69
224.573	-20.69
224.808	0.31
225.042	9.31
225.277	-15.69
225.511	-6.69
225.746	-5.69
225.98	7.31
226.215	4.31
226.449	18.31
226.683	21.31
226.918	30.31
227.152	36.31
227.387	30.31
227.621	35.31
227.856	44.31
228.09	64.31
228.324	58.31
228.559	68.31
228.793	48.31
229.027	52.31
229.262	77.31
229.496	69.31
229.73	62.31
229.964	77.31
230.199	88.31
230.433	82.31
230.667	80.31
230.901	75.31
231.136	77.31
231.37	83.31
231.604	77.31
231.838	82.31
232.072	89.31
232.306	83.31
232.541	86.31
232.775	91.31
233.009	85.31
233.243	74.31
233.477	83.31
233.711	87.31
233.945	80.31
234.179	75.31
234.413	80.31
234.647	84.31
234.881	70.31
235.115	79.31
235.349	69.31
235.583	63.31
235.817	82.31
236.051	85.31
236.285	61.31
236.519	74.31
236.753	79.31
236.987	64.31
237.221	61.31
237.455	76.31
237.689	69.31
237.922	74.31
238.156	76.31
238.39	84.31
238.624	65.31
238.858	64.31
239.091	78.31
239.325	70.31
239.559	85.31
239.793	69.31
240.027	66.31
240.26	84.31
240.494	94.31
240.728	78.31
240.961	88.31
241.195	78.31
241.429	73.31
241.662	71.31
241.896	79.31
242.13	76.31
242.363	78.31
242.597	68.31
242.83	78.31
243.064	81.31
243.298	66.31
243.531	70.31
243.765	77.31
243.998	69.31
244.232	79.31
244.465	79.31
244.699	77.31
244.932	90.31
245.166	83.31
245.399	89.31
245.633	76.31
245.866	84.31
246.099	67.31
246.333	78.31
246.566	83.31
246.8	65.31
247.033	74.31
247.266	77.31
247.5	89.31
247.733	74.31
247.966	79.31
248.2	80.31
248.433	77.31
248.666	75.31
248.899	83.31
249.133	75.31
249.366	85.31
249.599	68.31
249.832	72.31
250.066	78.31
250.299	69.31
250.532	81.31
250.765	75.31
250.998	87.31
251.231	88.31
251.465	78.31
251.698	76.31
251.931	75.31
252.164	91.31
252.397	85.31
252.63	78.31
252.863	62.31
253.096	94.31
253.329	83.31
253.562	73.31
253.795	90.31
254.028	76.31
254.261	74.31
254.494	75.31
254.727	94.31
254.96	75.31
255.193	79.31
255.426	87.31
255.659	85.31
255.892	79.31
256.124	87.31
256.357	76.31
256.59	83.31
256.823	75.31
257.056	80.31
257.289	84.31
257.521	69.31
257.754	80.31
257.987	85.31
258.22	72.31
258.452	87.31
258.685	73.31
258.918	75.31
259.151	76.31
259.383	89.31
259.616	82.31
259.849	72.31
260.081	85.31
260.314	79.31
260.547	68.31
260.779	71.31
261.012	76.31
261.244	90.31
261.477	90.31
261.71	85.31
261.942	88.31
262.175	78.31
262.407	78.31
262.64	90.31
262.872	84.31
263.105	87.31
263.337	72.31
263.57	70.31
263.802	62.31
264.035	75.31
264.267	87.31
264.499	87.31
264.732	82.31
264.964	83.31
265.197	74.31
265.429	85.31
265.661	80.31
265.894	73.31
266.126	74.31
266.358	80.31
266.591	90.31
266.823	93.31
267.055	76.31
267.287	76.31
267.52	79.31
267.752	85.31
267.984	70.31
268.216	73.31
268.448	85.31
268.681	78.31
268.913	83.31
269.145	87.31
269.377	79.31
269.609	88.31
269.841	79.31
270.073	89.31
270.306	87.31
270.538	77.31
270.77	83.31
271.002	81.31
271.234	94.31
271.466	81.31
271.698	70.31
271.93	91.31
272.162	63.31
272.394	82.31
272.626	76.31
272.858	72.31
273.09	79.31
273.322	89.31
273.553	76.31
273.785	84.31
274.017	91.31
274.249	90.31
274.481	72.31
274.713	82.31
274.945	91.31
275.176	72.31
275.408	79.31
275.64	86.31
275.872	73.31
276.104	75.31
276.335	85.31
276.567	85.31
276.799	83.31
277.031	77.31
277.262	77.31
277.494	78.31
277.726	96.31
277.957	89.31
278.189	86.31
278.421	88.31
278.652	79.31
278.884	88.31
279.115	82.31
279.347	74.31
279.579	82.31
279.81	94.31
280.042	85.31
280.273	82.31
280.505	88.31
280.736	76.31
280.968	76.31
281.199	72.31
281.431	86.31
281.662	83.31
281.894	78.31
282.125	82.31
282.356	100.31
282.588	75.31
282.819	87.31
283.051	105.31
283.282	88.31
283.513	87.31
283.745	90.31
283.976	82.31
284.207	87.31
284.439	97.31
284.67	91.31
284.901	93.31
285.132	79.31
285.364	77.31
285.595	81.31
285.826	84.31
286.057	81.31
286.288	80.31
286.52	80.31
286.751	84.31
286.982	89.31
287.213	73.31
287.444	77.31
287.675	79.31
287.906	81.31
288.138	89.31
288.369	86.31
288.6	73.31
288.831	89.31
289.062	84.31
289.293	70.31
289.524	80.31
289.755	95.31
289.986	79.31
290.217	103.31
290.448	88.31
290.679	83.31
290.91	90.31
291.141	82.31
291.371	88.31
291.602	92.31
291.833	81.31
292.064	69.31
292.295	83.31
292.526	77.31
292.757	74.31
292.987	102.31
293.218	81.31
293.449	93.31
293.68	88.31
293.91	83.31
294.141	93.31
294.372	86.31
294.603	91.31
294.833	85.31
295.064	92.31
295.295	84.31
295.525	92.31
295.756	87.31
295.987	99.31
296.217	97.31
296.448	83.31
296.679	93.31
296.909	73.31
297.14	89.31
297.37	85.31
297.601	94.31
297.831	84.31
298.062	105.31
298.292	83.31
298.523	96.31
298.753	95.31
298.984	79.31
299.214	85.31
299.445	95.31
299.675	86.31
299.905	94.31
300.136	76.31
300.366	89.31
300.597	94.31
300.827	74.31
301.057	91.31
301.288	81.31
301.518	98.31
301.748	88.31
301.979	101.31
302.209	85.31
302.439	85.31
302.669	85.31
302.9	82.31
303.13	89.31
303.36	85.31
303.59	86.31
303.82	79.31
304.051	97.31
304.281	75.31
304.511	89.31
304.741	75.31
304.971	83.31
305.201	88.31
305.431	80.31
305.661	74.31
305.891	84.31
306.121	94.31
306.352	98.31
306.582	77.31
306.812	88.31
307.042	87.31
307.272	79.31
307.502	87.31
307.731	75.31
307.961	90.31
308.191	90.31
308.421	79.31
308.651	81.31
308.881	70.31
309.111	81.31
309.341	88.31
309.571	92.31
309.8	97.31
310.03	73.31
310.26	73.31
310.49	87.31
310.72	92.31
310.949	101.31
311.179	90.31
311.409	59.31
311.639	91.31
311.868	88.31
312.098	92.31
312.328	94.31
312.557	95.31
312.787	74.31
313.017	85.31
313.246	80.31
313.476	87.31
313.706	103.31
313.935	81.31
314.165	84.31
314.394	86.31
314.624	84.31
314.853	80.31
315.083	92.31
315.312	86.31
315.542	72.31
315.771	85.31
316.001	79.31
316.23	98.31
316.46	81.31
316.689	85.31
316.919	75.31
317.148	77.31
317.377	102.31
317.607	99.31
317.836	90.31
318.065	84.31
318.295	88.31
318.524	79.31
318.753	85.31
318.983	86.31
319.212	85.31
319.441	86.31
319.67	85.31
319.9	92.31
320.129	78.31
320.358	67.31
320.587	82.31
320.816	101.31
321.046	93.31
321.275	96.31
321.504	75.31
321.733	65.31
321.962	89.31
322.191	76.31
322.42	88.31
322.649	85.31
322.878	95.31
323.108	82.31
323.337	87.31
323.566	74.31
323.795	93.31
324.024	93.31
324.253	98.31
324.482	93.31
324.71	85.31
324.939	88.31
325.168	90.31
325.397	79.31
325.626	85.31
325.855	90.31
326.084	89.31
326.313	84.31
326.542	85.31
326.77	94.31
326.999	81.31
327.228	74.31
327.457	85.31
327.686	93.31
327.914	83.31
328.143	66.31
328.372	85.31
328.6	98.31
328.829	83.31
329.058	89.31
329.287	77.31
329.515	84.31
329.744	99.31
329.972	84.31
330.201	82.31
330.43	93.31
330.658	84.31
330.887	85.31
331.115	88.31
331.344	86.31
331.572	100.31
331.801	91.31
332.03	81.31
332.258	88.31
332.486	89.31
332.715	86.31
332.943	99.31
333.172	106.31
333.4	98.31
333.629	95.31
333.857	78.31
334.085	90.31
334.314	89.31
334.542	84.31
334.771	88.31
334.999	88.31
335.227	92.31
335.455	91.31
335.684	85.31
335.912	74.31
336.14	89.31
336.369	99.31
336.597	88.31
336.825	93.31
337.053	97.31
337.281	95.31
337.51	84.31
337.738	88.31
337.966	83.31
338.194	83.31
338.422	80.31
338.65	93.31
338.878	81.31
339.106	77.31
339.334	83.31
339.562	86.31
339.79	78.31
340.018	92.31
340.246	91.31
340.474	85.31
340.702	95.31
340.93	88.31
341.158	87.31
341.386	86.31
341.614	86.31
341.842	87.31
342.07	95.31
342.298	90.31
342.526	83.31
342.754	75.31
342.981	93.31
343.209	85.31
343.437	94.31
343.665	91.31
343.893	68.31
344.12	81.31
344.348	87.31
344.576	84.31
344.804	95.31
345.031	87.31
345.259	92.31
345.487	82.31
345.714	91.31
345.942	97.31
346.17	84.31
346.397	81.31
346.625	70.31
346.853	90.31
347.08	72.31
347.308	69.31
347.535	81.31
347.763	72.31
347.99	87.31
348.218	79.31
348.445	101.31
348.673	99.31
348.9	98.31
349.128	94.31
349.355	95.31
349.583	101.31
349.81	100.31
350.037	86.31
350.265	92.31
350.492	92.31
350.72	88.31
350.947	75.31
351.174	78.31
351.402	74.31
351.629	83.31
351.856	81.31
352.083	85.31
352.311	91.31
352.538	95.31
352.765	98.31
352.992	101.31
353.22	79.31
353.447	90.31
353.674	95.31
353.901	96.31
354.128	81.31
354.355	70.31
354.583	91.31
354.81	97.31
355.037	92.31
355.264	102.31
355.491	81.31
355.718	88.31
355.945	89.31
356.172	103.31
356.399	96.31
356.626	94.31
356.853	85.31
357.08	79.31
357.307	90.31
357.534	97.31
357.761	82.31
357.988	98.31
358.215	85.31
358.441	97.31
358.668	88.31
358.895	95.31
359.122	76.31
359.349	86.31
359.576	82.31
359.802	80.31
360.029	85.31
360.256	77.31
360.483	82.31
360.709	87.31
360.936	85.31
361.163	84.31
361.39	94.31
361.616	85.31
361.843	106.31
362.07	82.31
362.296	78.31
362.523	83.31
362.749	68.31
362.976	92.31
363.203	95.31
363.429	68.31
363.656	90.31
363.882	78.31
364.109	90.31
364.335	87.31
364.562	86.31
364.788	91.31
365.015	93.31
365.241	80.31
365.468	87.31
365.694	70.31
365.92	85.31
366.147	77.31
366.373	84.31
366.599	70.31
366.826	88.31
367.052	78.31
367.278	88.31
367.505	92.31
367.731	85.31
367.957	84.31
368.184	104.31
368.41	88.31
368.636	91.31
368.862	98.31
369.089	89.31
369.315	83.31
369.541	87.31
369.767	91.31
369.993	97.31
370.219	83.31
370.445	72.31
370.672	90.31
370.898	79.31
371.124	74.31
371.35	85.31
371.576	82.31
371.802	78.31
372.028	89.31
372.254	82.31
372.48	82.31
372.706	79.31
372.932	76.31
373.158	76.31
373.384	86.31
373.61	84.31
373.835	87.31
374.061	66.31
374.287	81.31
374.513	69.31
374.739	85.31
374.965	91.31
375.191	86.31
375.416	86.31
375.642	89.31
375.868	77.31
376.094	84.31
376.319	75.31
376.545	72.31
376.771	85.31
376.997	80.31
377.222	77.31
377.448	75.31
377.674	74.31
377.899	80.31
378.125	95.31
378.35	89.31
378.576	84.31
378.802	88.31
379.027	102.31
379.253	76.31
379.478	82.31
379.704	86.31
379.929	86.31
380.155	83.31
380.38	89.31
380.606	84.31
380.831	95.31
381.057	77.31
381.282	79.31
381.507	89.31
381.733	89.31
381.958	94.31
382.184	78.31
382.409	89.31
382.634	86.31
382.86	86.31
383.085	84.31
383.31	75.31
383.535	97.31
383.761	89.31
383.986	98.31
384.211	70.31
384.436	89.31
384.662	103.31
384.887	82.31
385.112	83.31
385.337	76.31
385.562	88.31
385.787	85.31
386.013	93.31
386.238	89.31
386.463	80.31
386.688	94.31
386.913	86.31
387.138	83.31
387.363	87.31
387.588	91.31
387.813	91.31
388.038	75.31
388.263	77.31
388.488	94.31
388.713	82.31
388.938	91.31
389.163	81.31
389.387	89.31
389.612	82.31
389.837	102.31
390.062	81.31
390.287	90.31
390.512	83.31
390.736	84.31
390.961	76.31
391.186	80.31
391.411	81.31
391.636	92.31
391.86	102.31
392.085	89.31
392.31	88.31
392.534	93.31
392.759	95.31
392.984	79.31
393.208	86.31
393.433	88.31
393.658	94.31
393.882	94.31
394.107	87.31
394.331	81.31
394.556	85.31
394.78	87.31
395.005	89.31
395.229	98.31
395.454	96.31
395.678	78.31
395.903	89.31
396.127	100.31
396.352	84.31
396.576	78.31
396.801	87.31
397.025	94.31
397.249	87.31
397.474	88.31
397.698	75.31
397.922	73.31
398.147	75.31
398.371	82.31
398.595	82.31
398.82	84.31
399.044	84.31
399.268	79.31
399.492	78.31
399.717	94.31
399.941	98.31
400.165	115.31
400.389	94.31
400.613	86.31
400.837	75.31
401.062	83.31
401.286	84.31
401.51	95.31
401.734	71.31
401.958	81.31
402.182	79.31
402.406	84.31
402.63	88.31
402.854	81.31
403.078	86.31
403.302	81.31
403.526	92.31
403.75	78.31
403.974	79.31
404.198	90.31
404.422	97.31
404.645	90.31
404.869	87.31
405.093	84.31
405.317	77.31
405.541	94.31
405.765	76.31
405.988	76.31
406.212	93.31
406.436	84.31
406.66	98.31
406.883	85.31
407.107	86.31
407.331	91.31
407.555	90.31
407.778	90.31
408.002	91.31
408.226	82.31
408.449	85.31
408.673	97.31
408.896	97.31
409.12	92.31
409.344	89.31
409.567	93.31
409.791	83.31
410.014	83.31
410.238	92.31
410.461	83.31
410.685	89.31
410.908	85.31
411.132	85.31
411.355	67.31
411.578	91.31
411.802	67.31
412.025	77.31
412.249	83.31
412.472	83.31
412.695	79.31
412.919	89.31
413.142	106.31
413.365	75.31
413.589	81.31
413.812	86.31
414.035	89.31
414.258	95.31
414.482	86.31
414.705	79.31
414.928	90.31
415.151	73.31
415.374	78.31
415.597	85.31
415.821	82.31
416.044	90.31
416.267	82.31
416.49	82.31
416.713	86.31
416.936	99.31
417.159	92.31
417.382	82.31
417.605	87.31
417.828	69.31
418.051	86.31
418.274	97.31
418.497	98.31
418.72	88.31
418.943	85.31
419.166	100.31
419.389	86.31
419.611	98.31
419.834	87.31
420.057	73.31
420.28	78.31
420.503	88.31
420.726	102.31
420.948	85.31
421.171	86.31
421.394	88.31
421.617	96.31
421.839	100.31
422.062	93.31
422.285	79.31
422.507	79.31
422.73	85.31
422.953	88.31
423.175	90.31
423.398	94.31
423.621	97.31
423.843	96.31
424.066	69.31
424.288	87.31
424.511	97.31
424.733	79.31
424.956	84.31
425.178	86.31
425.401	92.31
425.623	77.31
425.846	79.31
426.068	74.31
426.291	75.31
426.513	91.31
426.735	87.31
426.958	89.31
427.18	95.31
427.402	91.31
427.625	90.31
427.847	78.31
428.069	92.31
428.292	79.31
428.514	87.31
428.736	82.31
428.958	90.31
429.181	94.31
429.403	74.31
429.625	90.31
429.847	84.31
430.069	75.31
430.292	77.31
430.514	87.31
430.736	85.31
430.958	94.31
431.18	85.31
431.402	75.31
431.624	81.31
431.846	84.31
432.068	94.31
432.29	77.31
432.512	93.31
432.734	81.31
432.956	80.31
433.178	77.31
433.4	81.31
433.622	85.31
433.844	76.31
434.066	97.31
434.287	75.31
434.509	101.31
434.731	94.31
434.953	80.31
435.175	83.31
435.397	88.31
435.618	93.31
435.84	84.31
436.062	84.31
436.284	97.31
436.505	89.31
436.727	91.31
436.949	90.31
437.17	83.31
437.392	83.31
437.614	94.31
437.835	75.31
438.057	80.31
438.278	89.31
438.5	92.31
438.721	89.31
438.943	79.31
439.165	89.31
439.386	89.31
439.608	84.31
439.829	87.31
440.05	93.31
440.272	92.31
440.493	89.31
440.715	76.31
440.936	98.31
441.158	96.31
441.379	101.31
441.6	108.31
441.822	92.31
442.043	76.31
442.264	80.31
442.486	91.31
442.707	76.31
442.928	106.31
443.149	93.31
443.371	80.31
443.592	92.31
443.813	87.31
444.034	79.31
444.255	78.31
444.476	88.31
444.698	85.31
444.919	87.31
445.14	213.31
445.361	142.31
445.582	93.31
445.803	98.31
446.024	92.31
446.245	88.31
446.466	92.31
446.687	75.31
446.908	84.31
447.129	81.31
447.35	96.31
447.571	76.31
447.792	89.31
448.013	74.31
448.234	92.31
448.455	89.31
448.675	92.31
448.896	79.31
449.117	85.31
449.338	89.31
449.559	84.31
449.779	87.31
450	93.31
450.221	68.31
450.442	90.31
450.662	85.31
450.883	91.31
451.104	88.31
451.324	98.31
451.545	94.31
451.766	87.31
451.986	89.31
452.207	83.31
452.428	89.31
452.648	99.31
452.869	74.31
453.089	96.31
453.31	97.31
453.53	92.31
453.751	88.31
453.971	83.31
454.192	91.31
454.412	87.31
454.633	95.31
454.853	84.31
455.073	72.31
455.294	77.31
455.514	79.31
455.734	94.31
455.955	87.31
456.175	96.31
456.395	98.31
456.616	85.31
456.836	90.31
457.056	75.31
457.276	87.31
457.497	82.31
457.717	79.31
457.937	99.31
458.157	90.31
458.377	86.31
458.598	102.31
458.818	74.31
459.038	86.31
459.258	90.31
459.478	81.31
459.698	80.31
459.918	91.31
460.138	83.31
460.358	93.31
460.578	84.31
460.798	79.31
461.018	84.31
461.238	81.31
461.458	76.31
461.678	90.31
461.898	94.31
462.118	96.31
462.338	93.31
462.558	84.31
462.777	82.31
462.997	97.31
463.217	84.31
463.437	85.31
463.657	96.31
463.876	85.31
464.096	79.31
464.316	76.31
464.536	105.31
464.755	89.31
464.975	110.31
465.195	74.31
465.414	98.31
465.634	81.31
465.854	81.31
466.073	82.31
466.293	85.31
466.512	89.31
466.732	84.31
466.951	90.31
467.171	95.31
467.391	82.31
467.61	87.31
467.829	78.31
468.049	102.31
468.268	72.31
468.488	90.31
468.707	89.31
468.927	72.31
469.146	98.31
469.365	112.31
469.585	83.31
469.804	97.31
470.023	87.31
470.243	80.31
470.462	79.31
470.681	89.31
470.901	82.31
471.12	87.31
471.339	90.31
471.558	92.31
471.777	96.31
471.997	76.31
472.216	101.31
472.435	104.31
472.654	84.31
472.873	86.31
473.092	90.31
473.311	75.31
473.53	76.31
473.749	90.31
473.968	84.31
474.187	80.31
474.406	85.31
474.625	83.31
474.844	104.31
475.063	103.31
475.282	104.31
475.501	88.31
475.72	94.31
475.939	105.31
476.158	86.31
476.377	98.31
476.596	85.31
476.814	97.31
477.033	85.31
477.252	79.31
477.471	97.31
477.69	79.31
477.908	77.31
478.127	91.31
478.346	110.31
478.564	100.31
478.783	100.31
479.002	84.31
479.22	101.31
479.439	98.31
479.658	94.31
479.876	95.31
480.095	88.31
480.313	88.31
480.532	96.31
480.751	90.31
480.969	86.31
481.188	86.31
481.406	88.31
481.624	110.31
481.843	106.31
482.061	94.31
482.28	99.31
482.498	107.31
482.717	87.31
482.935	105.31
483.153	97.31
483.372	80.31
483.59	89.31
483.808	74.31
484.027	98.31
484.245	85.31
484.463	95.31
484.681	100.31
484.9	105.31
485.118	108.31
485.336	94.31
485.554	96.31
485.772	91.31
485.99	95.31
486.209	101.31
486.427	97.31
486.645	95.31
486.863	86.31
487.081	94.31
487.299	112.31
487.517	87.31
487.735	90.31
487.953	81.31
488.171	97.31
488.389	95.31
488.607	93.31
488.825	82.31
489.043	83.31
489.261	92.31
489.479	83.31
489.696	77.31
489.914	92.31
490.132	95.31
490.35	81.31
490.568	83.31
490.786	92.31
491.003	87.31
491.221	90.31
491.439	83.31
491.657	90.31
491.874	102.31
492.092	88.31
492.31	90.31
492.527	93.31
492.745	104.31
492.963	97.31
493.18	101.31
493.398	89.31
493.615	94.31
493.833	89.31
494.05	103.31
494.268	97.31
494.485	80.31
494.703	101.31
494.92	97.31
495.138	96.31
495.355	95.31
495.573	101.31
495.79	94.31
496.008	80.31
496.225	100.31
496.442	98.31
496.66	89.31
496.877	95.31
497.094	102.31
497.312	85.31
497.529	94.31
497.746	95.31
497.963	96.31
498.181	97.31
498.398	98.31
498.615	101.31
498.832	102.31
499.049	108.31
499.267	102.31
499.484	101.31
499.701	95.31
499.918	95.31
500.135	123.31
500.352	106.31
500.569	109.31
500.786	116.31
501.003	103.31
501.22	93.31
501.437	105.31
501.654	100.31
501.871	91.31
502.088	97.31
502.305	106.31
502.522	102.31
502.739	113.31
502.956	96.31
503.172	99.31
503.389	88.31
503.606	91.31
503.823	87.31
504.04	113.31
504.256	96.31
504.473	102.31
504.69	94.31
504.907	92.31
505.123	93.31
505.34	106.31
505.557	90.31
505.773	84.31
505.99	98.31
506.207	95.31
506.423	94.31
506.64	103.31
506.856	99.31
507.073	91.31
507.289	89.31
507.506	93.31
507.722	82.31
507.939	93.31
508.155	81.31
508.372	97.31
508.588	97.31
508.805	90.31
509.021	92.31
509.238	92.31
509.454	91.31
509.67	97.31
509.887	95.31
510.103	78.31
510.319	77.31
510.536	76.31
510.752	92.31
510.968	102.31
511.184	97.31
511.401	91.31
511.617	90.31
511.833	99.31
512.049	89.31
512.265	87.31
512.481	93.31
512.698	108.31
512.914	83.31
513.13	100.31
513.346	101.31
513.562	90.31
513.778	98.31
513.994	91.31
514.21	101.31
514.426	105.31
514.642	84.31
514.858	84.31
515.074	84.31
515.29	96.31
515.506	88.31
515.721	78.31
515.937	108.31
516.153	95.31
516.369	94.31
516.585	94.31
516.801	90.31
517.016	88.31
517.232	91.31
517.448	97.31
517.664	95.31
517.879	89.31
518.095	105.31
