Data from Ni(NO3)2@0.125M.TitratingCurve.Agarose3%dH2O.NegLispCup.LampEnergy10.LIBS07252019_HRD10591_18-10-32-568.txt Node
Date: Thu Jul 25 18:10:32 EDT 2019
User: cochatt
Spectrometer: HR+D1059
Trigger mode: 1
Integration Time (sec): 1.000000E-1
Scans to average: 1
Electric dark correction enabled: true
Nonlinearity correction enabled: false
Boxcar width: 0
XAxis mode: Wavelengths
Number of Pixels in Spectrum: 2048
>>>>>Begin Spectral Data<<<<<
223.165	-13.38
223.4	-13.38
223.635	-13.38
223.869	-11.38
224.104	-17.38
224.338	-13.38
224.573	-26.38
224.808	-9.38
225.042	0.62
225.277	-7.38
225.511	-5.38
225.746	-3.38
225.98	8.62
226.215	26.62
226.449	11.62
226.683	10.62
226.918	25.62
227.152	23.62
227.387	34.62
227.621	35.62
227.856	46.62
228.09	42.62
228.324	49.62
228.559	61.62
228.793	66.62
229.027	105.62
229.262	101.62
229.496	101.62
229.73	117.62
229.964	131.62
230.199	114.62
230.433	117.62
230.667	128.62
230.901	138.62
231.136	119.62
231.37	133.62
231.604	119.62
231.838	129.62
232.072	143.62
232.306	130.62
232.541	139.62
232.775	126.62
233.009	130.62
233.243	137.62
233.477	129.62
233.711	142.62
233.945	150.62
234.179	137.62
234.413	130.62
234.647	126.62
234.881	149.62
235.115	152.62
235.349	143.62
235.583	135.62
235.817	148.62
236.051	144.62
236.285	136.62
236.519	145.62
236.753	154.62
236.987	148.62
237.221	148.62
237.455	153.62
237.689	160.62
237.922	152.62
238.156	142.62
238.39	139.62
238.624	153.62
238.858	171.62
239.091	152.62
239.325	153.62
239.559	163.62
239.793	158.62
240.027	149.62
240.26	148.62
240.494	163.62
240.728	164.62
240.961	162.62
241.195	177.62
241.429	152.62
241.662	190.62
241.896	168.62
242.13	164.62
242.363	180.62
242.597	172.62
242.83	167.62
243.064	168.62
243.298	191.62
243.531	176.62
243.765	178.62
243.998	183.62
244.232	196.62
244.465	180.62
244.699	196.62
244.932	193.62
245.166	186.62
245.399	203.62
245.633	196.62
245.866	194.62
246.099	198.62
246.333	201.62
246.566	202.62
246.8	194.62
247.033	195.62
247.266	213.62
247.5	215.62
247.733	218.62
247.966	201.62
248.2	224.62
248.433	217.62
248.666	218.62
248.899	213.62
249.133	227.62
249.366	220.62
249.599	225.62
249.832	221.62
250.066	226.62
250.299	228.62
250.532	213.62
250.765	224.62
250.998	218.62
251.231	214.62
251.465	233.62
251.698	233.62
251.931	257.62
252.164	241.62
252.397	226.62
252.63	250.62
252.863	257.62
253.096	248.62
253.329	260.62
253.562	269.62
253.795	260.62
254.028	253.62
254.261	254.62
254.494	255.62
254.727	235.62
254.96	265.62
255.193	251.62
255.426	249.62
255.659	249.62
255.892	262.62
256.124	258.62
256.357	236.62
256.59	270.62
256.823	256.62
257.056	256.62
257.289	282.62
257.521	278.62
257.754	261.62
257.987	249.62
258.22	265.62
258.452	256.62
258.685	277.62
258.918	268.62
259.151	280.62
259.383	275.62
259.616	257.62
259.849	274.62
260.081	266.62
260.314	297.62
260.547	300.62
260.779	288.62
261.012	275.62
261.244	296.62
261.477	302.62
261.71	291.62
261.942	302.62
262.175	313.62
262.407	290.62
262.64	291.62
262.872	304.62
263.105	294.62
263.337	292.62
263.57	290.62
263.802	297.62
264.035	305.62
264.267	310.62
264.499	320.62
264.732	320.62
264.964	306.62
265.197	297.62
265.429	329.62
265.661	316.62
265.894	326.62
266.126	286.62
266.358	323.62
266.591	316.62
266.823	337.62
267.055	318.62
267.287	326.62
267.52	308.62
267.752	324.62
267.984	315.62
268.216	319.62
268.448	340.62
268.681	325.62
268.913	306.62
269.145	336.62
269.377	336.62
269.609	337.62
269.841	331.62
270.073	328.62
270.306	337.62
270.538	344.62
270.77	336.62
271.002	344.62
271.234	330.62
271.466	335.62
271.698	356.62
271.93	324.62
272.162	335.62
272.394	349.62
272.626	356.62
272.858	352.62
273.09	326.62
273.322	348.62
273.553	361.62
273.785	359.62
274.017	360.62
274.249	354.62
274.481	344.62
274.713	357.62
274.945	371.62
275.176	351.62
275.408	344.62
275.64	373.62
275.872	376.62
276.104	361.62
276.335	386.62
276.567	361.62
276.799	370.62
277.031	381.62
277.262	378.62
277.494	372.62
277.726	398.62
277.957	372.62
278.189	371.62
278.421	349.62
278.652	357.62
278.884	388.62
279.115	382.62
279.347	381.62
279.579	378.62
279.81	380.62
280.042	393.62
280.273	379.62
280.505	399.62
280.736	416.62
280.968	404.62
281.199	395.62
281.431	409.62
281.662	402.62
281.894	405.62
282.125	417.62
282.356	413.62
282.588	392.62
282.819	408.62
283.051	408.62
283.282	397.62
283.513	404.62
283.745	398.62
283.976	406.62
284.207	409.62
284.439	426.62
284.67	438.62
284.901	410.62
285.132	425.62
285.364	426.62
285.595	412.62
285.826	440.62
286.057	440.62
286.288	412.62
286.52	435.62
286.751	435.62
286.982	456.62
287.213	431.62
287.444	450.62
287.675	427.62
287.906	460.62
288.138	437.62
288.369	419.62
288.6	443.62
288.831	453.62
289.062	439.62
289.293	461.62
289.524	448.62
289.755	438.62
289.986	448.62
290.217	450.62
290.448	439.62
290.679	466.62
290.91	440.62
291.141	457.62
291.371	456.62
291.602	463.62
291.833	439.62
292.064	481.62
292.295	457.62
292.526	460.62
292.757	454.62
292.987	466.62
293.218	456.62
293.449	470.62
293.68	452.62
293.91	472.62
294.141	481.62
294.372	466.62
294.603	460.62
294.833	448.62
295.064	453.62
295.295	450.62
295.525	475.62
295.756	466.62
295.987	463.62
296.217	477.62
296.448	479.62
296.679	471.62
296.909	467.62
297.14	493.62
297.37	497.62
297.601	481.62
297.831	496.62
298.062	486.62
298.292	515.62
298.523	518.62
298.753	525.62
298.984	507.62
299.214	493.62
299.445	485.62
299.675	510.62
299.905	512.62
300.136	493.62
300.366	504.62
300.597	496.62
300.827	523.62
301.057	529.62
301.288	543.62
301.518	514.62
301.748	499.62
301.979	526.62
302.209	524.62
302.439	534.62
302.669	514.62
302.9	513.62
303.13	527.62
303.36	514.62
303.59	496.62
303.82	524.62
304.051	516.62
304.281	517.62
304.511	529.62
304.741	522.62
304.971	500.62
305.201	511.62
305.431	524.62
305.661	521.62
305.891	516.62
306.121	500.62
306.352	497.62
306.582	512.62
306.812	506.62
307.042	490.62
307.272	515.62
307.502	498.62
307.731	500.62
307.961	498.62
308.191	499.62
308.421	500.62
308.651	505.62
308.881	497.62
309.111	519.62
309.341	484.62
309.571	510.62
309.8	520.62
310.03	523.62
310.26	489.62
310.49	494.62
310.72	516.62
310.949	517.62
311.179	508.62
311.409	533.62
311.639	535.62
311.868	536.62
312.098	509.62
312.328	527.62
312.557	541.62
312.787	524.62
313.017	537.62
313.246	537.62
313.476	542.62
313.706	533.62
313.935	555.62
314.165	554.62
314.394	550.62
314.624	551.62
314.853	516.62
315.083	539.62
315.312	539.62
315.542	546.62
315.771	533.62
316.001	503.62
316.23	541.62
316.46	522.62
316.689	518.62
316.919	522.62
317.148	532.62
317.377	527.62
317.607	557.62
317.836	510.62
318.065	532.62
318.295	524.62
318.524	514.62
318.753	531.62
318.983	514.62
319.212	520.62
319.441	538.62
319.67	545.62
319.9	523.62
320.129	520.62
320.358	527.62
320.587	538.62
320.816	540.62
321.046	548.62
321.275	544.62
321.504	525.62
321.733	532.62
321.962	541.62
322.191	533.62
322.42	526.62
322.649	525.62
322.878	530.62
323.108	552.62
323.337	562.62
323.566	555.62
323.795	548.62
324.024	560.62
324.253	561.62
324.482	547.62
324.71	572.62
324.939	557.62
325.168	574.62
325.397	549.62
325.626	566.62
325.855	570.62
326.084	589.62
326.313	600.62
326.542	585.62
326.77	609.62
326.999	579.62
327.228	575.62
327.457	587.62
327.686	580.62
327.914	572.62
328.143	601.62
328.372	590.62
328.6	585.62
328.829	584.62
329.058	590.62
329.287	622.62
329.515	587.62
329.744	604.62
329.972	602.62
330.201	603.62
330.43	582.62
330.658	616.62
330.887	593.62
331.115	609.62
331.344	620.62
331.572	638.62
331.801	637.62
332.03	652.62
332.258	651.62
332.486	651.62
332.715	708.62
332.943	742.62
333.172	766.62
333.4	806.62
333.629	787.62
333.857	824.62
334.085	778.62
334.314	800.62
334.542	768.62
334.771	763.62
334.999	733.62
335.227	749.62
335.455	729.62
335.684	748.62
335.912	719.62
336.14	704.62
336.369	729.62
336.597	733.62
336.825	729.62
337.053	718.62
337.281	694.62
337.51	716.62
337.738	697.62
337.966	649.62
338.194	644.62
338.422	670.62
338.65	658.62
338.878	653.62
339.106	650.62
339.334	629.62
339.562	637.62
339.79	620.62
340.018	636.62
340.246	612.62
340.474	624.62
340.702	620.62
340.93	629.62
341.158	641.62
341.386	634.62
341.614	620.62
341.842	624.62
342.07	604.62
342.298	609.62
342.526	612.62
342.754	636.62
342.981	599.62
343.209	633.62
343.437	660.62
343.665	686.62
343.893	764.62
344.12	788.62
344.348	752.62
344.576	700.62
344.804	672.62
345.031	666.62
345.259	638.62
345.487	642.62
345.714	617.62
345.942	630.62
346.17	616.62
346.397	625.62
346.625	611.62
346.853	621.62
347.08	601.62
347.308	619.62
347.535	633.62
347.763	642.62
347.99	621.62
348.218	621.62
348.445	601.62
348.673	597.62
348.9	617.62
349.128	603.62
349.355	610.62
349.583	601.62
349.81	605.62
350.037	600.62
350.265	574.62
350.492	584.62
350.72	585.62
350.947	588.62
351.174	572.62
351.402	555.62
351.629	588.62
351.856	570.62
352.083	571.62
352.311	581.62
352.538	544.62
352.765	570.62
352.992	578.62
353.22	593.62
353.447	596.62
353.674	583.62
353.901	586.62
354.128	565.62
354.355	578.62
354.583	593.62
354.81	587.62
355.037	587.62
355.264	584.62
355.491	595.62
355.718	567.62
355.945	575.62
356.172	580.62
356.399	584.62
356.626	607.62
356.853	624.62
357.08	597.62
357.307	593.62
357.534	598.62
357.761	588.62
357.988	576.62
358.215	580.62
358.441	593.62
358.668	572.62
358.895	574.62
359.122	554.62
359.349	563.62
359.576	584.62
359.802	611.62
360.029	605.62
360.256	619.62
360.483	596.62
360.709	568.62
360.936	587.62
361.163	598.62
361.39	590.62
361.616	588.62
361.843	584.62
362.07	581.62
362.296	581.62
362.523	572.62
362.749	595.62
362.976	586.62
363.203	566.62
363.429	560.62
363.656	582.62
363.882	582.62
364.109	577.62
364.335	572.62
364.562	572.62
364.788	558.62
365.015	556.62
365.241	567.62
365.468	576.62
365.694	568.62
365.92	576.62
366.147	554.62
366.373	587.62
366.599	597.62
366.826	554.62
367.052	580.62
367.278	578.62
367.505	609.62
367.731	598.62
367.957	573.62
368.184	598.62
368.41	606.62
368.636	587.62
368.862	583.62
369.089	591.62
369.315	609.62
369.541	584.62
369.767	593.62
369.993	597.62
370.219	619.62
370.445	615.62
370.672	621.62
370.898	609.62
371.124	626.62
371.35	639.62
371.576	631.62
371.802	635.62
372.028	633.62
372.254	619.62
372.48	636.62
372.706	668.62
372.932	658.62
373.158	665.62
373.384	653.62
373.61	654.62
373.835	639.62
374.061	628.62
374.287	641.62
374.513	648.62
374.739	657.62
374.965	689.62
375.191	689.62
375.416	715.62
375.642	680.62
375.868	667.62
376.094	658.62
376.319	648.62
376.545	620.62
376.771	626.62
376.997	650.62
377.222	646.62
377.448	655.62
377.674	637.62
377.899	614.62
378.125	620.62
378.35	605.62
378.576	620.62
378.802	642.62
379.027	636.62
379.253	620.62
379.478	633.62
379.704	644.62
379.929	644.62
380.155	644.62
380.38	652.62
380.606	635.62
380.831	632.62
381.057	630.62
381.282	616.62
381.507	619.62
381.733	640.62
381.958	636.62
382.184	651.62
382.409	638.62
382.634	642.62
382.86	676.62
383.085	666.62
383.31	679.62
383.535	683.62
383.761	706.62
383.986	713.62
384.211	716.62
384.436	723.62
384.662	740.62
384.887	776.62
385.112	756.62
385.337	761.62
385.562	753.62
385.787	774.62
386.013	785.62
386.238	734.62
386.463	771.62
386.688	790.62
386.913	773.62
387.138	738.62
387.363	776.62
387.588	741.62
387.813	745.62
388.038	729.62
388.263	749.62
388.488	760.62
388.713	748.62
388.938	744.62
389.163	711.62
389.387	759.62
389.612	731.62
389.837	728.62
390.062	724.62
390.287	776.62
390.512	743.62
390.736	737.62
390.961	760.62
391.186	771.62
391.411	826.62
391.636	832.62
391.86	872.62
392.085	848.62
392.31	861.62
392.534	850.62
392.759	809.62
392.984	802.62
393.208	795.62
393.433	796.62
393.658	813.62
393.882	810.62
394.107	808.62
394.331	825.62
394.556	827.62
394.78	787.62
395.005	807.62
395.229	810.62
395.454	824.62
395.678	846.62
395.903	829.62
396.127	843.62
396.352	827.62
396.576	818.62
396.801	783.62
397.025	820.62
397.249	832.62
397.474	829.62
397.698	851.62
397.922	852.62
398.147	871.62
398.371	853.62
398.595	871.62
398.82	926.62
399.044	1015.62
399.268	1096.62
399.492	1271.62
399.717	1478.62
399.941	1466.62
400.165	1297.62
400.389	1144.62
400.613	1067.62
400.837	1023.62
401.062	956.62
401.286	972.62
401.51	948.62
401.734	939.62
401.958	1010.62
402.182	980.62
402.406	974.62
402.63	993.62
402.854	1007.62
403.078	1045.62
403.302	1080.62
403.526	1088.62
403.75	1127.62
403.974	1108.62
404.198	1138.62
404.422	1116.62
404.645	1095.62
404.869	1071.62
405.093	1119.62
405.317	1097.62
405.541	1088.62
405.765	1040.62
405.988	1070.62
406.212	1051.62
406.436	1055.62
406.66	1053.62
406.883	1072.62
407.107	1121.62
407.331	1192.62
407.555	1270.62
407.778	1248.62
408.002	1247.62
408.226	1175.62
408.449	1154.62
408.673	1115.62
408.896	1101.62
409.12	1100.62
409.344	1107.62
409.567	1082.62
409.791	1125.62
410.014	1090.62
410.238	1115.62
410.461	1102.62
410.685	1093.62
410.908	1048.62
411.132	1035.62
411.355	987.62
411.578	1003.62
411.802	1001.62
412.025	1003.62
412.249	1033.62
412.472	1034.62
412.695	985.62
412.919	978.62
413.142	959.62
413.365	931.62
413.589	954.62
413.812	941.62
414.035	933.62
414.258	960.62
414.482	955.62
414.705	960.62
414.928	1004.62
415.151	962.62
415.374	969.62
415.597	975.62
415.821	938.62
416.044	935.62
416.267	937.62
416.49	922.62
416.713	940.62
416.936	930.62
417.159	941.62
417.382	950.62
417.605	953.62
417.828	921.62
418.051	993.62
418.274	947.62
418.497	980.62
418.72	962.62
418.943	999.62
419.166	1036.62
419.389	1106.62
419.611	1078.62
419.834	1021.62
420.057	1007.62
420.28	980.62
420.503	950.62
420.726	921.62
420.948	938.62
421.171	974.62
421.394	972.62
421.617	955.62
421.839	962.62
422.062	950.62
422.285	957.62
422.507	973.62
422.73	1004.62
422.953	1002.62
423.175	989.62
423.398	1029.62
423.621	1011.62
423.843	1024.62
424.066	1050.62
424.288	1053.62
424.511	1011.62
424.733	991.62
424.956	994.62
425.178	971.62
425.401	979.62
425.623	985.62
425.846	942.62
426.068	922.62
426.291	898.62
426.513	920.62
426.735	921.62
426.958	903.62
427.18	861.62
427.402	884.62
427.625	889.62
427.847	881.62
428.069	853.62
428.292	861.62
428.514	837.62
428.736	823.62
428.958	843.62
429.181	816.62
429.403	808.62
429.625	836.62
429.847	832.62
430.069	822.62
430.292	830.62
430.514	853.62
430.736	835.62
430.958	842.62
431.18	828.62
431.402	824.62
431.624	821.62
431.846	856.62
432.068	859.62
432.29	876.62
432.512	862.62
432.734	885.62
432.956	842.62
433.178	873.62
433.4	856.62
433.622	880.62
433.844	888.62
434.066	859.62
434.287	867.62
434.509	884.62
434.731	940.62
434.953	975.62
435.175	1007.62
435.397	961.62
435.618	914.62
435.84	920.62
436.062	869.62
436.284	879.62
436.505	876.62
436.727	855.62
436.949	877.62
437.17	859.62
437.392	848.62
437.614	853.62
437.835	829.62
438.057	836.62
438.278	820.62
438.5	802.62
438.721	820.62
438.943	817.62
439.165	822.62
439.386	841.62
439.608	870.62
439.829	858.62
440.05	855.62
440.272	869.62
440.493	875.62
440.715	872.62
440.936	903.62
441.158	923.62
441.379	960.62
441.6	1003.62
441.822	979.62
442.043	984.62
442.264	960.62
442.486	953.62
442.707	969.62
442.928	965.62
443.149	989.62
443.371	956.62
443.592	948.62
443.813	993.62
444.034	993.62
444.255	997.62
444.476	1080.62
444.698	1130.62
444.919	1162.62
445.14	1275.62
445.361	1091.62
445.582	1016.62
445.803	946.62
446.024	950.62
446.245	937.62
446.466	894.62
446.687	883.62
446.908	884.62
447.129	860.62
447.35	859.62
447.571	848.62
447.792	828.62
448.013	821.62
448.234	817.62
448.455	813.62
448.675	810.62
448.896	800.62
449.117	808.62
449.338	781.62
449.559	808.62
449.779	792.62
450	780.62
450.221	787.62
450.442	796.62
450.662	819.62
450.883	812.62
451.104	845.62
451.324	819.62
451.545	823.62
451.766	820.62
451.986	787.62
452.207	805.62
452.428	813.62
452.648	805.62
452.869	784.62
453.089	783.62
453.31	807.62
453.53	786.62
453.751	756.62
453.971	777.62
454.192	755.62
454.412	756.62
454.633	758.62
454.853	762.62
455.073	770.62
455.294	782.62
455.514	756.62
455.734	743.62
455.955	727.62
456.175	721.62
456.395	736.62
456.616	732.62
456.836	754.62
457.056	750.62
457.276	739.62
457.497	772.62
457.717	747.62
457.937	730.62
458.157	762.62
458.377	791.62
458.598	756.62
458.818	787.62
459.038	823.62
459.258	853.62
459.478	843.62
459.698	881.62
459.918	908.62
460.138	937.62
460.358	1029.62
460.578	1014.62
460.798	1026.62
461.018	1057.62
461.238	999.62
461.458	1008.62
461.678	1012.62
461.898	1038.62
462.118	1060.62
462.338	1115.62
462.558	1125.62
462.777	1149.62
462.997	1262.62
463.217	1399.62
463.437	1410.62
463.657	1301.62
463.876	1256.62
464.096	1195.62
464.316	1193.62
464.536	1219.62
464.755	1180.62
464.975	1110.62
465.195	1049.62
465.414	1039.62
465.634	964.62
465.854	930.62
466.073	888.62
466.293	876.62
466.512	862.62
466.732	826.62
466.951	866.62
467.171	856.62
467.391	868.62
467.61	853.62
467.829	841.62
468.049	820.62
468.268	813.62
468.488	800.62
468.707	811.62
468.927	785.62
469.146	786.62
469.365	795.62
469.585	798.62
469.804	841.62
470.023	871.62
470.243	844.62
470.462	839.62
470.681	870.62
470.901	858.62
471.12	849.62
471.339	824.62
471.558	823.62
471.777	810.62
471.997	797.62
472.216	808.62
472.435	790.62
472.654	785.62
472.873	766.62
473.092	765.62
473.311	769.62
473.53	772.62
473.749	771.62
473.968	770.62
474.187	753.62
474.406	758.62
474.625	774.62
474.844	784.62
475.063	777.62
475.282	783.62
475.501	800.62
475.72	798.62
475.939	778.62
476.158	790.62
476.377	821.62
476.596	791.62
476.814	806.62
477.033	812.62
477.252	808.62
477.471	847.62
477.69	872.62
477.908	894.62
478.127	902.62
478.346	952.62
478.564	952.62
478.783	962.62
479.002	983.62
479.22	951.62
479.439	964.62
479.658	969.62
479.876	979.62
480.095	965.62
480.313	1013.62
480.532	1068.62
480.751	1085.62
480.969	996.62
481.188	936.62
481.406	932.62
481.624	920.62
481.843	890.62
482.061	899.62
482.28	894.62
482.498	860.62
482.717	884.62
482.935	863.62
483.153	892.62
483.372	904.62
483.59	902.62
483.808	869.62
484.027	892.62
484.245	901.62
484.463	894.62
484.681	901.62
484.9	913.62
485.118	912.62
485.336	920.62
485.554	913.62
485.772	928.62
485.99	963.62
486.209	962.62
486.427	941.62
486.645	939.62
486.863	937.62
487.081	944.62
487.299	902.62
487.517	949.62
487.735	929.62
487.953	940.62
488.171	946.62
488.389	922.62
488.607	916.62
488.825	914.62
489.043	917.62
489.261	897.62
489.479	908.62
489.696	924.62
489.914	924.62
490.132	923.62
490.35	952.62
490.568	938.62
490.786	955.62
491.003	946.62
491.221	957.62
491.439	965.62
491.657	960.62
491.874	961.62
492.092	988.62
492.31	952.62
492.527	965.62
492.745	976.62
492.963	963.62
493.18	983.62
493.398	956.62
493.615	969.62
493.833	1010.62
494.05	976.62
494.268	984.62
494.485	1006.62
494.703	948.62
494.92	960.62
495.138	988.62
495.355	969.62
495.573	985.62
495.79	986.62
496.008	989.62
496.225	1008.62
496.442	1042.62
496.66	1029.62
496.877	1012.62
497.094	1043.62
497.312	1074.62
497.529	1091.62
497.746	1089.62
497.963	1157.62
498.181	1175.62
498.398	1251.62
498.615	1327.62
498.832	1420.62
499.049	1492.62
499.267	1613.62
499.484	1778.62
499.701	2007.62
499.918	2246.62
