Data from Ni(NO3)2@0.125M.TitratingCurve.Agarose3%dH2O.NegLispCup.LampEnergy10.LIBS07252019_HRD10591_18-10-14-568.txt Node
Date: Thu Jul 25 18:10:14 EDT 2019
User: cochatt
Spectrometer: HR+D1059
Trigger mode: 1
Integration Time (sec): 1.000000E-1
Scans to average: 1
Electric dark correction enabled: true
Nonlinearity correction enabled: false
Boxcar width: 0
XAxis mode: Wavelengths
Number of Pixels in Spectrum: 2048
>>>>>Begin Spectral Data<<<<<
223.165	-8.69
223.4	-8.69
223.635	-8.69
223.869	-25.69
224.104	-14.69
224.338	-14.69
224.573	-26.69
224.808	-15.69
225.042	-9.69
225.277	-17.69
225.511	-2.69
225.746	1.31
225.98	3.31
226.215	17.31
226.449	15.31
226.683	28.31
226.918	31.31
227.152	39.31
227.387	34.31
227.621	37.31
227.856	40.31
228.09	49.31
228.324	51.31
228.559	65.31
228.793	41.31
229.027	94.31
229.262	111.31
229.496	89.31
229.73	114.31
229.964	107.31
230.199	95.31
230.433	94.31
230.667	109.31
230.901	124.31
231.136	125.31
231.37	121.31
231.604	128.31
231.838	129.31
232.072	118.31
232.306	127.31
232.541	120.31
232.775	127.31
233.009	130.31
233.243	135.31
233.477	128.31
233.711	128.31
233.945	149.31
234.179	136.31
234.413	132.31
234.647	140.31
234.881	132.31
235.115	130.31
235.349	136.31
235.583	122.31
235.817	128.31
236.051	133.31
236.285	124.31
236.519	127.31
236.753	123.31
236.987	131.31
237.221	148.31
237.455	151.31
237.689	138.31
237.922	160.31
238.156	141.31
238.39	141.31
238.624	155.31
238.858	157.31
239.091	144.31
239.325	140.31
239.559	145.31
239.793	153.31
240.027	140.31
240.26	156.31
240.494	154.31
240.728	150.31
240.961	155.31
241.195	153.31
241.429	158.31
241.662	143.31
241.896	155.31
242.13	168.31
242.363	152.31
242.597	170.31
242.83	160.31
243.064	176.31
243.298	172.31
243.531	157.31
243.765	183.31
243.998	178.31
244.232	176.31
244.465	172.31
244.699	193.31
244.932	175.31
245.166	182.31
245.399	164.31
245.633	191.31
245.866	178.31
246.099	202.31
246.333	168.31
246.566	198.31
246.8	189.31
247.033	184.31
247.266	192.31
247.5	208.31
247.733	207.31
247.966	200.31
248.2	197.31
248.433	201.31
248.666	187.31
248.899	209.31
249.133	198.31
249.366	199.31
249.599	214.31
249.832	226.31
250.066	217.31
250.299	194.31
250.532	209.31
250.765	217.31
250.998	221.31
251.231	213.31
251.465	212.31
251.698	229.31
251.931	234.31
252.164	211.31
252.397	228.31
252.63	223.31
252.863	240.31
253.096	219.31
253.329	251.31
253.562	220.31
253.795	220.31
254.028	246.31
254.261	230.31
254.494	247.31
254.727	217.31
254.96	245.31
255.193	244.31
255.426	240.31
255.659	249.31
255.892	247.31
256.124	246.31
256.357	245.31
256.59	259.31
256.823	231.31
257.056	223.31
257.289	250.31
257.521	263.31
257.754	265.31
257.987	259.31
258.22	261.31
258.452	259.31
258.685	268.31
258.918	276.31
259.151	262.31
259.383	272.31
259.616	262.31
259.849	257.31
260.081	261.31
260.314	256.31
260.547	282.31
260.779	266.31
261.012	283.31
261.244	276.31
261.477	270.31
261.71	286.31
261.942	260.31
262.175	276.31
262.407	280.31
262.64	285.31
262.872	282.31
263.105	289.31
263.337	275.31
263.57	279.31
263.802	297.31
264.035	279.31
264.267	277.31
264.499	284.31
264.732	307.31
264.964	292.31
265.197	303.31
265.429	297.31
265.661	281.31
265.894	288.31
266.126	306.31
266.358	303.31
266.591	307.31
266.823	317.31
267.055	316.31
267.287	301.31
267.52	311.31
267.752	303.31
267.984	295.31
268.216	287.31
268.448	290.31
268.681	295.31
268.913	304.31
269.145	305.31
269.377	315.31
269.609	303.31
269.841	323.31
270.073	314.31
270.306	307.31
270.538	320.31
270.77	307.31
271.002	307.31
271.234	326.31
271.466	324.31
271.698	318.31
271.93	319.31
272.162	327.31
272.394	325.31
272.626	332.31
272.858	319.31
273.09	325.31
273.322	337.31
273.553	322.31
273.785	330.31
274.017	345.31
274.249	333.31
274.481	321.31
274.713	354.31
274.945	335.31
275.176	324.31
275.408	348.31
275.64	331.31
275.872	329.31
276.104	346.31
276.335	353.31
276.567	351.31
276.799	312.31
277.031	343.31
277.262	347.31
277.494	332.31
277.726	347.31
277.957	350.31
278.189	365.31
278.421	356.31
278.652	346.31
278.884	379.31
279.115	385.31
279.347	376.31
279.579	344.31
279.81	385.31
280.042	380.31
280.273	374.31
280.505	380.31
280.736	367.31
280.968	373.31
281.199	372.31
281.431	388.31
281.662	377.31
281.894	376.31
282.125	384.31
282.356	411.31
282.588	397.31
282.819	390.31
283.051	389.31
283.282	392.31
283.513	387.31
283.745	391.31
283.976	380.31
284.207	391.31
284.439	395.31
284.67	388.31
284.901	390.31
285.132	410.31
285.364	378.31
285.595	397.31
285.826	403.31
286.057	406.31
286.288	403.31
286.52	425.31
286.751	410.31
286.982	408.31
287.213	409.31
287.444	418.31
287.675	419.31
287.906	408.31
288.138	423.31
288.369	420.31
288.6	425.31
288.831	398.31
289.062	436.31
289.293	411.31
289.524	422.31
289.755	431.31
289.986	411.31
290.217	420.31
290.448	428.31
290.679	434.31
290.91	439.31
291.141	419.31
291.371	425.31
291.602	424.31
291.833	420.31
292.064	453.31
292.295	436.31
292.526	429.31
292.757	420.31
292.987	434.31
293.218	427.31
293.449	428.31
293.68	453.31
293.91	445.31
294.141	432.31
294.372	438.31
294.603	437.31
294.833	413.31
295.064	447.31
295.295	427.31
295.525	450.31
295.756	431.31
295.987	443.31
296.217	434.31
296.448	438.31
296.679	441.31
296.909	451.31
297.14	458.31
297.37	459.31
297.601	453.31
297.831	473.31
298.062	483.31
298.292	484.31
298.523	481.31
298.753	486.31
298.984	476.31
299.214	460.31
299.445	471.31
299.675	484.31
299.905	484.31
300.136	474.31
300.366	475.31
300.597	465.31
300.827	508.31
301.057	488.31
301.288	487.31
301.518	493.31
301.748	492.31
301.979	515.31
302.209	477.31
302.439	474.31
302.669	478.31
302.9	484.31
303.13	473.31
303.36	480.31
303.59	473.31
303.82	480.31
304.051	496.31
304.281	483.31
304.511	493.31
304.741	500.31
304.971	491.31
305.201	492.31
305.431	482.31
305.661	482.31
305.891	473.31
306.121	479.31
306.352	469.31
306.582	481.31
306.812	467.31
307.042	480.31
307.272	452.31
307.502	456.31
307.731	466.31
307.961	470.31
308.191	460.31
308.421	466.31
308.651	466.31
308.881	466.31
309.111	470.31
309.341	466.31
309.571	459.31
309.8	459.31
310.03	464.31
310.26	456.31
310.49	466.31
310.72	476.31
310.949	466.31
311.179	486.31
311.409	475.31
311.639	485.31
311.868	491.31
312.098	497.31
312.328	488.31
312.557	495.31
312.787	504.31
313.017	492.31
313.246	511.31
313.476	490.31
313.706	522.31
313.935	511.31
314.165	513.31
314.394	514.31
314.624	517.31
314.853	492.31
315.083	485.31
315.312	484.31
315.542	506.31
315.771	479.31
316.001	502.31
316.23	505.31
316.46	474.31
316.689	497.31
316.919	509.31
317.148	496.31
317.377	513.31
317.607	493.31
317.836	486.31
318.065	476.31
318.295	489.31
318.524	473.31
318.753	490.31
318.983	493.31
319.212	491.31
319.441	495.31
319.67	508.31
319.9	519.31
320.129	476.31
320.358	501.31
320.587	486.31
320.816	488.31
321.046	497.31
321.275	515.31
321.504	482.31
321.733	508.31
321.962	527.31
322.191	499.31
322.42	499.31
322.649	510.31
322.878	517.31
323.108	511.31
323.337	517.31
323.566	500.31
323.795	508.31
324.024	504.31
324.253	520.31
324.482	522.31
324.71	534.31
324.939	509.31
325.168	515.31
325.397	501.31
325.626	536.31
325.855	531.31
326.084	539.31
326.313	559.31
326.542	562.31
326.77	548.31
326.999	581.31
327.228	531.31
327.457	539.31
327.686	543.31
327.914	536.31
328.143	538.31
328.372	529.31
328.6	540.31
328.829	545.31
329.058	548.31
329.287	528.31
329.515	564.31
329.744	554.31
329.972	543.31
330.201	545.31
330.43	553.31
330.658	563.31
330.887	580.31
331.115	565.31
331.344	565.31
331.572	574.31
331.801	617.31
332.03	603.31
332.258	628.31
332.486	627.31
332.715	648.31
332.943	691.31
333.172	725.31
333.4	737.31
333.629	754.31
333.857	748.31
334.085	748.31
334.314	749.31
334.542	720.31
334.771	706.31
334.999	681.31
335.227	677.31
335.455	672.31
335.684	676.31
335.912	684.31
336.14	676.31
336.369	676.31
336.597	678.31
336.825	696.31
337.053	681.31
337.281	648.31
337.51	648.31
337.738	601.31
337.966	617.31
338.194	618.31
338.422	603.31
338.65	603.31
338.878	590.31
339.106	599.31
339.334	592.31
339.562	603.31
339.79	595.31
340.018	589.31
340.246	564.31
340.474	564.31
340.702	586.31
340.93	586.31
341.158	590.31
341.386	592.31
341.614	579.31
341.842	581.31
342.07	564.31
342.298	590.31
342.526	599.31
342.754	581.31
342.981	551.31
343.209	585.31
343.437	627.31
343.665	667.31
343.893	719.31
344.12	736.31
344.348	695.31
344.576	669.31
344.804	633.31
345.031	592.31
345.259	601.31
345.487	580.31
345.714	585.31
345.942	582.31
346.17	560.31
346.397	574.31
346.625	570.31
346.853	559.31
347.08	566.31
347.308	564.31
347.535	567.31
347.763	561.31
347.99	585.31
348.218	581.31
348.445	574.31
348.673	578.31
348.9	559.31
349.128	580.31
349.355	556.31
349.583	554.31
349.81	563.31
350.037	550.31
350.265	546.31
350.492	576.31
350.72	541.31
350.947	554.31
351.174	552.31
351.402	541.31
351.629	546.31
351.856	536.31
352.083	544.31
352.311	523.31
352.538	527.31
352.765	526.31
352.992	508.31
353.22	530.31
353.447	535.31
353.674	542.31
353.901	541.31
354.128	553.31
354.355	545.31
354.583	544.31
354.81	543.31
355.037	564.31
355.264	560.31
355.491	547.31
355.718	540.31
355.945	553.31
356.172	532.31
356.399	524.31
356.626	563.31
356.853	576.31
357.08	548.31
357.307	556.31
357.534	568.31
357.761	545.31
357.988	547.31
358.215	536.31
358.441	533.31
358.668	520.31
358.895	536.31
359.122	538.31
359.349	514.31
359.576	536.31
359.802	560.31
360.029	548.31
360.256	551.31
360.483	543.31
360.709	556.31
360.936	522.31
361.163	536.31
361.39	535.31
361.616	538.31
361.843	537.31
362.07	546.31
362.296	541.31
362.523	544.31
362.749	536.31
362.976	555.31
363.203	530.31
363.429	543.31
363.656	530.31
363.882	534.31
364.109	552.31
364.335	535.31
364.562	524.31
364.788	540.31
365.015	546.31
365.241	520.31
365.468	553.31
365.694	540.31
365.92	521.31
366.147	545.31
366.373	555.31
366.599	544.31
366.826	548.31
367.052	528.31
367.278	534.31
367.505	573.31
367.731	540.31
367.957	556.31
368.184	548.31
368.41	551.31
368.636	554.31
368.862	552.31
369.089	560.31
369.315	563.31
369.541	566.31
369.767	563.31
369.993	571.31
370.219	570.31
370.445	587.31
370.672	581.31
370.898	607.31
371.124	598.31
371.35	585.31
371.576	595.31
371.802	583.31
372.028	571.31
372.254	606.31
372.48	603.31
372.706	613.31
372.932	632.31
373.158	603.31
373.384	596.31
373.61	604.31
373.835	608.31
374.061	594.31
374.287	587.31
374.513	606.31
374.739	635.31
374.965	660.31
375.191	691.31
375.416	665.31
375.642	628.31
375.868	650.31
376.094	618.31
376.319	621.31
376.545	614.31
376.771	619.31
376.997	581.31
377.222	617.31
377.448	611.31
377.674	605.31
377.899	570.31
378.125	579.31
378.35	584.31
378.576	579.31
378.802	567.31
379.027	561.31
379.253	598.31
379.478	577.31
379.704	587.31
379.929	597.31
380.155	562.31
380.38	576.31
380.606	578.31
380.831	581.31
381.057	585.31
381.282	575.31
381.507	594.31
381.733	600.31
381.958	565.31
382.184	608.31
382.409	613.31
382.634	622.31
382.86	627.31
383.085	631.31
383.31	636.31
383.535	669.31
383.761	676.31
383.986	695.31
384.211	661.31
384.436	700.31
384.662	725.31
384.887	721.31
385.112	715.31
385.337	726.31
385.562	723.31
385.787	723.31
386.013	720.31
386.238	699.31
386.463	683.31
386.688	734.31
386.913	703.31
387.138	681.31
387.363	707.31
387.588	704.31
387.813	687.31
388.038	721.31
388.263	681.31
388.488	701.31
388.713	708.31
388.938	705.31
389.163	701.31
389.387	689.31
389.612	683.31
389.837	689.31
390.062	705.31
390.287	679.31
390.512	681.31
390.736	677.31
390.961	696.31
391.186	701.31
391.411	755.31
391.636	789.31
391.86	766.31
392.085	807.31
392.31	802.31
392.534	788.31
392.759	775.31
392.984	753.31
393.208	733.31
393.433	743.31
393.658	747.31
393.882	748.31
394.107	779.31
394.331	759.31
394.556	740.31
394.78	773.31
395.005	761.31
395.229	753.31
395.454	784.31
395.678	829.31
395.903	797.31
396.127	775.31
396.352	767.31
396.576	735.31
396.801	719.31
397.025	739.31
397.249	752.31
397.474	791.31
397.698	786.31
397.922	791.31
398.147	803.31
398.371	790.31
398.595	831.31
398.82	858.31
399.044	919.31
399.268	1029.31
399.492	1219.31
399.717	1363.31
399.941	1340.31
400.165	1185.31
400.389	1057.31
400.613	979.31
400.837	935.31
401.062	900.31
401.286	896.31
401.51	873.31
401.734	856.31
401.958	881.31
402.182	902.31
402.406	904.31
402.63	947.31
402.854	957.31
403.078	974.31
403.302	996.31
403.526	1004.31
403.75	1025.31
403.974	1067.31
404.198	1068.31
404.422	1065.31
404.645	1052.31
404.869	1025.31
405.093	1000.31
405.317	975.31
405.541	1002.31
405.765	972.31
405.988	970.31
406.212	972.31
406.436	969.31
406.66	995.31
406.883	1015.31
407.107	1048.31
407.331	1131.31
407.555	1152.31
407.778	1196.31
408.002	1129.31
408.226	1088.31
408.449	1077.31
408.673	1044.31
408.896	1029.31
409.12	1041.31
409.344	1018.31
409.567	1024.31
409.791	1075.31
410.014	1038.31
410.238	1038.31
410.461	1007.31
410.685	1028.31
410.908	966.31
411.132	938.31
411.355	924.31
411.578	949.31
411.802	938.31
412.025	939.31
412.249	979.31
412.472	948.31
412.695	903.31
412.919	887.31
413.142	872.31
413.365	877.31
413.589	904.31
413.812	910.31
414.035	883.31
414.258	876.31
414.482	855.31
414.705	929.31
414.928	919.31
415.151	922.31
415.374	920.31
415.597	899.31
415.821	885.31
416.044	890.31
416.267	851.31
416.49	857.31
416.713	864.31
416.936	885.31
417.159	855.31
417.382	895.31
417.605	885.31
417.828	890.31
418.051	888.31
418.274	886.31
418.497	890.31
418.72	922.31
418.943	912.31
419.166	988.31
419.389	1036.31
419.611	997.31
419.834	966.31
420.057	973.31
420.28	900.31
420.503	880.31
420.726	883.31
420.948	867.31
421.171	880.31
421.394	863.31
421.617	891.31
421.839	903.31
422.062	893.31
422.285	889.31
422.507	895.31
422.73	924.31
422.953	940.31
423.175	945.31
423.398	965.31
423.621	947.31
423.843	975.31
424.066	947.31
424.288	988.31
424.511	993.31
424.733	959.31
424.956	927.31
425.178	922.31
425.401	896.31
425.623	871.31
425.846	879.31
426.068	863.31
426.291	844.31
426.513	851.31
426.735	865.31
426.958	851.31
427.18	825.31
427.402	810.31
427.625	816.31
427.847	815.31
428.069	806.31
428.292	821.31
428.514	803.31
428.736	780.31
428.958	799.31
429.181	783.31
429.403	782.31
429.625	784.31
429.847	774.31
430.069	745.31
430.292	765.31
430.514	782.31
430.736	767.31
430.958	788.31
431.18	791.31
431.402	779.31
431.624	771.31
431.846	793.31
432.068	793.31
432.29	799.31
432.512	800.31
432.734	810.31
432.956	811.31
433.178	792.31
433.4	804.31
433.622	823.31
433.844	804.31
434.066	811.31
434.287	838.31
434.509	840.31
434.731	884.31
434.953	889.31
435.175	907.31
435.397	871.31
435.618	853.31
435.84	835.31
436.062	813.31
436.284	796.31
436.505	813.31
436.727	808.31
436.949	821.31
437.17	808.31
437.392	801.31
437.614	798.31
437.835	777.31
438.057	764.31
438.278	765.31
438.5	808.31
438.721	794.31
438.943	759.31
439.165	781.31
439.386	779.31
439.608	834.31
439.829	815.31
440.05	820.31
440.272	800.31
440.493	819.31
440.715	821.31
440.936	826.31
441.158	840.31
441.379	896.31
441.6	916.31
441.822	951.31
442.043	920.31
442.264	888.31
442.486	868.31
442.707	869.31
442.928	924.31
443.149	891.31
443.371	910.31
443.592	858.31
443.813	912.31
444.034	911.31
444.255	957.31
444.476	1005.31
444.698	1064.31
444.919	1137.31
445.14	1176.31
445.361	1053.31
445.582	931.31
445.803	889.31
446.024	872.31
446.245	872.31
446.466	841.31
446.687	816.31
446.908	829.31
447.129	820.31
447.35	793.31
447.571	787.31
447.792	746.31
448.013	763.31
448.234	755.31
448.455	756.31
448.675	733.31
448.896	750.31
449.117	746.31
449.338	735.31
449.559	755.31
449.779	737.31
450	718.31
450.221	757.31
450.442	768.31
450.662	753.31
450.883	767.31
451.104	795.31
451.324	791.31
451.545	771.31
451.766	792.31
451.986	766.31
452.207	746.31
452.428	733.31
452.648	740.31
452.869	739.31
453.089	730.31
453.31	740.31
453.53	716.31
453.751	734.31
453.971	739.31
454.192	721.31
454.412	708.31
454.633	733.31
454.853	719.31
455.073	721.31
455.294	691.31
455.514	689.31
455.734	694.31
455.955	683.31
456.175	684.31
456.395	691.31
456.616	676.31
456.836	693.31
457.056	689.31
457.276	698.31
457.497	687.31
457.717	696.31
457.937	700.31
458.157	681.31
458.377	696.31
458.598	729.31
458.818	751.31
459.038	789.31
459.258	791.31
459.478	827.31
459.698	847.31
459.918	829.31
460.138	881.31
460.358	957.31
460.578	959.31
460.798	960.31
461.018	971.31
461.238	979.31
461.458	946.31
461.678	927.31
461.898	955.31
462.118	928.31
462.338	1052.31
462.558	1062.31
462.777	1111.31
462.997	1167.31
463.217	1346.31
463.437	1353.31
463.657	1209.31
463.876	1161.31
464.096	1152.31
464.316	1151.31
464.536	1125.31
464.755	1099.31
464.975	1066.31
465.195	983.31
465.414	951.31
465.634	892.31
465.854	851.31
466.073	841.31
466.293	845.31
466.512	811.31
466.732	803.31
466.951	786.31
467.171	782.31
467.391	793.31
467.61	768.31
467.829	786.31
468.049	783.31
468.268	745.31
468.488	747.31
468.707	740.31
468.927	747.31
469.146	744.31
469.365	775.31
469.585	759.31
469.804	779.31
470.023	804.31
470.243	789.31
470.462	832.31
470.681	821.31
470.901	849.31
471.12	811.31
471.339	787.31
471.558	771.31
471.777	774.31
471.997	736.31
472.216	758.31
472.435	736.31
472.654	717.31
472.873	720.31
473.092	719.31
473.311	700.31
473.53	716.31
473.749	715.31
473.968	727.31
474.187	718.31
474.406	729.31
474.625	714.31
474.844	695.31
475.063	716.31
475.282	732.31
475.501	706.31
475.72	723.31
475.939	744.31
476.158	731.31
476.377	779.31
476.596	763.31
476.814	751.31
477.033	736.31
477.252	770.31
477.471	775.31
477.69	826.31
477.908	834.31
478.127	867.31
478.346	880.31
478.564	865.31
478.783	883.31
479.002	923.31
479.22	933.31
479.439	937.31
479.658	890.31
479.876	917.31
480.095	905.31
480.313	942.31
480.532	986.31
480.751	976.31
480.969	919.31
481.188	882.31
481.406	847.31
481.624	849.31
481.843	824.31
482.061	804.31
482.28	827.31
482.498	812.31
482.717	819.31
482.935	826.31
483.153	822.31
483.372	810.31
483.59	834.31
483.808	812.31
484.027	799.31
484.245	820.31
484.463	852.31
484.681	839.31
484.9	869.31
485.118	859.31
485.336	853.31
485.554	882.31
485.772	852.31
485.99	885.31
486.209	917.31
486.427	910.31
486.645	920.31
486.863	900.31
487.081	887.31
487.299	877.31
487.517	904.31
487.735	888.31
487.953	883.31
488.171	874.31
488.389	833.31
488.607	874.31
488.825	862.31
489.043	854.31
489.261	849.31
489.479	829.31
489.696	860.31
489.914	890.31
490.132	897.31
490.35	861.31
490.568	873.31
490.786	887.31
491.003	893.31
491.221	887.31
491.439	903.31
491.657	880.31
491.874	909.31
492.092	895.31
492.31	912.31
492.527	896.31
492.745	901.31
492.963	901.31
493.18	931.31
493.398	916.31
493.615	923.31
493.833	914.31
494.05	958.31
494.268	925.31
494.485	940.31
494.703	924.31
494.92	904.31
495.138	929.31
495.355	917.31
495.573	918.31
495.79	921.31
496.008	943.31
496.225	926.31
496.442	925.31
496.66	969.31
496.877	977.31
497.094	976.31
497.312	979.31
497.529	1023.31
497.746	1019.31
497.963	1048.31
498.181	1114.31
498.398	1153.31
498.615	1222.31
498.832	1323.31
499.049	1398.31
499.267	1548.31
499.484	1670.31
499.701	1861.31
499.918	2072.31
500.135	2452.31
500.352	2881.31
500.569	3019.31
500.786	2997.31
