Data from Ni(NO3)2@0.25M.TitratingCurve.Agarose3%dH2O.NegLispCup.LampEnergy10.LIBS07252019_HRD10591_18-05-50-566.txt Node
Date: Thu Jul 25 18:05:50 EDT 2019
User: cochatt
Spectrometer: HR+D1059
Trigger mode: 1
Integration Time (sec): 1.000000E-1
Scans to average: 1
Electric dark correction enabled: true
Nonlinearity correction enabled: false
Boxcar width: 0
XAxis mode: Wavelengths
Number of Pixels in Spectrum: 2048
>>>>>Begin Spectral Data<<<<<
223.165	-2.44
223.4	-2.44
223.635	-2.44
223.869	-14.44
224.104	-16.44
224.338	-8.44
224.573	-6.44
224.808	-11.44
225.042	-13.44
225.277	-7.44
225.511	-3.44
225.746	-14.44
225.98	7.56
226.215	15.56
226.449	10.56
226.683	11.56
226.918	29.56
227.152	23.56
227.387	39.56
227.621	31.56
227.856	31.56
228.09	58.56
228.324	58.56
228.559	63.56
228.793	73.56
229.027	124.56
229.262	124.56
229.496	154.56
229.73	154.56
229.964	156.56
230.199	156.56
230.433	173.56
230.667	169.56
230.901	174.56
231.136	174.56
231.37	190.56
231.604	183.56
231.838	173.56
232.072	174.56
232.306	179.56
232.541	197.56
232.775	194.56
233.009	187.56
233.243	189.56
233.477	191.56
233.711	168.56
233.945	199.56
234.179	198.56
234.413	205.56
234.647	206.56
234.881	187.56
235.115	197.56
235.349	200.56
235.583	206.56
235.817	204.56
236.051	201.56
236.285	203.56
236.519	204.56
236.753	183.56
236.987	205.56
237.221	207.56
237.455	227.56
237.689	229.56
237.922	220.56
238.156	225.56
238.39	214.56
238.624	226.56
238.858	235.56
239.091	232.56
239.325	218.56
239.559	233.56
239.793	237.56
240.027	246.56
240.26	239.56
240.494	236.56
240.728	233.56
240.961	242.56
241.195	242.56
241.429	260.56
241.662	251.56
241.896	257.56
242.13	253.56
242.363	257.56
242.597	242.56
242.83	284.56
243.064	279.56
243.298	275.56
243.531	265.56
243.765	277.56
243.998	297.56
244.232	297.56
244.465	294.56
244.699	303.56
244.932	317.56
245.166	301.56
245.399	291.56
245.633	310.56
245.866	327.56
246.099	326.56
246.333	338.56
246.566	325.56
246.8	309.56
247.033	329.56
247.266	323.56
247.5	334.56
247.733	337.56
247.966	355.56
248.2	350.56
248.433	338.56
248.666	355.56
248.899	357.56
249.133	353.56
249.366	355.56
249.599	370.56
249.832	377.56
250.066	372.56
250.299	370.56
250.532	391.56
250.765	376.56
250.998	387.56
251.231	389.56
251.465	404.56
251.698	395.56
251.931	408.56
252.164	402.56
252.397	386.56
252.63	406.56
252.863	405.56
253.096	399.56
253.329	423.56
253.562	419.56
253.795	438.56
254.028	420.56
254.261	432.56
254.494	444.56
254.727	454.56
254.96	441.56
255.193	442.56
255.426	461.56
255.659	463.56
255.892	455.56
256.124	453.56
256.357	469.56
256.59	467.56
256.823	450.56
257.056	472.56
257.289	473.56
257.521	477.56
257.754	510.56
257.987	497.56
258.22	486.56
258.452	488.56
258.685	485.56
258.918	502.56
259.151	503.56
259.383	515.56
259.616	503.56
259.849	519.56
260.081	514.56
260.314	516.56
260.547	535.56
260.779	525.56
261.012	513.56
261.244	553.56
261.477	543.56
261.71	541.56
261.942	550.56
262.175	538.56
262.407	550.56
262.64	530.56
262.872	531.56
263.105	547.56
263.337	544.56
263.57	561.56
263.802	566.56
264.035	558.56
264.267	580.56
264.499	557.56
264.732	557.56
264.964	574.56
265.197	595.56
265.429	630.56
265.661	579.56
265.894	596.56
266.126	593.56
266.358	590.56
266.591	620.56
266.823	605.56
267.055	578.56
267.287	595.56
267.52	620.56
267.752	621.56
267.984	622.56
268.216	611.56
268.448	629.56
268.681	615.56
268.913	634.56
269.145	603.56
269.377	634.56
269.609	599.56
269.841	619.56
270.073	625.56
270.306	629.56
270.538	628.56
270.77	638.56
271.002	651.56
271.234	657.56
271.466	648.56
271.698	666.56
271.93	672.56
272.162	666.56
272.394	674.56
272.626	672.56
272.858	659.56
273.09	640.56
273.322	671.56
273.553	672.56
273.785	693.56
274.017	650.56
274.249	675.56
274.481	699.56
274.713	687.56
274.945	710.56
275.176	689.56
275.408	694.56
275.64	703.56
275.872	713.56
276.104	728.56
276.335	691.56
276.567	714.56
276.799	687.56
277.031	692.56
277.262	733.56
277.494	694.56
277.726	700.56
277.957	735.56
278.189	712.56
278.421	721.56
278.652	738.56
278.884	728.56
279.115	753.56
279.347	734.56
279.579	735.56
279.81	747.56
280.042	724.56
280.273	736.56
280.505	756.56
280.736	734.56
280.968	758.56
281.199	772.56
281.431	764.56
281.662	769.56
281.894	773.56
282.125	762.56
282.356	785.56
282.588	797.56
282.819	808.56
283.051	778.56
283.282	781.56
283.513	774.56
283.745	796.56
283.976	792.56
284.207	805.56
284.439	795.56
284.67	793.56
284.901	818.56
285.132	804.56
285.364	805.56
285.595	813.56
285.826	808.56
286.057	795.56
286.288	818.56
286.52	845.56
286.751	827.56
286.982	811.56
287.213	814.56
287.444	812.56
287.675	813.56
287.906	833.56
288.138	823.56
288.369	834.56
288.6	833.56
288.831	843.56
289.062	831.56
289.293	825.56
289.524	857.56
289.755	849.56
289.986	838.56
290.217	859.56
290.448	845.56
290.679	857.56
290.91	871.56
291.141	863.56
291.371	848.56
291.602	851.56
291.833	817.56
292.064	842.56
292.295	878.56
292.526	875.56
292.757	832.56
292.987	833.56
293.218	858.56
293.449	865.56
293.68	869.56
293.91	851.56
294.141	836.56
294.372	844.56
294.603	870.56
294.833	868.56
295.064	865.56
295.295	869.56
295.525	873.56
295.756	888.56
295.987	867.56
296.217	883.56
296.448	863.56
296.679	866.56
296.909	906.56
297.14	884.56
297.37	887.56
297.601	890.56
297.831	900.56
298.062	917.56
298.292	923.56
298.523	935.56
298.753	941.56
298.984	937.56
299.214	938.56
299.445	930.56
299.675	929.56
299.905	921.56
300.136	939.56
300.366	935.56
300.597	963.56
300.827	943.56
301.057	932.56
301.288	954.56
301.518	961.56
301.748	974.56
301.979	982.56
302.209	962.56
302.439	974.56
302.669	959.56
302.9	967.56
303.13	974.56
303.36	991.56
303.59	988.56
303.82	973.56
304.051	991.56
304.281	979.56
304.511	963.56
304.741	996.56
304.971	970.56
305.201	993.56
305.431	969.56
305.661	982.56
305.891	979.56
306.121	976.56
306.352	973.56
306.582	984.56
306.812	951.56
307.042	960.56
307.272	960.56
307.502	933.56
307.731	953.56
307.961	973.56
308.191	983.56
308.421	947.56
308.651	963.56
308.881	973.56
309.111	989.56
309.341	952.56
309.571	990.56
309.8	978.56
310.03	964.56
310.26	994.56
310.49	956.56
310.72	978.56
310.949	967.56
311.179	1013.56
311.409	988.56
311.639	1008.56
311.868	998.56
312.098	1015.56
312.328	1005.56
312.557	1049.56
312.787	1051.56
313.017	1041.56
313.246	1074.56
313.476	1077.56
313.706	1046.56
313.935	1045.56
314.165	1062.56
314.394	1039.56
314.624	1058.56
314.853	1039.56
315.083	1051.56
315.312	1052.56
315.542	1115.56
315.771	1083.56
316.001	1072.56
316.23	1088.56
316.46	1083.56
316.689	1081.56
316.919	1044.56
317.148	1081.56
317.377	1062.56
317.607	1049.56
317.836	1078.56
318.065	1077.56
318.295	1073.56
318.524	1077.56
318.753	1052.56
318.983	1070.56
319.212	1082.56
319.441	1048.56
319.67	1068.56
319.9	1124.56
320.129	1075.56
320.358	1093.56
320.587	1101.56
320.816	1138.56
321.046	1121.56
321.275	1123.56
321.504	1069.56
321.733	1062.56
321.962	1099.56
322.191	1126.56
322.42	1141.56
322.649	1121.56
322.878	1125.56
323.108	1137.56
323.337	1137.56
323.566	1132.56
323.795	1179.56
324.024	1147.56
324.253	1141.56
324.482	1142.56
324.71	1159.56
324.939	1151.56
325.168	1198.56
325.397	1205.56
325.626	1179.56
325.855	1192.56
326.084	1204.56
326.313	1217.56
326.542	1232.56
326.77	1251.56
326.999	1252.56
327.228	1223.56
327.457	1244.56
327.686	1197.56
327.914	1214.56
328.143	1228.56
328.372	1219.56
328.6	1231.56
328.829	1227.56
329.058	1221.56
329.287	1226.56
329.515	1248.56
329.744	1245.56
329.972	1283.56
330.201	1258.56
330.43	1270.56
330.658	1269.56
330.887	1301.56
331.115	1289.56
331.344	1327.56
331.572	1295.56
331.801	1330.56
332.03	1367.56
332.258	1351.56
332.486	1353.56
332.715	1396.56
332.943	1398.56
333.172	1443.56
333.4	1519.56
333.629	1517.56
333.857	1557.56
334.085	1593.56
334.314	1583.56
334.542	1569.56
334.771	1579.56
334.999	1576.56
335.227	1556.56
335.455	1566.56
335.684	1602.56
335.912	1566.56
336.14	1571.56
336.369	1557.56
336.597	1551.56
336.825	1547.56
337.053	1577.56
337.281	1528.56
337.51	1515.56
337.738	1486.56
337.966	1463.56
338.194	1457.56
338.422	1469.56
338.65	1426.56
338.878	1431.56
339.106	1389.56
339.334	1427.56
339.562	1427.56
339.79	1350.56
340.018	1362.56
340.246	1339.56
340.474	1370.56
340.702	1356.56
340.93	1365.56
341.158	1333.56
341.386	1389.56
341.614	1388.56
341.842	1385.56
342.07	1342.56
342.298	1323.56
342.526	1338.56
342.754	1369.56
342.981	1357.56
343.209	1419.56
343.437	1415.56
343.665	1452.56
343.893	1503.56
344.12	1549.56
344.348	1513.56
344.576	1516.56
344.804	1479.56
345.031	1465.56
345.259	1428.56
345.487	1414.56
345.714	1384.56
345.942	1329.56
346.17	1353.56
346.397	1353.56
346.625	1347.56
346.853	1311.56
347.08	1295.56
347.308	1319.56
347.535	1331.56
347.763	1289.56
347.99	1298.56
348.218	1355.56
348.445	1310.56
348.673	1271.56
348.9	1304.56
349.128	1319.56
349.355	1306.56
349.583	1323.56
349.81	1300.56
350.037	1249.56
350.265	1266.56
350.492	1277.56
350.72	1264.56
350.947	1247.56
351.174	1293.56
351.402	1291.56
351.629	1305.56
351.856	1258.56
352.083	1263.56
352.311	1268.56
352.538	1291.56
352.765	1261.56
352.992	1245.56
353.22	1223.56
353.447	1230.56
353.674	1223.56
353.901	1241.56
354.128	1255.56
354.355	1246.56
354.583	1231.56
354.81	1242.56
355.037	1231.56
355.264	1241.56
355.491	1225.56
355.718	1243.56
355.945	1217.56
356.172	1286.56
356.399	1236.56
356.626	1251.56
356.853	1311.56
357.08	1268.56
357.307	1233.56
357.534	1242.56
357.761	1260.56
357.988	1223.56
358.215	1245.56
358.441	1231.56
358.668	1211.56
358.895	1247.56
359.122	1244.56
359.349	1253.56
359.576	1256.56
359.802	1244.56
360.029	1257.56
360.256	1265.56
360.483	1243.56
360.709	1256.56
360.936	1257.56
361.163	1250.56
361.39	1265.56
361.616	1248.56
361.843	1237.56
362.07	1298.56
362.296	1256.56
362.523	1243.56
362.749	1251.56
362.976	1242.56
363.203	1231.56
363.429	1259.56
363.656	1219.56
363.882	1226.56
364.109	1229.56
364.335	1251.56
364.562	1259.56
364.788	1222.56
365.015	1233.56
365.241	1240.56
365.468	1223.56
365.694	1238.56
365.92	1227.56
366.147	1241.56
366.373	1246.56
366.599	1252.56
366.826	1263.56
367.052	1237.56
367.278	1241.56
367.505	1244.56
367.731	1253.56
367.957	1281.56
368.184	1258.56
368.41	1276.56
368.636	1260.56
368.862	1255.56
369.089	1245.56
369.315	1276.56
369.541	1269.56
369.767	1281.56
369.993	1281.56
370.219	1291.56
370.445	1313.56
370.672	1315.56
370.898	1335.56
371.124	1316.56
371.35	1325.56
371.576	1356.56
371.802	1339.56
372.028	1337.56
372.254	1329.56
372.48	1342.56
372.706	1363.56
372.932	1369.56
373.158	1310.56
373.384	1360.56
373.61	1371.56
373.835	1353.56
374.061	1331.56
374.287	1394.56
374.513	1375.56
374.739	1371.56
374.965	1411.56
375.191	1469.56
375.416	1463.56
375.642	1414.56
375.868	1400.56
376.094	1370.56
376.319	1353.56
376.545	1349.56
376.771	1347.56
376.997	1343.56
377.222	1342.56
377.448	1362.56
377.674	1350.56
377.899	1332.56
378.125	1297.56
378.35	1335.56
378.576	1317.56
378.802	1283.56
379.027	1348.56
379.253	1314.56
379.478	1314.56
379.704	1289.56
379.929	1319.56
380.155	1275.56
380.38	1326.56
380.606	1307.56
380.831	1338.56
381.057	1330.56
381.282	1310.56
381.507	1290.56
381.733	1339.56
381.958	1331.56
382.184	1358.56
382.409	1333.56
382.634	1351.56
382.86	1364.56
383.085	1401.56
383.31	1381.56
383.535	1413.56
383.761	1397.56
383.986	1403.56
384.211	1432.56
384.436	1429.56
384.662	1463.56
384.887	1465.56
385.112	1476.56
385.337	1506.56
385.562	1499.56
385.787	1511.56
386.013	1541.56
386.238	1572.56
386.463	1581.56
386.688	1566.56
386.913	1524.56
387.138	1523.56
387.363	1564.56
387.588	1551.56
387.813	1553.56
388.038	1563.56
388.263	1565.56
388.488	1572.56
388.713	1580.56
388.938	1549.56
389.163	1552.56
389.387	1585.56
389.612	1532.56
389.837	1543.56
390.062	1559.56
390.287	1572.56
390.512	1579.56
390.736	1597.56
390.961	1577.56
391.186	1644.56
391.411	1643.56
391.636	1643.56
391.86	1668.56
392.085	1697.56
392.31	1707.56
392.534	1699.56
392.759	1685.56
392.984	1669.56
393.208	1640.56
393.433	1645.56
393.658	1639.56
393.882	1626.56
394.107	1637.56
394.331	1638.56
394.556	1674.56
394.78	1661.56
395.005	1694.56
395.229	1697.56
395.454	1704.56
395.678	1709.56
395.903	1734.56
396.127	1712.56
396.352	1704.56
396.576	1697.56
396.801	1694.56
397.025	1718.56
397.249	1754.56
397.474	1763.56
397.698	1779.56
397.922	1797.56
398.147	1773.56
398.371	1842.56
398.595	1879.56
398.82	1969.56
399.044	2009.56
399.268	2133.56
399.492	2299.56
399.717	2376.56
399.941	2443.56
400.165	2377.56
400.389	2301.56
400.613	2177.56
400.837	2169.56
401.062	2072.56
401.286	2048.56
401.51	1989.56
401.734	1942.56
401.958	1956.56
402.182	1951.56
402.406	1954.56
402.63	1926.56
402.854	1959.56
403.078	1991.56
403.302	1968.56
403.526	2034.56
403.75	1985.56
403.974	2019.56
404.198	1987.56
404.422	2043.56
404.645	1986.56
404.869	2004.56
405.093	2042.56
405.317	2043.56
405.541	2044.56
405.765	2050.56
405.988	2069.56
406.212	2092.56
406.436	2079.56
406.66	2167.56
406.883	2146.56
407.107	2265.56
407.331	2243.56
407.555	2387.56
407.778	2341.56
408.002	2313.56
408.226	2332.56
408.449	2297.56
408.673	2205.56
408.896	2172.56
409.12	2150.56
409.344	2224.56
409.567	2153.56
409.791	2177.56
410.014	2127.56
410.238	2138.56
410.461	2141.56
410.685	2109.56
410.908	2096.56
411.132	2063.56
411.355	2030.56
411.578	2007.56
411.802	1977.56
412.025	2042.56
412.249	2023.56
412.472	2073.56
412.695	1989.56
412.919	1994.56
413.142	2013.56
413.365	1980.56
413.589	2005.56
413.812	1983.56
414.035	1928.56
414.258	1932.56
414.482	1954.56
414.705	1943.56
414.928	1957.56
415.151	1945.56
415.374	1986.56
415.597	1935.56
415.821	1906.56
416.044	1877.56
416.267	1928.56
416.49	1870.56
416.713	1875.56
416.936	1873.56
417.159	1875.56
417.382	1867.56
417.605	1895.56
417.828	1877.56
418.051	1895.56
418.274	1887.56
418.497	1869.56
418.72	1971.56
418.943	1901.56
419.166	2059.56
419.389	2162.56
419.611	2124.56
419.834	2068.56
420.057	1995.56
420.28	1955.56
420.503	1868.56
420.726	1835.56
420.948	1892.56
421.171	1885.56
421.394	1890.56
421.617	1853.56
421.839	1894.56
422.062	1896.56
422.285	1852.56
422.507	1915.56
422.73	1902.56
422.953	1891.56
423.175	1923.56
423.398	1913.56
423.621	1891.56
423.843	1935.56
424.066	1919.56
424.288	1894.56
424.511	1933.56
424.733	1886.56
424.956	1871.56
425.178	1910.56
425.401	1921.56
425.623	1894.56
425.846	1889.56
426.068	1889.56
426.291	1844.56
426.513	1822.56
426.735	1861.56
426.958	1897.56
427.18	1761.56
427.402	1798.56
427.625	1822.56
427.847	1800.56
428.069	1801.56
428.292	1815.56
428.514	1789.56
428.736	1777.56
428.958	1798.56
429.181	1750.56
429.403	1735.56
429.625	1740.56
429.847	1741.56
430.069	1733.56
430.292	1745.56
430.514	1742.56
430.736	1798.56
430.958	1794.56
431.18	1729.56
431.402	1795.56
431.624	1771.56
431.846	1747.56
432.068	1789.56
432.29	1810.56
432.512	1756.56
432.734	1811.56
432.956	1797.56
433.178	1777.56
433.4	1769.56
433.622	1802.56
433.844	1825.56
434.066	1839.56
434.287	1819.56
434.509	1856.56
434.731	1896.56
434.953	1870.56
435.175	1899.56
435.397	1917.56
435.618	1855.56
435.84	1835.56
436.062	1785.56
436.284	1779.56
436.505	1766.56
436.727	1804.56
436.949	1733.56
437.17	1732.56
437.392	1742.56
437.614	1750.56
437.835	1686.56
438.057	1745.56
438.278	1714.56
438.5	1683.56
438.721	1698.56
438.943	1727.56
439.165	1705.56
439.386	1744.56
439.608	1714.56
439.829	1783.56
440.05	1739.56
440.272	1777.56
440.493	1724.56
440.715	1764.56
440.936	1815.56
441.158	1831.56
441.379	1871.56
441.6	1902.56
441.822	1908.56
442.043	1909.56
442.264	1874.56
442.486	1859.56
442.707	1895.56
442.928	1894.56
443.149	1862.56
443.371	1845.56
443.592	1890.56
443.813	1904.56
444.034	1931.56
444.255	1908.56
444.476	1982.56
444.698	2025.56
444.919	2062.56
445.14	2183.56
445.361	2059.56
445.582	1991.56
445.803	1917.56
446.024	1873.56
446.245	1899.56
446.466	1844.56
446.687	1797.56
446.908	1802.56
447.129	1749.56
447.35	1709.56
447.571	1716.56
447.792	1685.56
448.013	1712.56
448.234	1672.56
448.455	1687.56
448.675	1629.56
448.896	1609.56
449.117	1607.56
449.338	1639.56
449.559	1638.56
449.779	1614.56
450	1615.56
450.221	1630.56
450.442	1632.56
450.662	1615.56
450.883	1638.56
451.104	1612.56
451.324	1621.56
451.545	1622.56
451.766	1606.56
451.986	1641.56
452.207	1620.56
452.428	1596.56
452.648	1590.56
452.869	1559.56
453.089	1541.56
453.31	1590.56
453.53	1526.56
453.751	1547.56
453.971	1548.56
454.192	1550.56
454.412	1510.56
454.633	1564.56
454.853	1551.56
455.073	1531.56
455.294	1535.56
455.514	1479.56
455.734	1541.56
455.955	1480.56
456.175	1475.56
456.395	1495.56
456.616	1515.56
456.836	1512.56
457.056	1510.56
457.276	1533.56
457.497	1546.56
457.717	1559.56
457.937	1562.56
458.157	1566.56
458.377	1574.56
458.598	1614.56
458.818	1656.56
459.038	1662.56
459.258	1683.56
459.478	1743.56
459.698	1816.56
459.918	1797.56
460.138	1863.56
460.358	1926.56
460.578	1913.56
460.798	1960.56
461.018	1992.56
461.238	1987.56
461.458	1997.56
461.678	1991.56
461.898	2023.56
462.118	2035.56
462.338	2147.56
462.558	2109.56
462.777	2218.56
462.997	2294.56
463.217	2332.56
463.437	2364.56
463.657	2327.56
463.876	2291.56
464.096	2287.56
464.316	2225.56
464.536	2182.56
464.755	2175.56
464.975	2147.56
465.195	2043.56
465.414	1990.56
465.634	1868.56
465.854	1881.56
466.073	1811.56
466.293	1811.56
466.512	1743.56
466.732	1677.56
466.951	1743.56
467.171	1709.56
467.391	1703.56
467.61	1661.56
467.829	1634.56
468.049	1627.56
468.268	1662.56
468.488	1654.56
468.707	1634.56
468.927	1659.56
469.146	1626.56
469.365	1663.56
469.585	1633.56
469.804	1670.56
470.023	1727.56
470.243	1679.56
470.462	1713.56
470.681	1730.56
470.901	1728.56
471.12	1694.56
471.339	1685.56
471.558	1679.56
471.777	1683.56
471.997	1690.56
472.216	1648.56
472.435	1643.56
472.654	1632.56
472.873	1595.56
473.092	1614.56
473.311	1614.56
473.53	1619.56
473.749	1609.56
473.968	1615.56
474.187	1622.56
474.406	1621.56
474.625	1654.56
474.844	1649.56
475.063	1618.56
475.282	1614.56
475.501	1641.56
475.72	1677.56
475.939	1636.56
476.158	1699.56
476.377	1714.56
476.596	1690.56
476.814	1718.56
477.033	1728.56
477.252	1786.56
477.471	1813.56
477.69	1817.56
477.908	1846.56
478.127	1901.56
478.346	1895.56
478.564	1920.56
478.783	1921.56
479.002	1991.56
479.22	2018.56
479.439	1990.56
479.658	1955.56
479.876	1944.56
480.095	1945.56
480.313	2059.56
480.532	2022.56
480.751	2019.56
480.969	1991.56
481.188	1961.56
481.406	1953.56
481.624	1901.56
481.843	1934.56
482.061	1892.56
482.28	1906.56
482.498	1873.56
482.717	1862.56
482.935	1908.56
483.153	1915.56
483.372	1914.56
483.59	1895.56
483.808	1893.56
484.027	1905.56
484.245	1941.56
484.463	1913.56
484.681	1928.56
484.9	1980.56
485.118	1921.56
485.336	1932.56
485.554	1973.56
485.772	1940.56
485.99	1936.56
486.209	1956.56
486.427	1957.56
486.645	1948.56
486.863	1962.56
487.081	1991.56
487.299	1921.56
487.517	1976.56
487.735	1961.56
487.953	1958.56
488.171	1996.56
488.389	1982.56
488.607	1932.56
488.825	1976.56
489.043	1906.56
489.261	1921.56
489.479	1967.56
489.696	1942.56
489.914	1961.56
490.132	1948.56
490.35	1946.56
490.568	1941.56
