Data from Ni(NO3)2@0.125M.TitratingCurve.Agarose3%dH2O.NegLispCup.LampEnergy10.LIBS07252019_HRD10591_18-08-48-567.txt Node
Date: Thu Jul 25 18:08:48 EDT 2019
User: cochatt
Spectrometer: HR+D1059
Trigger mode: 1
Integration Time (sec): 1.000000E-1
Scans to average: 1
Electric dark correction enabled: true
Nonlinearity correction enabled: false
Boxcar width: 0
XAxis mode: Wavelengths
Number of Pixels in Spectrum: 2048
>>>>>Begin Spectral Data<<<<<
223.165	-19.81
223.4	-19.81
223.635	-19.81
223.869	-30.81
224.104	-26.81
224.338	-19.81
224.573	-13.81
224.808	-21.81
225.042	6.19
225.277	10.19
225.511	7.19
225.746	11.19
225.98	2.19
226.215	18.19
226.449	10.19
226.683	20.19
226.918	22.19
227.152	25.19
227.387	46.19
227.621	40.19
227.856	44.19
228.09	43.19
228.324	52.19
228.559	49.19
228.793	61.19
229.027	109.19
229.262	112.19
229.496	101.19
229.73	115.19
229.964	130.19
230.199	117.19
230.433	125.19
230.667	132.19
230.901	124.19
231.136	124.19
231.37	125.19
231.604	130.19
231.838	134.19
232.072	125.19
232.306	134.19
232.541	128.19
232.775	156.19
233.009	143.19
233.243	132.19
233.477	138.19
233.711	133.19
233.945	128.19
234.179	138.19
234.413	142.19
234.647	151.19
234.881	135.19
235.115	148.19
235.349	152.19
235.583	143.19
235.817	148.19
236.051	153.19
236.285	130.19
236.519	132.19
236.753	141.19
236.987	140.19
237.221	142.19
237.455	138.19
237.689	158.19
237.922	143.19
238.156	135.19
238.39	159.19
238.624	140.19
238.858	150.19
239.091	150.19
239.325	156.19
239.559	152.19
239.793	172.19
240.027	149.19
240.26	146.19
240.494	156.19
240.728	168.19
240.961	178.19
241.195	162.19
241.429	180.19
241.662	164.19
241.896	193.19
242.13	180.19
242.363	169.19
242.597	188.19
242.83	170.19
243.064	170.19
243.298	169.19
243.531	180.19
243.765	178.19
243.998	186.19
244.232	202.19
244.465	203.19
244.699	187.19
244.932	176.19
245.166	204.19
245.399	206.19
245.633	203.19
245.866	205.19
246.099	195.19
246.333	200.19
246.566	215.19
246.8	194.19
247.033	203.19
247.266	213.19
247.5	212.19
247.733	225.19
247.966	209.19
248.2	221.19
248.433	227.19
248.666	235.19
248.899	220.19
249.133	231.19
249.366	223.19
249.599	232.19
249.832	236.19
250.066	231.19
250.299	238.19
250.532	236.19
250.765	232.19
250.998	238.19
251.231	244.19
251.465	227.19
251.698	251.19
251.931	252.19
252.164	236.19
252.397	250.19
252.63	251.19
252.863	251.19
253.096	256.19
253.329	251.19
253.562	251.19
253.795	263.19
254.028	260.19
254.261	260.19
254.494	274.19
254.727	264.19
254.96	258.19
255.193	270.19
255.426	272.19
255.659	285.19
255.892	281.19
256.124	280.19
256.357	274.19
256.59	292.19
256.823	261.19
257.056	279.19
257.289	280.19
257.521	289.19
257.754	280.19
257.987	283.19
258.22	288.19
258.452	294.19
258.685	298.19
258.918	292.19
259.151	294.19
259.383	298.19
259.616	306.19
259.849	295.19
260.081	296.19
260.314	298.19
260.547	302.19
260.779	296.19
261.012	298.19
261.244	308.19
261.477	313.19
261.71	320.19
261.942	326.19
262.175	318.19
262.407	318.19
262.64	319.19
262.872	328.19
263.105	315.19
263.337	319.19
263.57	329.19
263.802	332.19
264.035	332.19
264.267	317.19
264.499	320.19
264.732	328.19
264.964	336.19
265.197	343.19
265.429	327.19
265.661	328.19
265.894	323.19
266.126	341.19
266.358	344.19
266.591	333.19
266.823	322.19
267.055	328.19
267.287	333.19
267.52	326.19
267.752	351.19
267.984	357.19
268.216	336.19
268.448	351.19
268.681	357.19
268.913	336.19
269.145	356.19
269.377	346.19
269.609	344.19
269.841	361.19
270.073	379.19
270.306	359.19
270.538	354.19
270.77	358.19
271.002	359.19
271.234	354.19
271.466	352.19
271.698	351.19
271.93	375.19
272.162	357.19
272.394	364.19
272.626	388.19
272.858	369.19
273.09	387.19
273.322	374.19
273.553	362.19
273.785	378.19
274.017	358.19
274.249	372.19
274.481	370.19
274.713	366.19
274.945	386.19
275.176	390.19
275.408	386.19
275.64	400.19
275.872	379.19
276.104	383.19
276.335	404.19
276.567	386.19
276.799	399.19
277.031	383.19
277.262	388.19
277.494	392.19
277.726	405.19
277.957	371.19
278.189	400.19
278.421	402.19
278.652	406.19
278.884	404.19
279.115	417.19
279.347	404.19
279.579	404.19
279.81	403.19
280.042	402.19
280.273	419.19
280.505	415.19
280.736	423.19
280.968	426.19
281.199	425.19
281.431	409.19
281.662	410.19
281.894	429.19
282.125	426.19
282.356	420.19
282.588	439.19
282.819	414.19
283.051	414.19
283.282	433.19
283.513	445.19
283.745	441.19
283.976	426.19
284.207	425.19
284.439	450.19
284.67	447.19
284.901	438.19
285.132	458.19
285.364	447.19
285.595	436.19
285.826	475.19
286.057	442.19
286.288	464.19
286.52	456.19
286.751	453.19
286.982	463.19
287.213	464.19
287.444	464.19
287.675	455.19
287.906	451.19
288.138	461.19
288.369	463.19
288.6	476.19
288.831	471.19
289.062	469.19
289.293	468.19
289.524	464.19
289.755	474.19
289.986	477.19
290.217	480.19
290.448	474.19
290.679	490.19
290.91	468.19
291.141	474.19
291.371	470.19
291.602	476.19
291.833	483.19
292.064	479.19
292.295	493.19
292.526	490.19
292.757	472.19
292.987	469.19
293.218	448.19
293.449	473.19
293.68	479.19
293.91	482.19
294.141	475.19
294.372	486.19
294.603	479.19
294.833	503.19
295.064	487.19
295.295	484.19
295.525	478.19
295.756	476.19
295.987	472.19
296.217	493.19
296.448	510.19
296.679	499.19
296.909	510.19
297.14	504.19
297.37	508.19
297.601	503.19
297.831	502.19
298.062	523.19
298.292	534.19
298.523	546.19
298.753	506.19
298.984	512.19
299.214	541.19
299.445	545.19
299.675	507.19
299.905	530.19
300.136	528.19
300.366	524.19
300.597	524.19
300.827	535.19
301.057	544.19
301.288	547.19
301.518	540.19
301.748	564.19
301.979	564.19
302.209	551.19
302.439	540.19
302.669	549.19
302.9	528.19
303.13	544.19
303.36	533.19
303.59	544.19
303.82	527.19
304.051	546.19
304.281	527.19
304.511	528.19
304.741	544.19
304.971	527.19
305.201	512.19
305.431	556.19
305.661	536.19
305.891	536.19
306.121	540.19
306.352	511.19
306.582	505.19
306.812	506.19
307.042	533.19
307.272	510.19
307.502	522.19
307.731	536.19
307.961	543.19
308.191	510.19
308.421	536.19
308.651	510.19
308.881	527.19
309.111	523.19
309.341	519.19
309.571	541.19
309.8	544.19
310.03	502.19
310.26	532.19
310.49	519.19
310.72	508.19
310.949	549.19
311.179	520.19
311.409	556.19
311.639	558.19
311.868	551.19
312.098	526.19
312.328	544.19
312.557	566.19
312.787	543.19
313.017	563.19
313.246	566.19
313.476	557.19
313.706	541.19
313.935	586.19
314.165	592.19
314.394	580.19
314.624	597.19
314.853	563.19
315.083	554.19
315.312	582.19
315.542	583.19
315.771	547.19
316.001	571.19
316.23	556.19
316.46	559.19
316.689	565.19
316.919	554.19
317.148	552.19
317.377	566.19
317.607	543.19
317.836	556.19
318.065	548.19
318.295	555.19
318.524	552.19
318.753	546.19
318.983	577.19
319.212	544.19
319.441	546.19
319.67	559.19
319.9	572.19
320.129	547.19
320.358	556.19
320.587	572.19
320.816	562.19
321.046	564.19
321.275	554.19
321.504	546.19
321.733	552.19
321.962	562.19
322.191	586.19
322.42	590.19
322.649	562.19
322.878	571.19
323.108	574.19
323.337	566.19
323.566	585.19
323.795	598.19
324.024	597.19
324.253	587.19
324.482	589.19
324.71	590.19
324.939	579.19
325.168	614.19
325.397	578.19
325.626	608.19
325.855	622.19
326.084	640.19
326.313	646.19
326.542	639.19
326.77	642.19
326.999	597.19
327.228	624.19
327.457	623.19
327.686	621.19
327.914	656.19
328.143	648.19
328.372	628.19
328.6	618.19
328.829	626.19
329.058	642.19
329.287	628.19
329.515	620.19
329.744	644.19
329.972	648.19
330.201	650.19
330.43	663.19
330.658	635.19
330.887	674.19
331.115	672.19
331.344	674.19
331.572	690.19
331.801	700.19
332.03	729.19
332.258	724.19
332.486	749.19
332.715	740.19
332.943	775.19
333.172	820.19
333.4	848.19
333.629	864.19
333.857	878.19
334.085	869.19
334.314	837.19
334.542	851.19
334.771	810.19
334.999	826.19
335.227	792.19
335.455	809.19
335.684	820.19
335.912	785.19
336.14	792.19
336.369	780.19
336.597	766.19
336.825	781.19
337.053	771.19
337.281	783.19
337.51	759.19
337.738	750.19
337.966	734.19
338.194	740.19
338.422	730.19
338.65	707.19
338.878	698.19
339.106	714.19
339.334	733.19
339.562	715.19
339.79	696.19
340.018	687.19
340.246	674.19
340.474	671.19
340.702	668.19
340.93	676.19
341.158	712.19
341.386	686.19
341.614	685.19
341.842	702.19
342.07	713.19
342.298	669.19
342.526	654.19
342.754	652.19
342.981	674.19
343.209	692.19
343.437	721.19
343.665	751.19
343.893	840.19
344.12	876.19
344.348	816.19
344.576	746.19
344.804	737.19
345.031	724.19
345.259	703.19
345.487	686.19
345.714	705.19
345.942	696.19
346.17	681.19
346.397	680.19
346.625	687.19
346.853	673.19
347.08	672.19
347.308	660.19
347.535	672.19
347.763	695.19
347.99	692.19
348.218	681.19
348.445	667.19
348.673	663.19
348.9	652.19
349.128	671.19
349.355	656.19
349.583	671.19
349.81	639.19
350.037	648.19
350.265	632.19
350.492	626.19
350.72	636.19
350.947	652.19
351.174	647.19
351.402	651.19
351.629	656.19
351.856	652.19
352.083	630.19
352.311	652.19
352.538	645.19
352.765	655.19
352.992	640.19
353.22	619.19
353.447	632.19
353.674	636.19
353.901	604.19
354.128	631.19
354.355	632.19
354.583	653.19
354.81	629.19
355.037	630.19
355.264	639.19
355.491	650.19
355.718	636.19
355.945	628.19
356.172	646.19
356.399	646.19
356.626	638.19
356.853	648.19
357.08	644.19
357.307	641.19
357.534	643.19
357.761	621.19
357.988	632.19
358.215	613.19
358.441	619.19
358.668	638.19
358.895	636.19
359.122	616.19
359.349	612.19
359.576	629.19
359.802	674.19
360.029	651.19
360.256	612.19
360.483	607.19
360.709	627.19
360.936	636.19
361.163	646.19
361.39	632.19
361.616	642.19
361.843	627.19
362.07	642.19
362.296	639.19
362.523	640.19
362.749	635.19
362.976	622.19
363.203	625.19
363.429	616.19
363.656	622.19
363.882	615.19
364.109	628.19
364.335	626.19
364.562	616.19
364.788	627.19
365.015	636.19
365.241	637.19
365.468	613.19
365.694	633.19
365.92	638.19
366.147	637.19
366.373	637.19
366.599	615.19
366.826	632.19
367.052	614.19
367.278	637.19
367.505	619.19
367.731	632.19
367.957	608.19
368.184	630.19
368.41	627.19
368.636	649.19
368.862	635.19
369.089	646.19
369.315	636.19
369.541	667.19
369.767	636.19
369.993	658.19
370.219	640.19
370.445	668.19
370.672	672.19
370.898	678.19
371.124	698.19
371.35	640.19
371.576	671.19
371.802	667.19
372.028	666.19
372.254	662.19
372.48	675.19
372.706	678.19
372.932	704.19
373.158	702.19
373.384	669.19
373.61	687.19
373.835	695.19
374.061	685.19
374.287	690.19
374.513	705.19
374.739	709.19
374.965	728.19
375.191	756.19
375.416	735.19
375.642	716.19
375.868	698.19
376.094	723.19
376.319	703.19
376.545	690.19
376.771	670.19
376.997	666.19
377.222	686.19
377.448	662.19
377.674	666.19
377.899	678.19
378.125	650.19
378.35	664.19
378.576	677.19
378.802	675.19
379.027	652.19
379.253	690.19
379.478	643.19
379.704	651.19
379.929	652.19
380.155	651.19
380.38	665.19
380.606	674.19
380.831	663.19
381.057	663.19
381.282	656.19
381.507	682.19
381.733	677.19
381.958	666.19
382.184	664.19
382.409	706.19
382.634	710.19
382.86	688.19
383.085	717.19
383.31	702.19
383.535	706.19
383.761	745.19
383.986	744.19
384.211	775.19
384.436	763.19
384.662	777.19
384.887	820.19
385.112	814.19
385.337	778.19
385.562	808.19
385.787	806.19
386.013	809.19
386.238	801.19
386.463	816.19
386.688	817.19
386.913	814.19
387.138	796.19
387.363	804.19
387.588	785.19
387.813	761.19
388.038	797.19
388.263	790.19
388.488	830.19
388.713	778.19
388.938	756.19
389.163	748.19
389.387	760.19
389.612	779.19
389.837	776.19
390.062	757.19
390.287	790.19
390.512	778.19
390.736	815.19
390.961	782.19
391.186	793.19
391.411	842.19
391.636	855.19
391.86	878.19
392.085	918.19
392.31	903.19
392.534	856.19
392.759	846.19
392.984	854.19
393.208	845.19
393.433	844.19
393.658	849.19
393.882	847.19
394.107	848.19
394.331	822.19
394.556	842.19
394.78	850.19
395.005	852.19
395.229	861.19
395.454	891.19
395.678	892.19
395.903	882.19
396.127	866.19
396.352	848.19
396.576	834.19
396.801	819.19
397.025	847.19
397.249	826.19
397.474	895.19
397.698	876.19
397.922	884.19
398.147	888.19
398.371	896.19
398.595	923.19
398.82	953.19
399.044	1026.19
399.268	1120.19
399.492	1318.19
399.717	1501.19
399.941	1523.19
400.165	1323.19
400.389	1175.19
400.613	1074.19
400.837	1062.19
401.062	1030.19
401.286	973.19
401.51	974.19
401.734	953.19
401.958	979.19
402.182	1014.19
402.406	1012.19
402.63	1037.19
402.854	1074.19
403.078	1064.19
403.302	1125.19
403.526	1126.19
403.75	1171.19
403.974	1150.19
404.198	1189.19
404.422	1155.19
404.645	1166.19
404.869	1135.19
405.093	1124.19
405.317	1107.19
405.541	1118.19
405.765	1103.19
405.988	1084.19
406.212	1115.19
406.436	1101.19
406.66	1114.19
406.883	1127.19
407.107	1214.19
407.331	1239.19
407.555	1317.19
407.778	1303.19
408.002	1262.19
408.226	1214.19
408.449	1168.19
408.673	1146.19
408.896	1148.19
409.12	1134.19
409.344	1121.19
409.567	1142.19
409.791	1149.19
410.014	1122.19
410.238	1130.19
410.461	1124.19
410.685	1112.19
410.908	1086.19
411.132	1073.19
411.355	1053.19
411.578	1040.19
411.802	1022.19
412.025	1040.19
412.249	1064.19
412.472	1041.19
412.695	1030.19
412.919	1001.19
413.142	1021.19
413.365	991.19
413.589	1019.19
413.812	1020.19
414.035	1006.19
414.258	1007.19
414.482	988.19
414.705	1004.19
414.928	1038.19
415.151	1038.19
415.374	1021.19
415.597	992.19
415.821	961.19
416.044	983.19
416.267	974.19
416.49	981.19
416.713	984.19
416.936	983.19
417.159	967.19
417.382	1005.19
417.605	975.19
417.828	1002.19
418.051	1004.19
418.274	1011.19
418.497	1020.19
418.72	1049.19
418.943	996.19
419.166	1076.19
419.389	1163.19
419.611	1152.19
419.834	1095.19
420.057	1074.19
420.28	1022.19
420.503	987.19
420.726	1004.19
420.948	992.19
421.171	1006.19
421.394	1018.19
421.617	1013.19
421.839	989.19
422.062	1032.19
422.285	1014.19
422.507	1035.19
422.73	1014.19
422.953	1018.19
423.175	1047.19
423.398	1076.19
423.621	1076.19
423.843	1116.19
424.066	1088.19
424.288	1076.19
424.511	1096.19
424.733	1057.19
424.956	1069.19
425.178	1030.19
425.401	1030.19
425.623	1035.19
425.846	990.19
426.068	975.19
426.291	967.19
426.513	985.19
426.735	949.19
426.958	946.19
427.18	927.19
427.402	950.19
427.625	930.19
427.847	884.19
428.069	912.19
428.292	928.19
428.514	902.19
428.736	896.19
428.958	918.19
429.181	882.19
429.403	905.19
429.625	875.19
429.847	885.19
430.069	895.19
430.292	892.19
430.514	884.19
430.736	864.19
430.958	897.19
431.18	872.19
431.402	885.19
431.624	894.19
431.846	887.19
432.068	923.19
432.29	926.19
432.512	879.19
432.734	924.19
432.956	906.19
433.178	942.19
433.4	931.19
433.622	931.19
433.844	938.19
434.066	930.19
434.287	926.19
434.509	963.19
434.731	984.19
434.953	1032.19
435.175	1032.19
435.397	1037.19
435.618	990.19
435.84	930.19
436.062	911.19
436.284	918.19
436.505	947.19
436.727	930.19
436.949	916.19
437.17	904.19
437.392	913.19
437.614	889.19
437.835	869.19
438.057	888.19
438.278	870.19
438.5	852.19
438.721	886.19
438.943	871.19
439.165	894.19
439.386	907.19
439.608	926.19
439.829	918.19
440.05	902.19
440.272	918.19
440.493	923.19
440.715	974.19
440.936	964.19
441.158	995.19
441.379	1000.19
441.6	1066.19
441.822	1040.19
442.043	1070.19
442.264	1026.19
442.486	999.19
442.707	1051.19
442.928	1013.19
443.149	1028.19
443.371	1028.19
443.592	1030.19
443.813	1070.19
444.034	1035.19
444.255	1092.19
444.476	1141.19
444.698	1236.19
444.919	1249.19
445.14	1352.19
445.361	1194.19
445.582	1115.19
445.803	1012.19
446.024	996.19
446.245	1014.19
446.466	959.19
446.687	950.19
446.908	927.19
447.129	930.19
447.35	924.19
447.571	896.19
447.792	878.19
448.013	903.19
448.234	886.19
448.455	834.19
448.675	868.19
448.896	839.19
449.117	863.19
449.338	852.19
449.559	840.19
449.779	840.19
450	856.19
450.221	832.19
450.442	879.19
450.662	867.19
450.883	851.19
451.104	896.19
451.324	872.19
451.545	914.19
451.766	871.19
451.986	861.19
452.207	839.19
452.428	868.19
452.648	876.19
452.869	824.19
453.089	844.19
453.31	844.19
453.53	802.19
453.751	810.19
453.971	815.19
454.192	858.19
454.412	811.19
454.633	830.19
454.853	820.19
455.073	812.19
455.294	809.19
455.514	804.19
455.734	812.19
455.955	803.19
456.175	799.19
456.395	791.19
456.616	787.19
456.836	806.19
457.056	809.19
457.276	778.19
457.497	811.19
457.717	821.19
457.937	796.19
458.157	822.19
458.377	816.19
458.598	842.19
458.818	849.19
459.038	874.19
459.258	925.19
459.478	941.19
459.698	959.19
459.918	1012.19
460.138	1017.19
460.358	1085.19
460.578	1115.19
460.798	1107.19
461.018	1104.19
461.238	1102.19
461.458	1071.19
461.678	1075.19
461.898	1093.19
462.118	1099.19
462.338	1155.19
462.558	1225.19
462.777	1247.19
462.997	1335.19
463.217	1514.19
463.437	1526.19
463.657	1406.19
463.876	1313.19
464.096	1267.19
464.316	1278.19
464.536	1284.19
464.755	1254.19
464.975	1223.19
465.195	1156.19
465.414	1074.19
465.634	1002.19
465.854	979.19
466.073	964.19
466.293	951.19
466.512	918.19
466.732	896.19
466.951	889.19
467.171	894.19
467.391	867.19
467.61	902.19
467.829	929.19
468.049	891.19
468.268	862.19
468.488	850.19
468.707	873.19
468.927	859.19
469.146	870.19
469.365	863.19
469.585	874.19
469.804	912.19
470.023	920.19
470.243	894.19
470.462	912.19
470.681	938.19
470.901	950.19
471.12	911.19
471.339	909.19
471.558	876.19
471.777	890.19
471.997	875.19
472.216	863.19
472.435	859.19
472.654	841.19
472.873	852.19
473.092	847.19
473.311	862.19
473.53	833.19
473.749	832.19
473.968	852.19
474.187	822.19
474.406	849.19
474.625	860.19
474.844	874.19
475.063	856.19
475.282	863.19
475.501	845.19
475.72	843.19
475.939	854.19
476.158	855.19
476.377	867.19
476.596	874.19
476.814	875.19
477.033	879.19
477.252	914.19
477.471	912.19
477.69	958.19
477.908	972.19
478.127	1009.19
478.346	1018.19
478.564	1018.19
478.783	1027.19
479.002	1076.19
479.22	1083.19
479.439	1035.19
479.658	1041.19
479.876	1069.19
480.095	1084.19
480.313	1118.19
480.532	1144.19
480.751	1138.19
480.969	1079.19
481.188	1042.19
481.406	1044.19
481.624	1011.19
481.843	990.19
482.061	965.19
482.28	934.19
482.498	969.19
482.717	940.19
482.935	969.19
483.153	983.19
483.372	963.19
483.59	975.19
483.808	1011.19
484.027	953.19
484.245	970.19
484.463	965.19
484.681	1001.19
484.9	990.19
485.118	990.19
485.336	1003.19
485.554	1015.19
485.772	1022.19
485.99	1002.19
486.209	1038.19
486.427	1066.19
486.645	1025.19
486.863	1056.19
487.081	1023.19
487.299	1018.19
487.517	1002.19
487.735	1000.19
487.953	1065.19
488.171	1019.19
488.389	1040.19
488.607	1046.19
488.825	1000.19
489.043	997.19
489.261	991.19
489.479	994.19
489.696	1005.19
489.914	1004.19
490.132	1033.19
490.35	1013.19
490.568	1026.19
490.786	1018.19
491.003	1014.19
491.221	1024.19
491.439	1023.19
491.657	1035.19
491.874	1053.19
492.092	1082.19
492.31	1070.19
492.527	1095.19
492.745	1038.19
492.963	1077.19
493.18	1054.19
493.398	1066.19
493.615	1067.19
493.833	1075.19
494.05	1049.19
494.268	1086.19
494.485	1062.19
494.703	1098.19
494.92	1106.19
495.138	1071.19
495.355	1066.19
495.573	1062.19
495.79	1096.19
496.008	1107.19
496.225	1110.19
496.442	1112.19
496.66	1108.19
496.877	1110.19
497.094	1186.19
497.312	1182.19
497.529	1185.19
497.746	1235.19
497.963	1245.19
498.181	1297.19
498.398	1307.19
