Data from Ni(NO3)2@0.0625M.TitratingCurve.Agarose3%dH2O.NegLispCup.LampEnergy10.LIBS07252019_HRD10591_18-15-47-570.txt Node
Date: Thu Jul 25 18:15:47 EDT 2019
User: cochatt
Spectrometer: HR+D1059
Trigger mode: 1
Integration Time (sec): 1.000000E-1
Scans to average: 1
Electric dark correction enabled: true
Nonlinearity correction enabled: false
Boxcar width: 0
XAxis mode: Wavelengths
Number of Pixels in Spectrum: 2048
>>>>>Begin Spectral Data<<<<<
223.165	-16.94
223.4	-16.94
223.635	-16.94
223.869	-32.94
224.104	-27.94
224.338	-13.94
224.573	-20.94
224.808	-1.94
225.042	-12.94
225.277	-2.94
225.511	-2.94
225.746	8.06
225.98	9.06
226.215	12.06
226.449	21.06
226.683	26.06
226.918	21.06
227.152	36.06
227.387	41.06
227.621	35.06
227.856	44.06
228.09	39.06
228.324	47.06
228.559	55.06
228.793	57.06
229.027	91.06
229.262	93.06
229.496	108.06
229.73	99.06
229.964	100.06
230.199	100.06
230.433	114.06
230.667	103.06
230.901	132.06
231.136	113.06
231.37	115.06
231.604	108.06
231.838	115.06
232.072	130.06
232.306	126.06
232.541	133.06
232.775	126.06
233.009	135.06
233.243	137.06
233.477	133.06
233.711	124.06
233.945	124.06
234.179	125.06
234.413	123.06
234.647	130.06
234.881	139.06
235.115	140.06
235.349	154.06
235.583	132.06
235.817	132.06
236.051	132.06
236.285	129.06
236.519	127.06
236.753	147.06
236.987	134.06
237.221	143.06
237.455	134.06
237.689	128.06
237.922	140.06
238.156	154.06
238.39	135.06
238.624	153.06
238.858	148.06
239.091	134.06
239.325	143.06
239.559	154.06
239.793	141.06
240.027	143.06
240.26	148.06
240.494	155.06
240.728	143.06
240.961	151.06
241.195	159.06
241.429	153.06
241.662	172.06
241.896	158.06
242.13	173.06
242.363	162.06
242.597	156.06
242.83	146.06
243.064	164.06
243.298	178.06
243.531	184.06
243.765	166.06
243.998	179.06
244.232	182.06
244.465	178.06
244.699	169.06
244.932	193.06
245.166	186.06
245.399	191.06
245.633	177.06
245.866	189.06
246.099	179.06
246.333	182.06
246.566	174.06
246.8	190.06
247.033	195.06
247.266	192.06
247.5	191.06
247.733	177.06
247.966	195.06
248.2	212.06
248.433	192.06
248.666	207.06
248.899	200.06
249.133	202.06
249.366	214.06
249.599	205.06
249.832	218.06
250.066	216.06
250.299	214.06
250.532	226.06
250.765	230.06
250.998	210.06
251.231	206.06
251.465	223.06
251.698	203.06
251.931	201.06
252.164	231.06
252.397	222.06
252.63	214.06
252.863	227.06
253.096	197.06
253.329	236.06
253.562	226.06
253.795	216.06
254.028	233.06
254.261	251.06
254.494	228.06
254.727	233.06
254.96	217.06
255.193	253.06
255.426	229.06
255.659	238.06
255.892	241.06
256.124	236.06
256.357	226.06
256.59	246.06
256.823	243.06
257.056	246.06
257.289	230.06
257.521	238.06
257.754	232.06
257.987	248.06
258.22	254.06
258.452	253.06
258.685	255.06
258.918	257.06
259.151	243.06
259.383	246.06
259.616	250.06
259.849	248.06
260.081	262.06
260.314	264.06
260.547	262.06
260.779	255.06
261.012	246.06
261.244	266.06
261.477	252.06
261.71	271.06
261.942	276.06
262.175	251.06
262.407	275.06
262.64	273.06
262.872	264.06
263.105	276.06
263.337	279.06
263.57	266.06
263.802	269.06
264.035	266.06
264.267	276.06
264.499	281.06
264.732	272.06
264.964	278.06
265.197	292.06
265.429	268.06
265.661	288.06
265.894	283.06
266.126	298.06
266.358	289.06
266.591	292.06
266.823	275.06
267.055	298.06
267.287	284.06
267.52	306.06
267.752	285.06
267.984	290.06
268.216	291.06
268.448	305.06
268.681	310.06
268.913	303.06
269.145	307.06
269.377	279.06
269.609	293.06
269.841	296.06
270.073	299.06
270.306	279.06
270.538	293.06
270.77	312.06
271.002	293.06
271.234	307.06
271.466	331.06
271.698	276.06
271.93	312.06
272.162	297.06
272.394	312.06
272.626	310.06
272.858	318.06
273.09	299.06
273.322	350.06
273.553	324.06
273.785	311.06
274.017	318.06
274.249	300.06
274.481	328.06
274.713	324.06
274.945	328.06
275.176	323.06
275.408	304.06
275.64	335.06
275.872	331.06
276.104	339.06
276.335	341.06
276.567	319.06
276.799	337.06
277.031	349.06
277.262	328.06
277.494	337.06
277.726	337.06
277.957	348.06
278.189	355.06
278.421	331.06
278.652	347.06
278.884	357.06
279.115	354.06
279.347	345.06
279.579	338.06
279.81	352.06
280.042	368.06
280.273	358.06
280.505	361.06
280.736	358.06
280.968	356.06
281.199	365.06
281.431	355.06
281.662	386.06
281.894	366.06
282.125	353.06
282.356	358.06
282.588	379.06
282.819	354.06
283.051	384.06
283.282	370.06
283.513	363.06
283.745	376.06
283.976	376.06
284.207	395.06
284.439	384.06
284.67	372.06
284.901	389.06
285.132	368.06
285.364	386.06
285.595	397.06
285.826	411.06
286.057	392.06
286.288	374.06
286.52	406.06
286.751	394.06
286.982	377.06
287.213	410.06
287.444	414.06
287.675	388.06
287.906	413.06
288.138	402.06
288.369	396.06
288.6	401.06
288.831	416.06
289.062	400.06
289.293	410.06
289.524	406.06
289.755	393.06
289.986	416.06
290.217	420.06
290.448	421.06
290.679	424.06
290.91	423.06
291.141	410.06
291.371	416.06
291.602	405.06
291.833	403.06
292.064	410.06
292.295	409.06
292.526	424.06
292.757	415.06
292.987	398.06
293.218	406.06
293.449	445.06
293.68	436.06
293.91	410.06
294.141	424.06
294.372	402.06
294.603	434.06
294.833	410.06
295.064	440.06
295.295	440.06
295.525	416.06
295.756	437.06
295.987	428.06
296.217	430.06
296.448	416.06
296.679	456.06
296.909	452.06
297.14	450.06
297.37	439.06
297.601	446.06
297.831	431.06
298.062	456.06
298.292	463.06
298.523	484.06
298.753	478.06
298.984	471.06
299.214	469.06
299.445	451.06
299.675	449.06
299.905	447.06
300.136	463.06
300.366	452.06
300.597	467.06
300.827	495.06
301.057	501.06
301.288	481.06
301.518	475.06
301.748	481.06
301.979	479.06
302.209	492.06
302.439	469.06
302.669	460.06
302.9	445.06
303.13	463.06
303.36	480.06
303.59	473.06
303.82	457.06
304.051	478.06
304.281	475.06
304.511	472.06
304.741	475.06
304.971	492.06
305.201	474.06
305.431	456.06
305.661	470.06
305.891	458.06
306.121	452.06
306.352	466.06
306.582	455.06
306.812	467.06
307.042	461.06
307.272	466.06
307.502	454.06
307.731	464.06
307.961	462.06
308.191	454.06
308.421	438.06
308.651	466.06
308.881	447.06
309.111	471.06
309.341	452.06
309.571	465.06
309.8	474.06
310.03	462.06
310.26	458.06
310.49	447.06
310.72	438.06
310.949	442.06
311.179	483.06
311.409	476.06
311.639	470.06
311.868	468.06
312.098	484.06
312.328	460.06
312.557	486.06
312.787	474.06
313.017	507.06
313.246	483.06
313.476	478.06
313.706	502.06
313.935	486.06
314.165	491.06
314.394	497.06
314.624	486.06
314.853	464.06
315.083	489.06
315.312	477.06
315.542	494.06
315.771	483.06
316.001	487.06
316.23	482.06
316.46	482.06
316.689	472.06
316.919	478.06
317.148	500.06
317.377	460.06
317.607	470.06
317.836	457.06
318.065	482.06
318.295	458.06
318.524	477.06
318.753	495.06
318.983	470.06
319.212	475.06
319.441	486.06
319.67	484.06
319.9	472.06
320.129	517.06
320.358	491.06
320.587	498.06
320.816	499.06
321.046	470.06
321.275	462.06
321.504	487.06
321.733	476.06
321.962	467.06
322.191	489.06
322.42	502.06
322.649	482.06
322.878	508.06
323.108	494.06
323.337	508.06
323.566	476.06
323.795	475.06
324.024	498.06
324.253	507.06
324.482	490.06
324.71	490.06
324.939	497.06
325.168	503.06
325.397	511.06
325.626	502.06
325.855	492.06
326.084	515.06
326.313	529.06
326.542	544.06
326.77	546.06
326.999	524.06
327.228	529.06
327.457	504.06
327.686	510.06
327.914	512.06
328.143	559.06
328.372	535.06
328.6	522.06
328.829	530.06
329.058	521.06
329.287	534.06
329.515	529.06
329.744	544.06
329.972	532.06
330.201	517.06
330.43	524.06
330.658	534.06
330.887	551.06
331.115	552.06
331.344	561.06
331.572	568.06
331.801	554.06
332.03	585.06
332.258	591.06
332.486	615.06
332.715	645.06
332.943	685.06
333.172	666.06
333.4	722.06
333.629	764.06
333.857	716.06
334.085	679.06
334.314	692.06
334.542	667.06
334.771	669.06
334.999	647.06
335.227	674.06
335.455	675.06
335.684	664.06
335.912	653.06
336.14	642.06
336.369	625.06
336.597	639.06
336.825	626.06
337.053	624.06
337.281	650.06
337.51	608.06
337.738	589.06
337.966	562.06
338.194	591.06
338.422	576.06
338.65	595.06
338.878	571.06
339.106	551.06
339.334	587.06
339.562	558.06
339.79	549.06
340.018	523.06
340.246	535.06
340.474	546.06
340.702	549.06
340.93	585.06
341.158	562.06
341.386	570.06
341.614	568.06
341.842	568.06
342.07	571.06
342.298	545.06
342.526	528.06
342.754	561.06
342.981	545.06
343.209	573.06
343.437	615.06
343.665	630.06
343.893	683.06
344.12	710.06
344.348	657.06
344.576	619.06
344.804	602.06
345.031	577.06
345.259	558.06
345.487	556.06
345.714	575.06
345.942	570.06
346.17	547.06
346.397	531.06
346.625	517.06
346.853	542.06
347.08	554.06
347.308	551.06
347.535	564.06
347.763	580.06
347.99	551.06
348.218	577.06
348.445	556.06
348.673	550.06
348.9	531.06
349.128	541.06
349.355	543.06
349.583	525.06
349.81	522.06
350.037	524.06
350.265	522.06
350.492	527.06
350.72	522.06
350.947	508.06
351.174	525.06
351.402	529.06
351.629	519.06
351.856	524.06
352.083	505.06
352.311	502.06
352.538	516.06
352.765	514.06
352.992	496.06
353.22	496.06
353.447	529.06
353.674	524.06
353.901	515.06
354.128	538.06
354.355	536.06
354.583	533.06
354.81	521.06
355.037	492.06
355.264	526.06
355.491	532.06
355.718	531.06
355.945	528.06
356.172	512.06
356.399	538.06
356.626	519.06
356.853	528.06
357.08	524.06
357.307	529.06
357.534	536.06
357.761	521.06
357.988	528.06
358.215	516.06
358.441	524.06
358.668	511.06
358.895	498.06
359.122	510.06
359.349	529.06
359.576	513.06
359.802	515.06
360.029	517.06
360.256	510.06
360.483	519.06
360.709	528.06
360.936	518.06
361.163	526.06
361.39	546.06
361.616	518.06
361.843	531.06
362.07	500.06
362.296	531.06
362.523	521.06
362.749	501.06
362.976	513.06
363.203	529.06
363.429	498.06
363.656	503.06
363.882	513.06
364.109	516.06
364.335	508.06
364.562	506.06
364.788	520.06
365.015	537.06
365.241	522.06
365.468	500.06
365.694	497.06
365.92	504.06
366.147	513.06
366.373	516.06
366.599	519.06
366.826	515.06
367.052	500.06
367.278	536.06
367.505	513.06
367.731	518.06
367.957	512.06
368.184	532.06
368.41	531.06
368.636	530.06
368.862	528.06
369.089	535.06
369.315	506.06
369.541	563.06
369.767	537.06
369.993	550.06
370.219	548.06
370.445	554.06
370.672	562.06
370.898	553.06
371.124	530.06
371.35	583.06
371.576	581.06
371.802	571.06
372.028	583.06
372.254	566.06
372.48	587.06
372.706	582.06
372.932	596.06
373.158	583.06
373.384	593.06
373.61	556.06
373.835	577.06
374.061	569.06
374.287	595.06
374.513	585.06
374.739	593.06
374.965	623.06
375.191	648.06
375.416	654.06
375.642	632.06
375.868	607.06
376.094	611.06
376.319	603.06
376.545	575.06
376.771	587.06
376.997	574.06
377.222	573.06
377.448	598.06
377.674	563.06
377.899	571.06
378.125	572.06
378.35	570.06
378.576	564.06
378.802	563.06
379.027	546.06
379.253	569.06
379.478	554.06
379.704	549.06
379.929	549.06
380.155	591.06
380.38	569.06
380.606	547.06
380.831	553.06
381.057	569.06
381.282	564.06
381.507	551.06
381.733	567.06
381.958	585.06
382.184	574.06
382.409	587.06
382.634	603.06
382.86	601.06
383.085	606.06
383.31	625.06
383.535	614.06
383.761	638.06
383.986	638.06
384.211	663.06
384.436	674.06
384.662	666.06
384.887	703.06
385.112	704.06
385.337	714.06
385.562	686.06
385.787	674.06
386.013	699.06
386.238	696.06
386.463	703.06
386.688	677.06
386.913	663.06
387.138	686.06
387.363	666.06
387.588	657.06
387.813	684.06
388.038	663.06
388.263	691.06
388.488	687.06
388.713	675.06
388.938	656.06
389.163	649.06
389.387	660.06
389.612	652.06
389.837	660.06
390.062	660.06
390.287	664.06
390.512	655.06
390.736	671.06
390.961	657.06
391.186	688.06
391.411	715.06
391.636	730.06
391.86	765.06
392.085	786.06
392.31	784.06
392.534	729.06
392.759	710.06
392.984	729.06
393.208	719.06
393.433	709.06
393.658	706.06
393.882	737.06
394.107	733.06
394.331	727.06
394.556	737.06
394.78	732.06
395.005	719.06
395.229	737.06
395.454	737.06
395.678	777.06
395.903	755.06
396.127	759.06
396.352	702.06
396.576	708.06
396.801	698.06
397.025	720.06
397.249	740.06
397.474	760.06
397.698	754.06
397.922	776.06
398.147	735.06
398.371	797.06
398.595	803.06
398.82	820.06
399.044	858.06
399.268	986.06
399.492	1138.06
399.717	1320.06
399.941	1292.06
400.165	1138.06
400.389	984.06
400.613	916.06
400.837	889.06
401.062	832.06
401.286	850.06
401.51	841.06
401.734	840.06
401.958	836.06
402.182	880.06
402.406	870.06
402.63	894.06
402.854	942.06
403.078	921.06
403.302	948.06
403.526	976.06
403.75	982.06
403.974	1013.06
404.198	1000.06
404.422	1011.06
404.645	1013.06
404.869	974.06
405.093	971.06
405.317	936.06
405.541	925.06
405.765	895.06
405.988	912.06
406.212	922.06
406.436	912.06
406.66	935.06
406.883	962.06
407.107	1026.06
407.331	1067.06
407.555	1110.06
407.778	1119.06
408.002	1086.06
408.226	1046.06
408.449	1020.06
408.673	946.06
408.896	990.06
409.12	942.06
409.344	976.06
409.567	1002.06
409.791	1029.06
410.014	996.06
410.238	970.06
410.461	975.06
410.685	953.06
410.908	954.06
411.132	926.06
411.355	875.06
411.578	896.06
411.802	866.06
412.025	908.06
412.249	925.06
412.472	911.06
412.695	853.06
412.919	841.06
413.142	845.06
413.365	864.06
413.589	858.06
413.812	849.06
414.035	817.06
414.258	858.06
414.482	843.06
414.705	836.06
414.928	892.06
415.151	890.06
415.374	839.06
415.597	854.06
415.821	856.06
416.044	848.06
416.267	819.06
416.49	841.06
416.713	816.06
416.936	827.06
417.159	784.06
417.382	851.06
417.605	843.06
417.828	840.06
418.051	829.06
418.274	852.06
418.497	846.06
418.72	866.06
418.943	863.06
419.166	935.06
419.389	959.06
419.611	977.06
419.834	926.06
420.057	891.06
420.28	844.06
420.503	835.06
420.726	826.06
420.948	833.06
421.171	824.06
421.394	840.06
421.617	868.06
421.839	863.06
422.062	832.06
422.285	834.06
422.507	850.06
422.73	851.06
422.953	890.06
423.175	882.06
423.398	895.06
423.621	886.06
423.843	907.06
424.066	926.06
424.288	894.06
424.511	894.06
424.733	855.06
424.956	859.06
425.178	862.06
425.401	875.06
425.623	807.06
425.846	807.06
426.068	806.06
426.291	801.06
426.513	805.06
426.735	802.06
426.958	758.06
427.18	772.06
427.402	760.06
427.625	768.06
427.847	767.06
428.069	768.06
428.292	756.06
428.514	743.06
428.736	740.06
428.958	768.06
429.181	727.06
429.403	726.06
429.625	724.06
429.847	738.06
430.069	732.06
430.292	754.06
430.514	722.06
430.736	734.06
430.958	741.06
431.18	737.06
431.402	730.06
431.624	753.06
431.846	741.06
432.068	780.06
432.29	765.06
432.512	753.06
432.734	762.06
432.956	723.06
433.178	758.06
433.4	736.06
433.622	790.06
433.844	774.06
434.066	776.06
434.287	753.06
434.509	800.06
434.731	825.06
434.953	834.06
435.175	872.06
435.397	842.06
435.618	812.06
435.84	785.06
436.062	788.06
436.284	756.06
436.505	776.06
436.727	742.06
436.949	754.06
437.17	789.06
437.392	752.06
437.614	764.06
437.835	733.06
438.057	725.06
438.278	700.06
438.5	735.06
438.721	712.06
438.943	734.06
439.165	726.06
439.386	729.06
439.608	737.06
439.829	749.06
440.05	777.06
440.272	747.06
440.493	771.06
440.715	798.06
440.936	781.06
441.158	796.06
441.379	828.06
441.6	863.06
441.822	855.06
442.043	865.06
442.264	827.06
442.486	809.06
442.707	835.06
442.928	843.06
443.149	858.06
443.371	854.06
443.592	838.06
443.813	863.06
444.034	879.06
444.255	869.06
444.476	924.06
444.698	1002.06
444.919	1016.06
445.14	1080.06
445.361	977.06
445.582	892.06
445.803	810.06
446.024	778.06
446.245	768.06
446.466	778.06
446.687	770.06
446.908	799.06
447.129	765.06
447.35	748.06
447.571	719.06
447.792	715.06
448.013	723.06
448.234	709.06
448.455	683.06
448.675	702.06
448.896	662.06
449.117	686.06
449.338	703.06
449.559	696.06
449.779	682.06
450	667.06
450.221	709.06
450.442	704.06
450.662	725.06
450.883	710.06
451.104	740.06
451.324	704.06
451.545	752.06
451.766	721.06
451.986	732.06
452.207	723.06
452.428	712.06
452.648	732.06
452.869	690.06
453.089	702.06
453.31	713.06
453.53	695.06
453.751	713.06
453.971	683.06
454.192	712.06
454.412	679.06
454.633	674.06
454.853	670.06
455.073	688.06
455.294	658.06
455.514	681.06
455.734	652.06
455.955	658.06
456.175	660.06
456.395	631.06
456.616	640.06
456.836	670.06
457.056	631.06
457.276	636.06
457.497	670.06
457.717	665.06
457.937	658.06
458.157	651.06
458.377	656.06
458.598	680.06
458.818	708.06
459.038	734.06
459.258	760.06
459.478	766.06
459.698	816.06
459.918	826.06
460.138	840.06
460.358	888.06
460.578	912.06
460.798	906.06
461.018	908.06
461.238	899.06
461.458	892.06
461.678	887.06
461.898	909.06
462.118	919.06
462.338	966.06
462.558	979.06
462.777	1021.06
462.997	1130.06
463.217	1207.06
463.437	1267.06
463.657	1153.06
463.876	1078.06
464.096	1067.06
464.316	1070.06
464.536	1092.06
464.755	1030.06
464.975	979.06
465.195	926.06
465.414	895.06
465.634	827.06
465.854	796.06
466.073	786.06
466.293	741.06
466.512	756.06
466.732	720.06
466.951	747.06
467.171	730.06
467.391	740.06
467.61	764.06
467.829	745.06
468.049	734.06
468.268	702.06
468.488	698.06
468.707	698.06
468.927	693.06
469.146	692.06
469.365	736.06
469.585	720.06
469.804	754.06
470.023	754.06
470.243	755.06
470.462	769.06
470.681	778.06
470.901	753.06
471.12	728.06
471.339	768.06
471.558	735.06
471.777	697.06
471.997	715.06
472.216	720.06
472.435	704.06
472.654	690.06
472.873	687.06
473.092	678.06
473.311	687.06
473.53	693.06
473.749	692.06
473.968	678.06
474.187	672.06
474.406	674.06
474.625	716.06
474.844	688.06
475.063	678.06
475.282	686.06
475.501	678.06
475.72	691.06
475.939	694.06
476.158	693.06
476.377	715.06
476.596	712.06
476.814	710.06
477.033	710.06
477.252	751.06
477.471	734.06
477.69	785.06
477.908	796.06
478.127	779.06
478.346	832.06
478.564	837.06
478.783	827.06
479.002	862.06
479.22	841.06
479.439	826.06
479.658	852.06
479.876	828.06
480.095	862.06
480.313	899.06
480.532	940.06
480.751	940.06
480.969	913.06
481.188	850.06
481.406	791.06
481.624	777.06
481.843	794.06
482.061	811.06
482.28	796.06
482.498	780.06
482.717	777.06
482.935	776.06
483.153	787.06
483.372	761.06
483.59	774.06
483.808	752.06
484.027	793.06
484.245	810.06
484.463	803.06
484.681	800.06
484.9	826.06
485.118	832.06
485.336	811.06
485.554	813.06
485.772	830.06
485.99	841.06
486.209	870.06
486.427	848.06
486.645	826.06
486.863	835.06
487.081	836.06
487.299	827.06
487.517	830.06
487.735	822.06
487.953	843.06
488.171	844.06
488.389	842.06
488.607	802.06
488.825	815.06
489.043	812.06
489.261	779.06
489.479	847.06
489.696	803.06
489.914	794.06
490.132	805.06
490.35	846.06
490.568	799.06
490.786	834.06
491.003	814.06
491.221	830.06
491.439	832.06
491.657	844.06
491.874	824.06
492.092	849.06
492.31	846.06
492.527	835.06
492.745	825.06
492.963	854.06
493.18	842.06
493.398	868.06
493.615	854.06
493.833	852.06
494.05	852.06
494.268	872.06
494.485	900.06
494.703	864.06
494.92	866.06
495.138	820.06
495.355	872.06
495.573	874.06
495.79	901.06
496.008	899.06
496.225	899.06
496.442	875.06
496.66	899.06
496.877	906.06
497.094	904.06
497.312	916.06
497.529	943.06
497.746	970.06
497.963	976.06
498.181	1022.06
498.398	1030.06
498.615	1171.06
498.832	1200.06
499.049	1270.06
499.267	1442.06
499.484	1557.06
499.701	1687.06
499.918	1915.06
500.135	2209.06
500.352	2592.06
500.569	2804.06
500.786	2694.06
501.003	2542.06
