Data from Ni(NO3)2Standard.Agarose3%.GreenCap.LampEnergy5.5.E.O_HRD10591_14-42-19-188.txt Node
Date: Mon Jul 22 14:42:19 EDT 2019
User: cochatt
Spectrometer: HR+D1059
Trigger mode: 1
Integration Time (sec): 1.000000E-1
Scans to average: 1
Electric dark correction enabled: true
Nonlinearity correction enabled: false
Boxcar width: 0
XAxis mode: Wavelengths
Number of Pixels in Spectrum: 2048
>>>>>Begin Spectral Data<<<<<
223.165	-3.06
223.4	-3.06
223.635	-3.06
223.869	-12.06
224.104	-21.06
224.338	-17.06
224.573	-19.06
224.808	-20.06
225.042	1.94
225.277	0.94
225.511	8.94
225.746	2.94
225.98	-6.06
226.215	2.94
226.449	15.94
226.683	15.94
226.918	26.94
227.152	21.94
227.387	46.94
227.621	37.94
227.856	45.94
228.09	45.94
228.324	56.94
228.559	64.94
228.793	64.94
229.027	56.94
229.262	74.94
229.496	84.94
229.73	71.94
229.964	54.94
230.199	62.94
230.433	65.94
230.667	86.94
230.901	71.94
231.136	82.94
231.37	81.94
231.604	83.94
231.838	72.94
232.072	82.94
232.306	93.94
232.541	84.94
232.775	76.94
233.009	74.94
233.243	87.94
233.477	81.94
233.711	85.94
233.945	78.94
234.179	84.94
234.413	92.94
234.647	74.94
234.881	85.94
235.115	70.94
235.349	79.94
235.583	72.94
235.817	85.94
236.051	83.94
236.285	64.94
236.519	79.94
236.753	78.94
236.987	79.94
237.221	94.94
237.455	67.94
237.689	77.94
237.922	87.94
238.156	81.94
238.39	75.94
238.624	72.94
238.858	76.94
239.091	79.94
239.325	82.94
239.559	84.94
239.793	68.94
240.027	84.94
240.26	61.94
240.494	74.94
240.728	65.94
240.961	81.94
241.195	81.94
241.429	83.94
241.662	78.94
241.896	83.94
242.13	62.94
242.363	78.94
242.597	78.94
242.83	77.94
243.064	68.94
243.298	91.94
243.531	82.94
243.765	75.94
243.998	84.94
244.232	86.94
244.465	83.94
244.699	74.94
244.932	87.94
245.166	73.94
245.399	69.94
245.633	83.94
245.866	75.94
246.099	78.94
246.333	91.94
246.566	84.94
246.8	77.94
247.033	73.94
247.266	69.94
247.5	80.94
247.733	91.94
247.966	82.94
248.2	83.94
248.433	85.94
248.666	81.94
248.899	77.94
249.133	68.94
249.366	92.94
249.599	82.94
249.832	70.94
250.066	78.94
250.299	85.94
250.532	86.94
250.765	75.94
250.998	81.94
251.231	82.94
251.465	84.94
251.698	79.94
251.931	81.94
252.164	74.94
252.397	77.94
252.63	87.94
252.863	75.94
253.096	77.94
253.329	90.94
253.562	83.94
253.795	78.94
254.028	80.94
254.261	81.94
254.494	83.94
254.727	87.94
254.96	73.94
255.193	88.94
255.426	77.94
255.659	85.94
255.892	82.94
256.124	87.94
256.357	80.94
256.59	75.94
256.823	82.94
257.056	77.94
257.289	68.94
257.521	82.94
257.754	92.94
257.987	91.94
258.22	89.94
258.452	89.94
258.685	82.94
258.918	96.94
259.151	75.94
259.383	98.94
259.616	95.94
259.849	87.94
260.081	104.94
260.314	76.94
260.547	81.94
260.779	85.94
261.012	73.94
261.244	91.94
261.477	82.94
261.71	78.94
261.942	76.94
262.175	86.94
262.407	88.94
262.64	80.94
262.872	86.94
263.105	77.94
263.337	98.94
263.57	88.94
263.802	90.94
264.035	83.94
264.267	86.94
264.499	73.94
264.732	95.94
264.964	72.94
265.197	88.94
265.429	86.94
265.661	65.94
265.894	78.94
266.126	76.94
266.358	84.94
266.591	85.94
266.823	83.94
267.055	76.94
267.287	88.94
267.52	84.94
267.752	84.94
267.984	84.94
268.216	80.94
268.448	73.94
268.681	83.94
268.913	92.94
269.145	90.94
269.377	89.94
269.609	82.94
269.841	92.94
270.073	90.94
270.306	82.94
270.538	88.94
270.77	86.94
271.002	97.94
271.234	78.94
271.466	77.94
271.698	83.94
271.93	80.94
272.162	82.94
272.394	86.94
272.626	77.94
272.858	83.94
273.09	83.94
273.322	84.94
273.553	86.94
273.785	81.94
274.017	75.94
274.249	85.94
274.481	88.94
274.713	86.94
274.945	99.94
275.176	84.94
275.408	83.94
275.64	88.94
275.872	92.94
276.104	76.94
276.335	87.94
276.567	90.94
276.799	78.94
277.031	96.94
277.262	79.94
277.494	88.94
277.726	84.94
277.957	95.94
278.189	74.94
278.421	84.94
278.652	86.94
278.884	76.94
279.115	101.94
279.347	78.94
279.579	86.94
279.81	84.94
280.042	90.94
280.273	87.94
280.505	96.94
280.736	79.94
280.968	75.94
281.199	90.94
281.431	92.94
281.662	105.94
281.894	90.94
282.125	92.94
282.356	83.94
282.588	78.94
282.819	76.94
283.051	95.94
283.282	90.94
283.513	84.94
283.745	84.94
283.976	84.94
284.207	84.94
284.439	86.94
284.67	90.94
284.901	96.94
285.132	89.94
285.364	92.94
285.595	77.94
285.826	72.94
286.057	78.94
286.288	76.94
286.52	76.94
286.751	84.94
286.982	74.94
287.213	81.94
287.444	74.94
287.675	95.94
287.906	88.94
288.138	89.94
288.369	89.94
288.6	88.94
288.831	81.94
289.062	92.94
289.293	85.94
289.524	101.94
289.755	88.94
289.986	80.94
290.217	90.94
290.448	78.94
290.679	83.94
290.91	84.94
291.141	89.94
291.371	102.94
291.602	96.94
291.833	92.94
292.064	106.94
292.295	86.94
292.526	77.94
292.757	97.94
292.987	97.94
293.218	83.94
293.449	86.94
293.68	85.94
293.91	86.94
294.141	84.94
294.372	90.94
294.603	87.94
294.833	75.94
295.064	99.94
295.295	85.94
295.525	92.94
295.756	85.94
295.987	86.94
296.217	85.94
296.448	90.94
296.679	89.94
296.909	96.94
297.14	108.94
297.37	87.94
297.601	80.94
297.831	85.94
298.062	78.94
298.292	90.94
298.523	84.94
298.753	82.94
298.984	97.94
299.214	108.94
299.445	84.94
299.675	96.94
299.905	77.94
300.136	91.94
300.366	91.94
300.597	94.94
300.827	94.94
301.057	78.94
301.288	69.94
301.518	85.94
301.748	90.94
301.979	78.94
302.209	78.94
302.439	94.94
302.669	76.94
302.9	86.94
303.13	96.94
303.36	91.94
303.59	89.94
303.82	77.94
304.051	100.94
304.281	96.94
304.511	84.94
304.741	102.94
304.971	80.94
305.201	83.94
305.431	79.94
305.661	92.94
305.891	82.94
306.121	81.94
306.352	105.94
306.582	77.94
306.812	84.94
307.042	85.94
307.272	87.94
307.502	85.94
307.731	86.94
307.961	92.94
308.191	89.94
308.421	100.94
308.651	82.94
308.881	77.94
309.111	92.94
309.341	81.94
309.571	89.94
309.8	90.94
310.03	87.94
310.26	90.94
310.49	80.94
310.72	92.94
310.949	81.94
311.179	90.94
311.409	80.94
311.639	86.94
311.868	93.94
312.098	88.94
312.328	89.94
312.557	89.94
312.787	86.94
313.017	75.94
313.246	90.94
313.476	86.94
313.706	67.94
313.935	79.94
314.165	82.94
314.394	77.94
314.624	101.94
314.853	81.94
315.083	87.94
315.312	86.94
315.542	90.94
315.771	85.94
316.001	110.94
316.23	92.94
316.46	86.94
316.689	85.94
316.919	82.94
317.148	82.94
317.377	85.94
317.607	91.94
317.836	92.94
318.065	94.94
318.295	93.94
318.524	86.94
318.753	83.94
318.983	87.94
319.212	81.94
319.441	79.94
319.67	98.94
319.9	84.94
320.129	74.94
320.358	96.94
320.587	93.94
320.816	91.94
321.046	81.94
321.275	66.94
321.504	96.94
321.733	72.94
321.962	83.94
322.191	99.94
322.42	91.94
322.649	77.94
322.878	92.94
323.108	85.94
323.337	77.94
323.566	86.94
323.795	102.94
324.024	87.94
324.253	88.94
324.482	73.94
324.71	83.94
324.939	99.94
325.168	72.94
325.397	85.94
325.626	75.94
325.855	77.94
326.084	77.94
326.313	74.94
326.542	95.94
326.77	92.94
326.999	76.94
327.228	80.94
327.457	91.94
327.686	82.94
327.914	98.94
328.143	97.94
328.372	98.94
328.6	91.94
328.829	91.94
329.058	75.94
329.287	82.94
329.515	83.94
329.744	83.94
329.972	84.94
330.201	89.94
330.43	87.94
330.658	90.94
330.887	91.94
331.115	85.94
331.344	92.94
331.572	90.94
331.801	84.94
332.03	87.94
332.258	87.94
332.486	83.94
332.715	91.94
332.943	78.94
333.172	90.94
333.4	100.94
333.629	83.94
333.857	81.94
334.085	89.94
334.314	92.94
334.542	91.94
334.771	84.94
334.999	89.94
335.227	96.94
335.455	88.94
335.684	88.94
335.912	86.94
336.14	86.94
336.369	90.94
336.597	88.94
336.825	88.94
337.053	84.94
337.281	93.94
337.51	89.94
337.738	92.94
337.966	97.94
338.194	89.94
338.422	95.94
338.65	97.94
338.878	103.94
339.106	83.94
339.334	93.94
339.562	93.94
339.79	81.94
340.018	91.94
340.246	105.94
340.474	86.94
340.702	90.94
340.93	99.94
341.158	86.94
341.386	82.94
341.614	90.94
341.842	84.94
342.07	92.94
342.298	101.94
342.526	91.94
342.754	88.94
342.981	85.94
343.209	96.94
343.437	89.94
343.665	96.94
343.893	91.94
344.12	91.94
344.348	97.94
344.576	96.94
344.804	78.94
345.031	85.94
345.259	86.94
345.487	96.94
345.714	96.94
345.942	92.94
346.17	81.94
346.397	77.94
346.625	81.94
346.853	83.94
347.08	74.94
347.308	70.94
347.535	82.94
347.763	89.94
347.99	79.94
348.218	101.94
348.445	90.94
348.673	82.94
348.9	100.94
349.128	83.94
349.355	91.94
349.583	99.94
349.81	95.94
350.037	83.94
350.265	99.94
350.492	110.94
350.72	82.94
350.947	99.94
351.174	93.94
351.402	90.94
351.629	96.94
351.856	90.94
352.083	91.94
352.311	88.94
352.538	86.94
352.765	79.94
352.992	90.94
353.22	86.94
353.447	83.94
353.674	86.94
353.901	91.94
354.128	91.94
354.355	91.94
354.583	87.94
354.81	84.94
355.037	89.94
355.264	74.94
355.491	90.94
355.718	81.94
355.945	82.94
356.172	91.94
356.399	97.94
356.626	71.94
356.853	78.94
357.08	78.94
357.307	84.94
357.534	83.94
357.761	81.94
357.988	92.94
358.215	93.94
358.441	86.94
358.668	68.94
358.895	67.94
359.122	89.94
359.349	87.94
359.576	102.94
359.802	70.94
360.029	92.94
360.256	76.94
360.483	85.94
360.709	95.94
360.936	88.94
361.163	88.94
361.39	81.94
361.616	91.94
361.843	89.94
362.07	92.94
362.296	90.94
362.523	88.94
362.749	74.94
362.976	82.94
363.203	97.94
363.429	87.94
363.656	86.94
363.882	90.94
364.109	92.94
364.335	91.94
364.562	97.94
364.788	74.94
365.015	89.94
365.241	84.94
365.468	80.94
365.694	85.94
365.92	78.94
366.147	82.94
366.373	93.94
366.599	88.94
366.826	72.94
367.052	77.94
367.278	90.94
367.505	79.94
367.731	102.94
367.957	86.94
368.184	96.94
368.41	84.94
368.636	78.94
368.862	87.94
369.089	83.94
369.315	75.94
369.541	83.94
369.767	84.94
369.993	75.94
370.219	71.94
370.445	90.94
370.672	76.94
370.898	85.94
371.124	92.94
371.35	84.94
371.576	88.94
371.802	77.94
372.028	84.94
372.254	68.94
372.48	97.94
372.706	85.94
372.932	96.94
373.158	96.94
373.384	89.94
373.61	78.94
373.835	92.94
374.061	82.94
374.287	82.94
374.513	92.94
374.739	82.94
374.965	97.94
375.191	73.94
375.416	91.94
375.642	87.94
375.868	83.94
376.094	97.94
376.319	82.94
376.545	89.94
376.771	81.94
376.997	76.94
377.222	84.94
377.448	86.94
377.674	78.94
377.899	90.94
378.125	85.94
378.35	91.94
378.576	84.94
378.802	77.94
379.027	87.94
379.253	88.94
379.478	76.94
379.704	81.94
379.929	99.94
380.155	75.94
380.38	90.94
380.606	106.94
380.831	94.94
381.057	89.94
381.282	70.94
381.507	85.94
381.733	78.94
381.958	87.94
382.184	72.94
382.409	90.94
382.634	89.94
382.86	81.94
383.085	78.94
383.31	92.94
383.535	92.94
383.761	83.94
383.986	87.94
384.211	96.94
384.436	89.94
384.662	95.94
384.887	97.94
385.112	78.94
385.337	80.94
385.562	85.94
385.787	66.94
386.013	90.94
386.238	98.94
386.463	80.94
386.688	91.94
386.913	82.94
387.138	75.94
387.363	89.94
387.588	86.94
387.813	82.94
388.038	72.94
388.263	99.94
388.488	89.94
388.713	91.94
388.938	95.94
389.163	73.94
389.387	88.94
389.612	96.94
389.837	86.94
390.062	77.94
390.287	95.94
390.512	68.94
390.736	80.94
390.961	89.94
391.186	87.94
391.411	97.94
391.636	92.94
391.86	79.94
392.085	86.94
392.31	91.94
392.534	84.94
392.759	83.94
392.984	92.94
393.208	81.94
393.433	83.94
393.658	81.94
393.882	81.94
394.107	81.94
394.331	86.94
394.556	78.94
394.78	84.94
395.005	91.94
395.229	82.94
395.454	78.94
395.678	88.94
395.903	68.94
396.127	82.94
396.352	105.94
396.576	84.94
396.801	83.94
397.025	92.94
397.249	94.94
397.474	92.94
397.698	95.94
397.922	90.94
398.147	79.94
398.371	91.94
398.595	101.94
398.82	95.94
399.044	97.94
399.268	78.94
399.492	82.94
399.717	96.94
399.941	85.94
400.165	80.94
400.389	90.94
400.613	101.94
400.837	86.94
401.062	94.94
401.286	97.94
401.51	82.94
401.734	80.94
401.958	92.94
402.182	89.94
402.406	89.94
402.63	81.94
402.854	88.94
403.078	88.94
403.302	86.94
403.526	91.94
403.75	93.94
403.974	91.94
404.198	87.94
404.422	82.94
404.645	82.94
404.869	86.94
405.093	86.94
405.317	87.94
405.541	90.94
405.765	106.94
405.988	82.94
406.212	80.94
406.436	80.94
406.66	90.94
406.883	94.94
407.107	74.94
407.331	86.94
407.555	92.94
407.778	92.94
408.002	85.94
408.226	80.94
408.449	79.94
408.673	87.94
408.896	85.94
409.12	90.94
409.344	101.94
409.567	75.94
409.791	93.94
410.014	95.94
410.238	91.94
410.461	81.94
410.685	87.94
410.908	99.94
411.132	96.94
411.355	88.94
411.578	83.94
411.802	81.94
412.025	85.94
412.249	81.94
412.472	92.94
412.695	87.94
412.919	84.94
413.142	94.94
413.365	88.94
413.589	91.94
413.812	89.94
414.035	93.94
414.258	85.94
414.482	90.94
414.705	93.94
414.928	89.94
415.151	82.94
415.374	73.94
415.597	82.94
415.821	83.94
416.044	81.94
416.267	69.94
416.49	96.94
416.713	92.94
416.936	89.94
417.159	81.94
417.382	86.94
417.605	85.94
417.828	84.94
418.051	98.94
418.274	84.94
418.497	77.94
418.72	75.94
418.943	83.94
419.166	78.94
419.389	88.94
419.611	73.94
419.834	85.94
420.057	87.94
420.28	86.94
420.503	83.94
420.726	78.94
420.948	78.94
421.171	86.94
421.394	86.94
421.617	76.94
421.839	83.94
422.062	92.94
422.285	90.94
422.507	94.94
422.73	84.94
422.953	82.94
423.175	79.94
423.398	81.94
423.621	76.94
423.843	92.94
424.066	87.94
424.288	79.94
424.511	82.94
424.733	98.94
424.956	91.94
425.178	81.94
425.401	90.94
425.623	88.94
425.846	77.94
426.068	89.94
426.291	75.94
426.513	89.94
426.735	93.94
426.958	89.94
427.18	87.94
427.402	93.94
427.625	86.94
427.847	76.94
428.069	97.94
428.292	88.94
428.514	82.94
428.736	86.94
428.958	73.94
429.181	80.94
429.403	94.94
429.625	96.94
429.847	83.94
430.069	82.94
430.292	97.94
430.514	77.94
430.736	85.94
430.958	82.94
431.18	72.94
431.402	90.94
431.624	97.94
431.846	81.94
432.068	83.94
432.29	78.94
432.512	98.94
432.734	85.94
432.956	88.94
433.178	85.94
433.4	92.94
433.622	103.94
433.844	77.94
434.066	80.94
434.287	79.94
434.509	90.94
434.731	82.94
434.953	80.94
435.175	99.94
435.397	87.94
435.618	81.94
435.84	73.94
436.062	84.94
436.284	90.94
436.505	86.94
436.727	92.94
436.949	91.94
437.17	81.94
437.392	89.94
437.614	82.94
437.835	81.94
438.057	92.94
438.278	105.94
438.5	82.94
438.721	93.94
438.943	92.94
439.165	90.94
439.386	101.94
439.608	93.94
439.829	97.94
440.05	86.94
440.272	99.94
440.493	87.94
440.715	88.94
440.936	86.94
441.158	70.94
441.379	85.94
441.6	86.94
441.822	94.94
442.043	92.94
442.264	87.94
442.486	90.94
442.707	87.94
442.928	86.94
443.149	85.94
443.371	81.94
443.592	70.94
443.813	80.94
444.034	92.94
444.255	77.94
444.476	83.94
444.698	86.94
444.919	74.94
445.14	204.94
445.361	136.94
445.582	82.94
445.803	90.94
446.024	79.94
446.245	78.94
446.466	86.94
446.687	78.94
446.908	96.94
447.129	87.94
447.35	96.94
447.571	84.94
447.792	92.94
448.013	93.94
448.234	92.94
448.455	90.94
448.675	74.94
448.896	86.94
449.117	83.94
449.338	80.94
449.559	82.94
449.779	88.94
450	73.94
450.221	79.94
450.442	84.94
450.662	77.94
450.883	82.94
451.104	104.94
451.324	85.94
451.545	81.94
451.766	79.94
451.986	91.94
452.207	88.94
452.428	79.94
452.648	86.94
452.869	89.94
453.089	72.94
453.31	96.94
453.53	91.94
453.751	96.94
453.971	75.94
454.192	83.94
454.412	91.94
454.633	77.94
454.853	84.94
455.073	71.94
455.294	84.94
455.514	77.94
455.734	81.94
455.955	82.94
456.175	84.94
456.395	84.94
456.616	82.94
456.836	81.94
457.056	80.94
457.276	93.94
457.497	83.94
457.717	87.94
457.937	87.94
458.157	73.94
458.377	77.94
458.598	81.94
458.818	73.94
459.038	77.94
459.258	96.94
459.478	92.94
459.698	71.94
459.918	82.94
460.138	95.94
460.358	80.94
460.578	89.94
460.798	93.94
461.018	81.94
461.238	91.94
461.458	81.94
461.678	94.94
461.898	96.94
462.118	84.94
462.338	93.94
462.558	89.94
462.777	86.94
462.997	84.94
463.217	90.94
463.437	88.94
463.657	83.94
463.876	101.94
464.096	85.94
464.316	95.94
464.536	77.94
464.755	80.94
464.975	91.94
465.195	91.94
465.414	93.94
465.634	92.94
465.854	97.94
466.073	77.94
466.293	97.94
466.512	78.94
466.732	86.94
466.951	104.94
467.171	91.94
467.391	86.94
467.61	79.94
467.829	83.94
468.049	79.94
468.268	87.94
468.488	86.94
468.707	79.94
468.927	84.94
469.146	88.94
469.365	80.94
469.585	84.94
469.804	82.94
470.023	86.94
470.243	81.94
470.462	97.94
470.681	79.94
470.901	84.94
471.12	85.94
471.339	84.94
471.558	90.94
471.777	100.94
471.997	97.94
472.216	92.94
472.435	79.94
472.654	77.94
472.873	84.94
473.092	91.94
473.311	87.94
473.53	98.94
473.749	94.94
473.968	100.94
474.187	85.94
474.406	88.94
474.625	96.94
474.844	97.94
475.063	79.94
475.282	98.94
475.501	83.94
475.72	96.94
475.939	89.94
476.158	95.94
476.377	85.94
476.596	104.94
476.814	96.94
477.033	81.94
477.252	93.94
477.471	81.94
477.69	80.94
477.908	85.94
478.127	78.94
478.346	80.94
478.564	76.94
478.783	107.94
479.002	100.94
479.22	107.94
479.439	92.94
479.658	86.94
479.876	83.94
480.095	78.94
480.313	97.94
480.532	87.94
480.751	88.94
480.969	97.94
481.188	92.94
481.406	112.94
481.624	81.94
481.843	101.94
482.061	94.94
482.28	96.94
482.498	105.94
482.717	91.94
482.935	100.94
483.153	95.94
483.372	87.94
483.59	89.94
483.808	93.94
484.027	100.94
484.245	98.94
484.463	88.94
484.681	90.94
484.9	69.94
485.118	99.94
485.336	86.94
485.554	89.94
485.772	91.94
485.99	81.94
486.209	89.94
486.427	96.94
486.645	88.94
486.863	90.94
487.081	95.94
487.299	92.94
487.517	101.94
487.735	100.94
487.953	93.94
488.171	106.94
488.389	87.94
488.607	104.94
488.825	77.94
489.043	90.94
489.261	93.94
489.479	80.94
489.696	76.94
489.914	84.94
490.132	79.94
490.35	81.94
490.568	78.94
490.786	77.94
491.003	97.94
491.221	105.94
491.439	94.94
491.657	101.94
491.874	95.94
492.092	94.94
492.31	105.94
492.527	94.94
492.745	105.94
492.963	103.94
493.18	97.94
493.398	83.94
493.615	90.94
493.833	87.94
494.05	92.94
494.268	96.94
494.485	95.94
494.703	92.94
494.92	91.94
495.138	96.94
495.355	89.94
495.573	100.94
495.79	92.94
496.008	89.94
496.225	104.94
496.442	105.94
496.66	88.94
496.877	99.94
497.094	108.94
497.312	93.94
497.529	107.94
497.746	97.94
497.963	96.94
498.181	97.94
498.398	107.94
498.615	96.94
498.832	99.94
499.049	94.94
499.267	106.94
499.484	111.94
499.701	107.94
499.918	104.94
500.135	100.94
500.352	104.94
500.569	121.94
500.786	103.94
501.003	124.94
501.22	113.94
501.437	92.94
501.654	102.94
501.871	105.94
502.088	109.94
502.305	100.94
502.522	105.94
502.739	107.94
502.956	89.94
503.172	96.94
503.389	101.94
503.606	90.94
503.823	93.94
504.04	86.94
504.256	108.94
504.473	113.94
504.69	101.94
504.907	107.94
505.123	97.94
505.34	97.94
505.557	76.94
505.773	107.94
505.99	99.94
506.207	87.94
506.423	100.94
506.64	83.94
506.856	88.94
507.073	88.94
507.289	73.94
507.506	102.94
507.722	81.94
507.939	92.94
508.155	91.94
508.372	87.94
508.588	87.94
508.805	91.94
509.021	94.94
509.238	89.94
509.454	81.94
509.67	98.94
509.887	103.94
510.103	89.94
510.319	89.94
510.536	101.94
510.752	97.94
510.968	83.94
511.184	86.94
511.401	98.94
511.617	74.94
511.833	83.94
512.049	93.94
512.265	87.94
512.481	92.94
512.698	88.94
512.914	96.94
513.13	95.94
513.346	93.94
513.562	96.94
513.778	68.94
513.994	98.94
514.21	87.94
514.426	85.94
514.642	96.94
514.858	97.94
515.074	82.94
515.29	89.94
515.506	81.94
515.721	82.94
515.937	89.94
516.153	97.94
516.369	78.94
516.585	89.94
516.801	99.94
517.016	98.94
517.232	90.94
517.448	98.94
517.664	86.94
517.879	102.94
518.095	85.94
518.311	96.94
