Data from Ni(NO3)2Standard.Agarose3%.GreenCap.LampEnergy5.5.E.O_HRD10591_14-41-05-188.txt Node
Date: Mon Jul 22 14:41:05 EDT 2019
User: cochatt
Spectrometer: HR+D1059
Trigger mode: 1
Integration Time (sec): 1.000000E-1
Scans to average: 1
Electric dark correction enabled: true
Nonlinearity correction enabled: false
Boxcar width: 0
XAxis mode: Wavelengths
Number of Pixels in Spectrum: 2048
>>>>>Begin Spectral Data<<<<<
223.165	-14.19
223.4	-14.19
223.635	-14.19
223.869	-21.19
224.104	-16.19
224.338	-3.19
224.573	-1.19
224.808	-13.19
225.042	-12.19
225.277	0.81
225.511	6.81
225.746	6.81
225.98	11.81
226.215	7.81
226.449	3.81
226.683	6.81
226.918	15.81
227.152	20.81
227.387	18.81
227.621	30.81
227.856	45.81
228.09	55.81
228.324	49.81
228.559	67.81
228.793	47.81
229.027	55.81
229.262	67.81
229.496	71.81
229.73	65.81
229.964	67.81
230.199	82.81
230.433	77.81
230.667	75.81
230.901	76.81
231.136	76.81
231.37	66.81
231.604	67.81
231.838	79.81
232.072	85.81
232.306	77.81
232.541	79.81
232.775	73.81
233.009	72.81
233.243	88.81
233.477	80.81
233.711	88.81
233.945	77.81
234.179	87.81
234.413	86.81
234.647	84.81
234.881	67.81
235.115	68.81
235.349	67.81
235.583	66.81
235.817	90.81
236.051	88.81
236.285	80.81
236.519	75.81
236.753	77.81
236.987	78.81
237.221	71.81
237.455	59.81
237.689	82.81
237.922	72.81
238.156	69.81
238.39	72.81
238.624	83.81
238.858	82.81
239.091	74.81
239.325	66.81
239.559	76.81
239.793	69.81
240.027	79.81
240.26	74.81
240.494	80.81
240.728	66.81
240.961	79.81
241.195	71.81
241.429	64.81
241.662	87.81
241.896	79.81
242.13	78.81
242.363	85.81
242.597	67.81
242.83	70.81
243.064	69.81
243.298	82.81
243.531	75.81
243.765	89.81
243.998	76.81
244.232	76.81
244.465	75.81
244.699	81.81
244.932	75.81
245.166	71.81
245.399	75.81
245.633	76.81
245.866	55.81
246.099	74.81
246.333	79.81
246.566	82.81
246.8	73.81
247.033	86.81
247.266	70.81
247.5	69.81
247.733	89.81
247.966	77.81
248.2	94.81
248.433	84.81
248.666	80.81
248.899	87.81
249.133	82.81
249.366	82.81
249.599	79.81
249.832	73.81
250.066	84.81
250.299	80.81
250.532	89.81
250.765	75.81
250.998	63.81
251.231	78.81
251.465	71.81
251.698	51.81
251.931	77.81
252.164	75.81
252.397	65.81
252.63	91.81
252.863	76.81
253.096	76.81
253.329	92.81
253.562	75.81
253.795	77.81
254.028	87.81
254.261	72.81
254.494	79.81
254.727	81.81
254.96	81.81
255.193	82.81
255.426	78.81
255.659	89.81
255.892	76.81
256.124	73.81
256.357	70.81
256.59	89.81
256.823	81.81
257.056	86.81
257.289	80.81
257.521	80.81
257.754	82.81
257.987	68.81
258.22	82.81
258.452	70.81
258.685	65.81
258.918	83.81
259.151	67.81
259.383	63.81
259.616	83.81
259.849	77.81
260.081	83.81
260.314	80.81
260.547	68.81
260.779	67.81
261.012	69.81
261.244	95.81
261.477	81.81
261.71	83.81
261.942	76.81
262.175	80.81
262.407	83.81
262.64	86.81
262.872	86.81
263.105	72.81
263.337	79.81
263.57	70.81
263.802	84.81
264.035	89.81
264.267	73.81
264.499	80.81
264.732	78.81
264.964	68.81
265.197	74.81
265.429	87.81
265.661	74.81
265.894	83.81
266.126	87.81
266.358	84.81
266.591	64.81
266.823	84.81
267.055	80.81
267.287	89.81
267.52	85.81
267.752	84.81
267.984	80.81
268.216	65.81
268.448	72.81
268.681	76.81
268.913	71.81
269.145	84.81
269.377	87.81
269.609	98.81
269.841	90.81
270.073	85.81
270.306	77.81
270.538	77.81
270.77	72.81
271.002	81.81
271.234	82.81
271.466	91.81
271.698	81.81
271.93	77.81
272.162	79.81
272.394	78.81
272.626	74.81
272.858	80.81
273.09	79.81
273.322	72.81
273.553	82.81
273.785	90.81
274.017	83.81
274.249	93.81
274.481	83.81
274.713	73.81
274.945	78.81
275.176	82.81
275.408	76.81
275.64	80.81
275.872	98.81
276.104	91.81
276.335	93.81
276.567	70.81
276.799	78.81
277.031	88.81
277.262	74.81
277.494	87.81
277.726	71.81
277.957	89.81
278.189	75.81
278.421	88.81
278.652	72.81
278.884	83.81
279.115	82.81
279.347	95.81
279.579	87.81
279.81	89.81
280.042	85.81
280.273	72.81
280.505	83.81
280.736	66.81
280.968	81.81
281.199	76.81
281.431	90.81
281.662	88.81
281.894	85.81
282.125	86.81
282.356	67.81
282.588	74.81
282.819	88.81
283.051	83.81
283.282	83.81
283.513	93.81
283.745	83.81
283.976	90.81
284.207	84.81
284.439	90.81
284.67	73.81
284.901	82.81
285.132	80.81
285.364	76.81
285.595	93.81
285.826	79.81
286.057	96.81
286.288	83.81
286.52	75.81
286.751	76.81
286.982	83.81
287.213	86.81
287.444	89.81
287.675	74.81
287.906	94.81
288.138	86.81
288.369	86.81
288.6	72.81
288.831	79.81
289.062	85.81
289.293	84.81
289.524	94.81
289.755	80.81
289.986	82.81
290.217	84.81
290.448	91.81
290.679	66.81
290.91	99.81
291.141	98.81
291.371	80.81
291.602	82.81
291.833	91.81
292.064	86.81
292.295	84.81
292.526	76.81
292.757	79.81
292.987	88.81
293.218	75.81
293.449	90.81
293.68	86.81
293.91	89.81
294.141	73.81
294.372	84.81
294.603	85.81
294.833	86.81
295.064	84.81
295.295	76.81
295.525	83.81
295.756	87.81
295.987	95.81
296.217	88.81
296.448	79.81
296.679	96.81
296.909	76.81
297.14	93.81
297.37	98.81
297.601	85.81
297.831	75.81
298.062	91.81
298.292	83.81
298.523	88.81
298.753	93.81
298.984	80.81
299.214	86.81
299.445	83.81
299.675	79.81
299.905	69.81
300.136	85.81
300.366	78.81
300.597	84.81
300.827	92.81
301.057	95.81
301.288	84.81
301.518	88.81
301.748	82.81
301.979	90.81
302.209	85.81
302.439	81.81
302.669	86.81
302.9	76.81
303.13	78.81
303.36	79.81
303.59	72.81
303.82	78.81
304.051	83.81
304.281	90.81
304.511	89.81
304.741	88.81
304.971	93.81
305.201	83.81
305.431	80.81
305.661	82.81
305.891	80.81
306.121	88.81
306.352	90.81
306.582	93.81
306.812	81.81
307.042	79.81
307.272	71.81
307.502	77.81
307.731	90.81
307.961	75.81
308.191	71.81
308.421	98.81
308.651	94.81
308.881	87.81
309.111	87.81
309.341	88.81
309.571	81.81
309.8	84.81
310.03	85.81
310.26	78.81
310.49	82.81
310.72	83.81
310.949	83.81
311.179	95.81
311.409	83.81
311.639	73.81
311.868	83.81
312.098	86.81
312.328	89.81
312.557	86.81
312.787	94.81
313.017	85.81
313.246	81.81
313.476	86.81
313.706	87.81
313.935	83.81
314.165	88.81
314.394	88.81
314.624	88.81
314.853	95.81
315.083	84.81
315.312	89.81
315.542	76.81
315.771	93.81
316.001	81.81
316.23	84.81
316.46	80.81
316.689	82.81
316.919	76.81
317.148	75.81
317.377	95.81
317.607	79.81
317.836	99.81
318.065	86.81
318.295	86.81
318.524	86.81
318.753	89.81
318.983	95.81
319.212	78.81
319.441	86.81
319.67	69.81
319.9	82.81
320.129	87.81
320.358	85.81
320.587	79.81
320.816	89.81
321.046	85.81
321.275	81.81
321.504	79.81
321.733	89.81
321.962	75.81
322.191	82.81
322.42	77.81
322.649	86.81
322.878	83.81
323.108	88.81
323.337	85.81
323.566	85.81
323.795	83.81
324.024	97.81
324.253	70.81
324.482	76.81
324.71	89.81
324.939	80.81
325.168	84.81
325.397	91.81
325.626	93.81
325.855	77.81
326.084	75.81
326.313	92.81
326.542	85.81
326.77	76.81
326.999	80.81
327.228	81.81
327.457	81.81
327.686	91.81
327.914	83.81
328.143	92.81
328.372	94.81
328.6	87.81
328.829	97.81
329.058	76.81
329.287	75.81
329.515	76.81
329.744	80.81
329.972	68.81
330.201	98.81
330.43	94.81
330.658	81.81
330.887	89.81
331.115	73.81
331.344	75.81
331.572	70.81
331.801	78.81
332.03	99.81
332.258	89.81
332.486	96.81
332.715	78.81
332.943	89.81
333.172	95.81
333.4	93.81
333.629	89.81
333.857	95.81
334.085	89.81
334.314	79.81
334.542	98.81
334.771	95.81
334.999	92.81
335.227	82.81
335.455	82.81
335.684	88.81
335.912	80.81
336.14	90.81
336.369	85.81
336.597	89.81
336.825	95.81
337.053	73.81
337.281	82.81
337.51	89.81
337.738	89.81
337.966	78.81
338.194	86.81
338.422	76.81
338.65	87.81
338.878	90.81
339.106	91.81
339.334	85.81
339.562	90.81
339.79	91.81
340.018	70.81
340.246	81.81
340.474	86.81
340.702	79.81
340.93	86.81
341.158	98.81
341.386	93.81
341.614	84.81
341.842	75.81
342.07	87.81
342.298	79.81
342.526	65.81
342.754	70.81
342.981	93.81
343.209	73.81
343.437	80.81
343.665	71.81
343.893	75.81
344.12	86.81
344.348	85.81
344.576	91.81
344.804	101.81
345.031	96.81
345.259	76.81
345.487	88.81
345.714	85.81
345.942	78.81
346.17	83.81
346.397	73.81
346.625	88.81
346.853	75.81
347.08	83.81
347.308	89.81
347.535	88.81
347.763	83.81
347.99	87.81
348.218	94.81
348.445	84.81
348.673	77.81
348.9	81.81
349.128	82.81
349.355	83.81
349.583	82.81
349.81	88.81
350.037	82.81
350.265	84.81
350.492	76.81
350.72	80.81
350.947	88.81
351.174	80.81
351.402	75.81
351.629	82.81
351.856	91.81
352.083	80.81
352.311	95.81
352.538	84.81
352.765	88.81
352.992	75.81
353.22	76.81
353.447	85.81
353.674	80.81
353.901	73.81
354.128	78.81
354.355	86.81
354.583	85.81
354.81	75.81
355.037	73.81
355.264	94.81
355.491	87.81
355.718	80.81
355.945	96.81
356.172	69.81
356.399	76.81
356.626	97.81
356.853	86.81
357.08	80.81
357.307	83.81
357.534	92.81
357.761	75.81
357.988	88.81
358.215	89.81
358.441	79.81
358.668	88.81
358.895	77.81
359.122	87.81
359.349	105.81
359.576	75.81
359.802	88.81
360.029	83.81
360.256	77.81
360.483	78.81
360.709	95.81
360.936	92.81
361.163	82.81
361.39	90.81
361.616	76.81
361.843	76.81
362.07	86.81
362.296	92.81
362.523	88.81
362.749	86.81
362.976	85.81
363.203	74.81
363.429	77.81
363.656	83.81
363.882	66.81
364.109	76.81
364.335	77.81
364.562	79.81
364.788	95.81
365.015	91.81
365.241	76.81
365.468	85.81
365.694	85.81
365.92	64.81
366.147	77.81
366.373	84.81
366.599	78.81
366.826	94.81
367.052	71.81
367.278	81.81
367.505	92.81
367.731	99.81
367.957	78.81
368.184	85.81
368.41	84.81
368.636	86.81
368.862	89.81
369.089	71.81
369.315	89.81
369.541	93.81
369.767	75.81
369.993	75.81
370.219	98.81
370.445	75.81
370.672	88.81
370.898	79.81
371.124	89.81
371.35	85.81
371.576	96.81
371.802	95.81
372.028	79.81
372.254	91.81
372.48	99.81
372.706	81.81
372.932	74.81
373.158	101.81
373.384	99.81
373.61	94.81
373.835	73.81
374.061	83.81
374.287	84.81
374.513	75.81
374.739	82.81
374.965	69.81
375.191	81.81
375.416	88.81
375.642	92.81
375.868	97.81
376.094	85.81
376.319	79.81
376.545	76.81
376.771	86.81
376.997	90.81
377.222	82.81
377.448	79.81
377.674	90.81
377.899	85.81
378.125	81.81
378.35	95.81
378.576	92.81
378.802	82.81
379.027	75.81
379.253	81.81
379.478	86.81
379.704	76.81
379.929	85.81
380.155	83.81
380.38	86.81
380.606	80.81
380.831	90.81
381.057	93.81
381.282	82.81
381.507	76.81
381.733	87.81
381.958	74.81
382.184	85.81
382.409	92.81
382.634	82.81
382.86	80.81
383.085	71.81
383.31	87.81
383.535	79.81
383.761	81.81
383.986	74.81
384.211	82.81
384.436	86.81
384.662	81.81
384.887	80.81
385.112	93.81
385.337	90.81
385.562	96.81
385.787	100.81
386.013	92.81
386.238	86.81
386.463	86.81
386.688	69.81
386.913	86.81
387.138	99.81
387.363	82.81
387.588	79.81
387.813	68.81
388.038	88.81
388.263	94.81
388.488	83.81
388.713	95.81
388.938	82.81
389.163	78.81
389.387	94.81
389.612	85.81
389.837	69.81
390.062	82.81
390.287	86.81
390.512	98.81
390.736	88.81
390.961	81.81
391.186	88.81
391.411	76.81
391.636	75.81
391.86	96.81
392.085	80.81
392.31	71.81
392.534	98.81
392.759	90.81
392.984	79.81
393.208	77.81
393.433	71.81
393.658	73.81
393.882	84.81
394.107	91.81
394.331	85.81
394.556	84.81
394.78	73.81
395.005	83.81
395.229	80.81
395.454	79.81
395.678	92.81
395.903	73.81
396.127	92.81
396.352	92.81
396.576	90.81
396.801	74.81
397.025	85.81
397.249	89.81
397.474	94.81
397.698	80.81
397.922	88.81
398.147	82.81
398.371	82.81
398.595	79.81
398.82	78.81
399.044	90.81
399.268	88.81
399.492	92.81
399.717	88.81
399.941	68.81
400.165	80.81
400.389	70.81
400.613	87.81
400.837	80.81
401.062	83.81
401.286	78.81
401.51	94.81
401.734	76.81
401.958	80.81
402.182	85.81
402.406	87.81
402.63	79.81
402.854	82.81
403.078	87.81
403.302	91.81
403.526	90.81
403.75	80.81
403.974	82.81
404.198	83.81
404.422	81.81
404.645	81.81
404.869	83.81
405.093	98.81
405.317	78.81
405.541	84.81
405.765	94.81
405.988	83.81
406.212	78.81
406.436	91.81
406.66	73.81
406.883	75.81
407.107	90.81
407.331	90.81
407.555	83.81
407.778	92.81
408.002	80.81
408.226	86.81
408.449	78.81
408.673	76.81
408.896	94.81
409.12	82.81
409.344	91.81
409.567	98.81
409.791	83.81
410.014	95.81
410.238	77.81
410.461	81.81
410.685	85.81
410.908	80.81
411.132	75.81
411.355	80.81
411.578	95.81
411.802	87.81
412.025	85.81
412.249	69.81
412.472	82.81
412.695	82.81
412.919	71.81
413.142	107.81
413.365	87.81
413.589	94.81
413.812	88.81
414.035	90.81
414.258	78.81
414.482	97.81
414.705	77.81
414.928	76.81
415.151	87.81
415.374	86.81
415.597	75.81
415.821	88.81
416.044	75.81
416.267	98.81
416.49	82.81
416.713	81.81
416.936	70.81
417.159	81.81
417.382	78.81
417.605	80.81
417.828	94.81
418.051	70.81
418.274	75.81
418.497	79.81
418.72	88.81
418.943	102.81
419.166	87.81
419.389	74.81
419.611	77.81
419.834	78.81
420.057	81.81
420.28	68.81
420.503	77.81
420.726	84.81
420.948	79.81
421.171	66.81
421.394	83.81
421.617	78.81
421.839	89.81
422.062	81.81
422.285	90.81
422.507	84.81
422.73	87.81
422.953	82.81
423.175	68.81
423.398	76.81
423.621	70.81
423.843	74.81
424.066	80.81
424.288	88.81
424.511	79.81
424.733	89.81
424.956	75.81
425.178	88.81
425.401	76.81
425.623	80.81
425.846	90.81
426.068	93.81
426.291	72.81
426.513	80.81
426.735	81.81
426.958	79.81
427.18	75.81
427.402	77.81
427.625	82.81
427.847	102.81
428.069	80.81
428.292	76.81
428.514	79.81
428.736	83.81
428.958	83.81
429.181	97.81
429.403	91.81
429.625	78.81
429.847	90.81
430.069	95.81
430.292	84.81
430.514	94.81
430.736	88.81
430.958	75.81
431.18	83.81
431.402	75.81
431.624	83.81
431.846	79.81
432.068	84.81
432.29	75.81
432.512	97.81
432.734	106.81
432.956	84.81
433.178	94.81
433.4	95.81
433.622	80.81
433.844	83.81
434.066	85.81
434.287	83.81
434.509	91.81
434.731	85.81
434.953	94.81
435.175	83.81
435.397	75.81
435.618	69.81
435.84	95.81
436.062	87.81
436.284	83.81
436.505	96.81
436.727	84.81
436.949	87.81
437.17	87.81
437.392	87.81
437.614	74.81
437.835	83.81
438.057	83.81
438.278	88.81
438.5	94.81
438.721	90.81
438.943	94.81
439.165	101.81
439.386	91.81
439.608	88.81
439.829	76.81
440.05	86.81
440.272	79.81
440.493	81.81
440.715	94.81
440.936	83.81
441.158	67.81
441.379	89.81
441.6	76.81
441.822	86.81
442.043	80.81
442.264	61.81
442.486	98.81
442.707	93.81
442.928	85.81
443.149	92.81
443.371	78.81
443.592	76.81
443.813	81.81
444.034	81.81
444.255	90.81
444.476	77.81
444.698	74.81
444.919	84.81
445.14	212.81
445.361	138.81
445.582	84.81
445.803	81.81
446.024	93.81
446.245	83.81
446.466	89.81
446.687	76.81
446.908	84.81
447.129	83.81
447.35	76.81
447.571	64.81
447.792	94.81
448.013	84.81
448.234	84.81
448.455	67.81
448.675	83.81
448.896	90.81
449.117	83.81
449.338	84.81
449.559	86.81
449.779	74.81
450	90.81
450.221	101.81
450.442	81.81
450.662	76.81
450.883	80.81
451.104	94.81
451.324	87.81
451.545	85.81
451.766	81.81
451.986	91.81
452.207	89.81
452.428	91.81
452.648	81.81
452.869	79.81
453.089	72.81
453.31	76.81
453.53	85.81
453.751	80.81
453.971	88.81
454.192	81.81
454.412	79.81
454.633	89.81
454.853	84.81
455.073	86.81
455.294	89.81
455.514	80.81
455.734	83.81
455.955	79.81
456.175	80.81
456.395	79.81
456.616	90.81
456.836	83.81
457.056	80.81
457.276	79.81
457.497	70.81
457.717	81.81
457.937	84.81
458.157	85.81
458.377	87.81
458.598	91.81
458.818	90.81
459.038	83.81
459.258	91.81
459.478	92.81
459.698	91.81
459.918	85.81
460.138	87.81
460.358	80.81
460.578	99.81
460.798	91.81
461.018	91.81
461.238	93.81
461.458	88.81
461.678	82.81
461.898	94.81
462.118	84.81
462.338	89.81
462.558	95.81
462.777	81.81
462.997	80.81
463.217	84.81
463.437	89.81
463.657	95.81
463.876	99.81
464.096	78.81
464.316	87.81
464.536	84.81
464.755	86.81
464.975	85.81
465.195	68.81
465.414	83.81
465.634	99.81
465.854	82.81
466.073	81.81
466.293	79.81
466.512	90.81
466.732	94.81
466.951	73.81
467.171	68.81
467.391	98.81
467.61	79.81
467.829	90.81
468.049	91.81
468.268	91.81
468.488	88.81
468.707	76.81
468.927	95.81
469.146	74.81
469.365	85.81
469.585	85.81
469.804	83.81
470.023	88.81
470.243	91.81
470.462	65.81
470.681	72.81
470.901	56.81
471.12	75.81
471.339	101.81
471.558	88.81
471.777	104.81
471.997	91.81
472.216	86.81
472.435	89.81
472.654	84.81
472.873	88.81
473.092	88.81
473.311	98.81
473.53	94.81
473.749	77.81
473.968	101.81
474.187	81.81
474.406	88.81
474.625	89.81
474.844	97.81
475.063	70.81
475.282	91.81
475.501	89.81
475.72	104.81
475.939	84.81
476.158	88.81
476.377	79.81
476.596	96.81
476.814	105.81
477.033	97.81
477.252	92.81
477.471	86.81
477.69	88.81
477.908	82.81
478.127	90.81
478.346	87.81
478.564	82.81
478.783	88.81
479.002	86.81
479.22	92.81
479.439	96.81
479.658	86.81
479.876	103.81
480.095	89.81
480.313	94.81
480.532	108.81
480.751	84.81
480.969	76.81
481.188	75.81
481.406	87.81
481.624	84.81
481.843	71.81
482.061	87.81
482.28	75.81
482.498	93.81
482.717	96.81
482.935	81.81
483.153	76.81
483.372	94.81
483.59	94.81
483.808	97.81
484.027	91.81
484.245	84.81
484.463	100.81
484.681	91.81
484.9	96.81
485.118	84.81
485.336	79.81
485.554	83.81
485.772	99.81
485.99	93.81
486.209	91.81
486.427	83.81
486.645	101.81
486.863	87.81
487.081	80.81
487.299	71.81
487.517	100.81
487.735	88.81
487.953	83.81
488.171	91.81
488.389	92.81
488.607	79.81
488.825	81.81
489.043	87.81
489.261	82.81
489.479	91.81
489.696	86.81
489.914	81.81
490.132	95.81
490.35	88.81
490.568	98.81
490.786	82.81
491.003	82.81
491.221	95.81
491.439	100.81
491.657	103.81
491.874	100.81
492.092	84.81
492.31	99.81
492.527	88.81
492.745	92.81
492.963	99.81
493.18	99.81
493.398	93.81
493.615	89.81
493.833	90.81
494.05	98.81
494.268	91.81
494.485	98.81
494.703	84.81
494.92	88.81
495.138	95.81
495.355	104.81
495.573	86.81
495.79	91.81
496.008	94.81
496.225	95.81
496.442	88.81
496.66	99.81
496.877	86.81
497.094	96.81
497.312	88.81
497.529	85.81
497.746	99.81
497.963	104.81
498.181	100.81
498.398	93.81
498.615	94.81
498.832	95.81
499.049	95.81
499.267	105.81
499.484	105.81
499.701	92.81
499.918	92.81
500.135	105.81
500.352	93.81
500.569	97.81
500.786	99.81
501.003	86.81
501.22	102.81
501.437	108.81
501.654	99.81
501.871	92.81
502.088	94.81
502.305	97.81
502.522	99.81
502.739	96.81
502.956	111.81
503.172	98.81
503.389	86.81
503.606	100.81
503.823	72.81
504.04	97.81
504.256	96.81
504.473	101.81
504.69	96.81
504.907	83.81
505.123	81.81
505.34	87.81
505.557	86.81
505.773	88.81
505.99	101.81
506.207	90.81
506.423	100.81
506.64	88.81
506.856	88.81
507.073	91.81
507.289	91.81
507.506	87.81
507.722	76.81
507.939	77.81
508.155	91.81
508.372	97.81
508.588	96.81
508.805	92.81
509.021	82.81
509.238	94.81
509.454	89.81
509.67	89.81
509.887	86.81
510.103	95.81
510.319	74.81
510.536	84.81
510.752	86.81
510.968	89.81
511.184	83.81
511.401	83.81
511.617	82.81
511.833	77.81
512.049	76.81
512.265	89.81
512.481	92.81
512.698	84.81
512.914	98.81
513.13	102.81
513.346	88.81
513.562	86.81
513.778	95.81
513.994	96.81
514.21	103.81
514.426	89.81
514.642	92.81
514.858	96.81
515.074	88.81
515.29	91.81
515.506	97.81
515.721	90.81
515.937	99.81
516.153	92.81
516.369	83.81
516.585	87.81
516.801	83.81
517.016	102.81
517.232	81.81
517.448	89.81
517.664	79.81
517.879	91.81
518.095	96.81
518.311	72.81
518.527	83.81
518.742	88.81
518.958	87.81
