Data from Ni(NO3)2@0.0625M.TitratingCurve.Agarose3%dH2O.NegLispCup.LampEnergy10.LIBS07252019_HRD10591_18-14-01-569.txt Node
Date: Thu Jul 25 18:14:01 EDT 2019
User: cochatt
Spectrometer: HR+D1059
Trigger mode: 1
Integration Time (sec): 1.000000E-1
Scans to average: 1
Electric dark correction enabled: true
Nonlinearity correction enabled: false
Boxcar width: 0
XAxis mode: Wavelengths
Number of Pixels in Spectrum: 2048
>>>>>Begin Spectral Data<<<<<
223.165	-11.5
223.4	-11.5
223.635	-11.5
223.869	-19.5
224.104	-27.5
224.338	3.5
224.573	-2.5
224.808	-8.5
225.042	-19.5
225.277	-9.5
225.511	-2.5
225.746	-8.5
225.98	-14.5
226.215	15.5
226.449	21.5
226.683	23.5
226.918	21.5
227.152	38.5
227.387	31.5
227.621	43.5
227.856	43.5
228.09	38.5
228.324	41.5
228.559	59.5
228.793	64.5
229.027	92.5
229.262	108.5
229.496	112.5
229.73	113.5
229.964	100.5
230.199	117.5
230.433	117.5
230.667	117.5
230.901	116.5
231.136	114.5
231.37	113.5
231.604	116.5
231.838	117.5
232.072	120.5
232.306	131.5
232.541	120.5
232.775	124.5
233.009	129.5
233.243	134.5
233.477	129.5
233.711	122.5
233.945	121.5
234.179	116.5
234.413	141.5
234.647	136.5
234.881	136.5
235.115	120.5
235.349	117.5
235.583	128.5
235.817	140.5
236.051	128.5
236.285	131.5
236.519	120.5
236.753	112.5
236.987	113.5
237.221	124.5
237.455	128.5
237.689	123.5
237.922	138.5
238.156	137.5
238.39	138.5
238.624	126.5
238.858	131.5
239.091	137.5
239.325	135.5
239.559	148.5
239.793	140.5
240.027	136.5
240.26	136.5
240.494	139.5
240.728	148.5
240.961	154.5
241.195	144.5
241.429	134.5
241.662	166.5
241.896	135.5
242.13	147.5
242.363	158.5
242.597	157.5
242.83	157.5
243.064	152.5
243.298	184.5
243.531	170.5
243.765	155.5
243.998	160.5
244.232	159.5
244.465	162.5
244.699	179.5
244.932	179.5
245.166	164.5
245.399	166.5
245.633	167.5
245.866	179.5
246.099	165.5
246.333	177.5
246.566	183.5
246.8	170.5
247.033	167.5
247.266	169.5
247.5	173.5
247.733	190.5
247.966	171.5
248.2	197.5
248.433	178.5
248.666	186.5
248.899	175.5
249.133	192.5
249.366	175.5
249.599	198.5
249.832	183.5
250.066	188.5
250.299	177.5
250.532	197.5
250.765	204.5
250.998	197.5
251.231	193.5
251.465	188.5
251.698	211.5
251.931	204.5
252.164	207.5
252.397	211.5
252.63	213.5
252.863	212.5
253.096	221.5
253.329	246.5
253.562	236.5
253.795	204.5
254.028	204.5
254.261	229.5
254.494	221.5
254.727	207.5
254.96	216.5
255.193	203.5
255.426	207.5
255.659	217.5
255.892	215.5
256.124	225.5
256.357	213.5
256.59	236.5
256.823	227.5
257.056	223.5
257.289	234.5
257.521	231.5
257.754	213.5
257.987	224.5
258.22	247.5
258.452	228.5
258.685	223.5
258.918	236.5
259.151	229.5
259.383	231.5
259.616	222.5
259.849	233.5
260.081	259.5
260.314	248.5
260.547	231.5
260.779	242.5
261.012	247.5
261.244	246.5
261.477	242.5
261.71	254.5
261.942	251.5
262.175	259.5
262.407	244.5
262.64	231.5
262.872	256.5
263.105	265.5
263.337	240.5
263.57	246.5
263.802	249.5
264.035	261.5
264.267	267.5
264.499	268.5
264.732	245.5
264.964	262.5
265.197	245.5
265.429	255.5
265.661	263.5
265.894	266.5
266.126	253.5
266.358	272.5
266.591	272.5
266.823	280.5
267.055	278.5
267.287	283.5
267.52	263.5
267.752	290.5
267.984	269.5
268.216	283.5
268.448	274.5
268.681	278.5
268.913	280.5
269.145	279.5
269.377	284.5
269.609	285.5
269.841	292.5
270.073	265.5
270.306	291.5
270.538	284.5
270.77	259.5
271.002	273.5
271.234	290.5
271.466	292.5
271.698	282.5
271.93	284.5
272.162	279.5
272.394	289.5
272.626	291.5
272.858	282.5
273.09	287.5
273.322	295.5
273.553	285.5
273.785	298.5
274.017	304.5
274.249	305.5
274.481	303.5
274.713	320.5
274.945	308.5
275.176	290.5
275.408	299.5
275.64	293.5
275.872	326.5
276.104	313.5
276.335	315.5
276.567	305.5
276.799	308.5
277.031	309.5
277.262	305.5
277.494	306.5
277.726	311.5
277.957	315.5
278.189	323.5
278.421	333.5
278.652	328.5
278.884	334.5
279.115	312.5
279.347	323.5
279.579	327.5
279.81	336.5
280.042	331.5
280.273	347.5
280.505	307.5
280.736	329.5
280.968	335.5
281.199	347.5
281.431	356.5
281.662	345.5
281.894	343.5
282.125	357.5
282.356	356.5
282.588	342.5
282.819	352.5
283.051	363.5
283.282	343.5
283.513	346.5
283.745	340.5
283.976	354.5
284.207	347.5
284.439	326.5
284.67	362.5
284.901	372.5
285.132	379.5
285.364	369.5
285.595	359.5
285.826	381.5
286.057	361.5
286.288	375.5
286.52	344.5
286.751	360.5
286.982	376.5
287.213	349.5
287.444	358.5
287.675	372.5
287.906	365.5
288.138	377.5
288.369	387.5
288.6	380.5
288.831	371.5
289.062	371.5
289.293	373.5
289.524	376.5
289.755	389.5
289.986	385.5
290.217	380.5
290.448	383.5
290.679	396.5
290.91	388.5
291.141	396.5
291.371	415.5
291.602	400.5
291.833	405.5
292.064	401.5
292.295	384.5
292.526	381.5
292.757	387.5
292.987	375.5
293.218	362.5
293.449	396.5
293.68	393.5
293.91	392.5
294.141	390.5
294.372	387.5
294.603	401.5
294.833	383.5
295.064	397.5
295.295	393.5
295.525	394.5
295.756	410.5
295.987	386.5
296.217	406.5
296.448	403.5
296.679	401.5
296.909	404.5
297.14	408.5
297.37	430.5
297.601	426.5
297.831	432.5
298.062	419.5
298.292	431.5
298.523	421.5
298.753	436.5
298.984	417.5
299.214	434.5
299.445	428.5
299.675	433.5
299.905	427.5
300.136	408.5
300.366	434.5
300.597	405.5
300.827	453.5
301.057	443.5
301.288	429.5
301.518	439.5
301.748	441.5
301.979	443.5
302.209	450.5
302.439	447.5
302.669	464.5
302.9	431.5
303.13	436.5
303.36	422.5
303.59	439.5
303.82	442.5
304.051	420.5
304.281	414.5
304.511	435.5
304.741	426.5
304.971	424.5
305.201	435.5
305.431	418.5
305.661	424.5
305.891	424.5
306.121	436.5
306.352	417.5
306.582	415.5
306.812	436.5
307.042	435.5
307.272	429.5
307.502	407.5
307.731	415.5
307.961	426.5
308.191	435.5
308.421	424.5
308.651	423.5
308.881	410.5
309.111	418.5
309.341	455.5
309.571	426.5
309.8	412.5
310.03	442.5
310.26	422.5
310.49	440.5
310.72	438.5
310.949	431.5
311.179	449.5
311.409	433.5
311.639	446.5
311.868	448.5
312.098	440.5
312.328	451.5
312.557	443.5
312.787	444.5
313.017	441.5
313.246	443.5
313.476	462.5
313.706	447.5
313.935	441.5
314.165	477.5
314.394	481.5
314.624	459.5
314.853	463.5
315.083	473.5
315.312	446.5
315.542	452.5
315.771	444.5
316.001	461.5
316.23	442.5
316.46	455.5
316.689	445.5
316.919	423.5
317.148	443.5
317.377	457.5
317.607	444.5
317.836	451.5
318.065	439.5
318.295	452.5
318.524	431.5
318.753	436.5
318.983	433.5
319.212	461.5
319.441	455.5
319.67	455.5
319.9	456.5
320.129	443.5
320.358	448.5
320.587	422.5
320.816	447.5
321.046	442.5
321.275	460.5
321.504	442.5
321.733	450.5
321.962	456.5
322.191	455.5
322.42	447.5
322.649	453.5
322.878	448.5
323.108	445.5
323.337	461.5
323.566	449.5
323.795	455.5
324.024	463.5
324.253	440.5
324.482	462.5
324.71	465.5
324.939	472.5
325.168	459.5
325.397	461.5
325.626	462.5
325.855	485.5
326.084	496.5
326.313	499.5
326.542	487.5
326.77	486.5
326.999	499.5
327.228	478.5
327.457	501.5
327.686	471.5
327.914	479.5
328.143	508.5
328.372	486.5
328.6	473.5
328.829	490.5
329.058	509.5
329.287	489.5
329.515	511.5
329.744	477.5
329.972	488.5
330.201	485.5
330.43	479.5
330.658	502.5
330.887	527.5
331.115	502.5
331.344	517.5
331.572	541.5
331.801	529.5
332.03	516.5
332.258	551.5
332.486	573.5
332.715	588.5
332.943	603.5
333.172	644.5
333.4	666.5
333.629	687.5
333.857	705.5
334.085	663.5
334.314	643.5
334.542	634.5
334.771	634.5
334.999	621.5
335.227	615.5
335.455	628.5
335.684	609.5
335.912	615.5
336.14	602.5
336.369	615.5
336.597	609.5
336.825	585.5
337.053	581.5
337.281	587.5
337.51	557.5
337.738	561.5
337.966	567.5
338.194	536.5
338.422	523.5
338.65	531.5
338.878	538.5
339.106	509.5
339.334	530.5
339.562	541.5
339.79	534.5
340.018	517.5
340.246	482.5
340.474	503.5
340.702	511.5
340.93	512.5
341.158	513.5
341.386	520.5
341.614	508.5
341.842	551.5
342.07	533.5
342.298	483.5
342.526	515.5
342.754	517.5
342.981	516.5
343.209	504.5
343.437	533.5
343.665	566.5
343.893	633.5
344.12	658.5
344.348	607.5
344.576	575.5
344.804	563.5
345.031	531.5
345.259	534.5
345.487	517.5
345.714	508.5
345.942	520.5
346.17	517.5
346.397	526.5
346.625	516.5
346.853	505.5
347.08	504.5
347.308	512.5
347.535	534.5
347.763	547.5
347.99	528.5
348.218	525.5
348.445	511.5
348.673	496.5
348.9	505.5
349.128	510.5
349.355	522.5
349.583	495.5
349.81	476.5
350.037	488.5
350.265	499.5
350.492	483.5
350.72	473.5
350.947	474.5
351.174	468.5
351.402	482.5
351.629	478.5
351.856	479.5
352.083	480.5
352.311	489.5
352.538	497.5
352.765	465.5
352.992	485.5
353.22	481.5
353.447	495.5
353.674	467.5
353.901	474.5
354.128	460.5
354.355	484.5
354.583	482.5
354.81	470.5
355.037	489.5
355.264	464.5
355.491	477.5
355.718	475.5
355.945	496.5
356.172	477.5
356.399	490.5
356.626	469.5
356.853	474.5
357.08	498.5
357.307	482.5
357.534	487.5
357.761	500.5
357.988	479.5
358.215	478.5
358.441	484.5
358.668	492.5
358.895	489.5
359.122	487.5
359.349	493.5
359.576	471.5
359.802	485.5
360.029	490.5
360.256	500.5
360.483	481.5
360.709	476.5
360.936	496.5
361.163	493.5
361.39	455.5
361.616	501.5
361.843	484.5
362.07	481.5
362.296	496.5
362.523	485.5
362.749	469.5
362.976	496.5
363.203	497.5
363.429	486.5
363.656	483.5
363.882	483.5
364.109	472.5
364.335	507.5
364.562	490.5
364.788	466.5
365.015	464.5
365.241	456.5
365.468	477.5
365.694	481.5
365.92	487.5
366.147	482.5
366.373	486.5
366.599	493.5
366.826	469.5
367.052	471.5
367.278	495.5
367.505	498.5
367.731	490.5
367.957	469.5
368.184	482.5
368.41	497.5
368.636	515.5
368.862	511.5
369.089	514.5
369.315	495.5
369.541	490.5
369.767	495.5
369.993	490.5
370.219	516.5
370.445	522.5
370.672	522.5
370.898	513.5
371.124	519.5
371.35	529.5
371.576	525.5
371.802	512.5
372.028	521.5
372.254	529.5
372.48	533.5
372.706	538.5
372.932	563.5
373.158	552.5
373.384	552.5
373.61	551.5
373.835	529.5
374.061	528.5
374.287	534.5
374.513	536.5
374.739	557.5
374.965	583.5
375.191	602.5
375.416	589.5
375.642	570.5
375.868	553.5
376.094	531.5
376.319	545.5
376.545	553.5
376.771	522.5
376.997	527.5
377.222	523.5
377.448	530.5
377.674	540.5
377.899	519.5
378.125	538.5
378.35	530.5
378.576	523.5
378.802	528.5
379.027	526.5
379.253	519.5
379.478	502.5
379.704	522.5
379.929	541.5
380.155	503.5
380.38	538.5
380.606	535.5
380.831	518.5
381.057	521.5
381.282	542.5
381.507	524.5
381.733	522.5
381.958	536.5
382.184	527.5
382.409	563.5
382.634	554.5
382.86	565.5
383.085	547.5
383.31	565.5
383.535	591.5
383.761	583.5
383.986	608.5
384.211	619.5
384.436	611.5
384.662	624.5
384.887	649.5
385.112	635.5
385.337	626.5
385.562	634.5
385.787	647.5
386.013	641.5
386.238	658.5
386.463	642.5
386.688	640.5
386.913	639.5
387.138	614.5
387.363	635.5
387.588	612.5
387.813	607.5
388.038	610.5
388.263	656.5
388.488	636.5
388.713	615.5
388.938	618.5
389.163	596.5
389.387	621.5
389.612	591.5
389.837	606.5
390.062	611.5
390.287	615.5
390.512	617.5
390.736	613.5
390.961	644.5
391.186	631.5
391.411	663.5
391.636	715.5
391.86	708.5
392.085	716.5
392.31	707.5
392.534	681.5
392.759	669.5
392.984	675.5
393.208	678.5
393.433	651.5
393.658	664.5
393.882	667.5
394.107	699.5
394.331	721.5
394.556	655.5
394.78	665.5
395.005	705.5
395.229	679.5
395.454	697.5
395.678	715.5
395.903	717.5
396.127	700.5
396.352	698.5
396.576	676.5
396.801	629.5
397.025	657.5
397.249	668.5
397.474	705.5
397.698	700.5
397.922	679.5
398.147	703.5
398.371	713.5
398.595	754.5
398.82	751.5
399.044	808.5
399.268	911.5
399.492	1082.5
399.717	1240.5
399.941	1238.5
400.165	1068.5
400.389	943.5
400.613	869.5
400.837	802.5
401.062	789.5
401.286	808.5
401.51	773.5
401.734	757.5
401.958	812.5
402.182	808.5
402.406	833.5
402.63	834.5
402.854	825.5
403.078	872.5
403.302	888.5
403.526	908.5
403.75	930.5
403.974	946.5
404.198	964.5
404.422	949.5
404.645	937.5
404.869	905.5
405.093	902.5
405.317	890.5
405.541	897.5
405.765	877.5
405.988	874.5
406.212	868.5
406.436	865.5
406.66	893.5
406.883	900.5
407.107	952.5
407.331	1036.5
407.555	1063.5
407.778	1015.5
408.002	992.5
408.226	965.5
408.449	938.5
408.673	937.5
408.896	896.5
409.12	907.5
409.344	924.5
409.567	940.5
409.791	965.5
410.014	915.5
410.238	910.5
410.461	888.5
410.685	908.5
410.908	880.5
411.132	819.5
411.355	833.5
411.578	818.5
411.802	815.5
412.025	829.5
412.249	861.5
412.472	863.5
412.695	819.5
412.919	797.5
413.142	796.5
413.365	811.5
413.589	785.5
413.812	763.5
414.035	755.5
414.258	764.5
414.482	809.5
414.705	801.5
414.928	826.5
415.151	801.5
415.374	799.5
415.597	760.5
415.821	779.5
416.044	789.5
416.267	779.5
416.49	776.5
416.713	760.5
416.936	780.5
417.159	772.5
417.382	792.5
417.605	786.5
417.828	799.5
418.051	795.5
418.274	793.5
418.497	808.5
418.72	804.5
418.943	815.5
419.166	873.5
419.389	933.5
419.611	891.5
419.834	855.5
420.057	841.5
420.28	822.5
420.503	781.5
420.726	776.5
420.948	757.5
421.171	793.5
421.394	767.5
421.617	785.5
421.839	811.5
422.062	789.5
422.285	818.5
422.507	792.5
422.73	810.5
422.953	817.5
423.175	816.5
423.398	835.5
423.621	832.5
423.843	837.5
424.066	849.5
424.288	876.5
424.511	835.5
424.733	832.5
424.956	827.5
425.178	787.5
425.401	805.5
425.623	771.5
425.846	779.5
426.068	764.5
426.291	761.5
426.513	743.5
426.735	753.5
426.958	710.5
427.18	711.5
427.402	724.5
427.625	734.5
427.847	701.5
428.069	713.5
428.292	715.5
428.514	696.5
428.736	691.5
428.958	691.5
429.181	687.5
429.403	683.5
429.625	667.5
429.847	674.5
430.069	704.5
430.292	685.5
430.514	690.5
430.736	694.5
430.958	682.5
431.18	663.5
431.402	693.5
431.624	693.5
431.846	699.5
432.068	717.5
432.29	722.5
432.512	695.5
432.734	698.5
432.956	693.5
433.178	700.5
433.4	683.5
433.622	719.5
433.844	729.5
434.066	729.5
434.287	713.5
434.509	759.5
434.731	795.5
434.953	786.5
435.175	801.5
435.397	796.5
435.618	750.5
435.84	755.5
436.062	698.5
436.284	700.5
436.505	710.5
436.727	699.5
436.949	699.5
437.17	715.5
437.392	681.5
437.614	719.5
437.835	680.5
438.057	700.5
438.278	689.5
438.5	672.5
438.721	649.5
438.943	690.5
439.165	684.5
439.386	698.5
439.608	711.5
439.829	730.5
440.05	695.5
440.272	713.5
440.493	714.5
440.715	721.5
440.936	738.5
441.158	738.5
441.379	768.5
441.6	822.5
441.822	815.5
442.043	784.5
442.264	769.5
442.486	773.5
442.707	812.5
442.928	791.5
443.149	811.5
443.371	810.5
443.592	805.5
443.813	805.5
444.034	818.5
444.255	802.5
444.476	857.5
444.698	905.5
444.919	977.5
445.14	1037.5
445.361	934.5
445.582	835.5
445.803	781.5
446.024	757.5
446.245	742.5
446.466	726.5
446.687	745.5
446.908	722.5
447.129	691.5
447.35	701.5
447.571	693.5
447.792	652.5
448.013	691.5
448.234	653.5
448.455	680.5
448.675	658.5
448.896	654.5
449.117	661.5
449.338	649.5
449.559	652.5
449.779	659.5
450	649.5
450.221	671.5
450.442	675.5
450.662	671.5
450.883	680.5
451.104	678.5
451.324	689.5
451.545	689.5
451.766	679.5
451.986	666.5
452.207	664.5
452.428	678.5
452.648	669.5
452.869	650.5
453.089	639.5
453.31	658.5
453.53	664.5
453.751	639.5
453.971	644.5
454.192	637.5
454.412	639.5
454.633	639.5
454.853	646.5
455.073	643.5
455.294	603.5
455.514	610.5
455.734	599.5
455.955	579.5
456.175	614.5
456.395	617.5
456.616	622.5
456.836	611.5
457.056	616.5
457.276	604.5
457.497	621.5
457.717	627.5
457.937	620.5
458.157	631.5
458.377	641.5
458.598	627.5
458.818	652.5
459.038	670.5
459.258	700.5
459.478	736.5
459.698	759.5
459.918	744.5
460.138	774.5
460.358	853.5
460.578	822.5
460.798	855.5
461.018	838.5
461.238	845.5
461.458	828.5
461.678	839.5
461.898	843.5
462.118	864.5
462.338	868.5
462.558	948.5
462.777	971.5
462.997	1048.5
463.217	1174.5
463.437	1219.5
463.657	1074.5
463.876	1007.5
464.096	988.5
464.316	1006.5
464.536	1023.5
464.755	962.5
464.975	935.5
465.195	895.5
465.414	839.5
465.634	809.5
465.854	755.5
466.073	730.5
466.293	714.5
466.512	689.5
466.732	688.5
466.951	701.5
467.171	704.5
467.391	736.5
467.61	691.5
467.829	696.5
468.049	691.5
468.268	679.5
468.488	673.5
468.707	659.5
468.927	651.5
469.146	658.5
469.365	672.5
469.585	707.5
469.804	699.5
470.023	711.5
470.243	689.5
470.462	690.5
470.681	718.5
470.901	722.5
471.12	692.5
471.339	680.5
471.558	659.5
471.777	676.5
471.997	663.5
472.216	667.5
472.435	662.5
472.654	642.5
472.873	654.5
473.092	656.5
473.311	626.5
473.53	619.5
473.749	643.5
473.968	627.5
474.187	640.5
474.406	641.5
474.625	655.5
474.844	661.5
475.063	649.5
475.282	661.5
475.501	632.5
475.72	657.5
475.939	665.5
476.158	672.5
476.377	660.5
476.596	664.5
476.814	671.5
477.033	683.5
477.252	702.5
477.471	695.5
477.69	710.5
477.908	711.5
478.127	768.5
478.346	779.5
478.564	769.5
478.783	775.5
479.002	803.5
479.22	792.5
479.439	805.5
479.658	779.5
479.876	792.5
480.095	792.5
480.313	831.5
480.532	885.5
480.751	851.5
480.969	823.5
481.188	783.5
481.406	764.5
481.624	745.5
481.843	745.5
482.061	698.5
482.28	722.5
482.498	721.5
482.717	725.5
482.935	727.5
483.153	728.5
483.372	733.5
483.59	738.5
483.808	723.5
484.027	734.5
484.245	741.5
484.463	736.5
484.681	731.5
484.9	744.5
485.118	775.5
485.336	751.5
485.554	773.5
485.772	780.5
485.99	791.5
486.209	795.5
486.427	778.5
486.645	804.5
486.863	781.5
487.081	761.5
487.299	770.5
487.517	764.5
487.735	763.5
487.953	749.5
488.171	755.5
488.389	761.5
488.607	752.5
488.825	742.5
489.043	753.5
489.261	765.5
489.479	729.5
489.696	754.5
489.914	741.5
490.132	759.5
490.35	772.5
490.568	770.5
490.786	767.5
491.003	753.5
491.221	776.5
491.439	779.5
491.657	734.5
491.874	785.5
492.092	773.5
492.31	780.5
492.527	779.5
492.745	782.5
492.963	781.5
493.18	778.5
493.398	771.5
493.615	801.5
493.833	793.5
494.05	802.5
494.268	800.5
494.485	836.5
494.703	824.5
494.92	789.5
495.138	787.5
495.355	829.5
495.573	819.5
495.79	812.5
496.008	827.5
496.225	816.5
496.442	809.5
496.66	832.5
496.877	849.5
497.094	854.5
497.312	867.5
497.529	885.5
497.746	902.5
497.963	913.5
498.181	963.5
498.398	992.5
498.615	1079.5
498.832	1123.5
499.049	1210.5
499.267	1313.5
499.484	1465.5
499.701	1666.5
499.918	1827.5
500.135	2139.5
500.352	2484.5
500.569	2649.5
500.786	2554.5
501.003	2356.5
501.22	2072.5
501.437	1807.5
501.654	1562.5
501.871	1413.5
502.088	1289.5
502.305	1231.5
502.522	1146.5
502.739	1113.5
502.956	1039.5
503.172	991.5
503.389	947.5
503.606	951.5
503.823	913.5
504.04	929.5
504.256	914.5
504.473	973.5
504.69	989.5
504.907	975.5
505.123	891.5
505.34	833.5
505.557	785.5
505.773	797.5
505.99	776.5
506.207	758.5
506.423	752.5
506.64	728.5
506.856	717.5
507.073	711.5
507.289	714.5
507.506	752.5
507.722	695.5
507.939	715.5
508.155	704.5
508.372	695.5
508.588	673.5
508.805	683.5
509.021	671.5
509.238	679.5
509.454	660.5
509.67	663.5
509.887	656.5
510.103	685.5
510.319	670.5
510.536	663.5
510.752	662.5
510.968	693.5
511.184	668.5
511.401	665.5
511.617	664.5
511.833	680.5
512.049	660.5
512.265	676.5
512.481	671.5
512.698	641.5
512.914	670.5
513.13	650.5
513.346	657.5
513.562	655.5
513.778	660.5
513.994	663.5
514.21	690.5
514.426	678.5
514.642	642.5
514.858	668.5
515.074	680.5
515.29	680.5
515.506	693.5
515.721	693.5
515.937	692.5
516.153	734.5
516.369	723.5
516.585	746.5
516.801	785.5
517.016	830.5
517.232	860.5
517.448	899.5
517.664	921.5
517.879	959.5
518.095	963.5
518.311	935.5
518.527	879.5
518.742	844.5
518.958	785.5
