Data from Ni(NO3)2Standard.Agarose3%.GreenCap.LampEnergy5.5.E.O_HRD10591_14-40-30-189.txt Node
Date: Mon Jul 22 14:40:30 EDT 2019
User: cochatt
Spectrometer: HR+D1059
Trigger mode: 1
Integration Time (sec): 1.000000E-1
Scans to average: 1
Electric dark correction enabled: true
Nonlinearity correction enabled: false
Boxcar width: 0
XAxis mode: Wavelengths
Number of Pixels in Spectrum: 2048
>>>>>Begin Spectral Data<<<<<
223.165	-15.75
223.4	-15.75
223.635	-15.75
223.869	-8.75
224.104	-12.75
224.338	1.25
224.573	-14.75
224.808	-12.75
225.042	-12.75
225.277	-12.75
225.511	-10.75
225.746	4.25
225.98	19.25
226.215	10.25
226.449	13.25
226.683	15.25
226.918	16.25
227.152	21.25
227.387	43.25
227.621	26.25
227.856	34.25
228.09	56.25
228.324	66.25
228.559	55.25
228.793	58.25
229.027	58.25
229.262	78.25
229.496	72.25
229.73	77.25
229.964	78.25
230.199	66.25
230.433	76.25
230.667	77.25
230.901	75.25
231.136	82.25
231.37	84.25
231.604	86.25
231.838	75.25
232.072	86.25
232.306	79.25
232.541	82.25
232.775	69.25
233.009	72.25
233.243	71.25
233.477	68.25
233.711	91.25
233.945	88.25
234.179	85.25
234.413	78.25
234.647	82.25
234.881	71.25
235.115	70.25
235.349	76.25
235.583	72.25
235.817	85.25
236.051	76.25
236.285	84.25
236.519	81.25
236.753	81.25
236.987	75.25
237.221	86.25
237.455	67.25
237.689	80.25
237.922	87.25
238.156	74.25
238.39	76.25
238.624	76.25
238.858	74.25
239.091	85.25
239.325	73.25
239.559	77.25
239.793	73.25
240.027	76.25
240.26	85.25
240.494	77.25
240.728	75.25
240.961	79.25
241.195	95.25
241.429	87.25
241.662	79.25
241.896	91.25
242.13	74.25
242.363	58.25
242.597	76.25
242.83	87.25
243.064	68.25
243.298	68.25
243.531	78.25
243.765	61.25
243.998	67.25
244.232	85.25
244.465	84.25
244.699	81.25
244.932	65.25
245.166	75.25
245.399	78.25
245.633	74.25
245.866	91.25
246.099	73.25
246.333	88.25
246.566	66.25
246.8	74.25
247.033	82.25
247.266	82.25
247.5	69.25
247.733	77.25
247.966	78.25
248.2	76.25
248.433	88.25
248.666	66.25
248.899	87.25
249.133	84.25
249.366	95.25
249.599	75.25
249.832	68.25
250.066	75.25
250.299	69.25
250.532	80.25
250.765	88.25
250.998	73.25
251.231	69.25
251.465	72.25
251.698	76.25
251.931	80.25
252.164	83.25
252.397	78.25
252.63	72.25
252.863	74.25
253.096	74.25
253.329	83.25
253.562	92.25
253.795	75.25
254.028	97.25
254.261	74.25
254.494	69.25
254.727	77.25
254.96	76.25
255.193	85.25
255.426	73.25
255.659	82.25
255.892	77.25
256.124	79.25
256.357	92.25
256.59	86.25
256.823	91.25
257.056	84.25
257.289	79.25
257.521	94.25
257.754	80.25
257.987	83.25
258.22	93.25
258.452	90.25
258.685	76.25
258.918	88.25
259.151	77.25
259.383	89.25
259.616	75.25
259.849	74.25
260.081	73.25
260.314	81.25
260.547	88.25
260.779	86.25
261.012	86.25
261.244	84.25
261.477	77.25
261.71	86.25
261.942	89.25
262.175	84.25
262.407	87.25
262.64	76.25
262.872	83.25
263.105	75.25
263.337	82.25
263.57	76.25
263.802	74.25
264.035	74.25
264.267	79.25
264.499	70.25
264.732	95.25
264.964	75.25
265.197	69.25
265.429	86.25
265.661	92.25
265.894	68.25
266.126	90.25
266.358	70.25
266.591	81.25
266.823	80.25
267.055	73.25
267.287	90.25
267.52	85.25
267.752	86.25
267.984	72.25
268.216	68.25
268.448	88.25
268.681	85.25
268.913	97.25
269.145	64.25
269.377	77.25
269.609	87.25
269.841	103.25
270.073	76.25
270.306	74.25
270.538	83.25
270.77	90.25
271.002	86.25
271.234	71.25
271.466	81.25
271.698	101.25
271.93	102.25
272.162	92.25
272.394	81.25
272.626	64.25
272.858	89.25
273.09	84.25
273.322	76.25
273.553	72.25
273.785	79.25
274.017	84.25
274.249	85.25
274.481	91.25
274.713	87.25
274.945	84.25
275.176	74.25
275.408	84.25
275.64	76.25
275.872	90.25
276.104	89.25
276.335	84.25
276.567	95.25
276.799	86.25
277.031	75.25
277.262	77.25
277.494	82.25
277.726	97.25
277.957	90.25
278.189	79.25
278.421	87.25
278.652	82.25
278.884	72.25
279.115	69.25
279.347	81.25
279.579	80.25
279.81	91.25
280.042	75.25
280.273	100.25
280.505	80.25
280.736	88.25
280.968	79.25
281.199	79.25
281.431	74.25
281.662	79.25
281.894	89.25
282.125	79.25
282.356	72.25
282.588	88.25
282.819	98.25
283.051	83.25
283.282	86.25
283.513	84.25
283.745	73.25
283.976	85.25
284.207	74.25
284.439	76.25
284.67	77.25
284.901	86.25
285.132	92.25
285.364	76.25
285.595	75.25
285.826	92.25
286.057	77.25
286.288	78.25
286.52	93.25
286.751	78.25
286.982	75.25
287.213	76.25
287.444	77.25
287.675	82.25
287.906	68.25
288.138	81.25
288.369	79.25
288.6	93.25
288.831	78.25
289.062	89.25
289.293	87.25
289.524	87.25
289.755	91.25
289.986	73.25
290.217	82.25
290.448	76.25
290.679	74.25
290.91	86.25
291.141	74.25
291.371	84.25
291.602	82.25
291.833	105.25
292.064	94.25
292.295	83.25
292.526	99.25
292.757	85.25
292.987	83.25
293.218	84.25
293.449	78.25
293.68	76.25
293.91	93.25
294.141	90.25
294.372	86.25
294.603	81.25
294.833	93.25
295.064	60.25
295.295	90.25
295.525	90.25
295.756	101.25
295.987	93.25
296.217	85.25
296.448	87.25
296.679	100.25
296.909	80.25
297.14	91.25
297.37	91.25
297.601	94.25
297.831	87.25
298.062	84.25
298.292	92.25
298.523	92.25
298.753	89.25
298.984	77.25
299.214	81.25
299.445	92.25
299.675	90.25
299.905	84.25
300.136	91.25
300.366	84.25
300.597	111.25
300.827	85.25
301.057	91.25
301.288	77.25
301.518	97.25
301.748	92.25
301.979	76.25
302.209	95.25
302.439	73.25
302.669	93.25
302.9	82.25
303.13	89.25
303.36	77.25
303.59	95.25
303.82	79.25
304.051	86.25
304.281	84.25
304.511	89.25
304.741	90.25
304.971	74.25
305.201	80.25
305.431	91.25
305.661	85.25
305.891	81.25
306.121	82.25
306.352	83.25
306.582	93.25
306.812	86.25
307.042	91.25
307.272	87.25
307.502	94.25
307.731	90.25
307.961	88.25
308.191	78.25
308.421	90.25
308.651	83.25
308.881	77.25
309.111	82.25
309.341	97.25
309.571	88.25
309.8	69.25
310.03	75.25
310.26	89.25
310.49	98.25
310.72	77.25
310.949	94.25
311.179	104.25
311.409	106.25
311.639	84.25
311.868	87.25
312.098	92.25
312.328	82.25
312.557	91.25
312.787	88.25
313.017	95.25
313.246	92.25
313.476	95.25
313.706	78.25
313.935	75.25
314.165	98.25
314.394	72.25
314.624	91.25
314.853	72.25
315.083	83.25
315.312	82.25
315.542	86.25
315.771	88.25
316.001	82.25
316.23	87.25
316.46	88.25
316.689	84.25
316.919	88.25
317.148	85.25
317.377	84.25
317.607	81.25
317.836	85.25
318.065	72.25
318.295	81.25
318.524	88.25
318.753	80.25
318.983	86.25
319.212	106.25
319.441	79.25
319.67	84.25
319.9	77.25
320.129	73.25
320.358	98.25
320.587	79.25
320.816	79.25
321.046	83.25
321.275	90.25
321.504	69.25
321.733	99.25
321.962	92.25
322.191	78.25
322.42	92.25
322.649	87.25
322.878	90.25
323.108	80.25
323.337	77.25
323.566	90.25
323.795	82.25
324.024	85.25
324.253	81.25
324.482	84.25
324.71	79.25
324.939	89.25
325.168	87.25
325.397	87.25
325.626	89.25
325.855	93.25
326.084	79.25
326.313	101.25
326.542	77.25
326.77	85.25
326.999	90.25
327.228	84.25
327.457	104.25
327.686	97.25
327.914	93.25
328.143	87.25
328.372	81.25
328.6	93.25
328.829	82.25
329.058	91.25
329.287	83.25
329.515	77.25
329.744	88.25
329.972	90.25
330.201	76.25
330.43	86.25
330.658	100.25
330.887	87.25
331.115	82.25
331.344	86.25
331.572	90.25
331.801	90.25
332.03	90.25
332.258	91.25
332.486	84.25
332.715	81.25
332.943	87.25
333.172	84.25
333.4	80.25
333.629	83.25
333.857	84.25
334.085	83.25
334.314	79.25
334.542	78.25
334.771	105.25
334.999	115.25
335.227	94.25
335.455	86.25
335.684	88.25
335.912	83.25
336.14	76.25
336.369	74.25
336.597	60.25
336.825	83.25
337.053	86.25
337.281	91.25
337.51	82.25
337.738	90.25
337.966	80.25
338.194	76.25
338.422	83.25
338.65	82.25
338.878	107.25
339.106	92.25
339.334	90.25
339.562	69.25
339.79	88.25
340.018	92.25
340.246	71.25
340.474	92.25
340.702	72.25
340.93	92.25
341.158	89.25
341.386	114.25
341.614	87.25
341.842	95.25
342.07	88.25
342.298	94.25
342.526	71.25
342.754	78.25
342.981	80.25
343.209	97.25
343.437	97.25
343.665	96.25
343.893	96.25
344.12	97.25
344.348	85.25
344.576	85.25
344.804	93.25
345.031	89.25
345.259	76.25
345.487	92.25
345.714	105.25
345.942	84.25
346.17	69.25
346.397	85.25
346.625	90.25
346.853	72.25
347.08	98.25
347.308	92.25
347.535	94.25
347.763	89.25
347.99	85.25
348.218	83.25
348.445	79.25
348.673	73.25
348.9	84.25
349.128	90.25
349.355	83.25
349.583	78.25
349.81	85.25
350.037	90.25
350.265	87.25
350.492	94.25
350.72	83.25
350.947	88.25
351.174	77.25
351.402	93.25
351.629	87.25
351.856	95.25
352.083	85.25
352.311	81.25
352.538	89.25
352.765	91.25
352.992	66.25
353.22	92.25
353.447	91.25
353.674	84.25
353.901	89.25
354.128	80.25
354.355	90.25
354.583	84.25
354.81	88.25
355.037	96.25
355.264	93.25
355.491	93.25
355.718	74.25
355.945	79.25
356.172	85.25
356.399	77.25
356.626	96.25
356.853	90.25
357.08	83.25
357.307	87.25
357.534	90.25
357.761	86.25
357.988	84.25
358.215	89.25
358.441	86.25
358.668	82.25
358.895	90.25
359.122	85.25
359.349	92.25
359.576	82.25
359.802	89.25
360.029	96.25
360.256	85.25
360.483	102.25
360.709	95.25
360.936	98.25
361.163	93.25
361.39	80.25
361.616	87.25
361.843	83.25
362.07	97.25
362.296	77.25
362.523	89.25
362.749	77.25
362.976	93.25
363.203	93.25
363.429	76.25
363.656	86.25
363.882	82.25
364.109	89.25
364.335	94.25
364.562	86.25
364.788	78.25
365.015	91.25
365.241	89.25
365.468	88.25
365.694	90.25
365.92	89.25
366.147	90.25
366.373	85.25
366.599	76.25
366.826	82.25
367.052	82.25
367.278	92.25
367.505	89.25
367.731	73.25
367.957	90.25
368.184	90.25
368.41	91.25
368.636	75.25
368.862	85.25
369.089	99.25
369.315	93.25
369.541	82.25
369.767	93.25
369.993	100.25
370.219	93.25
370.445	83.25
370.672	90.25
370.898	77.25
371.124	85.25
371.35	82.25
371.576	92.25
371.802	82.25
372.028	83.25
372.254	80.25
372.48	70.25
372.706	76.25
372.932	88.25
373.158	99.25
373.384	93.25
373.61	82.25
373.835	100.25
374.061	82.25
374.287	81.25
374.513	72.25
374.739	93.25
374.965	77.25
375.191	91.25
375.416	91.25
375.642	81.25
375.868	94.25
376.094	91.25
376.319	89.25
376.545	95.25
376.771	72.25
376.997	83.25
377.222	80.25
377.448	93.25
377.674	82.25
377.899	86.25
378.125	87.25
378.35	100.25
378.576	81.25
378.802	85.25
379.027	83.25
379.253	84.25
379.478	85.25
379.704	98.25
379.929	100.25
380.155	89.25
380.38	70.25
380.606	74.25
380.831	87.25
381.057	91.25
381.282	88.25
381.507	87.25
381.733	96.25
381.958	90.25
382.184	77.25
382.409	86.25
382.634	91.25
382.86	78.25
383.085	101.25
383.31	74.25
383.535	82.25
383.761	77.25
383.986	95.25
384.211	83.25
384.436	93.25
384.662	78.25
384.887	85.25
385.112	84.25
385.337	82.25
385.562	85.25
385.787	91.25
386.013	82.25
386.238	76.25
386.463	99.25
386.688	84.25
386.913	95.25
387.138	77.25
387.363	78.25
387.588	78.25
387.813	77.25
388.038	91.25
388.263	82.25
388.488	85.25
388.713	94.25
388.938	77.25
389.163	75.25
389.387	83.25
389.612	85.25
389.837	96.25
390.062	93.25
390.287	94.25
390.512	97.25
390.736	87.25
390.961	93.25
391.186	91.25
391.411	86.25
391.636	90.25
391.86	86.25
392.085	86.25
392.31	87.25
392.534	90.25
392.759	80.25
392.984	80.25
393.208	91.25
393.433	82.25
393.658	93.25
393.882	84.25
394.107	80.25
394.331	95.25
394.556	84.25
394.78	88.25
395.005	81.25
395.229	87.25
395.454	79.25
395.678	96.25
395.903	84.25
396.127	101.25
396.352	102.25
396.576	81.25
396.801	74.25
397.025	86.25
397.249	85.25
397.474	87.25
397.698	85.25
397.922	82.25
398.147	98.25
398.371	106.25
398.595	92.25
398.82	74.25
399.044	92.25
399.268	93.25
399.492	85.25
399.717	85.25
399.941	77.25
400.165	92.25
400.389	82.25
400.613	88.25
400.837	90.25
401.062	90.25
401.286	83.25
401.51	69.25
401.734	83.25
401.958	87.25
402.182	78.25
402.406	86.25
402.63	89.25
402.854	89.25
403.078	86.25
403.302	82.25
403.526	75.25
403.75	86.25
403.974	73.25
404.198	93.25
404.422	106.25
404.645	84.25
404.869	80.25
405.093	83.25
405.317	88.25
405.541	81.25
405.765	77.25
405.988	87.25
406.212	75.25
406.436	84.25
406.66	86.25
406.883	88.25
407.107	89.25
407.331	82.25
407.555	94.25
407.778	76.25
408.002	89.25
408.226	86.25
408.449	80.25
408.673	97.25
408.896	86.25
409.12	116.25
409.344	97.25
409.567	97.25
409.791	88.25
410.014	77.25
410.238	78.25
410.461	83.25
410.685	74.25
410.908	84.25
411.132	77.25
411.355	85.25
411.578	88.25
411.802	89.25
412.025	76.25
412.249	86.25
412.472	85.25
412.695	89.25
412.919	76.25
413.142	84.25
413.365	92.25
413.589	77.25
413.812	74.25
414.035	81.25
414.258	92.25
414.482	88.25
414.705	78.25
414.928	81.25
415.151	97.25
415.374	79.25
415.597	101.25
415.821	73.25
416.044	77.25
416.267	98.25
416.49	85.25
416.713	95.25
416.936	73.25
417.159	83.25
417.382	93.25
417.605	92.25
417.828	90.25
418.051	92.25
418.274	78.25
418.497	80.25
418.72	78.25
418.943	95.25
419.166	87.25
419.389	97.25
419.611	80.25
419.834	84.25
420.057	85.25
420.28	93.25
420.503	82.25
420.726	77.25
420.948	76.25
421.171	86.25
421.394	83.25
421.617	97.25
421.839	97.25
422.062	83.25
422.285	90.25
422.507	93.25
422.73	83.25
422.953	97.25
423.175	88.25
423.398	92.25
423.621	83.25
423.843	86.25
424.066	90.25
424.288	90.25
424.511	89.25
424.733	81.25
424.956	82.25
425.178	81.25
425.401	90.25
425.623	81.25
425.846	83.25
426.068	93.25
426.291	88.25
426.513	77.25
426.735	96.25
426.958	72.25
427.18	78.25
427.402	80.25
427.625	89.25
427.847	83.25
428.069	90.25
428.292	92.25
428.514	74.25
428.736	81.25
428.958	91.25
429.181	78.25
429.403	74.25
429.625	86.25
429.847	88.25
430.069	82.25
430.292	70.25
430.514	84.25
430.736	93.25
430.958	84.25
431.18	88.25
431.402	87.25
431.624	83.25
431.846	80.25
432.068	81.25
432.29	80.25
432.512	84.25
432.734	82.25
432.956	87.25
433.178	96.25
433.4	87.25
433.622	91.25
433.844	98.25
434.066	83.25
434.287	95.25
434.509	86.25
434.731	88.25
434.953	72.25
435.175	88.25
435.397	85.25
435.618	76.25
435.84	96.25
436.062	84.25
436.284	77.25
436.505	84.25
436.727	84.25
436.949	73.25
437.17	86.25
437.392	82.25
437.614	95.25
437.835	82.25
438.057	94.25
438.278	87.25
438.5	74.25
438.721	83.25
438.943	88.25
439.165	91.25
439.386	89.25
439.608	80.25
439.829	86.25
440.05	87.25
440.272	84.25
440.493	94.25
440.715	81.25
440.936	97.25
441.158	92.25
441.379	79.25
441.6	101.25
441.822	80.25
442.043	95.25
442.264	85.25
442.486	73.25
442.707	96.25
442.928	85.25
443.149	90.25
443.371	82.25
443.592	81.25
443.813	83.25
444.034	94.25
444.255	74.25
444.476	72.25
444.698	80.25
444.919	77.25
445.14	197.25
445.361	137.25
445.582	96.25
445.803	77.25
446.024	86.25
446.245	97.25
446.466	85.25
446.687	79.25
446.908	73.25
447.129	79.25
447.35	82.25
447.571	90.25
447.792	84.25
448.013	87.25
448.234	75.25
448.455	81.25
448.675	84.25
448.896	88.25
449.117	82.25
449.338	88.25
449.559	82.25
449.779	88.25
450	81.25
450.221	101.25
450.442	89.25
450.662	84.25
450.883	90.25
451.104	81.25
451.324	84.25
451.545	81.25
451.766	78.25
451.986	74.25
452.207	84.25
452.428	87.25
452.648	78.25
452.869	99.25
453.089	96.25
453.31	78.25
453.53	79.25
453.751	90.25
453.971	82.25
454.192	86.25
454.412	90.25
454.633	91.25
454.853	76.25
455.073	83.25
455.294	82.25
455.514	96.25
455.734	91.25
455.955	88.25
456.175	95.25
456.395	87.25
456.616	85.25
456.836	82.25
457.056	84.25
457.276	78.25
457.497	91.25
457.717	69.25
457.937	86.25
458.157	84.25
458.377	77.25
458.598	70.25
458.818	82.25
459.038	90.25
459.258	78.25
459.478	72.25
459.698	80.25
459.918	68.25
460.138	74.25
460.358	92.25
460.578	86.25
460.798	99.25
461.018	90.25
461.238	71.25
461.458	86.25
461.678	82.25
461.898	98.25
462.118	94.25
462.338	78.25
462.558	81.25
462.777	83.25
462.997	97.25
463.217	88.25
463.437	89.25
463.657	94.25
463.876	82.25
464.096	92.25
464.316	78.25
464.536	85.25
464.755	94.25
464.975	90.25
465.195	93.25
465.414	90.25
465.634	86.25
465.854	89.25
466.073	96.25
466.293	96.25
466.512	81.25
466.732	89.25
466.951	94.25
467.171	67.25
467.391	77.25
467.61	88.25
467.829	88.25
468.049	96.25
468.268	77.25
468.488	78.25
468.707	91.25
468.927	78.25
469.146	88.25
469.365	88.25
469.585	90.25
469.804	94.25
470.023	86.25
470.243	74.25
470.462	82.25
470.681	87.25
470.901	92.25
471.12	107.25
471.339	92.25
471.558	84.25
471.777	89.25
471.997	85.25
472.216	81.25
472.435	85.25
472.654	79.25
472.873	99.25
473.092	89.25
473.311	87.25
473.53	77.25
473.749	83.25
473.968	95.25
474.187	81.25
474.406	82.25
474.625	90.25
474.844	86.25
475.063	75.25
475.282	88.25
475.501	88.25
475.72	82.25
475.939	96.25
476.158	87.25
476.377	92.25
476.596	99.25
476.814	82.25
477.033	99.25
477.252	103.25
477.471	89.25
477.69	92.25
477.908	90.25
478.127	86.25
478.346	82.25
478.564	92.25
478.783	95.25
479.002	84.25
479.22	93.25
479.439	88.25
479.658	106.25
479.876	85.25
480.095	81.25
480.313	94.25
480.532	102.25
480.751	97.25
480.969	78.25
481.188	76.25
481.406	85.25
481.624	83.25
481.843	82.25
482.061	83.25
482.28	87.25
482.498	84.25
482.717	78.25
482.935	75.25
483.153	94.25
483.372	81.25
483.59	77.25
483.808	91.25
484.027	91.25
484.245	98.25
484.463	102.25
484.681	103.25
484.9	86.25
485.118	90.25
485.336	94.25
485.554	79.25
485.772	97.25
485.99	98.25
486.209	85.25
486.427	88.25
486.645	79.25
486.863	85.25
487.081	90.25
487.299	85.25
487.517	87.25
487.735	82.25
487.953	88.25
488.171	103.25
488.389	102.25
488.607	80.25
488.825	91.25
489.043	88.25
489.261	89.25
489.479	77.25
489.696	76.25
489.914	90.25
490.132	89.25
490.35	91.25
490.568	100.25
490.786	94.25
491.003	98.25
491.221	105.25
491.439	97.25
491.657	75.25
491.874	90.25
492.092	101.25
492.31	112.25
492.527	99.25
492.745	84.25
492.963	96.25
493.18	83.25
493.398	74.25
493.615	97.25
493.833	89.25
494.05	98.25
494.268	99.25
494.485	109.25
494.703	92.25
494.92	93.25
495.138	100.25
495.355	103.25
495.573	99.25
495.79	93.25
496.008	102.25
496.225	100.25
496.442	96.25
496.66	89.25
496.877	102.25
497.094	114.25
497.312	98.25
497.529	88.25
497.746	110.25
497.963	93.25
498.181	84.25
498.398	93.25
498.615	97.25
498.832	101.25
499.049	105.25
499.267	89.25
499.484	96.25
499.701	108.25
499.918	100.25
500.135	114.25
500.352	108.25
500.569	114.25
500.786	116.25
501.003	92.25
501.22	108.25
501.437	107.25
501.654	90.25
501.871	96.25
502.088	87.25
502.305	101.25
502.522	105.25
502.739	104.25
502.956	89.25
503.172	89.25
503.389	106.25
503.606	94.25
503.823	105.25
504.04	98.25
504.256	94.25
504.473	88.25
504.69	88.25
504.907	104.25
505.123	92.25
505.34	94.25
505.557	98.25
505.773	117.25
505.99	86.25
506.207	105.25
506.423	99.25
506.64	92.25
506.856	91.25
507.073	86.25
507.289	80.25
507.506	90.25
507.722	91.25
507.939	87.25
508.155	106.25
508.372	102.25
508.588	79.25
508.805	95.25
509.021	96.25
509.238	94.25
509.454	91.25
509.67	85.25
509.887	78.25
510.103	103.25
510.319	87.25
510.536	82.25
510.752	78.25
510.968	101.25
511.184	94.25
511.401	83.25
511.617	94.25
511.833	88.25
512.049	84.25
512.265	88.25
512.481	88.25
512.698	104.25
512.914	89.25
513.13	82.25
513.346	87.25
513.562	88.25
513.778	84.25
513.994	97.25
514.21	76.25
514.426	94.25
514.642	99.25
514.858	81.25
515.074	94.25
515.29	94.25
515.506	100.25
515.721	80.25
515.937	89.25
516.153	101.25
516.369	87.25
516.585	95.25
516.801	81.25
517.016	101.25
517.232	87.25
517.448	93.25
517.664	93.25
517.879	79.25
518.095	98.25
518.311	91.25
