Data from Ni(NO3)2Standard.Agarose3%.GreenCap.LampEnergy5.5.E.O_HRD10591_14-41-19-188.txt Node
Date: Mon Jul 22 14:41:19 EDT 2019
User: cochatt
Spectrometer: HR+D1059
Trigger mode: 1
Integration Time (sec): 1.000000E-1
Scans to average: 1
Electric dark correction enabled: true
Nonlinearity correction enabled: false
Boxcar width: 0
XAxis mode: Wavelengths
Number of Pixels in Spectrum: 2048
>>>>>Begin Spectral Data<<<<<
223.165	-15.88
223.4	-15.88
223.635	-15.88
223.869	-3.88
224.104	-13.88
224.338	-13.88
224.573	-20.88
224.808	-14.88
225.042	-2.88
225.277	-4.88
225.511	-9.88
225.746	-7.88
225.98	22.12
226.215	17.12
226.449	17.12
226.683	5.12
226.918	11.12
227.152	36.12
227.387	44.12
227.621	29.12
227.856	31.12
228.09	53.12
228.324	55.12
228.559	50.12
228.793	61.12
229.027	57.12
229.262	72.12
229.496	64.12
229.73	67.12
229.964	72.12
230.199	64.12
230.433	65.12
230.667	85.12
230.901	72.12
231.136	84.12
231.37	84.12
231.604	86.12
231.838	85.12
232.072	83.12
232.306	76.12
232.541	85.12
232.775	73.12
233.009	78.12
233.243	72.12
233.477	80.12
233.711	88.12
233.945	80.12
234.179	67.12
234.413	72.12
234.647	96.12
234.881	75.12
235.115	81.12
235.349	74.12
235.583	86.12
235.817	73.12
236.051	81.12
236.285	60.12
236.519	76.12
236.753	74.12
236.987	84.12
237.221	76.12
237.455	71.12
237.689	78.12
237.922	76.12
238.156	76.12
238.39	65.12
238.624	77.12
238.858	80.12
239.091	89.12
239.325	73.12
239.559	96.12
239.793	79.12
240.027	79.12
240.26	75.12
240.494	75.12
240.728	77.12
240.961	89.12
241.195	68.12
241.429	72.12
241.662	73.12
241.896	77.12
242.13	58.12
242.363	82.12
242.597	68.12
242.83	72.12
243.064	77.12
243.298	81.12
243.531	80.12
243.765	82.12
243.998	73.12
244.232	63.12
244.465	77.12
244.699	70.12
244.932	76.12
245.166	74.12
245.399	105.12
245.633	80.12
245.866	90.12
246.099	82.12
246.333	67.12
246.566	70.12
246.8	85.12
247.033	58.12
247.266	88.12
247.5	83.12
247.733	86.12
247.966	74.12
248.2	74.12
248.433	81.12
248.666	81.12
248.899	80.12
249.133	77.12
249.366	85.12
249.599	88.12
249.832	91.12
250.066	86.12
250.299	79.12
250.532	76.12
250.765	77.12
250.998	94.12
251.231	79.12
251.465	81.12
251.698	79.12
251.931	66.12
252.164	74.12
252.397	82.12
252.63	84.12
252.863	74.12
253.096	75.12
253.329	93.12
253.562	67.12
253.795	75.12
254.028	78.12
254.261	72.12
254.494	69.12
254.727	85.12
254.96	75.12
255.193	76.12
255.426	77.12
255.659	80.12
255.892	80.12
256.124	81.12
256.357	74.12
256.59	84.12
256.823	80.12
257.056	86.12
257.289	80.12
257.521	84.12
257.754	72.12
257.987	79.12
258.22	80.12
258.452	75.12
258.685	70.12
258.918	76.12
259.151	77.12
259.383	82.12
259.616	82.12
259.849	61.12
260.081	82.12
260.314	75.12
260.547	74.12
260.779	74.12
261.012	77.12
261.244	87.12
261.477	82.12
261.71	82.12
261.942	69.12
262.175	85.12
262.407	83.12
262.64	87.12
262.872	82.12
263.105	76.12
263.337	86.12
263.57	71.12
263.802	74.12
264.035	78.12
264.267	93.12
264.499	77.12
264.732	86.12
264.964	93.12
265.197	89.12
265.429	73.12
265.661	78.12
265.894	73.12
266.126	85.12
266.358	80.12
266.591	76.12
266.823	96.12
267.055	88.12
267.287	87.12
267.52	83.12
267.752	87.12
267.984	78.12
268.216	82.12
268.448	75.12
268.681	78.12
268.913	86.12
269.145	85.12
269.377	68.12
269.609	87.12
269.841	86.12
270.073	92.12
270.306	82.12
270.538	65.12
270.77	80.12
271.002	85.12
271.234	77.12
271.466	66.12
271.698	80.12
271.93	82.12
272.162	80.12
272.394	73.12
272.626	85.12
272.858	74.12
273.09	72.12
273.322	79.12
273.553	82.12
273.785	72.12
274.017	74.12
274.249	82.12
274.481	77.12
274.713	80.12
274.945	92.12
275.176	77.12
275.408	84.12
275.64	82.12
275.872	72.12
276.104	86.12
276.335	91.12
276.567	79.12
276.799	84.12
277.031	88.12
277.262	84.12
277.494	84.12
277.726	91.12
277.957	89.12
278.189	82.12
278.421	74.12
278.652	91.12
278.884	89.12
279.115	90.12
279.347	82.12
279.579	88.12
279.81	75.12
280.042	90.12
280.273	88.12
280.505	67.12
280.736	71.12
280.968	81.12
281.199	92.12
281.431	87.12
281.662	93.12
281.894	85.12
282.125	72.12
282.356	81.12
282.588	85.12
282.819	101.12
283.051	92.12
283.282	91.12
283.513	96.12
283.745	90.12
283.976	88.12
284.207	87.12
284.439	77.12
284.67	87.12
284.901	89.12
285.132	80.12
285.364	86.12
285.595	97.12
285.826	87.12
286.057	85.12
286.288	81.12
286.52	82.12
286.751	82.12
286.982	82.12
287.213	85.12
287.444	85.12
287.675	92.12
287.906	102.12
288.138	88.12
288.369	85.12
288.6	90.12
288.831	92.12
289.062	66.12
289.293	86.12
289.524	85.12
289.755	82.12
289.986	87.12
290.217	92.12
290.448	78.12
290.679	73.12
290.91	89.12
291.141	83.12
291.371	78.12
291.602	78.12
291.833	70.12
292.064	87.12
292.295	81.12
292.526	79.12
292.757	106.12
292.987	79.12
293.218	72.12
293.449	87.12
293.68	76.12
293.91	71.12
294.141	81.12
294.372	93.12
294.603	88.12
294.833	92.12
295.064	96.12
295.295	88.12
295.525	87.12
295.756	76.12
295.987	86.12
296.217	80.12
296.448	105.12
296.679	91.12
296.909	98.12
297.14	102.12
297.37	94.12
297.601	62.12
297.831	69.12
298.062	80.12
298.292	76.12
298.523	91.12
298.753	85.12
298.984	85.12
299.214	80.12
299.445	81.12
299.675	75.12
299.905	102.12
300.136	88.12
300.366	96.12
300.597	79.12
300.827	88.12
301.057	83.12
301.288	76.12
301.518	81.12
301.748	91.12
301.979	96.12
302.209	89.12
302.439	89.12
302.669	94.12
302.9	88.12
303.13	83.12
303.36	86.12
303.59	97.12
303.82	98.12
304.051	77.12
304.281	94.12
304.511	78.12
304.741	78.12
304.971	85.12
305.201	87.12
305.431	76.12
305.661	73.12
305.891	65.12
306.121	84.12
306.352	74.12
306.582	81.12
306.812	90.12
307.042	83.12
307.272	84.12
307.502	74.12
307.731	82.12
307.961	84.12
308.191	88.12
308.421	76.12
308.651	82.12
308.881	83.12
309.111	74.12
309.341	76.12
309.571	78.12
309.8	82.12
310.03	76.12
310.26	89.12
310.49	94.12
310.72	96.12
310.949	84.12
311.179	91.12
311.409	87.12
311.639	87.12
311.868	74.12
312.098	76.12
312.328	97.12
312.557	75.12
312.787	83.12
313.017	84.12
313.246	80.12
313.476	80.12
313.706	81.12
313.935	75.12
314.165	82.12
314.394	88.12
314.624	71.12
314.853	88.12
315.083	95.12
315.312	87.12
315.542	95.12
315.771	83.12
316.001	92.12
316.23	76.12
316.46	87.12
316.689	84.12
316.919	71.12
317.148	72.12
317.377	80.12
317.607	87.12
317.836	75.12
318.065	89.12
318.295	81.12
318.524	94.12
318.753	85.12
318.983	113.12
319.212	96.12
319.441	71.12
319.67	77.12
319.9	84.12
320.129	76.12
320.358	94.12
320.587	92.12
320.816	89.12
321.046	74.12
321.275	83.12
321.504	90.12
321.733	97.12
321.962	85.12
322.191	98.12
322.42	100.12
322.649	99.12
322.878	112.12
323.108	99.12
323.337	93.12
323.566	82.12
323.795	72.12
324.024	95.12
324.253	78.12
324.482	82.12
324.71	84.12
324.939	84.12
325.168	78.12
325.397	80.12
325.626	93.12
325.855	86.12
326.084	85.12
326.313	87.12
326.542	88.12
326.77	77.12
326.999	101.12
327.228	87.12
327.457	88.12
327.686	74.12
327.914	66.12
328.143	84.12
328.372	79.12
328.6	94.12
328.829	85.12
329.058	100.12
329.287	96.12
329.515	91.12
329.744	90.12
329.972	75.12
330.201	101.12
330.43	88.12
330.658	99.12
330.887	83.12
331.115	82.12
331.344	90.12
331.572	91.12
331.801	94.12
332.03	88.12
332.258	80.12
332.486	81.12
332.715	92.12
332.943	81.12
333.172	89.12
333.4	88.12
333.629	91.12
333.857	84.12
334.085	78.12
334.314	82.12
334.542	96.12
334.771	93.12
334.999	73.12
335.227	83.12
335.455	86.12
335.684	84.12
335.912	99.12
336.14	91.12
336.369	97.12
336.597	89.12
336.825	82.12
337.053	90.12
337.281	100.12
337.51	77.12
337.738	85.12
337.966	90.12
338.194	82.12
338.422	89.12
338.65	90.12
338.878	78.12
339.106	97.12
339.334	87.12
339.562	78.12
339.79	87.12
340.018	81.12
340.246	87.12
340.474	85.12
340.702	91.12
340.93	87.12
341.158	84.12
341.386	76.12
341.614	96.12
341.842	72.12
342.07	80.12
342.298	98.12
342.526	83.12
342.754	79.12
342.981	89.12
343.209	86.12
343.437	101.12
343.665	78.12
343.893	79.12
344.12	90.12
344.348	94.12
344.576	86.12
344.804	87.12
345.031	88.12
345.259	100.12
345.487	92.12
345.714	80.12
345.942	80.12
346.17	88.12
346.397	78.12
346.625	82.12
346.853	92.12
347.08	93.12
347.308	83.12
347.535	80.12
347.763	78.12
347.99	97.12
348.218	93.12
348.445	92.12
348.673	83.12
348.9	85.12
349.128	78.12
349.355	87.12
349.583	87.12
349.81	94.12
350.037	94.12
350.265	91.12
350.492	84.12
350.72	101.12
350.947	89.12
351.174	86.12
351.402	83.12
351.629	96.12
351.856	96.12
352.083	87.12
352.311	79.12
352.538	78.12
352.765	76.12
352.992	91.12
353.22	92.12
353.447	80.12
353.674	83.12
353.901	94.12
354.128	89.12
354.355	66.12
354.583	88.12
354.81	87.12
355.037	88.12
355.264	94.12
355.491	90.12
355.718	81.12
355.945	97.12
356.172	78.12
356.399	79.12
356.626	89.12
356.853	72.12
357.08	101.12
357.307	82.12
357.534	89.12
357.761	87.12
357.988	83.12
358.215	77.12
358.441	103.12
358.668	82.12
358.895	86.12
359.122	96.12
359.349	74.12
359.576	70.12
359.802	85.12
360.029	70.12
360.256	86.12
360.483	96.12
360.709	89.12
360.936	86.12
361.163	85.12
361.39	94.12
361.616	95.12
361.843	84.12
362.07	73.12
362.296	79.12
362.523	75.12
362.749	88.12
362.976	88.12
363.203	89.12
363.429	89.12
363.656	79.12
363.882	78.12
364.109	93.12
364.335	81.12
364.562	77.12
364.788	83.12
365.015	72.12
365.241	80.12
365.468	78.12
365.694	79.12
365.92	81.12
366.147	98.12
366.373	77.12
366.599	86.12
366.826	81.12
367.052	93.12
367.278	90.12
367.505	78.12
367.731	94.12
367.957	83.12
368.184	90.12
368.41	67.12
368.636	75.12
368.862	85.12
369.089	89.12
369.315	84.12
369.541	82.12
369.767	78.12
369.993	90.12
370.219	92.12
370.445	86.12
370.672	74.12
370.898	79.12
371.124	93.12
371.35	89.12
371.576	96.12
371.802	71.12
372.028	83.12
372.254	95.12
372.48	88.12
372.706	90.12
372.932	96.12
373.158	92.12
373.384	81.12
373.61	94.12
373.835	87.12
374.061	89.12
374.287	96.12
374.513	68.12
374.739	71.12
374.965	81.12
375.191	92.12
375.416	84.12
375.642	94.12
375.868	77.12
376.094	75.12
376.319	80.12
376.545	92.12
376.771	87.12
376.997	83.12
377.222	91.12
377.448	82.12
377.674	90.12
377.899	89.12
378.125	84.12
378.35	92.12
378.576	97.12
378.802	80.12
379.027	84.12
379.253	68.12
379.478	82.12
379.704	90.12
379.929	70.12
380.155	88.12
380.38	84.12
380.606	79.12
380.831	90.12
381.057	95.12
381.282	82.12
381.507	77.12
381.733	93.12
381.958	82.12
382.184	70.12
382.409	85.12
382.634	70.12
382.86	81.12
383.085	99.12
383.31	85.12
383.535	102.12
383.761	89.12
383.986	85.12
384.211	64.12
384.436	100.12
384.662	72.12
384.887	74.12
385.112	86.12
385.337	77.12
385.562	78.12
385.787	84.12
386.013	86.12
386.238	90.12
386.463	86.12
386.688	75.12
386.913	78.12
387.138	88.12
387.363	82.12
387.588	88.12
387.813	91.12
388.038	90.12
388.263	101.12
388.488	87.12
388.713	76.12
388.938	88.12
389.163	83.12
389.387	81.12
389.612	83.12
389.837	85.12
390.062	85.12
390.287	84.12
390.512	66.12
390.736	86.12
390.961	80.12
391.186	90.12
391.411	88.12
391.636	92.12
391.86	84.12
392.085	96.12
392.31	68.12
392.534	76.12
392.759	85.12
392.984	72.12
393.208	82.12
393.433	82.12
393.658	79.12
393.882	100.12
394.107	87.12
394.331	90.12
394.556	79.12
394.78	81.12
395.005	84.12
395.229	96.12
395.454	86.12
395.678	76.12
395.903	90.12
396.127	88.12
396.352	70.12
396.576	82.12
396.801	84.12
397.025	91.12
397.249	90.12
397.474	86.12
397.698	86.12
397.922	82.12
398.147	83.12
398.371	79.12
398.595	84.12
398.82	83.12
399.044	88.12
399.268	99.12
399.492	91.12
399.717	82.12
399.941	89.12
400.165	95.12
400.389	95.12
400.613	90.12
400.837	82.12
401.062	75.12
401.286	85.12
401.51	79.12
401.734	73.12
401.958	90.12
402.182	85.12
402.406	73.12
402.63	95.12
402.854	91.12
403.078	94.12
403.302	81.12
403.526	91.12
403.75	89.12
403.974	83.12
404.198	81.12
404.422	85.12
404.645	90.12
404.869	85.12
405.093	92.12
405.317	87.12
405.541	98.12
405.765	85.12
405.988	100.12
406.212	76.12
406.436	100.12
406.66	88.12
406.883	96.12
407.107	82.12
407.331	84.12
407.555	91.12
407.778	89.12
408.002	87.12
408.226	79.12
408.449	93.12
408.673	85.12
408.896	74.12
409.12	83.12
409.344	87.12
409.567	84.12
409.791	88.12
410.014	78.12
410.238	89.12
410.461	98.12
410.685	84.12
410.908	79.12
411.132	77.12
411.355	87.12
411.578	90.12
411.802	85.12
412.025	82.12
412.249	85.12
412.472	82.12
412.695	87.12
412.919	85.12
413.142	85.12
413.365	89.12
413.589	96.12
413.812	92.12
414.035	86.12
414.258	103.12
414.482	88.12
414.705	78.12
414.928	78.12
415.151	96.12
415.374	86.12
415.597	78.12
415.821	71.12
416.044	78.12
416.267	83.12
416.49	78.12
416.713	85.12
416.936	94.12
417.159	77.12
417.382	81.12
417.605	86.12
417.828	87.12
418.051	77.12
418.274	97.12
418.497	91.12
418.72	81.12
418.943	89.12
419.166	90.12
419.389	80.12
419.611	86.12
419.834	94.12
420.057	72.12
420.28	82.12
420.503	83.12
420.726	95.12
420.948	91.12
421.171	88.12
421.394	81.12
421.617	95.12
421.839	88.12
422.062	88.12
422.285	85.12
422.507	93.12
422.73	95.12
422.953	100.12
423.175	91.12
423.398	88.12
423.621	106.12
423.843	93.12
424.066	84.12
424.288	90.12
424.511	82.12
424.733	67.12
424.956	90.12
425.178	88.12
425.401	89.12
425.623	81.12
425.846	83.12
426.068	67.12
426.291	93.12
426.513	83.12
426.735	88.12
426.958	68.12
427.18	91.12
427.402	84.12
427.625	72.12
427.847	84.12
428.069	91.12
428.292	89.12
428.514	104.12
428.736	96.12
428.958	76.12
429.181	92.12
429.403	77.12
429.625	87.12
429.847	76.12
430.069	87.12
430.292	77.12
430.514	82.12
430.736	96.12
430.958	97.12
431.18	85.12
431.402	85.12
431.624	86.12
431.846	90.12
432.068	80.12
432.29	99.12
432.512	89.12
432.734	81.12
432.956	76.12
433.178	78.12
433.4	77.12
433.622	97.12
433.844	71.12
434.066	67.12
434.287	85.12
434.509	86.12
434.731	84.12
434.953	104.12
435.175	94.12
435.397	84.12
435.618	82.12
435.84	84.12
436.062	85.12
436.284	92.12
436.505	90.12
436.727	72.12
436.949	70.12
437.17	86.12
437.392	92.12
437.614	80.12
437.835	91.12
438.057	66.12
438.278	88.12
438.5	74.12
438.721	86.12
438.943	88.12
439.165	96.12
439.386	92.12
439.608	88.12
439.829	81.12
440.05	85.12
440.272	75.12
440.493	78.12
440.715	73.12
440.936	82.12
441.158	85.12
441.379	89.12
441.6	99.12
441.822	66.12
442.043	90.12
442.264	72.12
442.486	86.12
442.707	82.12
442.928	73.12
443.149	89.12
443.371	88.12
443.592	87.12
443.813	85.12
444.034	81.12
444.255	89.12
444.476	81.12
444.698	93.12
444.919	84.12
445.14	204.12
445.361	148.12
445.582	85.12
445.803	84.12
446.024	89.12
446.245	93.12
446.466	85.12
446.687	76.12
446.908	96.12
447.129	75.12
447.35	86.12
447.571	75.12
447.792	100.12
448.013	75.12
448.234	98.12
448.455	88.12
448.675	82.12
448.896	76.12
449.117	86.12
449.338	94.12
449.559	98.12
449.779	92.12
450	93.12
450.221	77.12
450.442	81.12
450.662	97.12
450.883	89.12
451.104	87.12
451.324	79.12
451.545	73.12
451.766	94.12
451.986	100.12
452.207	90.12
452.428	88.12
452.648	80.12
452.869	89.12
453.089	91.12
453.31	79.12
453.53	87.12
453.751	85.12
453.971	81.12
454.192	83.12
454.412	90.12
454.633	88.12
454.853	84.12
455.073	87.12
455.294	86.12
455.514	101.12
455.734	86.12
455.955	90.12
456.175	79.12
456.395	92.12
456.616	75.12
456.836	90.12
457.056	84.12
457.276	83.12
457.497	92.12
457.717	88.12
457.937	73.12
458.157	80.12
458.377	93.12
458.598	86.12
458.818	78.12
459.038	83.12
459.258	81.12
459.478	88.12
459.698	75.12
459.918	77.12
460.138	85.12
460.358	85.12
460.578	99.12
460.798	77.12
461.018	83.12
461.238	82.12
461.458	95.12
461.678	84.12
461.898	85.12
462.118	82.12
462.338	79.12
462.558	80.12
462.777	87.12
462.997	84.12
463.217	85.12
463.437	96.12
463.657	81.12
463.876	73.12
464.096	88.12
464.316	95.12
464.536	83.12
464.755	94.12
464.975	96.12
465.195	88.12
465.414	86.12
465.634	82.12
465.854	86.12
466.073	92.12
466.293	86.12
466.512	94.12
466.732	97.12
466.951	90.12
467.171	99.12
467.391	90.12
467.61	91.12
467.829	77.12
468.049	102.12
468.268	88.12
468.488	97.12
468.707	84.12
468.927	82.12
469.146	85.12
469.365	78.12
469.585	90.12
469.804	86.12
470.023	75.12
470.243	90.12
470.462	91.12
470.681	85.12
470.901	81.12
471.12	89.12
471.339	96.12
471.558	85.12
471.777	86.12
471.997	85.12
472.216	89.12
472.435	98.12
472.654	103.12
472.873	90.12
473.092	84.12
473.311	89.12
473.53	81.12
473.749	77.12
473.968	84.12
474.187	94.12
474.406	100.12
474.625	88.12
474.844	81.12
475.063	93.12
475.282	94.12
475.501	89.12
475.72	102.12
475.939	86.12
476.158	72.12
476.377	78.12
476.596	100.12
476.814	85.12
477.033	76.12
477.252	76.12
477.471	91.12
477.69	85.12
477.908	82.12
478.127	98.12
478.346	77.12
478.564	92.12
478.783	89.12
479.002	88.12
479.22	92.12
479.439	87.12
479.658	81.12
479.876	83.12
480.095	89.12
480.313	99.12
480.532	88.12
480.751	91.12
480.969	86.12
481.188	84.12
481.406	97.12
481.624	100.12
481.843	76.12
482.061	89.12
482.28	88.12
482.498	94.12
482.717	97.12
482.935	82.12
483.153	97.12
483.372	90.12
483.59	93.12
483.808	98.12
484.027	89.12
484.245	77.12
484.463	83.12
484.681	99.12
484.9	104.12
485.118	94.12
485.336	90.12
485.554	102.12
485.772	108.12
485.99	92.12
486.209	91.12
486.427	84.12
486.645	103.12
486.863	77.12
487.081	93.12
487.299	90.12
487.517	92.12
487.735	104.12
487.953	108.12
488.171	97.12
488.389	85.12
488.607	101.12
488.825	99.12
489.043	89.12
489.261	92.12
489.479	87.12
489.696	108.12
489.914	99.12
490.132	87.12
490.35	97.12
490.568	88.12
490.786	103.12
491.003	85.12
491.221	97.12
491.439	82.12
491.657	87.12
491.874	115.12
492.092	94.12
492.31	97.12
492.527	92.12
492.745	103.12
492.963	102.12
493.18	100.12
493.398	91.12
493.615	110.12
493.833	84.12
494.05	101.12
494.268	88.12
494.485	102.12
494.703	110.12
494.92	105.12
495.138	81.12
495.355	92.12
495.573	85.12
495.79	109.12
496.008	97.12
496.225	101.12
496.442	80.12
496.66	94.12
496.877	68.12
497.094	94.12
497.312	92.12
497.529	107.12
497.746	91.12
497.963	104.12
498.181	92.12
498.398	102.12
498.615	92.12
498.832	92.12
499.049	106.12
499.267	114.12
499.484	108.12
499.701	108.12
499.918	112.12
500.135	100.12
500.352	104.12
500.569	114.12
500.786	100.12
501.003	102.12
501.22	124.12
501.437	109.12
501.654	99.12
501.871	112.12
502.088	103.12
502.305	94.12
502.522	86.12
502.739	98.12
502.956	102.12
503.172	81.12
503.389	99.12
503.606	94.12
503.823	100.12
504.04	97.12
504.256	84.12
504.473	98.12
504.69	89.12
504.907	108.12
505.123	89.12
505.34	99.12
505.557	83.12
505.773	94.12
505.99	94.12
506.207	87.12
506.423	85.12
506.64	108.12
506.856	76.12
507.073	96.12
507.289	115.12
507.506	88.12
507.722	90.12
507.939	97.12
508.155	96.12
508.372	79.12
508.588	96.12
508.805	90.12
509.021	92.12
509.238	98.12
509.454	102.12
509.67	88.12
509.887	94.12
510.103	90.12
510.319	90.12
510.536	96.12
510.752	92.12
510.968	78.12
511.184	75.12
511.401	92.12
511.617	103.12
511.833	83.12
512.049	98.12
512.265	89.12
512.481	81.12
512.698	102.12
512.914	98.12
513.13	105.12
513.346	83.12
513.562	95.12
513.778	78.12
513.994	92.12
514.21	97.12
514.426	105.12
514.642	99.12
514.858	83.12
515.074	87.12
515.29	95.12
515.506	88.12
515.721	102.12
515.937	89.12
516.153	84.12
516.369	87.12
516.585	85.12
516.801	94.12
517.016	88.12
517.232	104.12
517.448	90.12
517.664	97.12
517.879	80.12
518.095	82.12
