Data from Ni(NO3)2@0.125M.TitratingCurve.Agarose3%dH2O.NegLispCup.LampEnergy10.LIBS07252019_HRD10591_18-10-09-571.txt Node
Date: Thu Jul 25 18:10:09 EDT 2019
User: cochatt
Spectrometer: HR+D1059
Trigger mode: 1
Integration Time (sec): 1.000000E-1
Scans to average: 1
Electric dark correction enabled: true
Nonlinearity correction enabled: false
Boxcar width: 0
XAxis mode: Wavelengths
Number of Pixels in Spectrum: 2048
>>>>>Begin Spectral Data<<<<<
223.165	-15.81
223.4	-15.81
223.635	-15.81
223.869	-23.81
224.104	4.19
224.338	-1.81
224.573	-20.81
224.808	-18.81
225.042	-6.81
225.277	0.19
225.511	-5.81
225.746	-10.81
225.98	-3.81
226.215	2.19
226.449	17.19
226.683	22.19
226.918	27.19
227.152	35.19
227.387	34.19
227.621	48.19
227.856	46.19
228.09	54.19
228.324	49.19
228.559	64.19
228.793	73.19
229.027	90.19
229.262	87.19
229.496	90.19
229.73	90.19
229.964	103.19
230.199	116.19
230.433	102.19
230.667	101.19
230.901	121.19
231.136	126.19
231.37	116.19
231.604	112.19
231.838	112.19
232.072	126.19
232.306	124.19
232.541	118.19
232.775	126.19
233.009	122.19
233.243	121.19
233.477	100.19
233.711	122.19
233.945	123.19
234.179	122.19
234.413	123.19
234.647	137.19
234.881	113.19
235.115	117.19
235.349	121.19
235.583	136.19
235.817	122.19
236.051	138.19
236.285	116.19
236.519	136.19
236.753	122.19
236.987	116.19
237.221	122.19
237.455	121.19
237.689	135.19
237.922	126.19
238.156	140.19
238.39	126.19
238.624	126.19
238.858	128.19
239.091	140.19
239.325	137.19
239.559	139.19
239.793	134.19
240.027	136.19
240.26	140.19
240.494	139.19
240.728	136.19
240.961	137.19
241.195	157.19
241.429	141.19
241.662	142.19
241.896	141.19
242.13	132.19
242.363	153.19
242.597	163.19
242.83	158.19
243.064	151.19
243.298	176.19
243.531	141.19
243.765	134.19
243.998	150.19
244.232	142.19
244.465	169.19
244.699	179.19
244.932	168.19
245.166	158.19
245.399	171.19
245.633	145.19
245.866	174.19
246.099	166.19
246.333	169.19
246.566	169.19
246.8	160.19
247.033	141.19
247.266	153.19
247.5	182.19
247.733	166.19
247.966	166.19
248.2	170.19
248.433	177.19
248.666	184.19
248.899	194.19
249.133	177.19
249.366	180.19
249.599	175.19
249.832	181.19
250.066	196.19
250.299	201.19
250.532	182.19
250.765	181.19
250.998	188.19
251.231	199.19
251.465	200.19
251.698	204.19
251.931	195.19
252.164	203.19
252.397	200.19
252.63	206.19
252.863	225.19
253.096	210.19
253.329	205.19
253.562	208.19
253.795	195.19
254.028	205.19
254.261	208.19
254.494	190.19
254.727	210.19
254.96	202.19
255.193	201.19
255.426	189.19
255.659	222.19
255.892	205.19
256.124	219.19
256.357	227.19
256.59	226.19
256.823	221.19
257.056	203.19
257.289	215.19
257.521	203.19
257.754	221.19
257.987	212.19
258.22	198.19
258.452	212.19
258.685	210.19
258.918	220.19
259.151	237.19
259.383	220.19
259.616	233.19
259.849	230.19
260.081	235.19
260.314	206.19
260.547	240.19
260.779	245.19
261.012	234.19
261.244	244.19
261.477	240.19
261.71	231.19
261.942	223.19
262.175	233.19
262.407	251.19
262.64	244.19
262.872	229.19
263.105	254.19
263.337	260.19
263.57	248.19
263.802	248.19
264.035	238.19
264.267	260.19
264.499	268.19
264.732	254.19
264.964	243.19
265.197	242.19
265.429	268.19
265.661	257.19
265.894	265.19
266.126	253.19
266.358	242.19
266.591	261.19
266.823	253.19
267.055	267.19
267.287	269.19
267.52	277.19
267.752	262.19
267.984	272.19
268.216	261.19
268.448	262.19
268.681	281.19
268.913	264.19
269.145	273.19
269.377	275.19
269.609	261.19
269.841	265.19
270.073	266.19
270.306	287.19
270.538	284.19
270.77	281.19
271.002	274.19
271.234	288.19
271.466	275.19
271.698	287.19
271.93	271.19
272.162	275.19
272.394	286.19
272.626	293.19
272.858	290.19
273.09	294.19
273.322	275.19
273.553	302.19
273.785	302.19
274.017	298.19
274.249	265.19
274.481	291.19
274.713	290.19
274.945	298.19
275.176	309.19
275.408	296.19
275.64	298.19
275.872	306.19
276.104	292.19
276.335	293.19
276.567	320.19
276.799	282.19
277.031	323.19
277.262	311.19
277.494	316.19
277.726	282.19
277.957	306.19
278.189	326.19
278.421	302.19
278.652	302.19
278.884	323.19
279.115	330.19
279.347	328.19
279.579	331.19
279.81	317.19
280.042	328.19
280.273	315.19
280.505	324.19
280.736	304.19
280.968	315.19
281.199	320.19
281.431	326.19
281.662	314.19
281.894	315.19
282.125	317.19
282.356	342.19
282.588	334.19
282.819	332.19
283.051	338.19
283.282	322.19
283.513	320.19
283.745	339.19
283.976	338.19
284.207	327.19
284.439	341.19
284.67	334.19
284.901	331.19
285.132	341.19
285.364	330.19
285.595	342.19
285.826	349.19
286.057	347.19
286.288	338.19
286.52	364.19
286.751	372.19
286.982	340.19
287.213	371.19
287.444	359.19
287.675	371.19
287.906	360.19
288.138	381.19
288.369	344.19
288.6	375.19
288.831	384.19
289.062	337.19
289.293	365.19
289.524	361.19
289.755	363.19
289.986	387.19
290.217	388.19
290.448	363.19
290.679	376.19
290.91	356.19
291.141	364.19
291.371	361.19
291.602	380.19
291.833	356.19
292.064	362.19
292.295	368.19
292.526	372.19
292.757	366.19
292.987	378.19
293.218	360.19
293.449	388.19
293.68	384.19
293.91	390.19
294.141	378.19
294.372	382.19
294.603	378.19
294.833	376.19
295.064	388.19
295.295	386.19
295.525	394.19
295.756	392.19
295.987	379.19
296.217	382.19
296.448	403.19
296.679	379.19
296.909	393.19
297.14	407.19
297.37	398.19
297.601	406.19
297.831	424.19
298.062	406.19
298.292	420.19
298.523	428.19
298.753	405.19
298.984	413.19
299.214	396.19
299.445	402.19
299.675	412.19
299.905	413.19
300.136	414.19
300.366	421.19
300.597	425.19
300.827	417.19
301.057	409.19
301.288	432.19
301.518	444.19
301.748	425.19
301.979	434.19
302.209	445.19
302.439	414.19
302.669	414.19
302.9	415.19
303.13	405.19
303.36	407.19
303.59	393.19
303.82	421.19
304.051	415.19
304.281	444.19
304.511	423.19
304.741	422.19
304.971	409.19
305.201	417.19
305.431	414.19
305.661	416.19
305.891	418.19
306.121	434.19
306.352	412.19
306.582	430.19
306.812	420.19
307.042	412.19
307.272	412.19
307.502	422.19
307.731	424.19
307.961	416.19
308.191	411.19
308.421	403.19
308.651	403.19
308.881	412.19
309.111	412.19
309.341	420.19
309.571	398.19
309.8	396.19
310.03	401.19
310.26	419.19
310.49	392.19
310.72	404.19
310.949	414.19
311.179	422.19
311.409	421.19
311.639	428.19
311.868	432.19
312.098	431.19
312.328	434.19
312.557	430.19
312.787	421.19
313.017	434.19
313.246	457.19
313.476	446.19
313.706	467.19
313.935	437.19
314.165	439.19
314.394	445.19
314.624	454.19
314.853	449.19
315.083	442.19
315.312	436.19
315.542	433.19
315.771	442.19
316.001	429.19
316.23	423.19
316.46	440.19
316.689	457.19
316.919	428.19
317.148	418.19
317.377	429.19
317.607	420.19
317.836	432.19
318.065	423.19
318.295	429.19
318.524	433.19
318.753	434.19
318.983	434.19
319.212	426.19
319.441	404.19
319.67	417.19
319.9	434.19
320.129	428.19
320.358	424.19
320.587	444.19
320.816	422.19
321.046	419.19
321.275	453.19
321.504	440.19
321.733	440.19
321.962	449.19
322.191	448.19
322.42	445.19
322.649	448.19
322.878	447.19
323.108	436.19
323.337	450.19
323.566	442.19
323.795	450.19
324.024	456.19
324.253	461.19
324.482	448.19
324.71	456.19
324.939	488.19
325.168	452.19
325.397	444.19
325.626	469.19
325.855	466.19
326.084	484.19
326.313	491.19
326.542	487.19
326.77	501.19
326.999	469.19
327.228	489.19
327.457	458.19
327.686	476.19
327.914	469.19
328.143	490.19
328.372	468.19
328.6	481.19
328.829	474.19
329.058	520.19
329.287	491.19
329.515	476.19
329.744	486.19
329.972	506.19
330.201	478.19
330.43	496.19
330.658	499.19
330.887	502.19
331.115	505.19
331.344	509.19
331.572	521.19
331.801	507.19
332.03	523.19
332.258	549.19
332.486	552.19
332.715	564.19
332.943	600.19
333.172	629.19
333.4	660.19
333.629	646.19
333.857	665.19
334.085	635.19
334.314	655.19
334.542	632.19
334.771	625.19
334.999	608.19
335.227	609.19
335.455	594.19
335.684	595.19
335.912	596.19
336.14	583.19
336.369	594.19
336.597	585.19
336.825	595.19
337.053	596.19
337.281	579.19
337.51	564.19
337.738	562.19
337.966	556.19
338.194	532.19
338.422	523.19
338.65	532.19
338.878	530.19
339.106	536.19
339.334	547.19
339.562	516.19
339.79	513.19
340.018	519.19
340.246	481.19
340.474	532.19
340.702	539.19
340.93	525.19
341.158	510.19
341.386	544.19
341.614	507.19
341.842	506.19
342.07	505.19
342.298	503.19
342.526	498.19
342.754	497.19
342.981	530.19
343.209	527.19
343.437	577.19
343.665	569.19
343.893	617.19
344.12	629.19
344.348	604.19
344.576	593.19
344.804	563.19
345.031	549.19
345.259	518.19
345.487	538.19
345.714	538.19
345.942	509.19
346.17	522.19
346.397	532.19
346.625	510.19
346.853	508.19
347.08	508.19
347.308	521.19
347.535	510.19
347.763	515.19
347.99	527.19
348.218	526.19
348.445	526.19
348.673	513.19
348.9	530.19
349.128	517.19
349.355	518.19
349.583	490.19
349.81	498.19
350.037	487.19
350.265	491.19
350.492	484.19
350.72	467.19
350.947	494.19
351.174	465.19
351.402	477.19
351.629	484.19
351.856	476.19
352.083	489.19
352.311	477.19
352.538	480.19
352.765	476.19
352.992	476.19
353.22	460.19
353.447	485.19
353.674	482.19
353.901	482.19
354.128	502.19
354.355	475.19
354.583	487.19
354.81	486.19
355.037	508.19
355.264	496.19
355.491	493.19
355.718	500.19
355.945	481.19
356.172	480.19
356.399	488.19
356.626	504.19
356.853	493.19
357.08	510.19
357.307	501.19
357.534	478.19
357.761	486.19
357.988	476.19
358.215	493.19
358.441	490.19
358.668	490.19
358.895	476.19
359.122	498.19
359.349	477.19
359.576	489.19
359.802	493.19
360.029	492.19
360.256	471.19
360.483	495.19
360.709	490.19
360.936	484.19
361.163	467.19
361.39	481.19
361.616	481.19
361.843	474.19
362.07	482.19
362.296	477.19
362.523	470.19
362.749	488.19
362.976	482.19
363.203	475.19
363.429	498.19
363.656	466.19
363.882	492.19
364.109	475.19
364.335	465.19
364.562	463.19
364.788	480.19
365.015	474.19
365.241	463.19
365.468	476.19
365.694	496.19
365.92	489.19
366.147	466.19
366.373	475.19
366.599	503.19
366.826	480.19
367.052	477.19
367.278	492.19
367.505	479.19
367.731	509.19
367.957	473.19
368.184	477.19
368.41	486.19
368.636	487.19
368.862	503.19
369.089	508.19
369.315	493.19
369.541	499.19
369.767	488.19
369.993	506.19
370.219	493.19
370.445	518.19
370.672	512.19
370.898	526.19
371.124	525.19
371.35	542.19
371.576	533.19
371.802	511.19
372.028	504.19
372.254	536.19
372.48	529.19
372.706	525.19
372.932	544.19
373.158	549.19
373.384	546.19
373.61	530.19
373.835	514.19
374.061	515.19
374.287	521.19
374.513	564.19
374.739	562.19
374.965	570.19
375.191	577.19
375.416	580.19
375.642	576.19
375.868	555.19
376.094	561.19
376.319	528.19
376.545	536.19
376.771	534.19
376.997	542.19
377.222	526.19
377.448	535.19
377.674	538.19
377.899	539.19
378.125	506.19
378.35	534.19
378.576	518.19
378.802	515.19
379.027	519.19
379.253	515.19
379.478	512.19
379.704	504.19
379.929	498.19
380.155	524.19
380.38	514.19
380.606	505.19
380.831	526.19
381.057	517.19
381.282	515.19
381.507	523.19
381.733	529.19
381.958	512.19
382.184	546.19
382.409	520.19
382.634	552.19
382.86	545.19
383.085	535.19
383.31	566.19
383.535	591.19
383.761	586.19
383.986	600.19
384.211	594.19
384.436	613.19
384.662	609.19
384.887	620.19
385.112	636.19
385.337	621.19
385.562	616.19
385.787	634.19
386.013	644.19
386.238	649.19
386.463	622.19
386.688	626.19
386.913	633.19
387.138	618.19
387.363	612.19
387.588	603.19
387.813	636.19
388.038	605.19
388.263	600.19
388.488	608.19
388.713	609.19
388.938	604.19
389.163	599.19
389.387	618.19
389.612	602.19
389.837	617.19
390.062	610.19
390.287	634.19
390.512	617.19
390.736	600.19
390.961	618.19
391.186	642.19
391.411	655.19
391.636	663.19
391.86	701.19
392.085	706.19
392.31	720.19
392.534	702.19
392.759	676.19
392.984	676.19
393.208	670.19
393.433	633.19
393.658	658.19
393.882	658.19
394.107	657.19
394.331	690.19
394.556	690.19
394.78	701.19
395.005	682.19
395.229	668.19
395.454	696.19
395.678	686.19
395.903	692.19
396.127	699.19
396.352	659.19
396.576	655.19
396.801	658.19
397.025	668.19
397.249	651.19
397.474	689.19
397.698	718.19
397.922	677.19
398.147	712.19
398.371	697.19
398.595	750.19
398.82	796.19
399.044	828.19
399.268	906.19
399.492	1094.19
399.717	1213.19
399.941	1197.19
400.165	1039.19
400.389	920.19
400.613	864.19
400.837	792.19
401.062	766.19
401.286	759.19
401.51	777.19
401.734	791.19
401.958	789.19
402.182	787.19
402.406	810.19
402.63	833.19
402.854	858.19
403.078	832.19
403.302	890.19
403.526	900.19
403.75	919.19
403.974	925.19
404.198	938.19
404.422	937.19
404.645	931.19
404.869	900.19
405.093	900.19
405.317	888.19
405.541	886.19
405.765	858.19
405.988	850.19
406.212	856.19
406.436	861.19
406.66	864.19
406.883	899.19
407.107	962.19
407.331	1030.19
407.555	1041.19
407.778	993.19
408.002	967.19
408.226	971.19
408.449	906.19
408.673	903.19
408.896	895.19
409.12	893.19
409.344	904.19
409.567	886.19
409.791	913.19
410.014	917.19
410.238	888.19
410.461	907.19
410.685	875.19
410.908	891.19
411.132	865.19
411.355	855.19
411.578	836.19
411.802	810.19
412.025	844.19
412.249	846.19
412.472	821.19
412.695	795.19
412.919	784.19
413.142	777.19
413.365	778.19
413.589	804.19
413.812	759.19
414.035	774.19
414.258	796.19
414.482	800.19
414.705	805.19
414.928	798.19
415.151	783.19
415.374	792.19
415.597	823.19
415.821	776.19
416.044	789.19
416.267	783.19
416.49	772.19
416.713	779.19
416.936	766.19
417.159	760.19
417.382	753.19
417.605	781.19
417.828	800.19
418.051	797.19
418.274	813.19
418.497	789.19
418.72	820.19
418.943	806.19
419.166	860.19
419.389	917.19
419.611	866.19
419.834	838.19
420.057	818.19
420.28	800.19
420.503	787.19
420.726	768.19
420.948	789.19
421.171	776.19
421.394	807.19
421.617	803.19
421.839	773.19
422.062	749.19
422.285	804.19
422.507	843.19
422.73	837.19
422.953	840.19
423.175	820.19
423.398	842.19
423.621	841.19
423.843	860.19
424.066	881.19
424.288	852.19
424.511	855.19
424.733	850.19
424.956	828.19
425.178	808.19
425.401	824.19
425.623	794.19
425.846	753.19
426.068	729.19
426.291	748.19
426.513	733.19
426.735	747.19
426.958	746.19
427.18	721.19
427.402	721.19
427.625	709.19
427.847	715.19
428.069	699.19
428.292	701.19
428.514	698.19
428.736	693.19
428.958	712.19
429.181	676.19
429.403	706.19
429.625	706.19
429.847	685.19
430.069	676.19
430.292	690.19
430.514	661.19
430.736	699.19
430.958	705.19
431.18	677.19
431.402	656.19
431.624	683.19
431.846	694.19
432.068	707.19
432.29	714.19
432.512	727.19
432.734	704.19
432.956	691.19
433.178	708.19
433.4	707.19
433.622	723.19
433.844	716.19
434.066	710.19
434.287	739.19
434.509	739.19
434.731	789.19
434.953	838.19
435.175	809.19
435.397	790.19
435.618	756.19
435.84	736.19
436.062	715.19
436.284	698.19
436.505	710.19
436.727	710.19
436.949	725.19
437.17	746.19
437.392	718.19
437.614	723.19
437.835	683.19
438.057	688.19
438.278	694.19
438.5	696.19
438.721	693.19
438.943	696.19
439.165	680.19
439.386	704.19
439.608	714.19
439.829	710.19
440.05	719.19
440.272	709.19
440.493	733.19
440.715	696.19
440.936	758.19
441.158	758.19
441.379	779.19
441.6	823.19
441.822	830.19
442.043	837.19
442.264	796.19
442.486	796.19
442.707	790.19
442.928	794.19
443.149	807.19
443.371	778.19
443.592	783.19
443.813	816.19
444.034	834.19
444.255	854.19
444.476	902.19
444.698	964.19
444.919	998.19
445.14	1063.19
445.361	936.19
445.582	840.19
445.803	800.19
446.024	774.19
446.245	758.19
446.466	760.19
446.687	720.19
446.908	725.19
447.129	712.19
447.35	714.19
447.571	701.19
447.792	676.19
448.013	677.19
448.234	670.19
448.455	669.19
448.675	674.19
448.896	664.19
449.117	665.19
449.338	665.19
449.559	653.19
449.779	639.19
450	664.19
450.221	658.19
450.442	679.19
450.662	668.19
450.883	709.19
451.104	700.19
451.324	690.19
451.545	681.19
451.766	678.19
451.986	676.19
452.207	681.19
452.428	684.19
452.648	679.19
452.869	678.19
453.089	664.19
453.31	666.19
453.53	634.19
453.751	636.19
453.971	646.19
454.192	633.19
454.412	646.19
454.633	642.19
454.853	638.19
455.073	649.19
455.294	640.19
455.514	614.19
455.734	645.19
455.955	606.19
456.175	629.19
456.395	624.19
456.616	616.19
456.836	614.19
457.056	612.19
457.276	592.19
457.497	614.19
457.717	620.19
457.937	613.19
458.157	630.19
458.377	642.19
458.598	644.19
458.818	668.19
459.038	691.19
459.258	707.19
459.478	754.19
459.698	754.19
459.918	771.19
460.138	830.19
460.358	857.19
460.578	852.19
460.798	883.19
461.018	882.19
461.238	845.19
461.458	853.19
461.678	859.19
461.898	850.19
462.118	893.19
462.338	934.19
462.558	938.19
462.777	952.19
462.997	1080.19
463.217	1190.19
463.437	1172.19
463.657	1091.19
463.876	984.19
464.096	988.19
464.316	995.19
464.536	1056.19
464.755	957.19
464.975	933.19
465.195	912.19
465.414	835.19
465.634	768.19
465.854	806.19
466.073	763.19
466.293	733.19
466.512	706.19
466.732	685.19
466.951	702.19
467.171	705.19
467.391	699.19
467.61	694.19
467.829	697.19
468.049	689.19
468.268	660.19
468.488	658.19
468.707	644.19
468.927	672.19
469.146	656.19
469.365	700.19
469.585	702.19
469.804	703.19
470.023	704.19
470.243	718.19
470.462	753.19
470.681	737.19
470.901	722.19
471.12	703.19
471.339	694.19
471.558	679.19
471.777	676.19
471.997	673.19
472.216	648.19
472.435	663.19
472.654	646.19
472.873	654.19
473.092	651.19
473.311	628.19
473.53	629.19
473.749	661.19
473.968	641.19
474.187	648.19
474.406	642.19
474.625	635.19
474.844	651.19
475.063	662.19
475.282	658.19
475.501	667.19
475.72	676.19
475.939	657.19
476.158	679.19
476.377	686.19
476.596	678.19
476.814	692.19
477.033	677.19
477.252	700.19
477.471	709.19
477.69	688.19
477.908	756.19
478.127	774.19
478.346	793.19
478.564	800.19
478.783	777.19
479.002	821.19
479.22	828.19
479.439	813.19
479.658	809.19
479.876	792.19
480.095	824.19
480.313	867.19
480.532	909.19
480.751	884.19
480.969	813.19
481.188	789.19
481.406	770.19
481.624	747.19
481.843	746.19
482.061	733.19
482.28	763.19
482.498	738.19
482.717	704.19
482.935	731.19
483.153	738.19
483.372	749.19
483.59	765.19
483.808	765.19
484.027	772.19
484.245	750.19
484.463	753.19
484.681	771.19
484.9	753.19
485.118	773.19
485.336	778.19
485.554	775.19
485.772	801.19
485.99	804.19
486.209	822.19
486.427	797.19
486.645	788.19
486.863	823.19
487.081	795.19
487.299	773.19
487.517	795.19
487.735	747.19
487.953	778.19
488.171	796.19
488.389	770.19
488.607	758.19
488.825	757.19
489.043	749.19
489.261	758.19
489.479	774.19
489.696	754.19
489.914	755.19
490.132	798.19
490.35	768.19
490.568	789.19
490.786	794.19
491.003	778.19
491.221	786.19
491.439	801.19
491.657	803.19
491.874	808.19
492.092	806.19
492.31	786.19
492.527	817.19
492.745	808.19
492.963	808.19
493.18	801.19
493.398	823.19
493.615	845.19
493.833	826.19
494.05	821.19
494.268	822.19
494.485	849.19
494.703	846.19
494.92	823.19
495.138	818.19
495.355	808.19
495.573	838.19
495.79	812.19
496.008	842.19
496.225	797.19
496.442	836.19
496.66	826.19
496.877	867.19
497.094	860.19
497.312	866.19
497.529	898.19
497.746	905.19
497.963	949.19
498.181	965.19
498.398	1024.19
498.615	1104.19
498.832	1142.19
499.049	1245.19
499.267	1309.19
499.484	1504.19
499.701	1660.19
499.918	1844.19
500.135	2139.19
500.352	2588.19
500.569	2695.19
500.786	2601.19
501.003	2368.19
501.22	2086.19
