Data from Ni(NO3)2@0.125M.TitratingCurve.Agarose3%dH2O.NegLispCup.LampEnergy10.LIBS07252019_HRD10591_18-11-36-569.txt Node
Date: Thu Jul 25 18:11:36 EDT 2019
User: cochatt
Spectrometer: HR+D1059
Trigger mode: 1
Integration Time (sec): 1.000000E-1
Scans to average: 1
Electric dark correction enabled: true
Nonlinearity correction enabled: false
Boxcar width: 0
XAxis mode: Wavelengths
Number of Pixels in Spectrum: 2048
>>>>>Begin Spectral Data<<<<<
223.165	-16.38
223.4	-16.38
223.635	-16.38
223.869	-15.38
224.104	-31.38
224.338	-17.38
224.573	-10.38
224.808	-24.38
225.042	-8.38
225.277	-7.38
225.511	4.62
225.746	-1.38
225.98	14.62
226.215	15.62
226.449	23.62
226.683	19.62
226.918	26.62
227.152	27.62
227.387	32.62
227.621	45.62
227.856	46.62
228.09	60.62
228.324	54.62
228.559	63.62
228.793	64.62
229.027	108.62
229.262	122.62
229.496	126.62
229.73	126.62
229.964	114.62
230.199	134.62
230.433	137.62
230.667	131.62
230.901	143.62
231.136	147.62
231.37	135.62
231.604	141.62
231.838	145.62
232.072	146.62
232.306	164.62
232.541	172.62
232.775	144.62
233.009	178.62
233.243	152.62
233.477	154.62
233.711	154.62
233.945	156.62
234.179	159.62
234.413	158.62
234.647	164.62
234.881	162.62
235.115	165.62
235.349	156.62
235.583	168.62
235.817	163.62
236.051	163.62
236.285	156.62
236.519	160.62
236.753	168.62
236.987	165.62
237.221	156.62
237.455	181.62
237.689	171.62
237.922	174.62
238.156	185.62
238.39	160.62
238.624	168.62
238.858	190.62
239.091	164.62
239.325	182.62
239.559	173.62
239.793	179.62
240.027	180.62
240.26	187.62
240.494	186.62
240.728	203.62
240.961	193.62
241.195	191.62
241.429	202.62
241.662	221.62
241.896	210.62
242.13	194.62
242.363	200.62
242.597	201.62
242.83	207.62
243.064	204.62
243.298	219.62
243.531	207.62
243.765	205.62
243.998	226.62
244.232	236.62
244.465	221.62
244.699	227.62
244.932	224.62
245.166	226.62
245.399	223.62
245.633	221.62
245.866	226.62
246.099	216.62
246.333	233.62
246.566	223.62
246.8	221.62
247.033	231.62
247.266	229.62
247.5	228.62
247.733	258.62
247.966	252.62
248.2	242.62
248.433	249.62
248.666	254.62
248.899	255.62
249.133	243.62
249.366	260.62
249.599	263.62
249.832	276.62
250.066	257.62
250.299	270.62
250.532	278.62
250.765	266.62
250.998	256.62
251.231	283.62
251.465	280.62
251.698	280.62
251.931	278.62
252.164	296.62
252.397	290.62
252.63	266.62
252.863	293.62
253.096	270.62
253.329	287.62
253.562	280.62
253.795	283.62
254.028	301.62
254.261	286.62
254.494	271.62
254.727	293.62
254.96	294.62
255.193	297.62
255.426	290.62
255.659	303.62
255.892	318.62
256.124	317.62
256.357	309.62
256.59	319.62
256.823	297.62
257.056	318.62
257.289	325.62
257.521	319.62
257.754	311.62
257.987	303.62
258.22	306.62
258.452	309.62
258.685	312.62
258.918	327.62
259.151	327.62
259.383	305.62
259.616	320.62
259.849	316.62
260.081	340.62
260.314	329.62
260.547	337.62
260.779	345.62
261.012	343.62
261.244	334.62
261.477	336.62
261.71	344.62
261.942	351.62
262.175	343.62
262.407	352.62
262.64	367.62
262.872	346.62
263.105	356.62
263.337	349.62
263.57	360.62
263.802	366.62
264.035	366.62
264.267	364.62
264.499	379.62
264.732	378.62
264.964	374.62
265.197	370.62
265.429	362.62
265.661	368.62
265.894	354.62
266.126	378.62
266.358	368.62
266.591	358.62
266.823	396.62
267.055	382.62
267.287	383.62
267.52	393.62
267.752	385.62
267.984	376.62
268.216	393.62
268.448	386.62
268.681	389.62
268.913	398.62
269.145	405.62
269.377	392.62
269.609	403.62
269.841	403.62
270.073	391.62
270.306	393.62
270.538	394.62
270.77	389.62
271.002	390.62
271.234	386.62
271.466	424.62
271.698	398.62
271.93	412.62
272.162	411.62
272.394	390.62
272.626	418.62
272.858	409.62
273.09	404.62
273.322	427.62
273.553	418.62
273.785	413.62
274.017	410.62
274.249	428.62
274.481	432.62
274.713	438.62
274.945	438.62
275.176	442.62
275.408	437.62
275.64	447.62
275.872	425.62
276.104	458.62
276.335	424.62
276.567	427.62
276.799	445.62
277.031	468.62
277.262	454.62
277.494	438.62
277.726	447.62
277.957	447.62
278.189	461.62
278.421	467.62
278.652	471.62
278.884	458.62
279.115	473.62
279.347	467.62
279.579	476.62
279.81	478.62
280.042	463.62
280.273	484.62
280.505	470.62
280.736	470.62
280.968	498.62
281.199	490.62
281.431	498.62
281.662	499.62
281.894	494.62
282.125	494.62
282.356	492.62
282.588	485.62
282.819	511.62
283.051	494.62
283.282	496.62
283.513	503.62
283.745	503.62
283.976	519.62
284.207	506.62
284.439	489.62
284.67	511.62
284.901	514.62
285.132	525.62
285.364	526.62
285.595	531.62
285.826	531.62
286.057	538.62
286.288	513.62
286.52	522.62
286.751	516.62
286.982	551.62
287.213	531.62
287.444	556.62
287.675	544.62
287.906	527.62
288.138	548.62
288.369	539.62
288.6	546.62
288.831	532.62
289.062	550.62
289.293	556.62
289.524	558.62
289.755	544.62
289.986	575.62
290.217	548.62
290.448	560.62
290.679	558.62
290.91	562.62
291.141	555.62
291.371	538.62
291.602	571.62
291.833	556.62
292.064	547.62
292.295	561.62
292.526	557.62
292.757	540.62
292.987	563.62
293.218	537.62
293.449	550.62
293.68	562.62
293.91	537.62
294.141	544.62
294.372	568.62
294.603	572.62
294.833	556.62
295.064	594.62
295.295	567.62
295.525	584.62
295.756	570.62
295.987	564.62
296.217	574.62
296.448	593.62
296.679	573.62
296.909	576.62
297.14	557.62
297.37	600.62
297.601	615.62
297.831	616.62
298.062	599.62
298.292	620.62
298.523	620.62
298.753	645.62
298.984	622.62
299.214	602.62
299.445	613.62
299.675	620.62
299.905	595.62
300.136	607.62
300.366	619.62
300.597	626.62
300.827	629.62
301.057	628.62
301.288	643.62
301.518	643.62
301.748	620.62
301.979	648.62
302.209	643.62
302.439	628.62
302.669	665.62
302.9	649.62
303.13	648.62
303.36	632.62
303.59	614.62
303.82	639.62
304.051	623.62
304.281	624.62
304.511	629.62
304.741	636.62
304.971	628.62
305.201	644.62
305.431	618.62
305.661	628.62
305.891	604.62
306.121	614.62
306.352	636.62
306.582	634.62
306.812	599.62
307.042	621.62
307.272	622.62
307.502	620.62
307.731	629.62
307.961	622.62
308.191	611.62
308.421	620.62
308.651	628.62
308.881	636.62
309.111	619.62
309.341	602.62
309.571	640.62
309.8	638.62
310.03	614.62
310.26	640.62
310.49	630.62
310.72	618.62
310.949	606.62
311.179	636.62
311.409	656.62
311.639	642.62
311.868	630.62
312.098	650.62
312.328	668.62
312.557	654.62
312.787	645.62
313.017	642.62
313.246	644.62
313.476	657.62
313.706	660.62
313.935	674.62
314.165	664.62
314.394	671.62
314.624	672.62
314.853	679.62
315.083	675.62
315.312	674.62
315.542	650.62
315.771	654.62
316.001	657.62
316.23	637.62
316.46	672.62
316.689	644.62
316.919	646.62
317.148	676.62
317.377	656.62
317.607	658.62
317.836	650.62
318.065	664.62
318.295	642.62
318.524	652.62
318.753	639.62
318.983	668.62
319.212	640.62
319.441	640.62
319.67	629.62
319.9	636.62
320.129	636.62
320.358	639.62
320.587	657.62
320.816	668.62
321.046	639.62
321.275	640.62
321.504	654.62
321.733	647.62
321.962	654.62
322.191	694.62
322.42	656.62
322.649	670.62
322.878	673.62
323.108	660.62
323.337	670.62
323.566	680.62
323.795	693.62
324.024	709.62
324.253	675.62
324.482	697.62
324.71	696.62
324.939	699.62
325.168	685.62
325.397	688.62
325.626	692.62
325.855	696.62
326.084	739.62
326.313	727.62
326.542	739.62
326.77	754.62
326.999	723.62
327.228	694.62
327.457	701.62
327.686	718.62
327.914	728.62
328.143	727.62
328.372	712.62
328.6	708.62
328.829	697.62
329.058	690.62
329.287	736.62
329.515	721.62
329.744	719.62
329.972	733.62
330.201	738.62
330.43	769.62
330.658	764.62
330.887	731.62
331.115	721.62
331.344	762.62
331.572	791.62
331.801	777.62
332.03	792.62
332.258	787.62
332.486	842.62
332.715	888.62
332.943	911.62
333.172	940.62
333.4	952.62
333.629	994.62
333.857	982.62
334.085	951.62
334.314	951.62
334.542	964.62
334.771	938.62
334.999	956.62
335.227	936.62
335.455	904.62
335.684	909.62
335.912	921.62
336.14	898.62
336.369	891.62
336.597	874.62
336.825	890.62
337.053	872.62
337.281	864.62
337.51	848.62
337.738	840.62
337.966	823.62
338.194	807.62
338.422	818.62
338.65	803.62
338.878	810.62
339.106	811.62
339.334	780.62
339.562	781.62
339.79	760.62
340.018	779.62
340.246	758.62
340.474	747.62
340.702	752.62
340.93	807.62
341.158	787.62
341.386	774.62
341.614	786.62
341.842	780.62
342.07	748.62
342.298	785.62
342.526	755.62
342.754	754.62
342.981	740.62
343.209	765.62
343.437	834.62
343.665	884.62
343.893	934.62
344.12	963.62
344.348	871.62
344.576	849.62
344.804	855.62
345.031	803.62
345.259	775.62
345.487	755.62
345.714	770.62
345.942	788.62
346.17	770.62
346.397	741.62
346.625	778.62
346.853	736.62
347.08	712.62
347.308	722.62
347.535	730.62
347.763	750.62
347.99	766.62
348.218	796.62
348.445	758.62
348.673	738.62
348.9	749.62
349.128	745.62
349.355	718.62
349.583	713.62
349.81	716.62
350.037	722.62
350.265	711.62
350.492	695.62
350.72	706.62
350.947	708.62
351.174	708.62
351.402	736.62
351.629	724.62
351.856	708.62
352.083	687.62
352.311	726.62
352.538	700.62
352.765	735.62
352.992	714.62
353.22	706.62
353.447	700.62
353.674	701.62
353.901	717.62
354.128	698.62
354.355	696.62
354.583	715.62
354.81	706.62
355.037	717.62
355.264	722.62
355.491	697.62
355.718	712.62
355.945	712.62
356.172	718.62
356.399	740.62
356.626	726.62
356.853	741.62
357.08	723.62
357.307	726.62
357.534	706.62
357.761	727.62
357.988	729.62
358.215	710.62
358.441	694.62
358.668	715.62
358.895	710.62
359.122	698.62
359.349	702.62
359.576	703.62
359.802	711.62
360.029	744.62
360.256	735.62
360.483	714.62
360.709	709.62
360.936	711.62
361.163	708.62
361.39	716.62
361.616	723.62
361.843	725.62
362.07	711.62
362.296	726.62
362.523	712.62
362.749	711.62
362.976	724.62
363.203	718.62
363.429	667.62
363.656	701.62
363.882	705.62
364.109	716.62
364.335	716.62
364.562	714.62
364.788	718.62
365.015	716.62
365.241	728.62
365.468	688.62
365.694	706.62
365.92	693.62
366.147	708.62
366.373	725.62
366.599	727.62
366.826	733.62
367.052	713.62
367.278	719.62
367.505	707.62
367.731	715.62
367.957	708.62
368.184	723.62
368.41	738.62
368.636	734.62
368.862	734.62
369.089	714.62
369.315	740.62
369.541	738.62
369.767	746.62
369.993	719.62
370.219	734.62
370.445	755.62
370.672	772.62
370.898	750.62
371.124	766.62
371.35	769.62
371.576	778.62
371.802	771.62
372.028	772.62
372.254	758.62
372.48	796.62
372.706	791.62
372.932	816.62
373.158	784.62
373.384	780.62
373.61	766.62
373.835	818.62
374.061	788.62
374.287	789.62
374.513	803.62
374.739	821.62
374.965	879.62
375.191	848.62
375.416	839.62
375.642	818.62
375.868	841.62
376.094	810.62
376.319	803.62
376.545	800.62
376.771	762.62
376.997	788.62
377.222	790.62
377.448	809.62
377.674	766.62
377.899	776.62
378.125	761.62
378.35	760.62
378.576	771.62
378.802	757.62
379.027	779.62
379.253	776.62
379.478	756.62
379.704	765.62
379.929	755.62
380.155	757.62
380.38	760.62
380.606	783.62
380.831	792.62
381.057	768.62
381.282	792.62
381.507	779.62
381.733	778.62
381.958	790.62
382.184	804.62
382.409	823.62
382.634	809.62
382.86	832.62
383.085	841.62
383.31	851.62
383.535	833.62
383.761	841.62
383.986	882.62
384.211	911.62
384.436	885.62
384.662	911.62
384.887	980.62
385.112	948.62
385.337	931.62
385.562	926.62
385.787	931.62
386.013	972.62
386.238	911.62
386.463	923.62
386.688	920.62
386.913	916.62
387.138	920.62
387.363	925.62
387.588	929.62
387.813	920.62
388.038	919.62
388.263	903.62
388.488	914.62
388.713	924.62
388.938	895.62
389.163	924.62
389.387	926.62
389.612	909.62
389.837	898.62
390.062	904.62
390.287	900.62
390.512	923.62
390.736	925.62
390.961	916.62
391.186	942.62
391.411	966.62
391.636	995.62
391.86	1034.62
392.085	1066.62
392.31	1038.62
392.534	1006.62
392.759	986.62
392.984	989.62
393.208	970.62
393.433	970.62
393.658	975.62
393.882	986.62
394.107	964.62
394.331	958.62
394.556	996.62
394.78	980.62
395.005	1018.62
395.229	998.62
395.454	1026.62
395.678	1045.62
395.903	1060.62
396.127	1019.62
396.352	999.62
396.576	950.62
396.801	972.62
397.025	987.62
397.249	1013.62
397.474	1037.62
397.698	1019.62
397.922	1049.62
398.147	1039.62
398.371	1060.62
398.595	1074.62
398.82	1141.62
399.044	1226.62
399.268	1348.62
399.492	1566.62
399.717	1800.62
399.941	1749.62
400.165	1539.62
400.389	1401.62
400.613	1299.62
400.837	1215.62
401.062	1191.62
401.286	1175.62
401.51	1162.62
401.734	1166.62
401.958	1159.62
402.182	1184.62
402.406	1183.62
402.63	1215.62
402.854	1284.62
403.078	1270.62
403.302	1311.62
403.526	1310.62
403.75	1312.62
403.974	1354.62
404.198	1394.62
404.422	1371.62
404.645	1330.62
404.869	1340.62
405.093	1327.62
405.317	1308.62
405.541	1303.62
405.765	1271.62
405.988	1269.62
406.212	1274.62
406.436	1278.62
406.66	1302.62
406.883	1290.62
407.107	1408.62
407.331	1508.62
407.555	1482.62
407.778	1501.62
408.002	1468.62
408.226	1425.62
408.449	1394.62
408.673	1325.62
408.896	1352.62
409.12	1328.62
409.344	1334.62
409.567	1332.62
409.791	1310.62
410.014	1330.62
410.238	1311.62
410.461	1298.62
410.685	1269.62
410.908	1276.62
411.132	1284.62
411.355	1220.62
411.578	1191.62
411.802	1197.62
412.025	1199.62
412.249	1241.62
412.472	1232.62
412.695	1194.62
412.919	1141.62
413.142	1167.62
413.365	1155.62
413.589	1158.62
413.812	1168.62
414.035	1134.62
414.258	1145.62
414.482	1159.62
414.705	1208.62
414.928	1191.62
415.151	1135.62
415.374	1176.62
415.597	1176.62
415.821	1141.62
416.044	1128.62
416.267	1150.62
416.49	1133.62
416.713	1148.62
416.936	1158.62
417.159	1143.62
417.382	1144.62
417.605	1142.62
417.828	1148.62
418.051	1162.62
418.274	1151.62
418.497	1171.62
418.72	1191.62
418.943	1160.62
419.166	1236.62
419.389	1326.62
419.611	1285.62
419.834	1261.62
420.057	1208.62
420.28	1188.62
420.503	1166.62
420.726	1137.62
420.948	1143.62
421.171	1110.62
421.394	1132.62
421.617	1142.62
421.839	1123.62
422.062	1162.62
422.285	1156.62
422.507	1192.62
422.73	1186.62
422.953	1192.62
423.175	1217.62
423.398	1234.62
423.621	1212.62
423.843	1223.62
424.066	1239.62
424.288	1224.62
424.511	1187.62
424.733	1202.62
424.956	1168.62
425.178	1183.62
425.401	1145.62
425.623	1164.62
425.846	1120.62
426.068	1103.62
426.291	1087.62
426.513	1093.62
426.735	1084.62
426.958	1083.62
427.18	1046.62
427.402	1048.62
427.625	1060.62
427.847	1000.62
428.069	1026.62
428.292	1020.62
428.514	999.62
428.736	998.62
428.958	1023.62
429.181	1006.62
429.403	996.62
429.625	1015.62
429.847	992.62
430.069	990.62
430.292	1038.62
430.514	994.62
430.736	1017.62
430.958	988.62
431.18	970.62
431.402	1022.62
431.624	1004.62
431.846	1023.62
432.068	1024.62
432.29	1059.62
432.512	1048.62
432.734	1008.62
432.956	1034.62
433.178	1048.62
433.4	1032.62
433.622	1018.62
433.844	1059.62
434.066	1052.62
434.287	1048.62
434.509	1112.62
434.731	1137.62
434.953	1173.62
435.175	1146.62
435.397	1166.62
435.618	1065.62
435.84	1080.62
436.062	1052.62
436.284	1018.62
436.505	1006.62
436.727	1053.62
436.949	1060.62
437.17	1014.62
437.392	990.62
437.614	997.62
437.835	975.62
438.057	982.62
438.278	972.62
438.5	980.62
438.721	991.62
438.943	986.62
439.165	983.62
439.386	974.62
439.608	989.62
439.829	1040.62
440.05	1010.62
440.272	1048.62
440.493	1068.62
440.715	1042.62
440.936	1038.62
441.158	1083.62
441.379	1107.62
441.6	1144.62
441.822	1189.62
442.043	1168.62
442.264	1139.62
442.486	1118.62
442.707	1126.62
442.928	1123.62
443.149	1113.62
443.371	1162.62
443.592	1145.62
443.813	1135.62
444.034	1154.62
444.255	1216.62
444.476	1250.62
444.698	1316.62
444.919	1424.62
445.14	1437.62
445.361	1277.62
445.582	1202.62
445.803	1128.62
446.024	1074.62
446.245	1077.62
446.466	1042.62
446.687	1042.62
446.908	1015.62
447.129	999.62
447.35	1000.62
447.571	1006.62
447.792	930.62
448.013	942.62
448.234	943.62
448.455	965.62
448.675	912.62
448.896	942.62
449.117	907.62
449.338	944.62
449.559	954.62
449.779	914.62
450	918.62
450.221	938.62
450.442	952.62
450.662	967.62
450.883	957.62
451.104	970.62
451.324	956.62
451.545	964.62
451.766	941.62
451.986	934.62
452.207	927.62
452.428	931.62
452.648	946.62
452.869	916.62
453.089	927.62
453.31	926.62
453.53	899.62
453.751	923.62
453.971	894.62
454.192	923.62
454.412	905.62
454.633	879.62
454.853	874.62
455.073	884.62
455.294	878.62
455.514	863.62
455.734	877.62
455.955	882.62
456.175	853.62
456.395	845.62
456.616	862.62
456.836	867.62
457.056	877.62
457.276	868.62
457.497	886.62
457.717	859.62
457.937	868.62
458.157	891.62
458.377	898.62
458.598	918.62
458.818	933.62
459.038	944.62
459.258	1003.62
459.478	1032.62
459.698	1074.62
459.918	1101.62
460.138	1119.62
460.358	1185.62
460.578	1197.62
460.798	1202.62
461.018	1260.62
461.238	1203.62
461.458	1190.62
461.678	1194.62
461.898	1206.62
462.118	1211.62
462.338	1275.62
462.558	1326.62
462.777	1387.62
462.997	1492.62
463.217	1622.62
463.437	1654.62
463.657	1526.62
463.876	1428.62
464.096	1428.62
464.316	1423.62
464.536	1396.62
464.755	1401.62
464.975	1301.62
465.195	1249.62
465.414	1183.62
465.634	1096.62
465.854	1106.62
466.073	1051.62
466.293	1017.62
466.512	1004.62
466.732	996.62
466.951	989.62
467.171	978.62
467.391	980.62
467.61	989.62
467.829	974.62
468.049	986.62
468.268	927.62
468.488	921.62
468.707	933.62
468.927	922.62
469.146	943.62
469.365	962.62
469.585	971.62
469.804	983.62
470.023	997.62
470.243	1004.62
470.462	1005.62
470.681	1017.62
470.901	991.62
471.12	977.62
471.339	964.62
471.558	965.62
471.777	950.62
471.997	962.62
472.216	927.62
472.435	938.62
472.654	917.62
472.873	874.62
473.092	916.62
473.311	898.62
473.53	900.62
473.749	886.62
473.968	902.62
474.187	897.62
474.406	913.62
474.625	898.62
474.844	904.62
475.063	907.62
475.282	952.62
475.501	919.62
475.72	946.62
475.939	944.62
476.158	935.62
476.377	925.62
476.596	943.62
476.814	940.62
477.033	953.62
477.252	990.62
477.471	996.62
477.69	1013.62
477.908	1050.62
478.127	1083.62
478.346	1086.62
478.564	1081.62
478.783	1107.62
479.002	1119.62
479.22	1143.62
479.439	1168.62
479.658	1134.62
479.876	1177.62
480.095	1152.62
480.313	1207.62
480.532	1233.62
480.751	1205.62
480.969	1203.62
481.188	1153.62
481.406	1129.62
481.624	1101.62
481.843	1063.62
482.061	1067.62
482.28	1048.62
482.498	1062.62
482.717	1056.62
482.935	1046.62
483.153	1056.62
483.372	1039.62
483.59	1095.62
483.808	1054.62
484.027	1062.62
484.245	1067.62
484.463	1094.62
484.681	1110.62
484.9	1090.62
485.118	1104.62
485.336	1118.62
485.554	1148.62
485.772	1136.62
485.99	1154.62
486.209	1159.62
486.427	1140.62
486.645	1130.62
486.863	1146.62
487.081	1102.62
487.299	1138.62
487.517	1145.62
487.735	1111.62
487.953	1110.62
488.171	1127.62
488.389	1108.62
488.607	1103.62
488.825	1082.62
489.043	1108.62
489.261	1103.62
489.479	1134.62
489.696	1066.62
489.914	1120.62
490.132	1106.62
490.35	1093.62
490.568	1103.62
490.786	1107.62
491.003	1095.62
491.221	1104.62
491.439	1119.62
491.657	1115.62
491.874	1127.62
492.092	1143.62
492.31	1124.62
492.527	1126.62
492.745	1128.62
492.963	1154.62
493.18	1153.62
493.398	1126.62
493.615	1156.62
493.833	1172.62
494.05	1128.62
494.268	1147.62
494.485	1182.62
494.703	1165.62
494.92	1168.62
495.138	1165.62
495.355	1152.62
495.573	1138.62
495.79	1152.62
496.008	1156.62
496.225	1193.62
496.442	1186.62
496.66	1191.62
496.877	1191.62
