Data from Ni(NO3)2@0.125M.TitratingCurve.Agarose3%dH2O.NegLispCup.LampEnergy10.LIBS07252019_HRD10591_18-11-33-569.txt Node
Date: Thu Jul 25 18:11:33 EDT 2019
User: cochatt
Spectrometer: HR+D1059
Trigger mode: 1
Integration Time (sec): 1.000000E-1
Scans to average: 1
Electric dark correction enabled: true
Nonlinearity correction enabled: false
Boxcar width: 0
XAxis mode: Wavelengths
Number of Pixels in Spectrum: 2048
>>>>>Begin Spectral Data<<<<<
223.165	-15.94
223.4	-15.94
223.635	-15.94
223.869	-15.94
224.104	-20.94
224.338	-9.94
224.573	-18.94
224.808	-22.94
225.042	7.06
225.277	0.06
225.511	-0.94
225.746	9.06
225.98	0.06
226.215	9.06
226.449	13.06
226.683	19.06
226.918	18.06
227.152	30.06
227.387	40.06
227.621	34.06
227.856	51.06
228.09	56.06
228.324	46.06
228.559	54.06
228.793	68.06
229.027	118.06
229.262	118.06
229.496	116.06
229.73	121.06
229.964	135.06
230.199	114.06
230.433	146.06
230.667	137.06
230.901	165.06
231.136	130.06
231.37	152.06
231.604	148.06
231.838	155.06
232.072	148.06
232.306	166.06
232.541	160.06
232.775	154.06
233.009	156.06
233.243	166.06
233.477	154.06
233.711	165.06
233.945	154.06
234.179	157.06
234.413	157.06
234.647	157.06
234.881	169.06
235.115	174.06
235.349	170.06
235.583	154.06
235.817	140.06
236.051	154.06
236.285	164.06
236.519	139.06
236.753	165.06
236.987	171.06
237.221	158.06
237.455	180.06
237.689	173.06
237.922	186.06
238.156	189.06
238.39	178.06
238.624	182.06
238.858	183.06
239.091	194.06
239.325	198.06
239.559	194.06
239.793	196.06
240.027	186.06
240.26	188.06
240.494	201.06
240.728	189.06
240.961	195.06
241.195	204.06
241.429	209.06
241.662	215.06
241.896	205.06
242.13	200.06
242.363	200.06
242.597	221.06
242.83	209.06
243.064	201.06
243.298	218.06
243.531	209.06
243.765	215.06
243.998	219.06
244.232	220.06
244.465	242.06
244.699	222.06
244.932	236.06
245.166	245.06
245.399	232.06
245.633	238.06
245.866	236.06
246.099	244.06
246.333	234.06
246.566	240.06
246.8	241.06
247.033	240.06
247.266	238.06
247.5	236.06
247.733	246.06
247.966	257.06
248.2	259.06
248.433	256.06
248.666	248.06
248.899	256.06
249.133	266.06
249.366	262.06
249.599	277.06
249.832	256.06
250.066	291.06
250.299	267.06
250.532	288.06
250.765	307.06
250.998	283.06
251.231	285.06
251.465	290.06
251.698	285.06
251.931	311.06
252.164	281.06
252.397	294.06
252.63	306.06
252.863	299.06
253.096	296.06
253.329	307.06
253.562	292.06
253.795	297.06
254.028	321.06
254.261	307.06
254.494	305.06
254.727	304.06
254.96	301.06
255.193	323.06
255.426	309.06
255.659	339.06
255.892	320.06
256.124	321.06
256.357	325.06
256.59	332.06
256.823	325.06
257.056	331.06
257.289	334.06
257.521	360.06
257.754	334.06
257.987	338.06
258.22	333.06
258.452	345.06
258.685	323.06
258.918	357.06
259.151	333.06
259.383	347.06
259.616	339.06
259.849	345.06
260.081	344.06
260.314	349.06
260.547	338.06
260.779	354.06
261.012	347.06
261.244	355.06
261.477	354.06
261.71	368.06
261.942	375.06
262.175	368.06
262.407	350.06
262.64	351.06
262.872	350.06
263.105	364.06
263.337	387.06
263.57	369.06
263.802	380.06
264.035	386.06
264.267	371.06
264.499	374.06
264.732	387.06
264.964	404.06
265.197	389.06
265.429	391.06
265.661	397.06
265.894	400.06
266.126	398.06
266.358	396.06
266.591	403.06
266.823	380.06
267.055	371.06
267.287	412.06
267.52	407.06
267.752	411.06
267.984	404.06
268.216	407.06
268.448	425.06
268.681	432.06
268.913	419.06
269.145	404.06
269.377	423.06
269.609	403.06
269.841	430.06
270.073	414.06
270.306	418.06
270.538	394.06
270.77	456.06
271.002	431.06
271.234	417.06
271.466	434.06
271.698	436.06
271.93	438.06
272.162	445.06
272.394	436.06
272.626	432.06
272.858	448.06
273.09	453.06
273.322	460.06
273.553	476.06
273.785	455.06
274.017	445.06
274.249	456.06
274.481	467.06
274.713	471.06
274.945	475.06
275.176	455.06
275.408	461.06
275.64	460.06
275.872	465.06
276.104	462.06
276.335	461.06
276.567	477.06
276.799	486.06
277.031	471.06
277.262	473.06
277.494	462.06
277.726	482.06
277.957	478.06
278.189	498.06
278.421	476.06
278.652	483.06
278.884	500.06
279.115	505.06
279.347	489.06
279.579	501.06
279.81	490.06
280.042	471.06
280.273	502.06
280.505	521.06
280.736	497.06
280.968	499.06
281.199	503.06
281.431	512.06
281.662	524.06
281.894	524.06
282.125	522.06
282.356	540.06
282.588	535.06
282.819	550.06
283.051	532.06
283.282	525.06
283.513	535.06
283.745	527.06
283.976	532.06
284.207	530.06
284.439	539.06
284.67	569.06
284.901	549.06
285.132	530.06
285.364	549.06
285.595	546.06
285.826	539.06
286.057	573.06
286.288	558.06
286.52	555.06
286.751	580.06
286.982	564.06
287.213	572.06
287.444	565.06
287.675	589.06
287.906	589.06
288.138	557.06
288.369	581.06
288.6	592.06
288.831	574.06
289.062	564.06
289.293	564.06
289.524	555.06
289.755	584.06
289.986	605.06
290.217	586.06
290.448	597.06
290.679	590.06
290.91	593.06
291.141	597.06
291.371	618.06
291.602	589.06
291.833	566.06
292.064	584.06
292.295	613.06
292.526	580.06
292.757	599.06
292.987	569.06
293.218	586.06
293.449	593.06
293.68	588.06
293.91	600.06
294.141	608.06
294.372	600.06
294.603	586.06
294.833	597.06
295.064	594.06
295.295	619.06
295.525	587.06
295.756	612.06
295.987	596.06
296.217	603.06
296.448	602.06
296.679	613.06
296.909	613.06
297.14	644.06
297.37	618.06
297.601	611.06
297.831	648.06
298.062	646.06
298.292	634.06
298.523	653.06
298.753	674.06
298.984	662.06
299.214	642.06
299.445	651.06
299.675	625.06
299.905	630.06
300.136	640.06
300.366	636.06
300.597	653.06
300.827	663.06
301.057	669.06
301.288	696.06
301.518	661.06
301.748	681.06
301.979	696.06
302.209	703.06
302.439	667.06
302.669	667.06
302.9	669.06
303.13	679.06
303.36	637.06
303.59	657.06
303.82	663.06
304.051	657.06
304.281	659.06
304.511	662.06
304.741	673.06
304.971	691.06
305.201	667.06
305.431	668.06
305.661	646.06
305.891	632.06
306.121	662.06
306.352	663.06
306.582	662.06
306.812	649.06
307.042	664.06
307.272	642.06
307.502	653.06
307.731	665.06
307.961	678.06
308.191	649.06
308.421	661.06
308.651	653.06
308.881	632.06
309.111	642.06
309.341	642.06
309.571	652.06
309.8	688.06
310.03	669.06
310.26	642.06
310.49	690.06
310.72	676.06
310.949	665.06
311.179	672.06
311.409	683.06
311.639	670.06
311.868	693.06
312.098	700.06
312.328	690.06
312.557	691.06
312.787	672.06
313.017	694.06
313.246	700.06
313.476	715.06
313.706	724.06
313.935	711.06
314.165	704.06
314.394	738.06
314.624	722.06
314.853	726.06
315.083	702.06
315.312	693.06
315.542	686.06
315.771	693.06
316.001	690.06
316.23	694.06
316.46	715.06
316.689	696.06
316.919	691.06
317.148	698.06
317.377	710.06
317.607	710.06
317.836	724.06
318.065	706.06
318.295	690.06
318.524	667.06
318.753	678.06
318.983	710.06
319.212	730.06
319.441	694.06
319.67	701.06
319.9	694.06
320.129	685.06
320.358	690.06
320.587	712.06
320.816	713.06
321.046	704.06
321.275	705.06
321.504	704.06
321.733	719.06
321.962	696.06
322.191	676.06
322.42	727.06
322.649	703.06
322.878	717.06
323.108	697.06
323.337	736.06
323.566	725.06
323.795	741.06
324.024	698.06
324.253	717.06
324.482	722.06
324.71	731.06
324.939	735.06
325.168	725.06
325.397	728.06
325.626	743.06
325.855	761.06
326.084	737.06
326.313	791.06
326.542	759.06
326.77	787.06
326.999	743.06
327.228	740.06
327.457	737.06
327.686	754.06
327.914	776.06
328.143	768.06
328.372	794.06
328.6	764.06
328.829	802.06
329.058	768.06
329.287	792.06
329.515	793.06
329.744	766.06
329.972	818.06
330.201	802.06
330.43	792.06
330.658	788.06
330.887	792.06
331.115	812.06
331.344	825.06
331.572	797.06
331.801	869.06
332.03	854.06
332.258	856.06
332.486	904.06
332.715	933.06
332.943	992.06
333.172	1003.06
333.4	1052.06
333.629	1076.06
333.857	1091.06
334.085	1078.06
334.314	1053.06
334.542	1020.06
334.771	1028.06
334.999	1019.06
335.227	970.06
335.455	972.06
335.684	982.06
335.912	955.06
336.14	930.06
336.369	944.06
336.597	942.06
336.825	944.06
337.053	934.06
337.281	919.06
337.51	892.06
337.738	903.06
337.966	876.06
338.194	866.06
338.422	842.06
338.65	879.06
338.878	832.06
339.106	839.06
339.334	858.06
339.562	848.06
339.79	829.06
340.018	833.06
340.246	813.06
340.474	820.06
340.702	796.06
340.93	835.06
341.158	826.06
341.386	831.06
341.614	828.06
341.842	822.06
342.07	803.06
342.298	785.06
342.526	767.06
342.754	790.06
342.981	829.06
343.209	802.06
343.437	887.06
343.665	942.06
343.893	997.06
344.12	1064.06
344.348	971.06
344.576	910.06
344.804	876.06
345.031	852.06
345.259	842.06
345.487	809.06
345.714	827.06
345.942	810.06
346.17	786.06
346.397	814.06
346.625	786.06
346.853	790.06
347.08	789.06
347.308	800.06
347.535	818.06
347.763	824.06
347.99	816.06
348.218	807.06
348.445	809.06
348.673	790.06
348.9	779.06
349.128	797.06
349.355	758.06
349.583	758.06
349.81	750.06
350.037	762.06
350.265	753.06
350.492	770.06
350.72	752.06
350.947	772.06
351.174	757.06
351.402	757.06
351.629	748.06
351.856	770.06
352.083	752.06
352.311	724.06
352.538	754.06
352.765	743.06
352.992	734.06
353.22	769.06
353.447	742.06
353.674	744.06
353.901	742.06
354.128	748.06
354.355	763.06
354.583	766.06
354.81	779.06
355.037	779.06
355.264	779.06
355.491	772.06
355.718	746.06
355.945	771.06
356.172	794.06
356.399	754.06
356.626	756.06
356.853	746.06
357.08	741.06
357.307	772.06
357.534	766.06
357.761	758.06
357.988	747.06
358.215	762.06
358.441	735.06
358.668	732.06
358.895	748.06
359.122	768.06
359.349	748.06
359.576	766.06
359.802	763.06
360.029	777.06
360.256	750.06
360.483	743.06
360.709	755.06
360.936	756.06
361.163	746.06
361.39	747.06
361.616	788.06
361.843	759.06
362.07	741.06
362.296	754.06
362.523	748.06
362.749	761.06
362.976	758.06
363.203	730.06
363.429	728.06
363.656	773.06
363.882	730.06
364.109	741.06
364.335	739.06
364.562	737.06
364.788	753.06
365.015	760.06
365.241	739.06
365.468	730.06
365.694	757.06
365.92	767.06
366.147	766.06
366.373	745.06
366.599	755.06
366.826	724.06
367.052	724.06
367.278	772.06
367.505	770.06
367.731	755.06
367.957	733.06
368.184	750.06
368.41	750.06
368.636	781.06
368.862	786.06
369.089	770.06
369.315	770.06
369.541	792.06
369.767	810.06
369.993	794.06
370.219	797.06
370.445	792.06
370.672	805.06
370.898	801.06
371.124	823.06
371.35	841.06
371.576	833.06
371.802	829.06
372.028	826.06
372.254	818.06
372.48	842.06
372.706	862.06
372.932	869.06
373.158	858.06
373.384	834.06
373.61	828.06
373.835	842.06
374.061	835.06
374.287	827.06
374.513	856.06
374.739	867.06
374.965	915.06
375.191	930.06
375.416	934.06
375.642	910.06
375.868	871.06
376.094	840.06
376.319	847.06
376.545	862.06
376.771	843.06
376.997	852.06
377.222	828.06
377.448	828.06
377.674	826.06
377.899	830.06
378.125	806.06
378.35	835.06
378.576	823.06
378.802	792.06
379.027	813.06
379.253	794.06
379.478	789.06
379.704	813.06
379.929	821.06
380.155	813.06
380.38	812.06
380.606	799.06
380.831	812.06
381.057	804.06
381.282	823.06
381.507	837.06
381.733	832.06
381.958	826.06
382.184	853.06
382.409	852.06
382.634	855.06
382.86	887.06
383.085	890.06
383.31	923.06
383.535	922.06
383.761	940.06
383.986	944.06
384.211	969.06
384.436	979.06
384.662	985.06
384.887	1019.06
385.112	994.06
385.337	1017.06
385.562	1006.06
385.787	1001.06
386.013	993.06
386.238	993.06
386.463	1012.06
386.688	998.06
386.913	988.06
387.138	981.06
387.363	1025.06
387.588	984.06
387.813	987.06
388.038	1003.06
388.263	1008.06
388.488	996.06
388.713	991.06
388.938	988.06
389.163	970.06
389.387	981.06
389.612	969.06
389.837	987.06
390.062	982.06
390.287	981.06
390.512	953.06
390.736	984.06
390.961	1014.06
391.186	1030.06
391.411	1055.06
391.636	1069.06
391.86	1107.06
392.085	1144.06
392.31	1123.06
392.534	1099.06
392.759	1070.06
392.984	1076.06
393.208	1060.06
393.433	1033.06
393.658	1076.06
393.882	1052.06
394.107	1060.06
394.331	1052.06
394.556	1069.06
394.78	1073.06
395.005	1079.06
395.229	1099.06
395.454	1113.06
395.678	1135.06
395.903	1117.06
396.127	1110.06
396.352	1062.06
396.576	1036.06
396.801	1063.06
397.025	1078.06
397.249	1063.06
397.474	1122.06
397.698	1122.06
397.922	1121.06
398.147	1116.06
398.371	1130.06
398.595	1168.06
398.82	1213.06
399.044	1330.06
399.268	1456.06
399.492	1738.06
399.717	2000.06
399.941	1956.06
400.165	1724.06
400.389	1572.06
400.613	1394.06
400.837	1311.06
401.062	1253.06
401.286	1246.06
401.51	1259.06
401.734	1247.06
401.958	1272.06
402.182	1270.06
402.406	1303.06
402.63	1319.06
402.854	1333.06
403.078	1385.06
403.302	1409.06
403.526	1422.06
403.75	1435.06
403.974	1489.06
404.198	1498.06
404.422	1533.06
404.645	1522.06
404.869	1463.06
405.093	1496.06
405.317	1417.06
405.541	1408.06
405.765	1400.06
405.988	1342.06
406.212	1400.06
406.436	1394.06
406.66	1429.06
406.883	1438.06
407.107	1537.06
407.331	1630.06
407.555	1652.06
407.778	1644.06
408.002	1620.06
408.226	1560.06
408.449	1487.06
408.673	1460.06
408.896	1440.06
409.12	1402.06
409.344	1441.06
409.567	1456.06
409.791	1434.06
410.014	1433.06
410.238	1390.06
410.461	1403.06
410.685	1380.06
410.908	1387.06
411.132	1350.06
411.355	1342.06
411.578	1318.06
411.802	1286.06
412.025	1344.06
412.249	1334.06
412.472	1307.06
412.695	1290.06
412.919	1284.06
413.142	1288.06
413.365	1285.06
413.589	1281.06
413.812	1266.06
414.035	1233.06
414.258	1235.06
414.482	1255.06
414.705	1279.06
414.928	1294.06
415.151	1269.06
415.374	1287.06
415.597	1259.06
415.821	1227.06
416.044	1196.06
416.267	1228.06
416.49	1254.06
416.713	1218.06
416.936	1224.06
417.159	1225.06
417.382	1223.06
417.605	1230.06
417.828	1204.06
418.051	1257.06
418.274	1276.06
418.497	1261.06
418.72	1288.06
418.943	1287.06
419.166	1362.06
419.389	1426.06
419.611	1422.06
419.834	1314.06
420.057	1298.06
420.28	1260.06
420.503	1210.06
420.726	1201.06
420.948	1245.06
421.171	1249.06
421.394	1234.06
421.617	1220.06
421.839	1270.06
422.062	1241.06
422.285	1240.06
422.507	1290.06
422.73	1291.06
422.953	1303.06
423.175	1300.06
423.398	1354.06
423.621	1313.06
423.843	1361.06
424.066	1358.06
424.288	1324.06
424.511	1295.06
424.733	1340.06
424.956	1286.06
425.178	1278.06
425.401	1264.06
425.623	1244.06
425.846	1206.06
426.068	1188.06
426.291	1156.06
426.513	1173.06
426.735	1174.06
426.958	1161.06
427.18	1114.06
427.402	1097.06
427.625	1130.06
427.847	1106.06
428.069	1106.06
428.292	1124.06
428.514	1107.06
428.736	1083.06
428.958	1087.06
429.181	1080.06
429.403	1062.06
429.625	1051.06
429.847	1085.06
430.069	1058.06
430.292	1094.06
430.514	1053.06
430.736	1074.06
430.958	1091.06
431.18	1072.06
431.402	1073.06
431.624	1075.06
431.846	1095.06
432.068	1118.06
432.29	1122.06
432.512	1109.06
432.734	1107.06
432.956	1089.06
433.178	1099.06
433.4	1133.06
433.622	1124.06
433.844	1152.06
434.066	1129.06
434.287	1114.06
434.509	1165.06
434.731	1252.06
434.953	1243.06
435.175	1245.06
435.397	1258.06
435.618	1193.06
435.84	1151.06
436.062	1094.06
436.284	1125.06
436.505	1100.06
436.727	1082.06
436.949	1125.06
437.17	1113.06
437.392	1082.06
437.614	1073.06
437.835	1035.06
438.057	1062.06
438.278	1057.06
438.5	1033.06
438.721	1067.06
438.943	1083.06
439.165	1064.06
439.386	1056.06
439.608	1095.06
439.829	1065.06
440.05	1093.06
440.272	1104.06
440.493	1102.06
440.715	1143.06
440.936	1154.06
441.158	1152.06
441.379	1184.06
441.6	1261.06
441.822	1275.06
442.043	1278.06
442.264	1232.06
442.486	1216.06
442.707	1237.06
442.928	1210.06
443.149	1223.06
443.371	1200.06
443.592	1235.06
443.813	1243.06
444.034	1265.06
444.255	1308.06
444.476	1372.06
444.698	1464.06
444.919	1508.06
445.14	1557.06
445.361	1407.06
445.582	1282.06
445.803	1203.06
446.024	1170.06
446.245	1186.06
446.466	1141.06
446.687	1113.06
446.908	1122.06
447.129	1104.06
447.35	1063.06
447.571	1075.06
447.792	1018.06
448.013	1042.06
448.234	982.06
448.455	996.06
448.675	999.06
448.896	1016.06
449.117	979.06
449.338	1028.06
449.559	970.06
449.779	1006.06
450	971.06
450.221	999.06
450.442	982.06
450.662	1007.06
450.883	1022.06
451.104	1049.06
451.324	1032.06
451.545	1016.06
451.766	1004.06
451.986	974.06
452.207	1012.06
452.428	1023.06
452.648	1012.06
452.869	976.06
453.089	964.06
453.31	991.06
453.53	985.06
453.751	998.06
453.971	968.06
454.192	958.06
454.412	951.06
454.633	933.06
454.853	943.06
455.073	933.06
455.294	960.06
455.514	950.06
455.734	935.06
455.955	904.06
456.175	926.06
456.395	924.06
456.616	917.06
456.836	917.06
457.056	952.06
457.276	916.06
457.497	911.06
457.717	915.06
457.937	964.06
458.157	941.06
458.377	973.06
458.598	974.06
458.818	1012.06
459.038	1049.06
459.258	1052.06
459.478	1113.06
459.698	1152.06
459.918	1176.06
460.138	1226.06
460.358	1282.06
460.578	1280.06
460.798	1324.06
461.018	1320.06
461.238	1280.06
461.458	1269.06
461.678	1297.06
461.898	1311.06
462.118	1332.06
462.338	1396.06
462.558	1404.06
462.777	1417.06
462.997	1639.06
463.217	1789.06
463.437	1806.06
463.657	1627.06
463.876	1537.06
464.096	1547.06
464.316	1577.06
464.536	1558.06
464.755	1496.06
464.975	1448.06
465.195	1355.06
465.414	1267.06
465.634	1164.06
465.854	1176.06
466.073	1104.06
466.293	1102.06
466.512	1047.06
466.732	1076.06
466.951	1045.06
467.171	1011.06
467.391	1076.06
467.61	1065.06
467.829	1033.06
468.049	1043.06
468.268	1026.06
468.488	993.06
468.707	997.06
468.927	988.06
469.146	969.06
469.365	1026.06
469.585	1012.06
469.804	1056.06
470.023	1068.06
470.243	1089.06
470.462	1112.06
470.681	1109.06
470.901	1113.06
471.12	1072.06
471.339	1058.06
471.558	1049.06
471.777	1032.06
471.997	1024.06
472.216	1032.06
472.435	990.06
472.654	954.06
472.873	997.06
473.092	994.06
473.311	972.06
473.53	984.06
473.749	960.06
473.968	990.06
474.187	968.06
474.406	929.06
474.625	987.06
474.844	980.06
475.063	988.06
475.282	982.06
475.501	969.06
475.72	1001.06
475.939	995.06
476.158	1028.06
476.377	1013.06
476.596	1030.06
476.814	1032.06
477.033	1036.06
477.252	1073.06
477.471	1064.06
477.69	1086.06
477.908	1121.06
478.127	1142.06
478.346	1160.06
478.564	1180.06
478.783	1185.06
479.002	1258.06
479.22	1219.06
479.439	1248.06
479.658	1224.06
479.876	1238.06
480.095	1256.06
480.313	1276.06
480.532	1346.06
480.751	1331.06
480.969	1268.06
481.188	1212.06
481.406	1194.06
481.624	1150.06
481.843	1158.06
482.061	1134.06
482.28	1111.06
482.498	1122.06
482.717	1072.06
482.935	1115.06
483.153	1121.06
483.372	1098.06
483.59	1109.06
483.808	1149.06
484.027	1106.06
484.245	1151.06
484.463	1133.06
484.681	1150.06
484.9	1156.06
485.118	1164.06
485.336	1180.06
485.554	1177.06
485.772	1201.06
485.99	1182.06
486.209	1184.06
486.427	1180.06
486.645	1160.06
486.863	1202.06
487.081	1202.06
487.299	1165.06
487.517	1170.06
487.735	1184.06
487.953	1196.06
488.171	1192.06
488.389	1167.06
488.607	1175.06
488.825	1159.06
489.043	1177.06
489.261	1174.06
489.479	1189.06
489.696	1187.06
489.914	1181.06
490.132	1195.06
490.35	1163.06
490.568	1194.06
490.786	1158.06
491.003	1172.06
491.221	1216.06
491.439	1158.06
491.657	1179.06
491.874	1188.06
492.092	1190.06
492.31	1188.06
492.527	1182.06
492.745	1239.06
492.963	1203.06
493.18	1220.06
493.398	1180.06
493.615	1209.06
493.833	1237.06
494.05	1217.06
494.268	1207.06
494.485	1196.06
494.703	1237.06
494.92	1248.06
495.138	1217.06
495.355	1212.06
495.573	1213.06
