Data from Ni(NO3)2Standard.Agarose3%.GreenCap.LampEnergy5.5.E.O_HRD10591_14-42-04-188.txt Node
Date: Mon Jul 22 14:42:04 EDT 2019
User: cochatt
Spectrometer: HR+D1059
Trigger mode: 1
Integration Time (sec): 1.000000E-1
Scans to average: 1
Electric dark correction enabled: true
Nonlinearity correction enabled: false
Boxcar width: 0
XAxis mode: Wavelengths
Number of Pixels in Spectrum: 2048
>>>>>Begin Spectral Data<<<<<
223.165	-9.5
223.4	-9.5
223.635	-9.5
223.869	-7.5
224.104	-23.5
224.338	-15.5
224.573	-20.5
224.808	-18.5
225.042	0.5
225.277	-3.5
225.511	-12.5
225.746	-10.5
225.98	4.5
226.215	20.5
226.449	24.5
226.683	21.5
226.918	21.5
227.152	28.5
227.387	38.5
227.621	31.5
227.856	50.5
228.09	49.5
228.324	63.5
228.559	58.5
228.793	52.5
229.027	68.5
229.262	69.5
229.496	66.5
229.73	72.5
229.964	62.5
230.199	75.5
230.433	82.5
230.667	75.5
230.901	88.5
231.136	74.5
231.37	93.5
231.604	82.5
231.838	75.5
232.072	86.5
232.306	90.5
232.541	82.5
232.775	78.5
233.009	82.5
233.243	72.5
233.477	99.5
233.711	87.5
233.945	78.5
234.179	85.5
234.413	79.5
234.647	90.5
234.881	78.5
235.115	80.5
235.349	73.5
235.583	68.5
235.817	71.5
236.051	79.5
236.285	80.5
236.519	79.5
236.753	93.5
236.987	80.5
237.221	74.5
237.455	84.5
237.689	84.5
237.922	75.5
238.156	83.5
238.39	80.5
238.624	77.5
238.858	80.5
239.091	74.5
239.325	92.5
239.559	79.5
239.793	80.5
240.027	92.5
240.26	75.5
240.494	78.5
240.728	82.5
240.961	80.5
241.195	77.5
241.429	71.5
241.662	83.5
241.896	80.5
242.13	88.5
242.363	90.5
242.597	72.5
242.83	69.5
243.064	67.5
243.298	94.5
243.531	72.5
243.765	74.5
243.998	70.5
244.232	69.5
244.465	67.5
244.699	69.5
244.932	85.5
245.166	74.5
245.399	85.5
245.633	86.5
245.866	75.5
246.099	71.5
246.333	80.5
246.566	75.5
246.8	76.5
247.033	82.5
247.266	75.5
247.5	81.5
247.733	81.5
247.966	80.5
248.2	94.5
248.433	86.5
248.666	83.5
248.899	79.5
249.133	92.5
249.366	87.5
249.599	79.5
249.832	87.5
250.066	83.5
250.299	71.5
250.532	90.5
250.765	71.5
250.998	73.5
251.231	71.5
251.465	87.5
251.698	62.5
251.931	80.5
252.164	99.5
252.397	87.5
252.63	83.5
252.863	83.5
253.096	87.5
253.329	87.5
253.562	98.5
253.795	76.5
254.028	71.5
254.261	92.5
254.494	86.5
254.727	78.5
254.96	78.5
255.193	76.5
255.426	87.5
255.659	76.5
255.892	80.5
256.124	96.5
256.357	91.5
256.59	85.5
256.823	73.5
257.056	80.5
257.289	91.5
257.521	92.5
257.754	86.5
257.987	83.5
258.22	68.5
258.452	90.5
258.685	95.5
258.918	85.5
259.151	81.5
259.383	68.5
259.616	69.5
259.849	88.5
260.081	90.5
260.314	84.5
260.547	74.5
260.779	79.5
261.012	85.5
261.244	89.5
261.477	72.5
261.71	82.5
261.942	88.5
262.175	95.5
262.407	76.5
262.64	85.5
262.872	94.5
263.105	80.5
263.337	81.5
263.57	87.5
263.802	75.5
264.035	90.5
264.267	78.5
264.499	80.5
264.732	84.5
264.964	95.5
265.197	86.5
265.429	94.5
265.661	78.5
265.894	78.5
266.126	92.5
266.358	81.5
266.591	76.5
266.823	91.5
267.055	99.5
267.287	95.5
267.52	86.5
267.752	83.5
267.984	74.5
268.216	74.5
268.448	85.5
268.681	76.5
268.913	89.5
269.145	90.5
269.377	85.5
269.609	88.5
269.841	81.5
270.073	96.5
270.306	90.5
270.538	94.5
270.77	78.5
271.002	84.5
271.234	88.5
271.466	87.5
271.698	91.5
271.93	77.5
272.162	85.5
272.394	83.5
272.626	79.5
272.858	101.5
273.09	90.5
273.322	103.5
273.553	87.5
273.785	87.5
274.017	99.5
274.249	85.5
274.481	90.5
274.713	89.5
274.945	87.5
275.176	78.5
275.408	77.5
275.64	68.5
275.872	89.5
276.104	88.5
276.335	73.5
276.567	81.5
276.799	83.5
277.031	66.5
277.262	96.5
277.494	85.5
277.726	68.5
277.957	86.5
278.189	94.5
278.421	94.5
278.652	93.5
278.884	64.5
279.115	76.5
279.347	77.5
279.579	91.5
279.81	84.5
280.042	71.5
280.273	87.5
280.505	95.5
280.736	82.5
280.968	100.5
281.199	75.5
281.431	81.5
281.662	100.5
281.894	71.5
282.125	81.5
282.356	86.5
282.588	81.5
282.819	78.5
283.051	84.5
283.282	92.5
283.513	98.5
283.745	81.5
283.976	78.5
284.207	67.5
284.439	85.5
284.67	87.5
284.901	78.5
285.132	90.5
285.364	91.5
285.595	88.5
285.826	80.5
286.057	78.5
286.288	95.5
286.52	90.5
286.751	80.5
286.982	96.5
287.213	86.5
287.444	74.5
287.675	76.5
287.906	91.5
288.138	87.5
288.369	86.5
288.6	79.5
288.831	91.5
289.062	104.5
289.293	99.5
289.524	88.5
289.755	85.5
289.986	85.5
290.217	72.5
290.448	94.5
290.679	88.5
290.91	66.5
291.141	89.5
291.371	85.5
291.602	82.5
291.833	77.5
292.064	84.5
292.295	91.5
292.526	94.5
292.757	84.5
292.987	86.5
293.218	97.5
293.449	99.5
293.68	91.5
293.91	86.5
294.141	88.5
294.372	87.5
294.603	79.5
294.833	85.5
295.064	94.5
295.295	90.5
295.525	87.5
295.756	89.5
295.987	80.5
296.217	81.5
296.448	72.5
296.679	78.5
296.909	81.5
297.14	100.5
297.37	95.5
297.601	93.5
297.831	87.5
298.062	87.5
298.292	90.5
298.523	95.5
298.753	100.5
298.984	91.5
299.214	98.5
299.445	93.5
299.675	92.5
299.905	84.5
300.136	87.5
300.366	70.5
300.597	97.5
300.827	77.5
301.057	97.5
301.288	82.5
301.518	84.5
301.748	101.5
301.979	77.5
302.209	78.5
302.439	84.5
302.669	79.5
302.9	87.5
303.13	103.5
303.36	86.5
303.59	92.5
303.82	84.5
304.051	83.5
304.281	88.5
304.511	103.5
304.741	92.5
304.971	92.5
305.201	88.5
305.431	67.5
305.661	84.5
305.891	95.5
306.121	85.5
306.352	93.5
306.582	102.5
306.812	84.5
307.042	86.5
307.272	83.5
307.502	99.5
307.731	77.5
307.961	84.5
308.191	94.5
308.421	87.5
308.651	103.5
308.881	96.5
309.111	85.5
309.341	86.5
309.571	94.5
309.8	93.5
310.03	95.5
310.26	85.5
310.49	86.5
310.72	94.5
310.949	89.5
311.179	89.5
311.409	98.5
311.639	77.5
311.868	86.5
312.098	88.5
312.328	91.5
312.557	85.5
312.787	86.5
313.017	86.5
313.246	88.5
313.476	88.5
313.706	95.5
313.935	90.5
314.165	81.5
314.394	95.5
314.624	78.5
314.853	84.5
315.083	86.5
315.312	81.5
315.542	89.5
315.771	90.5
316.001	86.5
316.23	90.5
316.46	73.5
316.689	91.5
316.919	94.5
317.148	86.5
317.377	89.5
317.607	94.5
317.836	90.5
318.065	78.5
318.295	72.5
318.524	85.5
318.753	90.5
318.983	96.5
319.212	99.5
319.441	104.5
319.67	97.5
319.9	83.5
320.129	89.5
320.358	94.5
320.587	91.5
320.816	71.5
321.046	96.5
321.275	102.5
321.504	77.5
321.733	75.5
321.962	93.5
322.191	90.5
322.42	81.5
322.649	90.5
322.878	85.5
323.108	99.5
323.337	91.5
323.566	94.5
323.795	82.5
324.024	89.5
324.253	83.5
324.482	91.5
324.71	72.5
324.939	100.5
325.168	96.5
325.397	91.5
325.626	95.5
325.855	90.5
326.084	78.5
326.313	92.5
326.542	90.5
326.77	83.5
326.999	80.5
327.228	97.5
327.457	92.5
327.686	97.5
327.914	106.5
328.143	93.5
328.372	101.5
328.6	94.5
328.829	90.5
329.058	91.5
329.287	95.5
329.515	90.5
329.744	86.5
329.972	84.5
330.201	101.5
330.43	85.5
330.658	94.5
330.887	92.5
331.115	88.5
331.344	84.5
331.572	89.5
331.801	86.5
332.03	86.5
332.258	101.5
332.486	76.5
332.715	96.5
332.943	93.5
333.172	77.5
333.4	86.5
333.629	97.5
333.857	93.5
334.085	86.5
334.314	92.5
334.542	92.5
334.771	90.5
334.999	90.5
335.227	86.5
335.455	92.5
335.684	91.5
335.912	101.5
336.14	96.5
336.369	102.5
336.597	96.5
336.825	77.5
337.053	91.5
337.281	88.5
337.51	85.5
337.738	83.5
337.966	91.5
338.194	72.5
338.422	82.5
338.65	85.5
338.878	87.5
339.106	92.5
339.334	85.5
339.562	93.5
339.79	84.5
340.018	79.5
340.246	80.5
340.474	78.5
340.702	101.5
340.93	75.5
341.158	100.5
341.386	83.5
341.614	85.5
341.842	99.5
342.07	89.5
342.298	96.5
342.526	85.5
342.754	118.5
342.981	82.5
343.209	87.5
343.437	94.5
343.665	88.5
343.893	91.5
344.12	87.5
344.348	90.5
344.576	87.5
344.804	86.5
345.031	95.5
345.259	91.5
345.487	84.5
345.714	76.5
345.942	80.5
346.17	85.5
346.397	84.5
346.625	102.5
346.853	95.5
347.08	81.5
347.308	85.5
347.535	93.5
347.763	78.5
347.99	67.5
348.218	98.5
348.445	92.5
348.673	86.5
348.9	86.5
349.128	77.5
349.355	87.5
349.583	80.5
349.81	95.5
350.037	84.5
350.265	78.5
350.492	87.5
350.72	81.5
350.947	94.5
351.174	79.5
351.402	89.5
351.629	92.5
351.856	85.5
352.083	82.5
352.311	88.5
352.538	86.5
352.765	88.5
352.992	91.5
353.22	89.5
353.447	91.5
353.674	99.5
353.901	84.5
354.128	90.5
354.355	88.5
354.583	91.5
354.81	82.5
355.037	84.5
355.264	79.5
355.491	91.5
355.718	81.5
355.945	94.5
356.172	94.5
356.399	106.5
356.626	90.5
356.853	91.5
357.08	98.5
357.307	90.5
357.534	94.5
357.761	90.5
357.988	91.5
358.215	83.5
358.441	93.5
358.668	81.5
358.895	80.5
359.122	81.5
359.349	92.5
359.576	93.5
359.802	76.5
360.029	84.5
360.256	87.5
360.483	101.5
360.709	82.5
360.936	91.5
361.163	92.5
361.39	84.5
361.616	88.5
361.843	88.5
362.07	85.5
362.296	74.5
362.523	88.5
362.749	86.5
362.976	83.5
363.203	100.5
363.429	93.5
363.656	95.5
363.882	92.5
364.109	93.5
364.335	97.5
364.562	94.5
364.788	95.5
365.015	97.5
365.241	103.5
365.468	93.5
365.694	93.5
365.92	83.5
366.147	85.5
366.373	83.5
366.599	101.5
366.826	98.5
367.052	87.5
367.278	93.5
367.505	83.5
367.731	78.5
367.957	74.5
368.184	83.5
368.41	86.5
368.636	99.5
368.862	82.5
369.089	95.5
369.315	92.5
369.541	86.5
369.767	74.5
369.993	77.5
370.219	80.5
370.445	89.5
370.672	88.5
370.898	82.5
371.124	82.5
371.35	91.5
371.576	89.5
371.802	80.5
372.028	86.5
372.254	87.5
372.48	88.5
372.706	96.5
372.932	99.5
373.158	86.5
373.384	90.5
373.61	77.5
373.835	73.5
374.061	92.5
374.287	91.5
374.513	92.5
374.739	81.5
374.965	77.5
375.191	80.5
375.416	87.5
375.642	92.5
375.868	93.5
376.094	90.5
376.319	79.5
376.545	81.5
376.771	93.5
376.997	73.5
377.222	75.5
377.448	88.5
377.674	79.5
377.899	100.5
378.125	84.5
378.35	89.5
378.576	83.5
378.802	84.5
379.027	91.5
379.253	86.5
379.478	88.5
379.704	78.5
379.929	90.5
380.155	84.5
380.38	95.5
380.606	85.5
380.831	77.5
381.057	99.5
381.282	77.5
381.507	95.5
381.733	94.5
381.958	93.5
382.184	80.5
382.409	90.5
382.634	87.5
382.86	90.5
383.085	89.5
383.31	97.5
383.535	86.5
383.761	95.5
383.986	97.5
384.211	94.5
384.436	91.5
384.662	76.5
384.887	77.5
385.112	90.5
385.337	86.5
385.562	98.5
385.787	95.5
386.013	86.5
386.238	98.5
386.463	104.5
386.688	84.5
386.913	88.5
387.138	105.5
387.363	90.5
387.588	86.5
387.813	95.5
388.038	86.5
388.263	102.5
388.488	84.5
388.713	85.5
388.938	92.5
389.163	96.5
389.387	85.5
389.612	77.5
389.837	91.5
390.062	95.5
390.287	100.5
390.512	94.5
390.736	92.5
390.961	84.5
391.186	79.5
391.411	76.5
391.636	90.5
391.86	83.5
392.085	91.5
392.31	92.5
392.534	82.5
392.759	91.5
392.984	90.5
393.208	99.5
393.433	77.5
393.658	83.5
393.882	86.5
394.107	87.5
394.331	80.5
394.556	99.5
394.78	85.5
395.005	82.5
395.229	89.5
395.454	96.5
395.678	103.5
395.903	93.5
396.127	97.5
396.352	85.5
396.576	107.5
396.801	91.5
397.025	91.5
397.249	95.5
397.474	90.5
397.698	101.5
397.922	79.5
398.147	71.5
398.371	91.5
398.595	93.5
398.82	91.5
399.044	83.5
399.268	95.5
399.492	87.5
399.717	92.5
399.941	86.5
400.165	81.5
400.389	90.5
400.613	88.5
400.837	76.5
401.062	85.5
401.286	93.5
401.51	96.5
401.734	76.5
401.958	82.5
402.182	92.5
402.406	89.5
402.63	85.5
402.854	89.5
403.078	86.5
403.302	90.5
403.526	91.5
403.75	87.5
403.974	94.5
404.198	95.5
404.422	94.5
404.645	88.5
404.869	85.5
405.093	103.5
405.317	76.5
405.541	94.5
405.765	102.5
405.988	81.5
406.212	95.5
406.436	94.5
406.66	89.5
406.883	79.5
407.107	84.5
407.331	92.5
407.555	93.5
407.778	89.5
408.002	105.5
408.226	108.5
408.449	90.5
408.673	83.5
408.896	75.5
409.12	79.5
409.344	87.5
409.567	87.5
409.791	80.5
410.014	95.5
410.238	82.5
410.461	95.5
410.685	92.5
410.908	87.5
411.132	81.5
411.355	84.5
411.578	78.5
411.802	78.5
412.025	80.5
412.249	92.5
412.472	81.5
412.695	91.5
412.919	81.5
413.142	85.5
413.365	90.5
413.589	94.5
413.812	87.5
414.035	80.5
414.258	107.5
414.482	86.5
414.705	88.5
414.928	90.5
415.151	79.5
415.374	88.5
415.597	101.5
415.821	93.5
416.044	97.5
416.267	95.5
416.49	86.5
416.713	85.5
416.936	71.5
417.159	80.5
417.382	97.5
417.605	95.5
417.828	92.5
418.051	102.5
418.274	91.5
418.497	95.5
418.72	85.5
418.943	96.5
419.166	82.5
419.389	84.5
419.611	107.5
419.834	98.5
420.057	90.5
420.28	85.5
420.503	91.5
420.726	91.5
420.948	73.5
421.171	95.5
421.394	90.5
421.617	80.5
421.839	86.5
422.062	83.5
422.285	88.5
422.507	80.5
422.73	83.5
422.953	87.5
423.175	68.5
423.398	78.5
423.621	87.5
423.843	80.5
424.066	88.5
424.288	89.5
424.511	102.5
424.733	102.5
424.956	93.5
425.178	87.5
425.401	90.5
425.623	88.5
425.846	80.5
426.068	82.5
426.291	93.5
426.513	92.5
426.735	86.5
426.958	92.5
427.18	87.5
427.402	86.5
427.625	87.5
427.847	85.5
428.069	84.5
428.292	84.5
428.514	89.5
428.736	91.5
428.958	84.5
429.181	79.5
429.403	87.5
429.625	87.5
429.847	91.5
430.069	84.5
430.292	93.5
430.514	84.5
430.736	79.5
430.958	86.5
431.18	77.5
431.402	85.5
431.624	75.5
431.846	92.5
432.068	91.5
432.29	86.5
432.512	90.5
432.734	82.5
432.956	85.5
433.178	87.5
433.4	79.5
433.622	96.5
433.844	87.5
434.066	83.5
434.287	88.5
434.509	97.5
434.731	89.5
434.953	103.5
435.175	95.5
435.397	86.5
435.618	70.5
435.84	89.5
436.062	91.5
436.284	74.5
436.505	86.5
436.727	98.5
436.949	100.5
437.17	90.5
437.392	89.5
437.614	103.5
437.835	97.5
438.057	80.5
438.278	87.5
438.5	85.5
438.721	105.5
438.943	112.5
439.165	81.5
439.386	88.5
439.608	85.5
439.829	83.5
440.05	78.5
440.272	93.5
440.493	95.5
440.715	91.5
440.936	86.5
441.158	91.5
441.379	73.5
441.6	79.5
441.822	76.5
442.043	87.5
442.264	91.5
442.486	93.5
442.707	88.5
442.928	84.5
443.149	86.5
443.371	92.5
443.592	91.5
443.813	107.5
444.034	86.5
444.255	79.5
444.476	93.5
444.698	83.5
444.919	88.5
445.14	220.5
445.361	156.5
445.582	98.5
445.803	103.5
446.024	95.5
446.245	82.5
446.466	91.5
446.687	90.5
446.908	89.5
447.129	93.5
447.35	98.5
447.571	76.5
447.792	85.5
448.013	87.5
448.234	96.5
448.455	86.5
448.675	90.5
448.896	92.5
449.117	88.5
449.338	92.5
449.559	85.5
449.779	90.5
450	81.5
450.221	100.5
450.442	79.5
450.662	86.5
450.883	85.5
451.104	76.5
451.324	70.5
451.545	80.5
451.766	88.5
451.986	94.5
452.207	85.5
452.428	88.5
452.648	61.5
452.869	87.5
453.089	85.5
453.31	84.5
453.53	92.5
453.751	94.5
453.971	90.5
454.192	79.5
454.412	84.5
454.633	74.5
454.853	99.5
455.073	87.5
455.294	94.5
455.514	89.5
455.734	77.5
455.955	98.5
456.175	80.5
456.395	85.5
456.616	76.5
456.836	72.5
457.056	71.5
457.276	89.5
457.497	95.5
457.717	90.5
457.937	84.5
458.157	87.5
458.377	81.5
458.598	86.5
458.818	87.5
459.038	77.5
459.258	79.5
459.478	94.5
459.698	90.5
459.918	93.5
460.138	83.5
460.358	91.5
460.578	80.5
460.798	89.5
461.018	91.5
461.238	89.5
461.458	99.5
461.678	92.5
461.898	87.5
462.118	88.5
462.338	87.5
462.558	94.5
462.777	84.5
462.997	89.5
463.217	87.5
463.437	101.5
463.657	92.5
463.876	81.5
464.096	91.5
464.316	94.5
464.536	69.5
464.755	82.5
464.975	89.5
465.195	87.5
465.414	81.5
465.634	80.5
465.854	71.5
466.073	81.5
466.293	77.5
466.512	86.5
466.732	84.5
466.951	99.5
467.171	99.5
467.391	81.5
467.61	102.5
467.829	88.5
468.049	84.5
468.268	88.5
468.488	86.5
468.707	89.5
468.927	82.5
469.146	87.5
469.365	89.5
469.585	83.5
469.804	96.5
470.023	79.5
470.243	86.5
470.462	106.5
470.681	101.5
470.901	91.5
471.12	90.5
471.339	95.5
471.558	87.5
471.777	85.5
471.997	86.5
472.216	84.5
472.435	91.5
472.654	101.5
472.873	89.5
473.092	95.5
473.311	79.5
473.53	83.5
473.749	84.5
473.968	95.5
474.187	79.5
474.406	95.5
474.625	112.5
474.844	94.5
475.063	71.5
475.282	80.5
475.501	95.5
475.72	101.5
475.939	94.5
476.158	80.5
476.377	85.5
476.596	87.5
476.814	86.5
477.033	93.5
477.252	99.5
477.471	92.5
477.69	73.5
477.908	80.5
478.127	76.5
478.346	88.5
478.564	97.5
478.783	91.5
479.002	87.5
479.22	81.5
479.439	91.5
479.658	93.5
479.876	98.5
480.095	101.5
480.313	96.5
480.532	94.5
480.751	94.5
480.969	90.5
481.188	88.5
481.406	84.5
481.624	85.5
481.843	97.5
482.061	93.5
482.28	107.5
482.498	98.5
482.717	92.5
482.935	89.5
483.153	91.5
483.372	92.5
483.59	76.5
483.808	100.5
484.027	98.5
484.245	91.5
484.463	81.5
484.681	103.5
484.9	101.5
485.118	100.5
485.336	90.5
485.554	91.5
485.772	96.5
485.99	88.5
486.209	98.5
486.427	98.5
486.645	94.5
486.863	96.5
487.081	87.5
487.299	102.5
487.517	110.5
487.735	94.5
487.953	100.5
488.171	92.5
488.389	95.5
488.607	80.5
488.825	100.5
489.043	88.5
489.261	88.5
489.479	103.5
489.696	79.5
489.914	84.5
490.132	101.5
490.35	87.5
490.568	91.5
490.786	105.5
491.003	79.5
491.221	99.5
491.439	96.5
491.657	83.5
491.874	98.5
492.092	102.5
492.31	99.5
492.527	99.5
492.745	109.5
492.963	100.5
493.18	102.5
493.398	99.5
493.615	91.5
493.833	93.5
494.05	97.5
494.268	83.5
494.485	96.5
494.703	86.5
494.92	87.5
495.138	97.5
495.355	96.5
495.573	98.5
495.79	101.5
496.008	84.5
496.225	94.5
496.442	88.5
496.66	102.5
496.877	84.5
497.094	107.5
497.312	118.5
497.529	96.5
497.746	88.5
497.963	88.5
498.181	87.5
498.398	95.5
498.615	103.5
498.832	88.5
499.049	96.5
499.267	112.5
499.484	96.5
499.701	98.5
499.918	108.5
500.135	108.5
500.352	116.5
500.569	120.5
500.786	124.5
501.003	109.5
501.22	116.5
501.437	114.5
501.654	102.5
501.871	118.5
502.088	106.5
502.305	120.5
502.522	117.5
502.739	100.5
502.956	99.5
503.172	105.5
503.389	87.5
503.606	104.5
503.823	94.5
504.04	98.5
504.256	100.5
504.473	98.5
504.69	93.5
504.907	95.5
505.123	108.5
505.34	104.5
505.557	90.5
505.773	86.5
505.99	97.5
506.207	90.5
506.423	99.5
506.64	81.5
506.856	80.5
507.073	90.5
507.289	93.5
507.506	90.5
507.722	93.5
507.939	83.5
508.155	99.5
508.372	101.5
508.588	96.5
508.805	86.5
509.021	92.5
509.238	91.5
509.454	98.5
509.67	106.5
509.887	91.5
510.103	96.5
510.319	99.5
510.536	90.5
510.752	74.5
510.968	115.5
511.184	84.5
511.401	100.5
511.617	105.5
511.833	94.5
512.049	94.5
512.265	91.5
512.481	93.5
512.698	89.5
512.914	100.5
513.13	94.5
513.346	100.5
513.562	99.5
513.778	99.5
513.994	79.5
514.21	82.5
514.426	94.5
514.642	91.5
514.858	84.5
515.074	90.5
515.29	89.5
515.506	91.5
515.721	109.5
515.937	108.5
516.153	99.5
516.369	95.5
516.585	93.5
516.801	95.5
517.016	92.5
517.232	90.5
517.448	114.5
517.664	93.5
517.879	97.5
518.095	104.5
518.311	93.5
518.527	82.5
518.742	106.5
518.958	86.5
519.173	100.5
519.389	94.5
519.605	92.5
519.82	96.5
520.036	84.5
520.251	96.5
520.467	100.5
520.682	89.5
520.898	106.5
521.113	92.5
521.329	68.5
521.544	88.5
521.76	93.5
521.975	94.5
522.19	99.5
522.406	90.5
522.621	92.5
522.836	98.5
523.052	86.5
523.267	98.5
523.482	105.5
523.698	96.5
523.913	83.5
524.128	87.5
524.343	92.5
524.559	97.5
524.774	95.5
524.989	100.5
525.204	97.5
525.419	82.5
525.634	91.5
525.849	95.5
526.064	92.5
526.28	97.5
526.495	94.5
526.71	81.5
526.925	82.5
527.14	86.5
527.355	90.5
527.57	85.5
527.785	91.5
527.999	103.5
528.214	97.5
528.429	89.5
528.644	86.5
528.859	94.5
529.074	91.5
529.289	96.5
529.503	75.5
529.718	101.5
529.933	85.5
530.148	82.5
530.363	100.5
530.577	90.5
530.792	101.5
531.007	103.5
531.221	93.5
531.436	88.5
531.651	99.5
531.865	95.5
532.08	82.5
532.295	102.5
532.509	80.5
532.724	71.5
532.938	90.5
533.153	97.5
533.367	95.5
533.582	87.5
533.796	107.5
534.011	83.5
534.225	86.5
534.44	72.5
534.654	100.5
534.868	96.5
535.083	91.5
535.297	87.5
535.511	98.5
535.726	86.5
535.94	83.5
536.154	91.5
536.369	102.5
536.583	97.5
536.797	91.5
537.011	109.5
537.225	96.5
537.44	90.5
537.654	93.5
537.868	97.5
