Data from Ni(NO3)2@0.25M.TitratingCurve.Agarose3%dH2O.NegLispCup.LampEnergy10.LIBS07252019_HRD10591_18-03-08-566.txt Node
Date: Thu Jul 25 18:03:08 EDT 2019
User: cochatt
Spectrometer: HR+D1059
Trigger mode: 1
Integration Time (sec): 1.000000E-1
Scans to average: 1
Electric dark correction enabled: true
Nonlinearity correction enabled: false
Boxcar width: 0
XAxis mode: Wavelengths
Number of Pixels in Spectrum: 2048
>>>>>Begin Spectral Data<<<<<
223.165	-12.12
223.4	-12.12
223.635	-12.12
223.869	-14.12
224.104	-23.12
224.338	-8.12
224.573	-11.12
224.808	-9.12
225.042	-14.12
225.277	-17.12
225.511	-5.12
225.746	12.88
225.98	1.88
226.215	13.88
226.449	8.88
226.683	26.88
226.918	15.88
227.152	33.88
227.387	40.88
227.621	32.88
227.856	35.88
228.09	42.88
228.324	54.88
228.559	60.88
228.793	76.88
229.027	97.88
229.262	101.88
229.496	86.88
229.73	104.88
229.964	114.88
230.199	99.88
230.433	122.88
230.667	125.88
230.901	116.88
231.136	110.88
231.37	117.88
231.604	102.88
231.838	115.88
232.072	119.88
232.306	135.88
232.541	123.88
232.775	110.88
233.009	124.88
233.243	126.88
233.477	119.88
233.711	118.88
233.945	109.88
234.179	109.88
234.413	121.88
234.647	117.88
234.881	105.88
235.115	121.88
235.349	113.88
235.583	124.88
235.817	111.88
236.051	124.88
236.285	103.88
236.519	122.88
236.753	125.88
236.987	104.88
237.221	105.88
237.455	119.88
237.689	120.88
237.922	124.88
238.156	120.88
238.39	109.88
238.624	124.88
238.858	121.88
239.091	134.88
239.325	123.88
239.559	134.88
239.793	130.88
240.027	148.88
240.26	114.88
240.494	140.88
240.728	128.88
240.961	134.88
241.195	132.88
241.429	132.88
241.662	132.88
241.896	145.88
242.13	146.88
242.363	147.88
242.597	140.88
242.83	130.88
243.064	136.88
243.298	130.88
243.531	150.88
243.765	136.88
243.998	147.88
244.232	163.88
244.465	148.88
244.699	148.88
244.932	141.88
245.166	137.88
245.399	148.88
245.633	148.88
245.866	144.88
246.099	140.88
246.333	178.88
246.566	156.88
246.8	156.88
247.033	151.88
247.266	169.88
247.5	172.88
247.733	164.88
247.966	164.88
248.2	167.88
248.433	185.88
248.666	172.88
248.899	170.88
249.133	193.88
249.366	189.88
249.599	193.88
249.832	190.88
250.066	212.88
250.299	201.88
250.532	217.88
250.765	216.88
250.998	231.88
251.231	222.88
251.465	234.88
251.698	240.88
251.931	250.88
252.164	231.88
252.397	264.88
252.63	257.88
252.863	262.88
253.096	252.88
253.329	263.88
253.562	258.88
253.795	263.88
254.028	279.88
254.261	285.88
254.494	304.88
254.727	280.88
254.96	284.88
255.193	285.88
255.426	296.88
255.659	304.88
255.892	312.88
256.124	315.88
256.357	316.88
256.59	320.88
256.823	314.88
257.056	332.88
257.289	331.88
257.521	332.88
257.754	318.88
257.987	326.88
258.22	334.88
258.452	347.88
258.685	354.88
258.918	349.88
259.151	363.88
259.383	367.88
259.616	361.88
259.849	375.88
260.081	353.88
260.314	396.88
260.547	354.88
260.779	370.88
261.012	377.88
261.244	360.88
261.477	390.88
261.71	382.88
261.942	374.88
262.175	381.88
262.407	375.88
262.64	378.88
262.872	393.88
263.105	374.88
263.337	383.88
263.57	402.88
263.802	408.88
264.035	384.88
264.267	416.88
264.499	413.88
264.732	410.88
264.964	391.88
265.197	405.88
265.429	424.88
265.661	418.88
265.894	390.88
266.126	397.88
266.358	422.88
266.591	422.88
266.823	414.88
267.055	404.88
267.287	404.88
267.52	409.88
267.752	432.88
267.984	434.88
268.216	443.88
268.448	428.88
268.681	418.88
268.913	418.88
269.145	406.88
269.377	445.88
269.609	408.88
269.841	443.88
270.073	421.88
270.306	434.88
270.538	429.88
270.77	436.88
271.002	441.88
271.234	422.88
271.466	442.88
271.698	439.88
271.93	442.88
272.162	413.88
272.394	446.88
272.626	438.88
272.858	439.88
273.09	445.88
273.322	493.88
273.553	450.88
273.785	436.88
274.017	442.88
274.249	464.88
274.481	442.88
274.713	460.88
274.945	457.88
275.176	463.88
275.408	452.88
275.64	471.88
275.872	464.88
276.104	471.88
276.335	455.88
276.567	450.88
276.799	460.88
277.031	450.88
277.262	447.88
277.494	453.88
277.726	469.88
277.957	463.88
278.189	462.88
278.421	447.88
278.652	454.88
278.884	465.88
279.115	476.88
279.347	444.88
279.579	456.88
279.81	467.88
280.042	458.88
280.273	439.88
280.505	463.88
280.736	461.88
280.968	449.88
281.199	469.88
281.431	450.88
281.662	453.88
281.894	479.88
282.125	460.88
282.356	467.88
282.588	468.88
282.819	462.88
283.051	469.88
283.282	468.88
283.513	454.88
283.745	478.88
283.976	454.88
284.207	466.88
284.439	483.88
284.67	479.88
284.901	454.88
285.132	491.88
285.364	479.88
285.595	455.88
285.826	461.88
286.057	461.88
286.288	485.88
286.52	452.88
286.751	477.88
286.982	480.88
287.213	474.88
287.444	483.88
287.675	480.88
287.906	459.88
288.138	477.88
288.369	472.88
288.6	491.88
288.831	465.88
289.062	464.88
289.293	461.88
289.524	479.88
289.755	461.88
289.986	479.88
290.217	474.88
290.448	474.88
290.679	475.88
290.91	473.88
291.141	487.88
291.371	484.88
291.602	477.88
291.833	468.88
292.064	454.88
292.295	461.88
292.526	463.88
292.757	468.88
292.987	474.88
293.218	435.88
293.449	467.88
293.68	463.88
293.91	475.88
294.141	472.88
294.372	450.88
294.603	488.88
294.833	460.88
295.064	486.88
295.295	496.88
295.525	456.88
295.756	465.88
295.987	464.88
296.217	473.88
296.448	472.88
296.679	467.88
296.909	462.88
297.14	486.88
297.37	501.88
297.601	500.88
297.831	502.88
298.062	469.88
298.292	476.88
298.523	488.88
298.753	489.88
298.984	476.88
299.214	482.88
299.445	498.88
299.675	476.88
299.905	502.88
300.136	500.88
300.366	517.88
300.597	509.88
300.827	516.88
301.057	499.88
301.288	521.88
301.518	534.88
301.748	518.88
301.979	525.88
302.209	507.88
302.439	513.88
302.669	504.88
302.9	528.88
303.13	545.88
303.36	535.88
303.59	543.88
303.82	535.88
304.051	542.88
304.281	525.88
304.511	530.88
304.741	532.88
304.971	541.88
305.201	554.88
305.431	549.88
305.661	568.88
305.891	548.88
306.121	544.88
306.352	555.88
306.582	533.88
306.812	560.88
307.042	564.88
307.272	547.88
307.502	539.88
307.731	555.88
307.961	571.88
308.191	572.88
308.421	564.88
308.651	562.88
308.881	555.88
309.111	562.88
309.341	564.88
309.571	569.88
309.8	593.88
310.03	607.88
310.26	619.88
310.49	600.88
310.72	570.88
310.949	569.88
311.179	581.88
311.409	582.88
311.639	638.88
311.868	611.88
312.098	598.88
312.328	612.88
312.557	604.88
312.787	653.88
313.017	646.88
313.246	648.88
313.476	642.88
313.706	668.88
313.935	676.88
314.165	650.88
314.394	666.88
314.624	685.88
314.853	653.88
315.083	658.88
315.312	682.88
315.542	683.88
315.771	678.88
316.001	698.88
316.23	678.88
316.46	700.88
316.689	703.88
316.919	737.88
317.148	701.88
317.377	736.88
317.607	722.88
317.836	736.88
318.065	720.88
318.295	743.88
318.524	732.88
318.753	753.88
318.983	750.88
319.212	763.88
319.441	774.88
319.67	769.88
319.9	796.88
320.129	809.88
320.358	780.88
320.587	823.88
320.816	843.88
321.046	824.88
321.275	807.88
321.504	830.88
321.733	811.88
321.962	848.88
322.191	851.88
322.42	857.88
322.649	866.88
322.878	872.88
323.108	846.88
323.337	892.88
323.566	891.88
323.795	893.88
324.024	915.88
324.253	898.88
324.482	897.88
324.71	918.88
324.939	933.88
325.168	934.88
325.397	928.88
325.626	918.88
325.855	924.88
326.084	979.88
326.313	976.88
326.542	974.88
326.77	974.88
326.999	974.88
327.228	980.88
327.457	1002.88
327.686	998.88
327.914	1001.88
328.143	1043.88
328.372	1018.88
328.6	995.88
328.829	1025.88
329.058	1028.88
329.287	1016.88
329.515	1060.88
329.744	1045.88
329.972	1078.88
330.201	1058.88
330.43	1066.88
330.658	1059.88
330.887	1095.88
331.115	1096.88
331.344	1113.88
331.572	1106.88
331.801	1125.88
332.03	1130.88
332.258	1108.88
332.486	1133.88
332.715	1137.88
332.943	1158.88
333.172	1159.88
333.4	1177.88
333.629	1177.88
333.857	1213.88
334.085	1219.88
334.314	1216.88
334.542	1217.88
334.771	1245.88
334.999	1213.88
335.227	1219.88
335.455	1237.88
335.684	1274.88
335.912	1258.88
336.14	1276.88
336.369	1249.88
336.597	1288.88
336.825	1269.88
337.053	1307.88
337.281	1264.88
337.51	1237.88
337.738	1238.88
337.966	1268.88
338.194	1256.88
338.422	1214.88
338.65	1234.88
338.878	1244.88
339.106	1249.88
339.334	1257.88
339.562	1247.88
339.79	1203.88
340.018	1225.88
340.246	1178.88
340.474	1237.88
340.702	1232.88
340.93	1221.88
341.158	1228.88
341.386	1232.88
341.614	1237.88
341.842	1244.88
342.07	1226.88
342.298	1211.88
342.526	1204.88
342.754	1219.88
342.981	1203.88
343.209	1227.88
343.437	1240.88
343.665	1242.88
343.893	1293.88
344.12	1282.88
344.348	1256.88
344.576	1254.88
344.804	1284.88
345.031	1236.88
345.259	1228.88
345.487	1255.88
345.714	1238.88
345.942	1253.88
346.17	1288.88
346.397	1259.88
346.625	1212.88
346.853	1145.88
347.08	1210.88
347.308	1185.88
347.535	1216.88
347.763	1221.88
347.99	1195.88
348.218	1176.88
348.445	1190.88
348.673	1187.88
348.9	1197.88
349.128	1208.88
349.355	1170.88
349.583	1171.88
349.81	1191.88
350.037	1196.88
350.265	1163.88
350.492	1186.88
350.72	1148.88
350.947	1158.88
351.174	1183.88
351.402	1186.88
351.629	1200.88
351.856	1171.88
352.083	1176.88
352.311	1180.88
352.538	1187.88
352.765	1187.88
352.992	1122.88
353.22	1141.88
353.447	1151.88
353.674	1158.88
353.901	1165.88
354.128	1162.88
354.355	1112.88
354.583	1151.88
354.81	1135.88
355.037	1150.88
355.264	1166.88
355.491	1151.88
355.718	1167.88
355.945	1137.88
356.172	1150.88
356.399	1137.88
356.626	1177.88
356.853	1211.88
357.08	1157.88
357.307	1149.88
357.534	1164.88
357.761	1141.88
357.988	1148.88
358.215	1158.88
358.441	1134.88
358.668	1134.88
358.895	1163.88
359.122	1147.88
359.349	1143.88
359.576	1138.88
359.802	1148.88
360.029	1129.88
360.256	1158.88
360.483	1162.88
360.709	1148.88
360.936	1124.88
361.163	1127.88
361.39	1137.88
361.616	1137.88
361.843	1174.88
362.07	1173.88
362.296	1161.88
362.523	1128.88
362.749	1099.88
362.976	1118.88
363.203	1127.88
363.429	1102.88
363.656	1107.88
363.882	1148.88
364.109	1107.88
364.335	1092.88
364.562	1135.88
364.788	1150.88
365.015	1136.88
365.241	1104.88
365.468	1124.88
365.694	1125.88
365.92	1141.88
366.147	1160.88
366.373	1120.88
366.599	1128.88
366.826	1100.88
367.052	1119.88
367.278	1146.88
367.505	1125.88
367.731	1138.88
367.957	1104.88
368.184	1122.88
368.41	1115.88
368.636	1121.88
368.862	1118.88
369.089	1123.88
369.315	1138.88
369.541	1144.88
369.767	1141.88
369.993	1107.88
370.219	1084.88
370.445	1136.88
370.672	1130.88
370.898	1128.88
371.124	1136.88
371.35	1114.88
371.576	1156.88
371.802	1132.88
372.028	1125.88
372.254	1115.88
372.48	1125.88
372.706	1153.88
372.932	1149.88
373.158	1123.88
373.384	1124.88
373.61	1107.88
373.835	1114.88
374.061	1113.88
374.287	1146.88
374.513	1133.88
374.739	1099.88
374.965	1145.88
375.191	1140.88
375.416	1128.88
375.642	1132.88
375.868	1120.88
376.094	1103.88
376.319	1102.88
376.545	1079.88
376.771	1111.88
376.997	1063.88
377.222	1084.88
377.448	1093.88
377.674	1058.88
377.899	1066.88
378.125	1083.88
378.35	1067.88
378.576	1030.88
378.802	1082.88
379.027	1078.88
379.253	1066.88
379.478	1031.88
379.704	1050.88
379.929	1054.88
380.155	1055.88
380.38	1056.88
380.606	1054.88
380.831	1037.88
381.057	1066.88
381.282	1072.88
381.507	1054.88
381.733	1041.88
381.958	1038.88
382.184	1069.88
382.409	1072.88
382.634	1072.88
382.86	1064.88
383.085	1053.88
383.31	1080.88
383.535	1080.88
383.761	1089.88
383.986	1075.88
384.211	1081.88
384.436	1096.88
384.662	1119.88
384.887	1091.88
385.112	1110.88
385.337	1120.88
385.562	1106.88
385.787	1124.88
386.013	1123.88
386.238	1149.88
386.463	1146.88
386.688	1108.88
386.913	1122.88
387.138	1128.88
387.363	1148.88
387.588	1138.88
387.813	1132.88
388.038	1137.88
388.263	1128.88
388.488	1149.88
388.713	1127.88
388.938	1146.88
389.163	1140.88
389.387	1168.88
389.612	1106.88
389.837	1162.88
390.062	1138.88
390.287	1134.88
390.512	1141.88
390.736	1152.88
390.961	1152.88
391.186	1175.88
391.411	1172.88
391.636	1152.88
391.86	1166.88
392.085	1161.88
392.31	1168.88
392.534	1179.88
392.759	1176.88
392.984	1178.88
393.208	1207.88
393.433	1204.88
393.658	1184.88
393.882	1156.88
394.107	1195.88
394.331	1187.88
394.556	1160.88
394.78	1182.88
395.005	1186.88
395.229	1150.88
395.454	1202.88
395.678	1236.88
395.903	1201.88
396.127	1213.88
396.352	1219.88
396.576	1189.88
396.801	1198.88
397.025	1218.88
397.249	1255.88
397.474	1280.88
397.698	1230.88
397.922	1270.88
398.147	1242.88
398.371	1261.88
398.595	1285.88
398.82	1300.88
399.044	1302.88
399.268	1333.88
399.492	1418.88
399.717	1412.88
399.941	1458.88
400.165	1400.88
400.389	1408.88
400.613	1402.88
400.837	1377.88
401.062	1356.88
401.286	1364.88
401.51	1339.88
401.734	1334.88
401.958	1349.88
402.182	1374.88
402.406	1316.88
402.63	1317.88
402.854	1357.88
403.078	1331.88
403.302	1344.88
403.526	1319.88
403.75	1360.88
403.974	1378.88
404.198	1347.88
404.422	1359.88
404.645	1357.88
404.869	1332.88
405.093	1366.88
405.317	1350.88
405.541	1401.88
405.765	1396.88
405.988	1377.88
406.212	1410.88
406.436	1387.88
406.66	1438.88
406.883	1394.88
407.107	1427.88
407.331	1474.88
407.555	1505.88
407.778	1509.88
408.002	1496.88
408.226	1520.88
408.449	1519.88
408.673	1476.88
408.896	1473.88
409.12	1452.88
409.344	1505.88
409.567	1469.88
409.791	1448.88
410.014	1485.88
410.238	1434.88
410.461	1447.88
410.685	1398.88
410.908	1445.88
411.132	1417.88
411.355	1438.88
411.578	1424.88
411.802	1422.88
412.025	1419.88
412.249	1420.88
412.472	1418.88
412.695	1402.88
412.919	1373.88
413.142	1418.88
413.365	1428.88
413.589	1432.88
413.812	1406.88
414.035	1366.88
414.258	1419.88
414.482	1423.88
414.705	1400.88
414.928	1420.88
415.151	1418.88
415.374	1412.88
415.597	1414.88
415.821	1381.88
416.044	1377.88
416.267	1436.88
416.49	1412.88
416.713	1382.88
416.936	1418.88
417.159	1377.88
417.382	1377.88
417.605	1360.88
417.828	1373.88
418.051	1403.88
418.274	1380.88
418.497	1391.88
418.72	1417.88
418.943	1353.88
419.166	1472.88
419.389	1544.88
419.611	1526.88
419.834	1476.88
420.057	1431.88
420.28	1395.88
420.503	1365.88
420.726	1373.88
420.948	1397.88
421.171	1406.88
421.394	1384.88
421.617	1397.88
421.839	1416.88
422.062	1418.88
422.285	1372.88
422.507	1406.88
422.73	1402.88
422.953	1406.88
423.175	1413.88
423.398	1412.88
423.621	1401.88
423.843	1435.88
424.066	1435.88
424.288	1397.88
424.511	1444.88
424.733	1408.88
424.956	1424.88
425.178	1418.88
425.401	1404.88
425.623	1458.88
425.846	1460.88
426.068	1407.88
426.291	1402.88
426.513	1418.88
426.735	1415.88
426.958	1454.88
427.18	1386.88
427.402	1407.88
427.625	1412.88
427.847	1397.88
428.069	1402.88
428.292	1440.88
428.514	1406.88
428.736	1441.88
428.958	1476.88
429.181	1433.88
429.403	1414.88
429.625	1425.88
429.847	1420.88
430.069	1421.88
430.292	1439.88
430.514	1428.88
430.736	1436.88
430.958	1449.88
431.18	1437.88
431.402	1462.88
431.624	1453.88
431.846	1425.88
432.068	1427.88
432.29	1426.88
432.512	1450.88
432.734	1472.88
432.956	1457.88
433.178	1473.88
433.4	1447.88
433.622	1476.88
433.844	1504.88
434.066	1450.88
434.287	1457.88
434.509	1491.88
434.731	1454.88
434.953	1452.88
435.175	1470.88
435.397	1516.88
435.618	1492.88
435.84	1481.88
436.062	1440.88
436.284	1444.88
436.505	1437.88
436.727	1422.88
436.949	1463.88
437.17	1444.88
437.392	1432.88
437.614	1452.88
437.835	1390.88
438.057	1400.88
438.278	1453.88
438.5	1430.88
438.721	1426.88
438.943	1445.88
439.165	1428.88
439.386	1440.88
439.608	1446.88
439.829	1449.88
440.05	1440.88
440.272	1448.88
440.493	1449.88
440.715	1433.88
440.936	1505.88
441.158	1456.88
441.379	1485.88
441.6	1478.88
441.822	1513.88
442.043	1507.88
442.264	1467.88
442.486	1469.88
442.707	1469.88
442.928	1496.88
443.149	1537.88
443.371	1513.88
443.592	1528.88
443.813	1510.88
444.034	1515.88
444.255	1533.88
444.476	1546.88
444.698	1547.88
444.919	1514.88
445.14	1600.88
445.361	1524.88
445.582	1536.88
445.803	1482.88
446.024	1466.88
446.245	1474.88
446.466	1480.88
446.687	1450.88
446.908	1474.88
447.129	1420.88
447.35	1431.88
447.571	1430.88
447.792	1402.88
448.013	1364.88
448.234	1394.88
448.455	1394.88
448.675	1349.88
448.896	1436.88
449.117	1369.88
449.338	1384.88
449.559	1368.88
449.779	1339.88
450	1341.88
450.221	1329.88
450.442	1377.88
450.662	1325.88
450.883	1357.88
451.104	1381.88
451.324	1354.88
451.545	1384.88
451.766	1341.88
451.986	1323.88
452.207	1321.88
452.428	1368.88
452.648	1328.88
452.869	1330.88
453.089	1315.88
453.31	1312.88
453.53	1291.88
453.751	1314.88
453.971	1315.88
454.192	1339.88
454.412	1298.88
454.633	1317.88
454.853	1322.88
455.073	1332.88
455.294	1315.88
455.514	1316.88
455.734	1300.88
455.955	1335.88
456.175	1301.88
456.395	1315.88
456.616	1331.88
456.836	1309.88
457.056	1330.88
457.276	1283.88
457.497	1301.88
457.717	1309.88
457.937	1358.88
458.157	1361.88
458.377	1325.88
458.598	1337.88
458.818	1385.88
459.038	1356.88
459.258	1363.88
459.478	1397.88
459.698	1422.88
459.918	1454.88
460.138	1458.88
460.358	1483.88
460.578	1479.88
460.798	1485.88
461.018	1522.88
461.238	1523.88
461.458	1522.88
461.678	1517.88
461.898	1540.88
462.118	1495.88
462.338	1550.88
462.558	1570.88
462.777	1594.88
462.997	1613.88
463.217	1658.88
463.437	1665.88
463.657	1671.88
463.876	1653.88
464.096	1635.88
464.316	1597.88
464.536	1621.88
464.755	1580.88
464.975	1603.88
465.195	1550.88
465.414	1505.88
465.634	1513.88
465.854	1460.88
466.073	1444.88
466.293	1434.88
466.512	1420.88
466.732	1444.88
466.951	1459.88
467.171	1459.88
467.391	1470.88
467.61	1411.88
467.829	1398.88
468.049	1448.88
468.268	1376.88
468.488	1407.88
468.707	1428.88
468.927	1367.88
469.146	1428.88
469.365	1412.88
469.585	1394.88
469.804	1444.88
470.023	1464.88
470.243	1404.88
470.462	1429.88
470.681	1406.88
470.901	1447.88
471.12	1443.88
471.339	1468.88
471.558	1464.88
471.777	1456.88
471.997	1428.88
472.216	1415.88
472.435	1410.88
472.654	1432.88
472.873	1438.88
473.092	1431.88
473.311	1432.88
473.53	1435.88
473.749	1466.88
473.968	1396.88
474.187	1436.88
474.406	1482.88
474.625	1440.88
474.844	1498.88
475.063	1481.88
475.282	1507.88
475.501	1494.88
475.72	1520.88
475.939	1486.88
476.158	1497.88
476.377	1564.88
476.596	1530.88
476.814	1550.88
477.033	1522.88
477.252	1574.88
477.471	1586.88
477.69	1576.88
477.908	1612.88
478.127	1623.88
478.346	1636.88
478.564	1664.88
478.783	1670.88
479.002	1681.88
479.22	1657.88
479.439	1695.88
479.658	1667.88
479.876	1702.88
480.095	1682.88
480.313	1729.88
480.532	1723.88
480.751	1714.88
480.969	1703.88
481.188	1649.88
481.406	1689.88
481.624	1730.88
481.843	1692.88
482.061	1688.88
482.28	1680.88
482.498	1703.88
482.717	1707.88
482.935	1735.88
483.153	1722.88
483.372	1744.88
483.59	1719.88
483.808	1734.88
484.027	1702.88
484.245	1724.88
484.463	1732.88
484.681	1754.88
484.9	1763.88
485.118	1732.88
485.336	1727.88
485.554	1762.88
485.772	1744.88
485.99	1760.88
486.209	1782.88
486.427	1761.88
486.645	1696.88
486.863	1797.88
487.081	1789.88
487.299	1792.88
487.517	1796.88
487.735	1809.88
487.953	1829.88
488.171	1780.88
488.389	1806.88
488.607	1807.88
488.825	1792.88
489.043	1769.88
489.261	1772.88
489.479	1807.88
489.696	1774.88
489.914	1791.88
490.132	1820.88
490.35	1837.88
490.568	1831.88
490.786	1863.88
491.003	1874.88
491.221	1849.88
491.439	1836.88
