Data from Ni(NO3)2@0.0625M.TitratingCurve.Agarose3%dH2O.NegLispCup.LampEnergy10.LIBS07252019_HRD10591_18-13-55-569.txt Node
Date: Thu Jul 25 18:13:55 EDT 2019
User: cochatt
Spectrometer: HR+D1059
Trigger mode: 1
Integration Time (sec): 1.000000E-1
Scans to average: 1
Electric dark correction enabled: true
Nonlinearity correction enabled: false
Boxcar width: 0
XAxis mode: Wavelengths
Number of Pixels in Spectrum: 2048
>>>>>Begin Spectral Data<<<<<
223.165	-18.88
223.4	-18.88
223.635	-18.88
223.869	-13.88
224.104	-13.88
224.338	-18.88
224.573	-6.88
224.808	-11.88
225.042	-12.88
225.277	-5.88
225.511	-3.88
225.746	6.12
225.98	10.12
226.215	20.12
226.449	22.12
226.683	12.12
226.918	19.12
227.152	17.12
227.387	28.12
227.621	41.12
227.856	55.12
228.09	49.12
228.324	49.12
228.559	52.12
228.793	70.12
229.027	90.12
229.262	113.12
229.496	104.12
229.73	121.12
229.964	129.12
230.199	114.12
230.433	130.12
230.667	126.12
230.901	115.12
231.136	128.12
231.37	139.12
231.604	144.12
231.838	133.12
232.072	149.12
232.306	140.12
232.541	143.12
232.775	133.12
233.009	147.12
233.243	147.12
233.477	122.12
233.711	146.12
233.945	145.12
234.179	151.12
234.413	142.12
234.647	144.12
234.881	157.12
235.115	149.12
235.349	138.12
235.583	157.12
235.817	156.12
236.051	160.12
236.285	163.12
236.519	156.12
236.753	172.12
236.987	165.12
237.221	153.12
237.455	151.12
237.689	170.12
237.922	147.12
238.156	157.12
238.39	167.12
238.624	165.12
238.858	177.12
239.091	183.12
239.325	162.12
239.559	180.12
239.793	183.12
240.027	182.12
240.26	185.12
240.494	179.12
240.728	178.12
240.961	180.12
241.195	177.12
241.429	204.12
241.662	182.12
241.896	186.12
242.13	189.12
242.363	197.12
242.597	200.12
242.83	199.12
243.064	182.12
243.298	201.12
243.531	200.12
243.765	213.12
243.998	205.12
244.232	201.12
244.465	209.12
244.699	207.12
244.932	226.12
245.166	203.12
245.399	205.12
245.633	220.12
245.866	229.12
246.099	231.12
246.333	221.12
246.566	232.12
246.8	220.12
247.033	212.12
247.266	214.12
247.5	210.12
247.733	223.12
247.966	230.12
248.2	238.12
248.433	244.12
248.666	244.12
248.899	236.12
249.133	244.12
249.366	253.12
249.599	257.12
249.832	273.12
250.066	250.12
250.299	265.12
250.532	241.12
250.765	241.12
250.998	249.12
251.231	263.12
251.465	254.12
251.698	252.12
251.931	256.12
252.164	268.12
252.397	266.12
252.63	255.12
252.863	272.12
253.096	268.12
253.329	275.12
253.562	267.12
253.795	286.12
254.028	282.12
254.261	285.12
254.494	284.12
254.727	286.12
254.96	259.12
255.193	270.12
255.426	276.12
255.659	282.12
255.892	281.12
256.124	274.12
256.357	298.12
256.59	297.12
256.823	291.12
257.056	308.12
257.289	293.12
257.521	280.12
257.754	286.12
257.987	311.12
258.22	309.12
258.452	314.12
258.685	309.12
258.918	317.12
259.151	306.12
259.383	299.12
259.616	321.12
259.849	302.12
260.081	317.12
260.314	325.12
260.547	341.12
260.779	316.12
261.012	317.12
261.244	316.12
261.477	332.12
261.71	324.12
261.942	325.12
262.175	323.12
262.407	323.12
262.64	328.12
262.872	329.12
263.105	320.12
263.337	337.12
263.57	329.12
263.802	337.12
264.035	331.12
264.267	342.12
264.499	344.12
264.732	359.12
264.964	353.12
265.197	353.12
265.429	350.12
265.661	348.12
265.894	372.12
266.126	369.12
266.358	370.12
266.591	349.12
266.823	385.12
267.055	381.12
267.287	396.12
267.52	355.12
267.752	369.12
267.984	364.12
268.216	351.12
268.448	356.12
268.681	376.12
268.913	379.12
269.145	360.12
269.377	375.12
269.609	381.12
269.841	381.12
270.073	360.12
270.306	381.12
270.538	375.12
270.77	364.12
271.002	372.12
271.234	371.12
271.466	354.12
271.698	377.12
271.93	407.12
272.162	404.12
272.394	395.12
272.626	382.12
272.858	400.12
273.09	386.12
273.322	382.12
273.553	381.12
273.785	402.12
274.017	389.12
274.249	389.12
274.481	394.12
274.713	398.12
274.945	395.12
275.176	412.12
275.408	408.12
275.64	414.12
275.872	404.12
276.104	432.12
276.335	418.12
276.567	408.12
276.799	388.12
277.031	423.12
277.262	417.12
277.494	423.12
277.726	422.12
277.957	414.12
278.189	429.12
278.421	429.12
278.652	430.12
278.884	440.12
279.115	421.12
279.347	443.12
279.579	449.12
279.81	452.12
280.042	436.12
280.273	455.12
280.505	475.12
280.736	444.12
280.968	453.12
281.199	464.12
281.431	455.12
281.662	471.12
281.894	452.12
282.125	462.12
282.356	466.12
282.588	461.12
282.819	460.12
283.051	484.12
283.282	431.12
283.513	447.12
283.745	473.12
283.976	483.12
284.207	473.12
284.439	475.12
284.67	487.12
284.901	486.12
285.132	485.12
285.364	493.12
285.595	480.12
285.826	480.12
286.057	485.12
286.288	477.12
286.52	494.12
286.751	503.12
286.982	492.12
287.213	495.12
287.444	490.12
287.675	511.12
287.906	495.12
288.138	495.12
288.369	483.12
288.6	482.12
288.831	513.12
289.062	500.12
289.293	500.12
289.524	519.12
289.755	527.12
289.986	514.12
290.217	522.12
290.448	517.12
290.679	531.12
290.91	523.12
291.141	504.12
291.371	538.12
291.602	522.12
291.833	524.12
292.064	527.12
292.295	518.12
292.526	528.12
292.757	504.12
292.987	521.12
293.218	518.12
293.449	534.12
293.68	515.12
293.91	507.12
294.141	515.12
294.372	524.12
294.603	541.12
294.833	525.12
295.064	546.12
295.295	544.12
295.525	539.12
295.756	527.12
295.987	525.12
296.217	550.12
296.448	533.12
296.679	551.12
296.909	548.12
297.14	555.12
297.37	554.12
297.601	563.12
297.831	574.12
298.062	562.12
298.292	574.12
298.523	589.12
298.753	596.12
298.984	580.12
299.214	579.12
299.445	577.12
299.675	556.12
299.905	555.12
300.136	577.12
300.366	567.12
300.597	564.12
300.827	600.12
301.057	605.12
301.288	610.12
301.518	606.12
301.748	597.12
301.979	594.12
302.209	606.12
302.439	587.12
302.669	585.12
302.9	589.12
303.13	588.12
303.36	574.12
303.59	582.12
303.82	586.12
304.051	579.12
304.281	593.12
304.511	600.12
304.741	578.12
304.971	586.12
305.201	558.12
305.431	581.12
305.661	588.12
305.891	595.12
306.121	565.12
306.352	572.12
306.582	603.12
306.812	548.12
307.042	578.12
307.272	561.12
307.502	549.12
307.731	579.12
307.961	582.12
308.191	570.12
308.421	560.12
308.651	565.12
308.881	570.12
309.111	565.12
309.341	581.12
309.571	592.12
309.8	569.12
310.03	547.12
310.26	571.12
310.49	594.12
310.72	563.12
310.949	567.12
311.179	591.12
311.409	592.12
311.639	586.12
311.868	605.12
312.098	597.12
312.328	592.12
312.557	606.12
312.787	598.12
313.017	636.12
313.246	595.12
313.476	604.12
313.706	629.12
313.935	614.12
314.165	642.12
314.394	597.12
314.624	631.12
314.853	597.12
315.083	592.12
315.312	608.12
315.542	615.12
315.771	598.12
316.001	614.12
316.23	592.12
316.46	617.12
316.689	602.12
316.919	598.12
317.148	599.12
317.377	600.12
317.607	593.12
317.836	585.12
318.065	615.12
318.295	594.12
318.524	613.12
318.753	602.12
318.983	599.12
319.212	577.12
319.441	598.12
319.67	595.12
319.9	581.12
320.129	616.12
320.358	600.12
320.587	587.12
320.816	598.12
321.046	606.12
321.275	620.12
321.504	598.12
321.733	605.12
321.962	605.12
322.191	600.12
322.42	634.12
322.649	598.12
322.878	583.12
323.108	610.12
323.337	598.12
323.566	577.12
323.795	636.12
324.024	643.12
324.253	613.12
324.482	610.12
324.71	627.12
324.939	625.12
325.168	637.12
325.397	626.12
325.626	618.12
325.855	647.12
326.084	666.12
326.313	672.12
326.542	666.12
326.77	677.12
326.999	661.12
327.228	656.12
327.457	660.12
327.686	665.12
327.914	657.12
328.143	641.12
328.372	668.12
328.6	663.12
328.829	667.12
329.058	635.12
329.287	661.12
329.515	657.12
329.744	665.12
329.972	670.12
330.201	687.12
330.43	677.12
330.658	675.12
330.887	700.12
331.115	677.12
331.344	690.12
331.572	677.12
331.801	689.12
332.03	729.12
332.258	749.12
332.486	764.12
332.715	789.12
332.943	833.12
333.172	830.12
333.4	899.12
333.629	905.12
333.857	905.12
334.085	897.12
334.314	873.12
334.542	859.12
334.771	842.12
334.999	838.12
335.227	812.12
335.455	831.12
335.684	807.12
335.912	822.12
336.14	807.12
336.369	799.12
336.597	790.12
336.825	813.12
337.053	781.12
337.281	765.12
337.51	757.12
337.738	743.12
337.966	729.12
338.194	720.12
338.422	706.12
338.65	716.12
338.878	732.12
339.106	728.12
339.334	727.12
339.562	692.12
339.79	676.12
340.018	692.12
340.246	675.12
340.474	695.12
340.702	702.12
340.93	719.12
341.158	682.12
341.386	685.12
341.614	688.12
341.842	699.12
342.07	672.12
342.298	689.12
342.526	674.12
342.754	670.12
342.981	685.12
343.209	695.12
343.437	748.12
343.665	775.12
343.893	859.12
344.12	866.12
344.348	820.12
344.576	757.12
344.804	742.12
345.031	719.12
345.259	733.12
345.487	712.12
345.714	697.12
345.942	686.12
346.17	683.12
346.397	675.12
346.625	691.12
346.853	670.12
347.08	666.12
347.308	698.12
347.535	705.12
347.763	691.12
347.99	683.12
348.218	672.12
348.445	669.12
348.673	673.12
348.9	686.12
349.128	662.12
349.355	660.12
349.583	655.12
349.81	626.12
350.037	662.12
350.265	639.12
350.492	644.12
350.72	649.12
350.947	641.12
351.174	661.12
351.402	649.12
351.629	618.12
351.856	618.12
352.083	641.12
352.311	606.12
352.538	616.12
352.765	631.12
352.992	646.12
353.22	640.12
353.447	595.12
353.674	637.12
353.901	637.12
354.128	642.12
354.355	625.12
354.583	631.12
354.81	632.12
355.037	635.12
355.264	653.12
355.491	655.12
355.718	660.12
355.945	644.12
356.172	645.12
356.399	667.12
356.626	682.12
356.853	664.12
357.08	617.12
357.307	646.12
357.534	636.12
357.761	636.12
357.988	656.12
358.215	615.12
358.441	675.12
358.668	639.12
358.895	653.12
359.122	648.12
359.349	646.12
359.576	631.12
359.802	651.12
360.029	635.12
360.256	657.12
360.483	639.12
360.709	625.12
360.936	654.12
361.163	637.12
361.39	660.12
361.616	638.12
361.843	634.12
362.07	649.12
362.296	638.12
362.523	628.12
362.749	643.12
362.976	656.12
363.203	644.12
363.429	612.12
363.656	642.12
363.882	630.12
364.109	650.12
364.335	623.12
364.562	620.12
364.788	627.12
365.015	623.12
365.241	644.12
365.468	637.12
365.694	628.12
365.92	644.12
366.147	616.12
366.373	622.12
366.599	669.12
366.826	656.12
367.052	637.12
367.278	628.12
367.505	660.12
367.731	651.12
367.957	639.12
368.184	654.12
368.41	669.12
368.636	663.12
368.862	651.12
369.089	648.12
369.315	661.12
369.541	662.12
369.767	670.12
369.993	669.12
370.219	673.12
370.445	673.12
370.672	694.12
370.898	663.12
371.124	673.12
371.35	675.12
371.576	707.12
371.802	691.12
372.028	688.12
372.254	686.12
372.48	705.12
372.706	703.12
372.932	710.12
373.158	733.12
373.384	699.12
373.61	709.12
373.835	705.12
374.061	698.12
374.287	719.12
374.513	715.12
374.739	738.12
374.965	789.12
375.191	793.12
375.416	784.12
375.642	734.12
375.868	742.12
376.094	694.12
376.319	702.12
376.545	710.12
376.771	711.12
376.997	709.12
377.222	731.12
377.448	694.12
377.674	691.12
377.899	708.12
378.125	699.12
378.35	688.12
378.576	677.12
378.802	683.12
379.027	699.12
379.253	684.12
379.478	676.12
379.704	678.12
379.929	700.12
380.155	689.12
380.38	689.12
380.606	696.12
380.831	684.12
381.057	712.12
381.282	702.12
381.507	711.12
381.733	687.12
381.958	721.12
382.184	691.12
382.409	717.12
382.634	721.12
382.86	737.12
383.085	753.12
383.31	762.12
383.535	772.12
383.761	782.12
383.986	813.12
384.211	836.12
384.436	825.12
384.662	834.12
384.887	850.12
385.112	849.12
385.337	849.12
385.562	850.12
385.787	831.12
386.013	853.12
386.238	851.12
386.463	832.12
386.688	840.12
386.913	840.12
387.138	836.12
387.363	821.12
387.588	828.12
387.813	854.12
388.038	823.12
388.263	827.12
388.488	866.12
388.713	838.12
388.938	833.12
389.163	802.12
389.387	820.12
389.612	837.12
389.837	829.12
390.062	826.12
390.287	823.12
390.512	821.12
390.736	854.12
390.961	838.12
391.186	852.12
391.411	879.12
391.636	902.12
391.86	929.12
392.085	953.12
392.31	945.12
392.534	917.12
392.759	923.12
392.984	905.12
393.208	900.12
393.433	880.12
393.658	895.12
393.882	892.12
394.107	897.12
394.331	913.12
394.556	906.12
394.78	902.12
395.005	924.12
395.229	902.12
395.454	959.12
395.678	938.12
395.903	953.12
396.127	923.12
396.352	898.12
396.576	888.12
396.801	905.12
397.025	913.12
397.249	866.12
397.474	904.12
397.698	945.12
397.922	916.12
398.147	934.12
398.371	945.12
398.595	990.12
398.82	1009.12
399.044	1077.12
399.268	1193.12
399.492	1427.12
399.717	1679.12
399.941	1678.12
400.165	1426.12
400.389	1253.12
400.613	1146.12
400.837	1119.12
401.062	1093.12
401.286	1063.12
401.51	1053.12
401.734	1060.12
401.958	1050.12
402.182	1069.12
402.406	1092.12
402.63	1104.12
402.854	1161.12
403.078	1157.12
403.302	1163.12
403.526	1218.12
403.75	1230.12
403.974	1257.12
404.198	1268.12
404.422	1302.12
404.645	1224.12
404.869	1225.12
405.093	1226.12
405.317	1193.12
405.541	1178.12
405.765	1155.12
405.988	1160.12
406.212	1146.12
406.436	1142.12
406.66	1153.12
406.883	1173.12
407.107	1286.12
407.331	1327.12
407.555	1379.12
407.778	1382.12
408.002	1321.12
408.226	1319.12
408.449	1272.12
408.673	1237.12
408.896	1195.12
409.12	1193.12
409.344	1225.12
409.567	1222.12
409.791	1257.12
410.014	1231.12
410.238	1217.12
410.461	1231.12
410.685	1210.12
410.908	1161.12
411.132	1126.12
411.355	1099.12
411.578	1091.12
411.802	1099.12
412.025	1124.12
412.249	1111.12
412.472	1101.12
412.695	1061.12
412.919	1044.12
413.142	1064.12
413.365	1086.12
413.589	1084.12
413.812	1039.12
414.035	1020.12
414.258	1059.12
414.482	1093.12
414.705	1099.12
414.928	1097.12
415.151	1082.12
415.374	1076.12
415.597	1056.12
415.821	1032.12
416.044	1041.12
416.267	1060.12
416.49	1011.12
416.713	990.12
416.936	1045.12
417.159	1009.12
417.382	1039.12
417.605	1043.12
417.828	1047.12
418.051	1042.12
418.274	1038.12
418.497	1031.12
418.72	1091.12
418.943	1082.12
419.166	1162.12
419.389	1235.12
419.611	1209.12
419.834	1147.12
420.057	1079.12
420.28	1061.12
420.503	1025.12
420.726	1059.12
420.948	1004.12
421.171	1051.12
421.394	1043.12
421.617	1012.12
421.839	1028.12
422.062	1065.12
422.285	1052.12
422.507	1089.12
422.73	1115.12
422.953	1069.12
423.175	1134.12
423.398	1108.12
423.621	1115.12
423.843	1157.12
424.066	1132.12
424.288	1097.12
424.511	1099.12
424.733	1096.12
424.956	1063.12
425.178	1064.12
425.401	1056.12
425.623	1058.12
425.846	1054.12
426.068	970.12
426.291	994.12
426.513	980.12
426.735	966.12
426.958	992.12
427.18	945.12
427.402	973.12
427.625	943.12
427.847	942.12
428.069	910.12
428.292	932.12
428.514	929.12
428.736	898.12
428.958	931.12
429.181	912.12
429.403	869.12
429.625	881.12
429.847	903.12
430.069	911.12
430.292	895.12
430.514	902.12
430.736	903.12
430.958	897.12
431.18	894.12
431.402	897.12
431.624	899.12
431.846	950.12
432.068	947.12
432.29	952.12
432.512	940.12
432.734	934.12
432.956	885.12
433.178	915.12
433.4	924.12
433.622	943.12
433.844	950.12
434.066	965.12
434.287	966.12
434.509	997.12
434.731	1005.12
434.953	1074.12
435.175	1097.12
435.397	1078.12
435.618	1024.12
435.84	986.12
436.062	957.12
436.284	902.12
436.505	940.12
436.727	931.12
436.949	947.12
437.17	921.12
437.392	923.12
437.614	894.12
437.835	865.12
438.057	923.12
438.278	878.12
438.5	892.12
438.721	876.12
438.943	901.12
439.165	875.12
439.386	919.12
439.608	933.12
439.829	933.12
440.05	933.12
440.272	934.12
440.493	962.12
440.715	949.12
440.936	947.12
441.158	1001.12
441.379	1010.12
441.6	1075.12
441.822	1073.12
442.043	1063.12
442.264	1045.12
442.486	997.12
442.707	1020.12
442.928	1035.12
443.149	1015.12
443.371	1053.12
443.592	1049.12
443.813	1051.12
444.034	1068.12
444.255	1112.12
444.476	1125.12
444.698	1215.12
444.919	1293.12
445.14	1338.12
445.361	1197.12
445.582	1075.12
445.803	1029.12
446.024	1003.12
446.245	981.12
446.466	953.12
446.687	942.12
446.908	927.12
447.129	888.12
447.35	890.12
447.571	920.12
447.792	863.12
448.013	887.12
448.234	857.12
448.455	860.12
448.675	884.12
448.896	862.12
449.117	859.12
449.338	854.12
449.559	834.12
449.779	858.12
450	855.12
450.221	853.12
450.442	878.12
450.662	878.12
450.883	896.12
451.104	897.12
451.324	892.12
451.545	892.12
451.766	877.12
451.986	874.12
452.207	884.12
452.428	858.12
452.648	863.12
452.869	844.12
453.089	819.12
453.31	851.12
453.53	814.12
453.751	834.12
453.971	845.12
454.192	848.12
454.412	836.12
454.633	824.12
454.853	819.12
455.073	779.12
455.294	806.12
455.514	795.12
455.734	804.12
455.955	789.12
456.175	812.12
456.395	815.12
456.616	814.12
456.836	843.12
457.056	806.12
457.276	789.12
457.497	817.12
457.717	821.12
457.937	822.12
458.157	799.12
458.377	828.12
458.598	871.12
458.818	870.12
459.038	907.12
459.258	929.12
459.478	933.12
459.698	967.12
459.918	993.12
460.138	1038.12
460.358	1082.12
460.578	1107.12
460.798	1109.12
461.018	1149.12
461.238	1118.12
461.458	1107.12
461.678	1092.12
461.898	1106.12
462.118	1134.12
462.338	1178.12
462.558	1197.12
462.777	1274.12
462.997	1386.12
463.217	1513.12
463.437	1573.12
463.657	1420.12
463.876	1286.12
464.096	1303.12
464.316	1339.12
464.536	1346.12
464.755	1276.12
464.975	1223.12
465.195	1154.12
465.414	1079.12
465.634	1035.12
465.854	998.12
466.073	985.12
466.293	949.12
466.512	926.12
466.732	930.12
466.951	914.12
467.171	897.12
467.391	908.12
467.61	904.12
467.829	916.12
468.049	888.12
468.268	886.12
468.488	870.12
468.707	864.12
468.927	865.12
469.146	831.12
469.365	860.12
469.585	858.12
469.804	912.12
470.023	946.12
470.243	931.12
470.462	916.12
470.681	946.12
470.901	905.12
471.12	907.12
471.339	882.12
471.558	878.12
471.777	904.12
471.997	879.12
472.216	893.12
472.435	851.12
472.654	831.12
472.873	854.12
473.092	847.12
473.311	851.12
473.53	841.12
473.749	812.12
473.968	838.12
474.187	827.12
474.406	826.12
474.625	843.12
474.844	853.12
475.063	867.12
475.282	852.12
475.501	869.12
475.72	852.12
475.939	858.12
476.158	885.12
476.377	856.12
476.596	892.12
476.814	915.12
477.033	891.12
477.252	892.12
477.471	939.12
477.69	945.12
477.908	951.12
478.127	1010.12
478.346	995.12
478.564	1026.12
478.783	1052.12
479.002	1089.12
479.22	1058.12
479.439	1065.12
479.658	1068.12
479.876	1048.12
480.095	1043.12
480.313	1132.12
480.532	1144.12
480.751	1137.12
480.969	1105.12
481.188	1029.12
481.406	1025.12
481.624	998.12
481.843	966.12
482.061	966.12
482.28	955.12
482.498	949.12
482.717	945.12
482.935	916.12
483.153	953.12
483.372	957.12
483.59	982.12
483.808	941.12
484.027	953.12
484.245	935.12
484.463	942.12
484.681	987.12
484.9	975.12
485.118	1007.12
485.336	975.12
485.554	1004.12
485.772	999.12
485.99	1057.12
486.209	1025.12
486.427	1039.12
486.645	1025.12
486.863	1036.12
487.081	1025.12
487.299	1027.12
487.517	1012.12
487.735	1013.12
487.953	1003.12
488.171	1001.12
488.389	990.12
488.607	964.12
488.825	990.12
489.043	972.12
489.261	1013.12
489.479	978.12
489.696	983.12
489.914	1005.12
490.132	1006.12
490.35	1010.12
490.568	1001.12
490.786	1001.12
491.003	965.12
491.221	1015.12
491.439	1010.12
491.657	1016.12
491.874	1015.12
492.092	988.12
492.31	1012.12
492.527	1027.12
492.745	1039.12
492.963	1038.12
493.18	1071.12
493.398	1037.12
493.615	1029.12
493.833	1067.12
494.05	1025.12
494.268	1045.12
494.485	1086.12
494.703	1063.12
494.92	1057.12
495.138	1061.12
495.355	1046.12
495.573	1085.12
495.79	1075.12
496.008	1083.12
496.225	1081.12
496.442	1095.12
496.66	1077.12
496.877	1108.12
497.094	1149.12
497.312	1116.12
497.529	1171.12
497.746	1188.12
497.963	1236.12
498.181	1315.12
