Data from Ni(NO3)2@0.5M.TitratingCurve.Agarose3%dH2O.NegLispCup.LampEnergy10.LIBS07252019_HRD10591_17-57-41-563.txt Node
Date: Thu Jul 25 17:57:41 EDT 2019
User: cochatt
Spectrometer: HR+D1059
Trigger mode: 1
Integration Time (sec): 1.000000E-1
Scans to average: 1
Electric dark correction enabled: true
Nonlinearity correction enabled: false
Boxcar width: 0
XAxis mode: Wavelengths
Number of Pixels in Spectrum: 2048
>>>>>Begin Spectral Data<<<<<
223.165	-12.5
223.4	-12.5
223.635	-12.5
223.869	-18.5
224.104	-11.5
224.338	-17.5
224.573	-25.5
224.808	-13.5
225.042	-3.5
225.277	-0.5
225.511	7.5
225.746	-3.5
225.98	14.5
226.215	-6.5
226.449	10.5
226.683	21.5
226.918	30.5
227.152	28.5
227.387	35.5
227.621	47.5
227.856	62.5
228.09	45.5
228.324	47.5
228.559	54.5
228.793	81.5
229.027	124.5
229.262	136.5
229.496	151.5
229.73	155.5
229.964	177.5
230.199	182.5
230.433	203.5
230.667	204.5
230.901	186.5
231.136	161.5
231.37	181.5
231.604	184.5
231.838	209.5
232.072	213.5
232.306	200.5
232.541	201.5
232.775	175.5
233.009	190.5
233.243	173.5
233.477	184.5
233.711	186.5
233.945	187.5
234.179	190.5
234.413	176.5
234.647	196.5
234.881	183.5
235.115	185.5
235.349	188.5
235.583	177.5
235.817	169.5
236.051	196.5
236.285	195.5
236.519	185.5
236.753	200.5
236.987	193.5
237.221	188.5
237.455	188.5
237.689	196.5
237.922	201.5
238.156	202.5
238.39	193.5
238.624	197.5
238.858	206.5
239.091	210.5
239.325	216.5
239.559	226.5
239.793	240.5
240.027	262.5
240.26	219.5
240.494	222.5
240.728	213.5
240.961	230.5
241.195	227.5
241.429	243.5
241.662	246.5
241.896	251.5
242.13	262.5
242.363	227.5
242.597	250.5
242.83	243.5
243.064	230.5
243.298	234.5
243.531	250.5
243.765	256.5
243.998	267.5
244.232	289.5
244.465	273.5
244.699	255.5
244.932	263.5
245.166	266.5
245.399	275.5
245.633	257.5
245.866	287.5
246.099	301.5
246.333	283.5
246.566	309.5
246.8	281.5
247.033	288.5
247.266	311.5
247.5	292.5
247.733	301.5
247.966	296.5
248.2	319.5
248.433	308.5
248.666	326.5
248.899	338.5
249.133	333.5
249.366	329.5
249.599	332.5
249.832	327.5
250.066	329.5
250.299	349.5
250.532	354.5
250.765	352.5
250.998	371.5
251.231	380.5
251.465	371.5
251.698	368.5
251.931	370.5
252.164	384.5
252.397	376.5
252.63	380.5
252.863	372.5
253.096	385.5
253.329	388.5
253.562	381.5
253.795	397.5
254.028	405.5
254.261	410.5
254.494	426.5
254.727	435.5
254.96	427.5
255.193	429.5
255.426	414.5
255.659	440.5
255.892	432.5
256.124	419.5
256.357	424.5
256.59	442.5
256.823	445.5
257.056	458.5
257.289	437.5
257.521	438.5
257.754	453.5
257.987	475.5
258.22	456.5
258.452	465.5
258.685	481.5
258.918	467.5
259.151	478.5
259.383	470.5
259.616	483.5
259.849	474.5
260.081	488.5
260.314	480.5
260.547	473.5
260.779	466.5
261.012	487.5
261.244	504.5
261.477	514.5
261.71	512.5
261.942	505.5
262.175	520.5
262.407	500.5
262.64	515.5
262.872	519.5
263.105	512.5
263.337	530.5
263.57	517.5
263.802	527.5
264.035	537.5
264.267	511.5
264.499	534.5
264.732	556.5
264.964	538.5
265.197	536.5
265.429	540.5
265.661	527.5
265.894	539.5
266.126	565.5
266.358	556.5
266.591	555.5
266.823	561.5
267.055	556.5
267.287	570.5
267.52	549.5
267.752	574.5
267.984	566.5
268.216	562.5
268.448	583.5
268.681	576.5
268.913	568.5
269.145	568.5
269.377	586.5
269.609	594.5
269.841	589.5
270.073	590.5
270.306	575.5
270.538	563.5
270.77	588.5
271.002	598.5
271.234	602.5
271.466	611.5
271.698	594.5
271.93	608.5
272.162	613.5
272.394	609.5
272.626	634.5
272.858	621.5
273.09	608.5
273.322	622.5
273.553	630.5
273.785	644.5
274.017	628.5
274.249	607.5
274.481	635.5
274.713	628.5
274.945	645.5
275.176	649.5
275.408	631.5
275.64	652.5
275.872	640.5
276.104	658.5
276.335	657.5
276.567	659.5
276.799	665.5
277.031	686.5
277.262	650.5
277.494	654.5
277.726	650.5
277.957	677.5
278.189	675.5
278.421	673.5
278.652	681.5
278.884	677.5
279.115	697.5
279.347	680.5
279.579	682.5
279.81	695.5
280.042	668.5
280.273	653.5
280.505	707.5
280.736	695.5
280.968	694.5
281.199	682.5
281.431	707.5
281.662	733.5
281.894	697.5
282.125	695.5
282.356	717.5
282.588	715.5
282.819	710.5
283.051	704.5
283.282	713.5
283.513	692.5
283.745	714.5
283.976	706.5
284.207	716.5
284.439	705.5
284.67	715.5
284.901	734.5
285.132	720.5
285.364	721.5
285.595	737.5
285.826	726.5
286.057	734.5
286.288	721.5
286.52	733.5
286.751	746.5
286.982	743.5
287.213	742.5
287.444	741.5
287.675	724.5
287.906	722.5
288.138	768.5
288.369	741.5
288.6	774.5
288.831	754.5
289.062	752.5
289.293	758.5
289.524	756.5
289.755	746.5
289.986	747.5
290.217	749.5
290.448	742.5
290.679	766.5
290.91	775.5
291.141	794.5
291.371	764.5
291.602	787.5
291.833	754.5
292.064	754.5
292.295	773.5
292.526	737.5
292.757	736.5
292.987	758.5
293.218	760.5
293.449	766.5
293.68	786.5
293.91	782.5
294.141	771.5
294.372	757.5
294.603	760.5
294.833	764.5
295.064	746.5
295.295	748.5
295.525	755.5
295.756	780.5
295.987	793.5
296.217	790.5
296.448	798.5
296.679	792.5
296.909	771.5
297.14	757.5
297.37	774.5
297.601	788.5
297.831	805.5
298.062	789.5
298.292	813.5
298.523	812.5
298.753	806.5
298.984	820.5
299.214	800.5
299.445	811.5
299.675	810.5
299.905	840.5
300.136	842.5
300.366	838.5
300.597	864.5
300.827	841.5
301.057	835.5
301.288	858.5
301.518	840.5
301.748	828.5
301.979	854.5
302.209	852.5
302.439	859.5
302.669	852.5
302.9	842.5
303.13	843.5
303.36	859.5
303.59	845.5
303.82	844.5
304.051	872.5
304.281	873.5
304.511	850.5
304.741	870.5
304.971	873.5
305.201	901.5
305.431	920.5
305.661	898.5
305.891	884.5
306.121	874.5
306.352	880.5
306.582	874.5
306.812	881.5
307.042	873.5
307.272	878.5
307.502	851.5
307.731	897.5
307.961	868.5
308.191	896.5
308.421	900.5
308.651	891.5
308.881	880.5
309.111	885.5
309.341	907.5
309.571	915.5
309.8	911.5
310.03	932.5
310.26	972.5
310.49	964.5
310.72	953.5
310.949	929.5
311.179	922.5
311.409	938.5
311.639	954.5
311.868	955.5
312.098	949.5
312.328	977.5
312.557	944.5
312.787	947.5
313.017	961.5
313.246	980.5
313.476	990.5
313.706	1000.5
313.935	998.5
314.165	969.5
314.394	983.5
314.624	980.5
314.853	974.5
315.083	1000.5
315.312	1024.5
315.542	1000.5
315.771	998.5
316.001	1013.5
316.23	1010.5
316.46	1029.5
316.689	1017.5
316.919	1030.5
317.148	1040.5
317.377	1014.5
317.607	1028.5
317.836	1014.5
318.065	1024.5
318.295	1040.5
318.524	1028.5
318.753	1072.5
318.983	1027.5
319.212	1073.5
319.441	1064.5
319.67	1065.5
319.9	1054.5
320.129	1079.5
320.358	1091.5
320.587	1102.5
320.816	1093.5
321.046	1097.5
321.275	1063.5
321.504	1077.5
321.733	1110.5
321.962	1090.5
322.191	1106.5
322.42	1126.5
322.649	1097.5
322.878	1101.5
323.108	1107.5
323.337	1132.5
323.566	1108.5
323.795	1129.5
324.024	1136.5
324.253	1160.5
324.482	1179.5
324.71	1154.5
324.939	1152.5
325.168	1151.5
325.397	1141.5
325.626	1159.5
325.855	1189.5
326.084	1162.5
326.313	1169.5
326.542	1163.5
326.77	1177.5
326.999	1187.5
327.228	1162.5
327.457	1197.5
327.686	1175.5
327.914	1218.5
328.143	1218.5
328.372	1190.5
328.6	1227.5
328.829	1228.5
329.058	1212.5
329.287	1203.5
329.515	1191.5
329.744	1189.5
329.972	1220.5
330.201	1242.5
330.43	1236.5
330.658	1210.5
330.887	1200.5
331.115	1254.5
331.344	1250.5
331.572	1272.5
331.801	1248.5
332.03	1250.5
332.258	1250.5
332.486	1300.5
332.715	1254.5
332.943	1267.5
333.172	1285.5
333.4	1244.5
333.629	1270.5
333.857	1309.5
334.085	1291.5
334.314	1275.5
334.542	1306.5
334.771	1328.5
334.999	1289.5
335.227	1335.5
335.455	1326.5
335.684	1336.5
335.912	1316.5
336.14	1348.5
336.369	1346.5
336.597	1336.5
336.825	1332.5
337.053	1386.5
337.281	1358.5
337.51	1344.5
337.738	1348.5
337.966	1315.5
338.194	1336.5
338.422	1367.5
338.65	1344.5
338.878	1300.5
339.106	1350.5
339.334	1353.5
339.562	1356.5
339.79	1320.5
340.018	1308.5
340.246	1332.5
340.474	1308.5
340.702	1332.5
340.93	1293.5
341.158	1322.5
341.386	1366.5
341.614	1394.5
341.842	1354.5
342.07	1284.5
342.298	1314.5
342.526	1304.5
342.754	1302.5
342.981	1306.5
343.209	1322.5
343.437	1352.5
343.665	1322.5
343.893	1356.5
344.12	1353.5
344.348	1297.5
344.576	1331.5
344.804	1345.5
345.031	1358.5
345.259	1313.5
345.487	1330.5
345.714	1333.5
345.942	1346.5
346.17	1368.5
346.397	1369.5
346.625	1347.5
346.853	1301.5
347.08	1300.5
347.308	1300.5
347.535	1285.5
347.763	1297.5
347.99	1284.5
348.218	1261.5
348.445	1280.5
348.673	1273.5
348.9	1266.5
349.128	1306.5
349.355	1325.5
349.583	1316.5
349.81	1299.5
350.037	1280.5
350.265	1282.5
350.492	1260.5
350.72	1261.5
350.947	1276.5
351.174	1313.5
351.402	1308.5
351.629	1325.5
351.856	1336.5
352.083	1288.5
352.311	1330.5
352.538	1366.5
352.765	1314.5
352.992	1255.5
353.22	1241.5
353.447	1244.5
353.674	1273.5
353.901	1243.5
354.128	1300.5
354.355	1254.5
354.583	1256.5
354.81	1256.5
355.037	1253.5
355.264	1254.5
355.491	1230.5
355.718	1237.5
355.945	1248.5
356.172	1286.5
356.399	1284.5
356.626	1292.5
356.853	1320.5
357.08	1301.5
357.307	1270.5
357.534	1293.5
357.761	1248.5
357.988	1257.5
358.215	1263.5
358.441	1223.5
358.668	1234.5
358.895	1235.5
359.122	1224.5
359.349	1260.5
359.576	1227.5
359.802	1292.5
360.029	1254.5
360.256	1249.5
360.483	1236.5
360.709	1257.5
360.936	1255.5
361.163	1253.5
361.39	1272.5
361.616	1259.5
361.843	1319.5
362.07	1329.5
362.296	1304.5
362.523	1266.5
362.749	1287.5
362.976	1234.5
363.203	1282.5
363.429	1234.5
363.656	1251.5
363.882	1248.5
364.109	1266.5
364.335	1243.5
364.562	1259.5
364.788	1273.5
365.015	1289.5
365.241	1244.5
365.468	1261.5
365.694	1256.5
365.92	1243.5
366.147	1245.5
366.373	1252.5
366.599	1282.5
366.826	1258.5
367.052	1267.5
367.278	1274.5
367.505	1280.5
367.731	1292.5
367.957	1271.5
368.184	1297.5
368.41	1276.5
368.636	1270.5
368.862	1251.5
369.089	1288.5
369.315	1287.5
369.541	1269.5
369.767	1268.5
369.993	1280.5
370.219	1272.5
370.445	1284.5
370.672	1272.5
370.898	1298.5
371.124	1249.5
371.35	1309.5
371.576	1309.5
371.802	1274.5
372.028	1294.5
372.254	1273.5
372.48	1294.5
372.706	1304.5
372.932	1290.5
373.158	1261.5
373.384	1258.5
373.61	1257.5
373.835	1254.5
374.061	1314.5
374.287	1307.5
374.513	1285.5
374.739	1300.5
374.965	1290.5
375.191	1275.5
375.416	1301.5
375.642	1269.5
375.868	1282.5
376.094	1292.5
376.319	1269.5
376.545	1266.5
376.771	1258.5
376.997	1279.5
377.222	1271.5
377.448	1264.5
377.674	1252.5
377.899	1208.5
378.125	1241.5
378.35	1271.5
378.576	1248.5
378.802	1251.5
379.027	1239.5
379.253	1250.5
379.478	1251.5
379.704	1224.5
379.929	1214.5
380.155	1240.5
380.38	1233.5
380.606	1234.5
380.831	1187.5
381.057	1242.5
381.282	1223.5
381.507	1196.5
381.733	1240.5
381.958	1262.5
382.184	1250.5
382.409	1229.5
382.634	1264.5
382.86	1230.5
383.085	1244.5
383.31	1271.5
383.535	1238.5
383.761	1282.5
383.986	1269.5
384.211	1279.5
384.436	1263.5
384.662	1284.5
384.887	1272.5
385.112	1293.5
385.337	1277.5
385.562	1309.5
385.787	1285.5
386.013	1310.5
386.238	1306.5
386.463	1318.5
386.688	1324.5
386.913	1308.5
387.138	1305.5
387.363	1336.5
387.588	1323.5
387.813	1347.5
388.038	1288.5
388.263	1336.5
388.488	1352.5
388.713	1308.5
388.938	1293.5
389.163	1316.5
389.387	1316.5
389.612	1299.5
389.837	1312.5
390.062	1322.5
390.287	1329.5
390.512	1320.5
390.736	1306.5
390.961	1329.5
391.186	1350.5
391.411	1314.5
391.636	1314.5
391.86	1354.5
392.085	1353.5
392.31	1331.5
392.534	1314.5
392.759	1354.5
392.984	1321.5
393.208	1321.5
393.433	1317.5
393.658	1318.5
393.882	1307.5
394.107	1330.5
394.331	1333.5
394.556	1350.5
394.78	1336.5
395.005	1317.5
395.229	1318.5
395.454	1336.5
395.678	1331.5
395.903	1324.5
396.127	1339.5
396.352	1338.5
396.576	1338.5
396.801	1349.5
397.025	1337.5
397.249	1357.5
397.474	1347.5
397.698	1366.5
397.922	1393.5
398.147	1347.5
398.371	1371.5
398.595	1357.5
398.82	1405.5
399.044	1423.5
399.268	1421.5
399.492	1429.5
399.717	1422.5
399.941	1461.5
400.165	1454.5
400.389	1460.5
400.613	1430.5
400.837	1412.5
401.062	1435.5
401.286	1401.5
401.51	1418.5
401.734	1397.5
401.958	1402.5
402.182	1404.5
402.406	1377.5
402.63	1403.5
402.854	1414.5
403.078	1446.5
403.302	1429.5
403.526	1400.5
403.75	1394.5
403.974	1393.5
404.198	1385.5
404.422	1426.5
404.645	1396.5
404.869	1380.5
405.093	1424.5
405.317	1448.5
405.541	1465.5
405.765	1421.5
405.988	1441.5
406.212	1474.5
406.436	1418.5
406.66	1465.5
406.883	1464.5
407.107	1464.5
407.331	1460.5
407.555	1512.5
407.778	1463.5
408.002	1480.5
408.226	1509.5
408.449	1493.5
408.673	1501.5
408.896	1462.5
409.12	1462.5
409.344	1481.5
409.567	1448.5
409.791	1478.5
410.014	1430.5
410.238	1482.5
410.461	1459.5
410.685	1455.5
410.908	1435.5
411.132	1474.5
411.355	1434.5
411.578	1469.5
411.802	1453.5
412.025	1395.5
412.249	1462.5
412.472	1413.5
412.695	1437.5
412.919	1470.5
413.142	1400.5
413.365	1396.5
413.589	1398.5
413.812	1418.5
414.035	1388.5
414.258	1409.5
414.482	1403.5
414.705	1402.5
414.928	1396.5
415.151	1433.5
415.374	1398.5
415.597	1409.5
415.821	1379.5
416.044	1393.5
416.267	1419.5
416.49	1383.5
416.713	1352.5
416.936	1351.5
417.159	1397.5
417.382	1365.5
417.605	1347.5
417.828	1361.5
418.051	1362.5
418.274	1367.5
418.497	1321.5
418.72	1358.5
418.943	1337.5
419.166	1404.5
419.389	1474.5
419.611	1459.5
419.834	1438.5
420.057	1404.5
420.28	1392.5
420.503	1330.5
420.726	1360.5
420.948	1372.5
421.171	1335.5
421.394	1378.5
421.617	1345.5
421.839	1356.5
422.062	1373.5
422.285	1339.5
422.507	1333.5
422.73	1387.5
422.953	1388.5
423.175	1365.5
423.398	1366.5
423.621	1360.5
423.843	1385.5
424.066	1385.5
424.288	1334.5
424.511	1354.5
424.733	1372.5
424.956	1371.5
425.178	1388.5
425.401	1393.5
425.623	1362.5
425.846	1307.5
426.068	1371.5
426.291	1349.5
426.513	1334.5
426.735	1350.5
426.958	1378.5
427.18	1366.5
427.402	1371.5
427.625	1346.5
427.847	1386.5
428.069	1325.5
428.292	1365.5
428.514	1340.5
428.736	1346.5
428.958	1394.5
429.181	1368.5
429.403	1389.5
429.625	1376.5
429.847	1389.5
430.069	1349.5
430.292	1341.5
430.514	1356.5
430.736	1368.5
430.958	1370.5
431.18	1370.5
431.402	1373.5
431.624	1312.5
431.846	1329.5
432.068	1332.5
432.29	1356.5
432.512	1358.5
432.734	1369.5
432.956	1379.5
433.178	1369.5
433.4	1444.5
433.622	1416.5
433.844	1403.5
434.066	1358.5
434.287	1378.5
434.509	1381.5
434.731	1354.5
434.953	1395.5
435.175	1458.5
435.397	1422.5
435.618	1396.5
435.84	1395.5
436.062	1332.5
436.284	1380.5
436.505	1373.5
436.727	1390.5
436.949	1390.5
437.17	1345.5
437.392	1390.5
437.614	1362.5
437.835	1306.5
438.057	1333.5
438.278	1328.5
438.5	1345.5
438.721	1348.5
438.943	1374.5
439.165	1372.5
439.386	1325.5
439.608	1364.5
439.829	1310.5
440.05	1358.5
440.272	1351.5
440.493	1346.5
440.715	1352.5
440.936	1350.5
441.158	1332.5
441.379	1338.5
441.6	1373.5
441.822	1434.5
442.043	1400.5
442.264	1362.5
442.486	1364.5
442.707	1396.5
442.928	1370.5
443.149	1388.5
443.371	1400.5
443.592	1452.5
443.813	1428.5
444.034	1373.5
444.255	1419.5
444.476	1362.5
444.698	1410.5
444.919	1383.5
445.14	1532.5
445.361	1458.5
445.582	1396.5
445.803	1401.5
446.024	1332.5
446.245	1389.5
446.466	1357.5
446.687	1330.5
446.908	1332.5
447.129	1316.5
447.35	1318.5
447.571	1327.5
447.792	1291.5
448.013	1283.5
448.234	1268.5
448.455	1288.5
448.675	1262.5
448.896	1264.5
449.117	1257.5
449.338	1288.5
449.559	1275.5
449.779	1273.5
450	1245.5
450.221	1250.5
450.442	1292.5
450.662	1239.5
450.883	1243.5
451.104	1283.5
451.324	1289.5
451.545	1267.5
451.766	1251.5
451.986	1260.5
452.207	1256.5
452.428	1244.5
452.648	1266.5
452.869	1230.5
453.089	1226.5
453.31	1248.5
453.53	1238.5
453.751	1233.5
453.971	1211.5
454.192	1249.5
454.412	1250.5
454.633	1223.5
454.853	1230.5
455.073	1215.5
455.294	1232.5
455.514	1234.5
455.734	1241.5
455.955	1226.5
456.175	1237.5
456.395	1230.5
456.616	1224.5
456.836	1210.5
457.056	1243.5
457.276	1220.5
457.497	1281.5
457.717	1232.5
457.937	1245.5
458.157	1233.5
458.377	1222.5
458.598	1265.5
458.818	1217.5
459.038	1239.5
459.258	1254.5
459.478	1341.5
459.698	1369.5
459.918	1371.5
460.138	1352.5
460.358	1362.5
460.578	1341.5
460.798	1380.5
461.018	1370.5
461.238	1315.5
461.458	1326.5
461.678	1315.5
461.898	1376.5
462.118	1318.5
462.338	1366.5
462.558	1371.5
462.777	1416.5
462.997	1422.5
463.217	1422.5
463.437	1481.5
463.657	1457.5
463.876	1438.5
464.096	1420.5
464.316	1415.5
464.536	1381.5
464.755	1334.5
464.975	1336.5
465.195	1348.5
465.414	1352.5
465.634	1325.5
465.854	1309.5
466.073	1294.5
466.293	1314.5
466.512	1316.5
466.732	1309.5
466.951	1330.5
467.171	1364.5
467.391	1319.5
467.61	1303.5
467.829	1322.5
468.049	1293.5
468.268	1310.5
468.488	1305.5
468.707	1260.5
468.927	1288.5
469.146	1323.5
469.365	1312.5
469.585	1298.5
469.804	1340.5
470.023	1306.5
470.243	1317.5
470.462	1331.5
470.681	1284.5
470.901	1273.5
471.12	1322.5
471.339	1318.5
471.558	1321.5
471.777	1346.5
471.997	1328.5
472.216	1346.5
472.435	1358.5
472.654	1302.5
472.873	1350.5
473.092	1331.5
473.311	1316.5
473.53	1351.5
473.749	1354.5
473.968	1350.5
474.187	1337.5
474.406	1363.5
474.625	1382.5
474.844	1349.5
475.063	1386.5
475.282	1379.5
475.501	1401.5
475.72	1388.5
475.939	1376.5
476.158	1412.5
476.377	1400.5
476.596	1414.5
476.814	1470.5
477.033	1420.5
477.252	1425.5
477.471	1484.5
477.69	1498.5
477.908	1451.5
478.127	1486.5
478.346	1491.5
478.564	1518.5
478.783	1540.5
479.002	1582.5
479.22	1619.5
479.439	1543.5
479.658	1529.5
479.876	1573.5
480.095	1561.5
480.313	1592.5
480.532	1586.5
480.751	1581.5
480.969	1541.5
481.188	1572.5
481.406	1560.5
481.624	1612.5
481.843	1566.5
482.061	1582.5
482.28	1586.5
482.498	1590.5
482.717	1609.5
482.935	1636.5
483.153	1672.5
483.372	1664.5
483.59	1673.5
483.808	1639.5
484.027	1612.5
484.245	1649.5
484.463	1664.5
484.681	1681.5
484.9	1650.5
485.118	1645.5
485.336	1655.5
485.554	1656.5
485.772	1604.5
485.99	1660.5
486.209	1620.5
486.427	1644.5
486.645	1644.5
486.863	1696.5
487.081	1692.5
487.299	1688.5
487.517	1686.5
487.735	1739.5
487.953	1732.5
488.171	1704.5
488.389	1688.5
488.607	1670.5
488.825	1676.5
489.043	1648.5
489.261	1696.5
489.479	1678.5
489.696	1689.5
489.914	1648.5
490.132	1670.5
490.35	1668.5
490.568	1656.5
490.786	1748.5
491.003	1672.5
491.221	1725.5
491.439	1698.5
491.657	1738.5
491.874	1730.5
492.092	1742.5
492.31	1755.5
492.527	1732.5
492.745	1726.5
492.963	1728.5
493.18	1732.5
493.398	1754.5
493.615	1725.5
493.833	1697.5
494.05	1715.5
494.268	1702.5
494.485	1720.5
494.703	1692.5
494.92	1731.5
495.138	1750.5
495.355	1739.5
495.573	1747.5
495.79	1723.5
496.008	1780.5
496.225	1745.5
496.442	1777.5
496.66	1773.5
496.877	1806.5
497.094	1780.5
497.312	1784.5
497.529	1798.5
497.746	1786.5
497.963	1809.5
498.181	1799.5
498.398	1834.5
498.615	1853.5
498.832	1851.5
499.049	1860.5
499.267	1923.5
499.484	1898.5
499.701	1928.5
499.918	1969.5
500.135	1970.5
500.352	2028.5
500.569	2035.5
500.786	2014.5
501.003	2023.5
501.22	1983.5
501.437	1960.5
501.654	1908.5
501.871	1942.5
502.088	1917.5
502.305	1892.5
502.522	1854.5
502.739	1825.5
502.956	1763.5
503.172	1771.5
503.389	1726.5
503.606	1762.5
503.823	1738.5
504.04	1709.5
504.256	1705.5
504.473	1706.5
504.69	1664.5
504.907	1643.5
505.123	1676.5
505.34	1636.5
505.557	1586.5
505.773	1606.5
505.99	1635.5
506.207	1562.5
506.423	1552.5
506.64	1566.5
506.856	1534.5
507.073	1555.5
