Data from Ni(NO3)2Standard.Agarose3%.GreenCap.LampEnergy5.5.E.O_HRD10591_14-39-57-188.txt Node
Date: Mon Jul 22 14:39:57 EDT 2019
User: cochatt
Spectrometer: HR+D1059
Trigger mode: 1
Integration Time (sec): 1.000000E-1
Scans to average: 1
Electric dark correction enabled: true
Nonlinearity correction enabled: false
Boxcar width: 0
XAxis mode: Wavelengths
Number of Pixels in Spectrum: 2048
>>>>>Begin Spectral Data<<<<<
223.165	-9.56
223.4	-9.56
223.635	-9.56
223.869	-10.56
224.104	-21.56
224.338	-16.56
224.573	-7.56
224.808	-17.56
225.042	-5.56
225.277	6.44
225.511	-7.56
225.746	11.44
225.98	2.44
226.215	6.44
226.449	2.44
226.683	13.44
226.918	13.44
227.152	40.44
227.387	39.44
227.621	27.44
227.856	51.44
228.09	54.44
228.324	43.44
228.559	46.44
228.793	52.44
229.027	77.44
229.262	60.44
229.496	81.44
229.73	64.44
229.964	80.44
230.199	78.44
230.433	75.44
230.667	71.44
230.901	85.44
231.136	77.44
231.37	82.44
231.604	73.44
231.838	98.44
232.072	80.44
232.306	73.44
232.541	64.44
232.775	78.44
233.009	91.44
233.243	74.44
233.477	88.44
233.711	73.44
233.945	86.44
234.179	86.44
234.413	85.44
234.647	93.44
234.881	87.44
235.115	80.44
235.349	82.44
235.583	78.44
235.817	81.44
236.051	70.44
236.285	86.44
236.519	77.44
236.753	86.44
236.987	83.44
237.221	63.44
237.455	81.44
237.689	83.44
237.922	79.44
238.156	88.44
238.39	88.44
238.624	63.44
238.858	78.44
239.091	72.44
239.325	72.44
239.559	88.44
239.793	77.44
240.027	81.44
240.26	80.44
240.494	79.44
240.728	83.44
240.961	79.44
241.195	80.44
241.429	83.44
241.662	72.44
241.896	78.44
242.13	82.44
242.363	80.44
242.597	70.44
242.83	76.44
243.064	72.44
243.298	73.44
243.531	74.44
243.765	61.44
243.998	72.44
244.232	83.44
244.465	85.44
244.699	80.44
244.932	78.44
245.166	73.44
245.399	80.44
245.633	76.44
245.866	84.44
246.099	87.44
246.333	92.44
246.566	83.44
246.8	81.44
247.033	64.44
247.266	72.44
247.5	79.44
247.733	71.44
247.966	73.44
248.2	79.44
248.433	83.44
248.666	90.44
248.899	80.44
249.133	99.44
249.366	79.44
249.599	77.44
249.832	83.44
250.066	76.44
250.299	86.44
250.532	82.44
250.765	71.44
250.998	82.44
251.231	82.44
251.465	74.44
251.698	67.44
251.931	70.44
252.164	80.44
252.397	71.44
252.63	81.44
252.863	78.44
253.096	81.44
253.329	70.44
253.562	71.44
253.795	76.44
254.028	83.44
254.261	68.44
254.494	75.44
254.727	80.44
254.96	81.44
255.193	92.44
255.426	89.44
255.659	81.44
255.892	85.44
256.124	84.44
256.357	78.44
256.59	74.44
256.823	81.44
257.056	103.44
257.289	90.44
257.521	95.44
257.754	80.44
257.987	75.44
258.22	71.44
258.452	83.44
258.685	86.44
258.918	93.44
259.151	71.44
259.383	81.44
259.616	85.44
259.849	75.44
260.081	94.44
260.314	84.44
260.547	74.44
260.779	93.44
261.012	89.44
261.244	84.44
261.477	93.44
261.71	86.44
261.942	81.44
262.175	78.44
262.407	77.44
262.64	85.44
262.872	92.44
263.105	63.44
263.337	77.44
263.57	97.44
263.802	90.44
264.035	97.44
264.267	82.44
264.499	76.44
264.732	89.44
264.964	90.44
265.197	86.44
265.429	86.44
265.661	92.44
265.894	93.44
266.126	87.44
266.358	84.44
266.591	68.44
266.823	95.44
267.055	87.44
267.287	84.44
267.52	83.44
267.752	80.44
267.984	71.44
268.216	83.44
268.448	98.44
268.681	80.44
268.913	86.44
269.145	81.44
269.377	96.44
269.609	79.44
269.841	76.44
270.073	102.44
270.306	87.44
270.538	96.44
270.77	82.44
271.002	88.44
271.234	88.44
271.466	77.44
271.698	86.44
271.93	100.44
272.162	79.44
272.394	80.44
272.626	90.44
272.858	85.44
273.09	78.44
273.322	77.44
273.553	88.44
273.785	80.44
274.017	70.44
274.249	68.44
274.481	87.44
274.713	91.44
274.945	78.44
275.176	80.44
275.408	93.44
275.64	85.44
275.872	91.44
276.104	90.44
276.335	80.44
276.567	74.44
276.799	86.44
277.031	84.44
277.262	88.44
277.494	92.44
277.726	84.44
277.957	82.44
278.189	86.44
278.421	79.44
278.652	82.44
278.884	91.44
279.115	78.44
279.347	91.44
279.579	74.44
279.81	87.44
280.042	91.44
280.273	85.44
280.505	113.44
280.736	87.44
280.968	83.44
281.199	85.44
281.431	90.44
281.662	81.44
281.894	82.44
282.125	78.44
282.356	81.44
282.588	89.44
282.819	79.44
283.051	81.44
283.282	85.44
283.513	76.44
283.745	100.44
283.976	83.44
284.207	89.44
284.439	85.44
284.67	79.44
284.901	86.44
285.132	83.44
285.364	86.44
285.595	80.44
285.826	88.44
286.057	84.44
286.288	88.44
286.52	79.44
286.751	87.44
286.982	84.44
287.213	90.44
287.444	106.44
287.675	86.44
287.906	84.44
288.138	97.44
288.369	94.44
288.6	82.44
288.831	80.44
289.062	82.44
289.293	91.44
289.524	84.44
289.755	76.44
289.986	91.44
290.217	91.44
290.448	96.44
290.679	88.44
290.91	89.44
291.141	91.44
291.371	85.44
291.602	83.44
291.833	87.44
292.064	93.44
292.295	91.44
292.526	107.44
292.757	83.44
292.987	95.44
293.218	91.44
293.449	84.44
293.68	97.44
293.91	92.44
294.141	85.44
294.372	93.44
294.603	89.44
294.833	83.44
295.064	85.44
295.295	75.44
295.525	89.44
295.756	87.44
295.987	91.44
296.217	86.44
296.448	100.44
296.679	91.44
296.909	90.44
297.14	86.44
297.37	96.44
297.601	90.44
297.831	85.44
298.062	79.44
298.292	91.44
298.523	110.44
298.753	84.44
298.984	82.44
299.214	90.44
299.445	95.44
299.675	78.44
299.905	97.44
300.136	98.44
300.366	77.44
300.597	89.44
300.827	92.44
301.057	96.44
301.288	76.44
301.518	81.44
301.748	80.44
301.979	87.44
302.209	87.44
302.439	91.44
302.669	100.44
302.9	84.44
303.13	95.44
303.36	96.44
303.59	86.44
303.82	79.44
304.051	82.44
304.281	91.44
304.511	101.44
304.741	76.44
304.971	84.44
305.201	78.44
305.431	92.44
305.661	80.44
305.891	99.44
306.121	95.44
306.352	103.44
306.582	77.44
306.812	81.44
307.042	82.44
307.272	103.44
307.502	94.44
307.731	98.44
307.961	95.44
308.191	97.44
308.421	102.44
308.651	96.44
308.881	95.44
309.111	89.44
309.341	87.44
309.571	88.44
309.8	79.44
310.03	85.44
310.26	82.44
310.49	86.44
310.72	89.44
310.949	92.44
311.179	91.44
311.409	87.44
311.639	97.44
311.868	85.44
312.098	99.44
312.328	90.44
312.557	97.44
312.787	93.44
313.017	82.44
313.246	79.44
313.476	88.44
313.706	89.44
313.935	85.44
314.165	82.44
314.394	96.44
314.624	87.44
314.853	77.44
315.083	85.44
315.312	97.44
315.542	91.44
315.771	98.44
316.001	92.44
316.23	103.44
316.46	84.44
316.689	87.44
316.919	100.44
317.148	90.44
317.377	87.44
317.607	86.44
317.836	90.44
318.065	90.44
318.295	84.44
318.524	82.44
318.753	74.44
318.983	75.44
319.212	88.44
319.441	84.44
319.67	85.44
319.9	85.44
320.129	87.44
320.358	81.44
320.587	84.44
320.816	93.44
321.046	77.44
321.275	87.44
321.504	90.44
321.733	87.44
321.962	90.44
322.191	87.44
322.42	96.44
322.649	92.44
322.878	84.44
323.108	90.44
323.337	90.44
323.566	92.44
323.795	85.44
324.024	96.44
324.253	92.44
324.482	76.44
324.71	91.44
324.939	95.44
325.168	94.44
325.397	77.44
325.626	78.44
325.855	96.44
326.084	91.44
326.313	90.44
326.542	93.44
326.77	98.44
326.999	94.44
327.228	94.44
327.457	91.44
327.686	90.44
327.914	94.44
328.143	102.44
328.372	91.44
328.6	74.44
328.829	91.44
329.058	81.44
329.287	103.44
329.515	77.44
329.744	91.44
329.972	98.44
330.201	89.44
330.43	98.44
330.658	93.44
330.887	93.44
331.115	107.44
331.344	98.44
331.572	86.44
331.801	97.44
332.03	95.44
332.258	90.44
332.486	78.44
332.715	82.44
332.943	87.44
333.172	91.44
333.4	89.44
333.629	88.44
333.857	87.44
334.085	87.44
334.314	86.44
334.542	82.44
334.771	88.44
334.999	93.44
335.227	101.44
335.455	88.44
335.684	93.44
335.912	100.44
336.14	106.44
336.369	80.44
336.597	88.44
336.825	86.44
337.053	88.44
337.281	100.44
337.51	86.44
337.738	85.44
337.966	101.44
338.194	80.44
338.422	87.44
338.65	88.44
338.878	102.44
339.106	85.44
339.334	105.44
339.562	87.44
339.79	92.44
340.018	101.44
340.246	99.44
340.474	89.44
340.702	99.44
340.93	80.44
341.158	74.44
341.386	76.44
341.614	87.44
341.842	85.44
342.07	90.44
342.298	80.44
342.526	98.44
342.754	76.44
342.981	90.44
343.209	82.44
343.437	101.44
343.665	109.44
343.893	90.44
344.12	88.44
344.348	97.44
344.576	94.44
344.804	81.44
345.031	96.44
345.259	83.44
345.487	87.44
345.714	79.44
345.942	72.44
346.17	99.44
346.397	95.44
346.625	84.44
346.853	84.44
347.08	94.44
347.308	98.44
347.535	100.44
347.763	91.44
347.99	93.44
348.218	95.44
348.445	94.44
348.673	95.44
348.9	90.44
349.128	102.44
349.355	94.44
349.583	96.44
349.81	82.44
350.037	98.44
350.265	87.44
350.492	92.44
350.72	81.44
350.947	88.44
351.174	97.44
351.402	93.44
351.629	91.44
351.856	81.44
352.083	76.44
352.311	86.44
352.538	89.44
352.765	87.44
352.992	96.44
353.22	94.44
353.447	92.44
353.674	106.44
353.901	95.44
354.128	88.44
354.355	90.44
354.583	93.44
354.81	80.44
355.037	92.44
355.264	94.44
355.491	87.44
355.718	75.44
355.945	96.44
356.172	86.44
356.399	92.44
356.626	85.44
356.853	84.44
357.08	86.44
357.307	99.44
357.534	90.44
357.761	84.44
357.988	68.44
358.215	78.44
358.441	87.44
358.668	97.44
358.895	83.44
359.122	95.44
359.349	86.44
359.576	80.44
359.802	88.44
360.029	85.44
360.256	78.44
360.483	91.44
360.709	98.44
360.936	95.44
361.163	98.44
361.39	94.44
361.616	89.44
361.843	84.44
362.07	95.44
362.296	93.44
362.523	93.44
362.749	78.44
362.976	83.44
363.203	99.44
363.429	80.44
363.656	79.44
363.882	94.44
364.109	93.44
364.335	92.44
364.562	84.44
364.788	80.44
365.015	78.44
365.241	92.44
365.468	79.44
365.694	88.44
365.92	90.44
366.147	79.44
366.373	88.44
366.599	89.44
366.826	92.44
367.052	92.44
367.278	88.44
367.505	86.44
367.731	96.44
367.957	80.44
368.184	89.44
368.41	85.44
368.636	88.44
368.862	85.44
369.089	79.44
369.315	87.44
369.541	92.44
369.767	88.44
369.993	85.44
370.219	80.44
370.445	86.44
370.672	101.44
370.898	89.44
371.124	89.44
371.35	91.44
371.576	88.44
371.802	99.44
372.028	85.44
372.254	87.44
372.48	73.44
372.706	93.44
372.932	80.44
373.158	87.44
373.384	84.44
373.61	93.44
373.835	82.44
374.061	95.44
374.287	87.44
374.513	89.44
374.739	98.44
374.965	91.44
375.191	76.44
375.416	89.44
375.642	97.44
375.868	83.44
376.094	77.44
376.319	94.44
376.545	70.44
376.771	84.44
376.997	91.44
377.222	92.44
377.448	90.44
377.674	93.44
377.899	99.44
378.125	94.44
378.35	87.44
378.576	89.44
378.802	87.44
379.027	90.44
379.253	89.44
379.478	91.44
379.704	94.44
379.929	76.44
380.155	98.44
380.38	86.44
380.606	88.44
380.831	95.44
381.057	83.44
381.282	76.44
381.507	90.44
381.733	105.44
381.958	86.44
382.184	73.44
382.409	94.44
382.634	86.44
382.86	80.44
383.085	90.44
383.31	79.44
383.535	90.44
383.761	85.44
383.986	98.44
384.211	89.44
384.436	96.44
384.662	85.44
384.887	87.44
385.112	95.44
385.337	94.44
385.562	84.44
385.787	82.44
386.013	83.44
386.238	86.44
386.463	88.44
386.688	98.44
386.913	96.44
387.138	83.44
387.363	72.44
387.588	88.44
387.813	85.44
388.038	80.44
388.263	85.44
388.488	85.44
388.713	85.44
388.938	85.44
389.163	100.44
389.387	73.44
389.612	82.44
389.837	89.44
390.062	94.44
390.287	69.44
390.512	82.44
390.736	82.44
390.961	86.44
391.186	87.44
391.411	84.44
391.636	75.44
391.86	84.44
392.085	95.44
392.31	78.44
392.534	93.44
392.759	88.44
392.984	86.44
393.208	96.44
393.433	99.44
393.658	95.44
393.882	80.44
394.107	94.44
394.331	86.44
394.556	86.44
394.78	91.44
395.005	91.44
395.229	95.44
395.454	98.44
395.678	86.44
395.903	94.44
396.127	101.44
396.352	94.44
396.576	93.44
396.801	82.44
397.025	88.44
397.249	80.44
397.474	112.44
397.698	96.44
397.922	80.44
398.147	83.44
398.371	75.44
398.595	103.44
398.82	104.44
399.044	89.44
399.268	77.44
399.492	93.44
399.717	84.44
399.941	99.44
400.165	95.44
400.389	85.44
400.613	89.44
400.837	101.44
401.062	92.44
401.286	85.44
401.51	87.44
401.734	82.44
401.958	91.44
402.182	94.44
402.406	91.44
402.63	80.44
402.854	101.44
403.078	94.44
403.302	84.44
403.526	77.44
403.75	87.44
403.974	90.44
404.198	79.44
404.422	85.44
404.645	87.44
404.869	102.44
405.093	93.44
405.317	88.44
405.541	86.44
405.765	95.44
405.988	87.44
406.212	93.44
406.436	80.44
406.66	88.44
406.883	83.44
407.107	66.44
407.331	105.44
407.555	99.44
407.778	82.44
408.002	80.44
408.226	95.44
408.449	75.44
408.673	81.44
408.896	99.44
409.12	85.44
409.344	97.44
409.567	94.44
409.791	85.44
410.014	88.44
410.238	82.44
410.461	91.44
410.685	85.44
410.908	71.44
411.132	90.44
411.355	86.44
411.578	99.44
411.802	78.44
412.025	79.44
412.249	79.44
412.472	79.44
412.695	80.44
412.919	98.44
413.142	84.44
413.365	94.44
413.589	83.44
413.812	90.44
414.035	86.44
414.258	85.44
414.482	79.44
414.705	86.44
414.928	95.44
415.151	90.44
415.374	99.44
415.597	83.44
415.821	79.44
416.044	88.44
416.267	83.44
416.49	97.44
416.713	92.44
416.936	93.44
417.159	92.44
417.382	105.44
417.605	89.44
417.828	76.44
418.051	80.44
418.274	87.44
418.497	85.44
418.72	90.44
418.943	76.44
419.166	90.44
419.389	77.44
419.611	90.44
419.834	84.44
420.057	97.44
420.28	88.44
420.503	97.44
420.726	96.44
420.948	99.44
421.171	109.44
421.394	90.44
421.617	86.44
421.839	88.44
422.062	91.44
422.285	84.44
422.507	90.44
422.73	88.44
422.953	93.44
423.175	91.44
423.398	87.44
423.621	94.44
423.843	95.44
424.066	89.44
424.288	92.44
424.511	99.44
424.733	96.44
424.956	101.44
425.178	104.44
425.401	89.44
425.623	85.44
425.846	78.44
426.068	102.44
426.291	95.44
426.513	89.44
426.735	92.44
426.958	97.44
427.18	98.44
427.402	96.44
427.625	79.44
427.847	86.44
428.069	55.44
428.292	63.44
428.514	90.44
428.736	83.44
428.958	83.44
429.181	95.44
429.403	90.44
429.625	80.44
429.847	94.44
430.069	80.44
430.292	79.44
430.514	91.44
430.736	88.44
430.958	75.44
431.18	86.44
431.402	69.44
431.624	78.44
431.846	79.44
432.068	84.44
432.29	81.44
432.512	78.44
432.734	87.44
432.956	91.44
433.178	82.44
433.4	76.44
433.622	82.44
433.844	90.44
434.066	84.44
434.287	94.44
434.509	106.44
434.731	88.44
434.953	86.44
435.175	82.44
435.397	84.44
435.618	90.44
435.84	98.44
436.062	104.44
436.284	78.44
436.505	99.44
436.727	88.44
436.949	84.44
437.17	83.44
437.392	74.44
437.614	85.44
437.835	87.44
438.057	78.44
438.278	77.44
438.5	78.44
438.721	92.44
438.943	84.44
439.165	75.44
439.386	76.44
439.608	100.44
439.829	89.44
440.05	93.44
440.272	85.44
440.493	90.44
440.715	93.44
440.936	108.44
441.158	98.44
441.379	83.44
441.6	93.44
441.822	93.44
442.043	94.44
442.264	89.44
442.486	93.44
442.707	107.44
442.928	91.44
443.149	99.44
443.371	94.44
443.592	72.44
443.813	76.44
444.034	84.44
444.255	100.44
444.476	71.44
444.698	91.44
444.919	89.44
445.14	208.44
445.361	148.44
445.582	96.44
445.803	69.44
446.024	90.44
446.245	103.44
446.466	91.44
446.687	82.44
446.908	94.44
447.129	89.44
447.35	81.44
447.571	91.44
447.792	88.44
448.013	90.44
448.234	95.44
448.455	86.44
448.675	96.44
448.896	91.44
449.117	97.44
449.338	94.44
449.559	91.44
449.779	101.44
450	93.44
450.221	88.44
450.442	82.44
450.662	82.44
450.883	88.44
451.104	95.44
451.324	99.44
451.545	78.44
451.766	87.44
451.986	94.44
452.207	80.44
452.428	98.44
452.648	84.44
452.869	90.44
453.089	84.44
453.31	98.44
453.53	102.44
453.751	92.44
453.971	83.44
454.192	95.44
454.412	75.44
454.633	83.44
454.853	87.44
455.073	95.44
455.294	82.44
455.514	96.44
455.734	88.44
455.955	90.44
456.175	90.44
456.395	84.44
456.616	94.44
456.836	86.44
457.056	87.44
457.276	83.44
457.497	86.44
457.717	83.44
457.937	90.44
458.157	100.44
458.377	83.44
458.598	75.44
458.818	76.44
459.038	88.44
459.258	95.44
459.478	97.44
459.698	82.44
459.918	85.44
460.138	87.44
460.358	96.44
460.578	84.44
460.798	105.44
461.018	94.44
461.238	97.44
461.458	82.44
461.678	101.44
461.898	103.44
462.118	99.44
462.338	90.44
462.558	94.44
462.777	89.44
462.997	97.44
463.217	102.44
463.437	95.44
463.657	79.44
463.876	99.44
464.096	102.44
464.316	94.44
464.536	103.44
464.755	76.44
464.975	85.44
465.195	91.44
465.414	78.44
465.634	88.44
465.854	85.44
466.073	89.44
466.293	88.44
466.512	105.44
466.732	83.44
466.951	91.44
467.171	102.44
467.391	80.44
467.61	92.44
467.829	89.44
468.049	80.44
468.268	94.44
468.488	90.44
468.707	87.44
468.927	89.44
469.146	95.44
469.365	80.44
469.585	91.44
469.804	80.44
470.023	75.44
470.243	91.44
470.462	91.44
470.681	80.44
470.901	91.44
471.12	95.44
471.339	102.44
471.558	71.44
471.777	91.44
471.997	80.44
472.216	77.44
472.435	86.44
472.654	81.44
472.873	94.44
473.092	86.44
473.311	95.44
473.53	85.44
473.749	84.44
473.968	92.44
474.187	83.44
474.406	85.44
474.625	90.44
474.844	76.44
475.063	87.44
475.282	78.44
475.501	88.44
475.72	108.44
475.939	89.44
476.158	85.44
476.377	93.44
476.596	72.44
476.814	92.44
477.033	97.44
477.252	86.44
477.471	100.44
477.69	80.44
477.908	91.44
478.127	96.44
478.346	98.44
478.564	111.44
478.783	92.44
479.002	84.44
479.22	99.44
479.439	89.44
479.658	99.44
479.876	108.44
480.095	84.44
480.313	95.44
480.532	111.44
480.751	90.44
480.969	93.44
481.188	84.44
481.406	103.44
481.624	83.44
481.843	87.44
482.061	95.44
482.28	97.44
482.498	81.44
482.717	94.44
482.935	92.44
483.153	92.44
483.372	86.44
483.59	92.44
483.808	95.44
484.027	87.44
484.245	111.44
484.463	96.44
484.681	98.44
484.9	99.44
485.118	107.44
485.336	83.44
485.554	79.44
485.772	90.44
485.99	88.44
486.209	111.44
486.427	96.44
486.645	91.44
486.863	91.44
487.081	86.44
487.299	86.44
487.517	97.44
487.735	96.44
487.953	87.44
488.171	103.44
488.389	93.44
488.607	88.44
488.825	96.44
489.043	97.44
489.261	109.44
489.479	79.44
489.696	104.44
489.914	100.44
490.132	109.44
490.35	108.44
490.568	106.44
490.786	88.44
491.003	99.44
491.221	80.44
491.439	92.44
491.657	98.44
491.874	111.44
492.092	103.44
492.31	105.44
492.527	99.44
492.745	102.44
492.963	100.44
493.18	96.44
493.398	98.44
493.615	96.44
493.833	103.44
494.05	105.44
494.268	94.44
494.485	100.44
494.703	98.44
494.92	95.44
495.138	88.44
495.355	100.44
495.573	116.44
495.79	90.44
496.008	91.44
496.225	102.44
496.442	102.44
496.66	108.44
496.877	94.44
497.094	86.44
497.312	91.44
497.529	105.44
497.746	96.44
497.963	100.44
498.181	102.44
498.398	93.44
498.615	103.44
498.832	97.44
499.049	97.44
499.267	104.44
499.484	92.44
499.701	86.44
499.918	100.44
500.135	110.44
500.352	113.44
500.569	118.44
500.786	122.44
501.003	100.44
501.22	114.44
501.437	108.44
501.654	97.44
501.871	97.44
502.088	102.44
502.305	104.44
502.522	104.44
502.739	106.44
502.956	107.44
503.172	106.44
503.389	89.44
503.606	88.44
503.823	92.44
504.04	104.44
504.256	88.44
504.473	97.44
504.69	95.44
504.907	98.44
505.123	85.44
505.34	106.44
505.557	97.44
505.773	86.44
505.99	98.44
506.207	81.44
506.423	110.44
506.64	97.44
506.856	94.44
507.073	91.44
507.289	100.44
507.506	90.44
507.722	87.44
507.939	112.44
508.155	93.44
508.372	90.44
508.588	102.44
508.805	109.44
509.021	90.44
509.238	103.44
509.454	102.44
509.67	93.44
509.887	85.44
510.103	95.44
510.319	85.44
510.536	97.44
510.752	108.44
510.968	98.44
511.184	89.44
511.401	83.44
511.617	92.44
511.833	112.44
512.049	81.44
512.265	89.44
512.481	101.44
512.698	95.44
512.914	90.44
513.13	88.44
513.346	91.44
513.562	88.44
513.778	101.44
513.994	94.44
514.21	91.44
514.426	103.44
514.642	87.44
514.858	104.44
515.074	101.44
515.29	105.44
515.506	94.44
515.721	88.44
515.937	106.44
516.153	80.44
516.369	97.44
516.585	99.44
516.801	89.44
517.016	103.44
517.232	94.44
517.448	95.44
517.664	95.44
