Data from Ni(NO3)2Standard.Agarose3%.GreenCap.LampEnergy5.5.E.O_HRD10591_14-41-30-188.txt Node
Date: Mon Jul 22 14:41:30 EDT 2019
User: cochatt
Spectrometer: HR+D1059
Trigger mode: 1
Integration Time (sec): 1.000000E-1
Scans to average: 1
Electric dark correction enabled: true
Nonlinearity correction enabled: false
Boxcar width: 0
XAxis mode: Wavelengths
Number of Pixels in Spectrum: 2048
>>>>>Begin Spectral Data<<<<<
223.165	-4.06
223.4	-4.06
223.635	-4.06
223.869	-21.06
224.104	-18.06
224.338	-15.06
224.573	-18.06
224.808	-12.06
225.042	-10.06
225.277	-4.06
225.511	1.94
225.746	18.94
225.98	4.94
226.215	19.94
226.449	6.94
226.683	14.94
226.918	6.94
227.152	27.94
227.387	34.94
227.621	41.94
227.856	38.94
228.09	36.94
228.324	47.94
228.559	62.94
228.793	62.94
229.027	62.94
229.262	58.94
229.496	58.94
229.73	70.94
229.964	65.94
230.199	63.94
230.433	66.94
230.667	76.94
230.901	76.94
231.136	69.94
231.37	73.94
231.604	74.94
231.838	78.94
232.072	79.94
232.306	81.94
232.541	89.94
232.775	82.94
233.009	78.94
233.243	84.94
233.477	79.94
233.711	93.94
233.945	80.94
234.179	79.94
234.413	83.94
234.647	78.94
234.881	66.94
235.115	95.94
235.349	86.94
235.583	84.94
235.817	79.94
236.051	73.94
236.285	67.94
236.519	75.94
236.753	73.94
236.987	69.94
237.221	76.94
237.455	83.94
237.689	62.94
237.922	81.94
238.156	94.94
238.39	75.94
238.624	76.94
238.858	74.94
239.091	65.94
239.325	69.94
239.559	77.94
239.793	74.94
240.027	81.94
240.26	66.94
240.494	78.94
240.728	67.94
240.961	77.94
241.195	80.94
241.429	67.94
241.662	69.94
241.896	78.94
242.13	82.94
242.363	77.94
242.597	82.94
242.83	77.94
243.064	81.94
243.298	81.94
243.531	67.94
243.765	77.94
243.998	82.94
244.232	68.94
244.465	77.94
244.699	88.94
244.932	73.94
245.166	86.94
245.399	75.94
245.633	81.94
245.866	72.94
246.099	64.94
246.333	77.94
246.566	76.94
246.8	83.94
247.033	72.94
247.266	73.94
247.5	77.94
247.733	90.94
247.966	84.94
248.2	71.94
248.433	77.94
248.666	86.94
248.899	86.94
249.133	90.94
249.366	86.94
249.599	81.94
249.832	80.94
250.066	79.94
250.299	60.94
250.532	81.94
250.765	88.94
250.998	92.94
251.231	89.94
251.465	84.94
251.698	80.94
251.931	81.94
252.164	74.94
252.397	86.94
252.63	77.94
252.863	81.94
253.096	82.94
253.329	87.94
253.562	78.94
253.795	80.94
254.028	74.94
254.261	83.94
254.494	67.94
254.727	81.94
254.96	77.94
255.193	77.94
255.426	92.94
255.659	85.94
255.892	69.94
256.124	83.94
256.357	76.94
256.59	88.94
256.823	80.94
257.056	78.94
257.289	79.94
257.521	80.94
257.754	84.94
257.987	85.94
258.22	105.94
258.452	87.94
258.685	88.94
258.918	64.94
259.151	74.94
259.383	91.94
259.616	76.94
259.849	94.94
260.081	84.94
260.314	89.94
260.547	77.94
260.779	74.94
261.012	84.94
261.244	66.94
261.477	89.94
261.71	79.94
261.942	82.94
262.175	64.94
262.407	95.94
262.64	76.94
262.872	74.94
263.105	81.94
263.337	73.94
263.57	78.94
263.802	88.94
264.035	90.94
264.267	83.94
264.499	89.94
264.732	90.94
264.964	75.94
265.197	86.94
265.429	84.94
265.661	73.94
265.894	81.94
266.126	74.94
266.358	84.94
266.591	92.94
266.823	90.94
267.055	78.94
267.287	77.94
267.52	75.94
267.752	88.94
267.984	74.94
268.216	94.94
268.448	87.94
268.681	88.94
268.913	85.94
269.145	82.94
269.377	73.94
269.609	85.94
269.841	69.94
270.073	68.94
270.306	85.94
270.538	95.94
270.77	88.94
271.002	81.94
271.234	86.94
271.466	82.94
271.698	70.94
271.93	81.94
272.162	78.94
272.394	84.94
272.626	84.94
272.858	86.94
273.09	91.94
273.322	75.94
273.553	93.94
273.785	103.94
274.017	73.94
274.249	92.94
274.481	88.94
274.713	73.94
274.945	77.94
275.176	88.94
275.408	88.94
275.64	69.94
275.872	77.94
276.104	85.94
276.335	91.94
276.567	87.94
276.799	94.94
277.031	85.94
277.262	92.94
277.494	91.94
277.726	85.94
277.957	81.94
278.189	86.94
278.421	74.94
278.652	90.94
278.884	85.94
279.115	73.94
279.347	74.94
279.579	81.94
279.81	83.94
280.042	91.94
280.273	77.94
280.505	76.94
280.736	96.94
280.968	88.94
281.199	86.94
281.431	77.94
281.662	78.94
281.894	73.94
282.125	71.94
282.356	81.94
282.588	86.94
282.819	88.94
283.051	93.94
283.282	87.94
283.513	86.94
283.745	82.94
283.976	94.94
284.207	82.94
284.439	75.94
284.67	72.94
284.901	79.94
285.132	87.94
285.364	76.94
285.595	87.94
285.826	81.94
286.057	95.94
286.288	86.94
286.52	85.94
286.751	96.94
286.982	78.94
287.213	90.94
287.444	78.94
287.675	74.94
287.906	86.94
288.138	75.94
288.369	84.94
288.6	94.94
288.831	100.94
289.062	83.94
289.293	88.94
289.524	76.94
289.755	80.94
289.986	75.94
290.217	99.94
290.448	78.94
290.679	96.94
290.91	76.94
291.141	83.94
291.371	93.94
291.602	86.94
291.833	88.94
292.064	87.94
292.295	80.94
292.526	97.94
292.757	89.94
292.987	84.94
293.218	85.94
293.449	72.94
293.68	85.94
293.91	84.94
294.141	75.94
294.372	82.94
294.603	76.94
294.833	88.94
295.064	91.94
295.295	75.94
295.525	86.94
295.756	83.94
295.987	79.94
296.217	64.94
296.448	78.94
296.679	85.94
296.909	83.94
297.14	82.94
297.37	89.94
297.601	79.94
297.831	75.94
298.062	93.94
298.292	83.94
298.523	90.94
298.753	87.94
298.984	92.94
299.214	96.94
299.445	89.94
299.675	81.94
299.905	87.94
300.136	86.94
300.366	94.94
300.597	78.94
300.827	83.94
301.057	92.94
301.288	90.94
301.518	100.94
301.748	90.94
301.979	93.94
302.209	86.94
302.439	83.94
302.669	73.94
302.9	105.94
303.13	84.94
303.36	87.94
303.59	92.94
303.82	87.94
304.051	84.94
304.281	83.94
304.511	87.94
304.741	87.94
304.971	77.94
305.201	95.94
305.431	91.94
305.661	84.94
305.891	80.94
306.121	85.94
306.352	84.94
306.582	85.94
306.812	87.94
307.042	91.94
307.272	88.94
307.502	77.94
307.731	76.94
307.961	91.94
308.191	89.94
308.421	83.94
308.651	79.94
308.881	87.94
309.111	81.94
309.341	89.94
309.571	96.94
309.8	92.94
310.03	87.94
310.26	93.94
310.49	92.94
310.72	86.94
310.949	98.94
311.179	92.94
311.409	88.94
311.639	81.94
311.868	74.94
312.098	99.94
312.328	94.94
312.557	91.94
312.787	91.94
313.017	92.94
313.246	77.94
313.476	82.94
313.706	72.94
313.935	90.94
314.165	69.94
314.394	94.94
314.624	80.94
314.853	95.94
315.083	79.94
315.312	75.94
315.542	83.94
315.771	95.94
316.001	80.94
316.23	89.94
316.46	81.94
316.689	80.94
316.919	105.94
317.148	105.94
317.377	88.94
317.607	88.94
317.836	81.94
318.065	101.94
318.295	83.94
318.524	76.94
318.753	75.94
318.983	87.94
319.212	89.94
319.441	99.94
319.67	102.94
319.9	90.94
320.129	73.94
320.358	81.94
320.587	90.94
320.816	91.94
321.046	81.94
321.275	88.94
321.504	83.94
321.733	80.94
321.962	85.94
322.191	86.94
322.42	95.94
322.649	86.94
322.878	100.94
323.108	97.94
323.337	100.94
323.566	94.94
323.795	85.94
324.024	73.94
324.253	76.94
324.482	91.94
324.71	101.94
324.939	73.94
325.168	75.94
325.397	78.94
325.626	88.94
325.855	84.94
326.084	88.94
326.313	103.94
326.542	82.94
326.77	87.94
326.999	101.94
327.228	90.94
327.457	92.94
327.686	84.94
327.914	87.94
328.143	107.94
328.372	94.94
328.6	78.94
328.829	75.94
329.058	84.94
329.287	88.94
329.515	77.94
329.744	100.94
329.972	92.94
330.201	91.94
330.43	76.94
330.658	72.94
330.887	100.94
331.115	103.94
331.344	87.94
331.572	84.94
331.801	88.94
332.03	106.94
332.258	77.94
332.486	91.94
332.715	69.94
332.943	96.94
333.172	84.94
333.4	91.94
333.629	103.94
333.857	86.94
334.085	80.94
334.314	90.94
334.542	92.94
334.771	101.94
334.999	80.94
335.227	92.94
335.455	79.94
335.684	84.94
335.912	103.94
336.14	85.94
336.369	77.94
336.597	79.94
336.825	94.94
337.053	83.94
337.281	83.94
337.51	90.94
337.738	86.94
337.966	91.94
338.194	84.94
338.422	85.94
338.65	91.94
338.878	97.94
339.106	94.94
339.334	85.94
339.562	93.94
339.79	79.94
340.018	90.94
340.246	86.94
340.474	93.94
340.702	77.94
340.93	81.94
341.158	88.94
341.386	85.94
341.614	101.94
341.842	87.94
342.07	88.94
342.298	81.94
342.526	84.94
342.754	87.94
342.981	91.94
343.209	86.94
343.437	98.94
343.665	88.94
343.893	76.94
344.12	76.94
344.348	77.94
344.576	94.94
344.804	84.94
345.031	87.94
345.259	93.94
345.487	93.94
345.714	86.94
345.942	96.94
346.17	90.94
346.397	86.94
346.625	84.94
346.853	77.94
347.08	85.94
347.308	77.94
347.535	94.94
347.763	79.94
347.99	85.94
348.218	85.94
348.445	93.94
348.673	93.94
348.9	81.94
349.128	98.94
349.355	95.94
349.583	84.94
349.81	85.94
350.037	95.94
350.265	78.94
350.492	71.94
350.72	75.94
350.947	87.94
351.174	93.94
351.402	83.94
351.629	96.94
351.856	91.94
352.083	85.94
352.311	84.94
352.538	84.94
352.765	80.94
352.992	73.94
353.22	78.94
353.447	84.94
353.674	97.94
353.901	77.94
354.128	85.94
354.355	89.94
354.583	79.94
354.81	75.94
355.037	94.94
355.264	91.94
355.491	91.94
355.718	94.94
355.945	92.94
356.172	88.94
356.399	87.94
356.626	96.94
356.853	86.94
357.08	106.94
357.307	96.94
357.534	90.94
357.761	99.94
357.988	106.94
358.215	87.94
358.441	87.94
358.668	69.94
358.895	74.94
359.122	86.94
359.349	90.94
359.576	88.94
359.802	103.94
360.029	87.94
360.256	91.94
360.483	84.94
360.709	98.94
360.936	93.94
361.163	82.94
361.39	95.94
361.616	83.94
361.843	77.94
362.07	78.94
362.296	77.94
362.523	77.94
362.749	85.94
362.976	92.94
363.203	99.94
363.429	94.94
363.656	97.94
363.882	83.94
364.109	72.94
364.335	94.94
364.562	80.94
364.788	89.94
365.015	86.94
365.241	88.94
365.468	98.94
365.694	72.94
365.92	87.94
366.147	84.94
366.373	80.94
366.599	86.94
366.826	70.94
367.052	98.94
367.278	86.94
367.505	87.94
367.731	93.94
367.957	90.94
368.184	89.94
368.41	83.94
368.636	77.94
368.862	81.94
369.089	90.94
369.315	92.94
369.541	94.94
369.767	85.94
369.993	84.94
370.219	85.94
370.445	84.94
370.672	92.94
370.898	94.94
371.124	85.94
371.35	77.94
371.576	82.94
371.802	76.94
372.028	98.94
372.254	71.94
372.48	99.94
372.706	76.94
372.932	82.94
373.158	80.94
373.384	101.94
373.61	84.94
373.835	92.94
374.061	87.94
374.287	84.94
374.513	73.94
374.739	89.94
374.965	83.94
375.191	83.94
375.416	103.94
375.642	79.94
375.868	87.94
376.094	92.94
376.319	86.94
376.545	83.94
376.771	87.94
376.997	95.94
377.222	84.94
377.448	87.94
377.674	93.94
377.899	97.94
378.125	82.94
378.35	83.94
378.576	84.94
378.802	75.94
379.027	79.94
379.253	93.94
379.478	96.94
379.704	81.94
379.929	79.94
380.155	95.94
380.38	83.94
380.606	88.94
380.831	91.94
381.057	88.94
381.282	97.94
381.507	97.94
381.733	88.94
381.958	86.94
382.184	83.94
382.409	89.94
382.634	82.94
382.86	86.94
383.085	80.94
383.31	82.94
383.535	89.94
383.761	78.94
383.986	93.94
384.211	91.94
384.436	84.94
384.662	83.94
384.887	75.94
385.112	96.94
385.337	90.94
385.562	89.94
385.787	75.94
386.013	83.94
386.238	93.94
386.463	87.94
386.688	80.94
386.913	89.94
387.138	93.94
387.363	89.94
387.588	76.94
387.813	85.94
388.038	93.94
388.263	86.94
388.488	93.94
388.713	81.94
388.938	70.94
389.163	92.94
389.387	92.94
389.612	100.94
389.837	80.94
390.062	83.94
390.287	100.94
390.512	96.94
390.736	86.94
390.961	87.94
391.186	84.94
391.411	88.94
391.636	96.94
391.86	88.94
392.085	71.94
392.31	74.94
392.534	81.94
392.759	72.94
392.984	64.94
393.208	91.94
393.433	72.94
393.658	90.94
393.882	92.94
394.107	77.94
394.331	84.94
394.556	81.94
394.78	86.94
395.005	93.94
395.229	97.94
395.454	83.94
395.678	92.94
395.903	78.94
396.127	87.94
396.352	87.94
396.576	89.94
396.801	79.94
397.025	85.94
397.249	81.94
397.474	79.94
397.698	96.94
397.922	94.94
398.147	92.94
398.371	92.94
398.595	91.94
398.82	85.94
399.044	85.94
399.268	102.94
399.492	83.94
399.717	76.94
399.941	79.94
400.165	86.94
400.389	79.94
400.613	85.94
400.837	82.94
401.062	100.94
401.286	97.94
401.51	77.94
401.734	84.94
401.958	93.94
402.182	91.94
402.406	90.94
402.63	69.94
402.854	81.94
403.078	83.94
403.302	78.94
403.526	97.94
403.75	85.94
403.974	79.94
404.198	76.94
404.422	89.94
404.645	97.94
404.869	84.94
405.093	82.94
405.317	99.94
405.541	99.94
405.765	75.94
405.988	85.94
406.212	91.94
406.436	84.94
406.66	82.94
406.883	81.94
407.107	90.94
407.331	102.94
407.555	87.94
407.778	77.94
408.002	100.94
408.226	85.94
408.449	84.94
408.673	85.94
408.896	95.94
409.12	81.94
409.344	102.94
409.567	89.94
409.791	89.94
410.014	87.94
410.238	87.94
410.461	85.94
410.685	85.94
410.908	84.94
411.132	97.94
411.355	93.94
411.578	89.94
411.802	89.94
412.025	89.94
412.249	96.94
412.472	83.94
412.695	87.94
412.919	83.94
413.142	78.94
413.365	73.94
413.589	94.94
413.812	83.94
414.035	88.94
414.258	90.94
414.482	81.94
414.705	98.94
414.928	77.94
415.151	92.94
415.374	100.94
415.597	93.94
415.821	77.94
416.044	89.94
416.267	78.94
416.49	94.94
416.713	86.94
416.936	90.94
417.159	93.94
417.382	82.94
417.605	76.94
417.828	94.94
418.051	92.94
418.274	76.94
418.497	85.94
418.72	104.94
418.943	92.94
419.166	88.94
419.389	82.94
419.611	88.94
419.834	89.94
420.057	88.94
420.28	82.94
420.503	86.94
420.726	89.94
420.948	80.94
421.171	70.94
421.394	84.94
421.617	88.94
421.839	96.94
422.062	90.94
422.285	98.94
422.507	91.94
422.73	88.94
422.953	74.94
423.175	82.94
423.398	78.94
423.621	95.94
423.843	68.94
424.066	78.94
424.288	90.94
424.511	89.94
424.733	85.94
424.956	83.94
425.178	71.94
425.401	85.94
425.623	81.94
425.846	93.94
426.068	91.94
426.291	90.94
426.513	79.94
426.735	80.94
426.958	85.94
427.18	90.94
427.402	90.94
427.625	87.94
427.847	84.94
428.069	85.94
428.292	86.94
428.514	96.94
428.736	86.94
428.958	85.94
429.181	77.94
429.403	89.94
429.625	80.94
429.847	85.94
430.069	84.94
430.292	105.94
430.514	82.94
430.736	83.94
430.958	90.94
431.18	80.94
431.402	87.94
431.624	82.94
431.846	81.94
432.068	82.94
432.29	92.94
432.512	92.94
432.734	85.94
432.956	100.94
433.178	85.94
433.4	95.94
433.622	89.94
433.844	93.94
434.066	102.94
434.287	94.94
434.509	83.94
434.731	79.94
434.953	86.94
435.175	77.94
435.397	82.94
435.618	92.94
435.84	82.94
436.062	82.94
436.284	85.94
436.505	95.94
436.727	76.94
436.949	70.94
437.17	85.94
437.392	82.94
437.614	95.94
437.835	83.94
438.057	102.94
438.278	94.94
438.5	90.94
438.721	82.94
438.943	90.94
439.165	107.94
439.386	96.94
439.608	95.94
439.829	96.94
440.05	92.94
440.272	85.94
440.493	88.94
440.715	86.94
440.936	85.94
441.158	88.94
441.379	90.94
441.6	84.94
441.822	90.94
442.043	80.94
442.264	94.94
442.486	101.94
442.707	87.94
442.928	82.94
443.149	87.94
443.371	96.94
443.592	100.94
443.813	83.94
444.034	78.94
444.255	102.94
444.476	95.94
444.698	97.94
444.919	87.94
445.14	182.94
445.361	128.94
445.582	100.94
445.803	81.94
446.024	91.94
446.245	98.94
446.466	84.94
446.687	88.94
446.908	97.94
447.129	96.94
447.35	92.94
447.571	94.94
447.792	85.94
448.013	76.94
448.234	101.94
448.455	85.94
448.675	84.94
448.896	81.94
449.117	100.94
449.338	97.94
449.559	94.94
449.779	91.94
450	85.94
450.221	101.94
450.442	87.94
450.662	81.94
450.883	81.94
451.104	83.94
451.324	84.94
451.545	83.94
451.766	95.94
451.986	92.94
452.207	85.94
452.428	80.94
452.648	93.94
452.869	85.94
453.089	87.94
453.31	80.94
453.53	83.94
453.751	74.94
453.971	93.94
454.192	83.94
454.412	85.94
454.633	82.94
454.853	93.94
455.073	96.94
455.294	79.94
455.514	93.94
455.734	74.94
455.955	79.94
456.175	86.94
456.395	85.94
456.616	78.94
456.836	83.94
457.056	86.94
457.276	79.94
457.497	85.94
457.717	89.94
457.937	82.94
458.157	99.94
458.377	84.94
458.598	76.94
458.818	88.94
459.038	84.94
459.258	86.94
459.478	87.94
459.698	80.94
459.918	93.94
460.138	89.94
460.358	60.94
460.578	84.94
460.798	77.94
461.018	96.94
461.238	96.94
461.458	94.94
461.678	90.94
461.898	81.94
462.118	88.94
462.338	100.94
462.558	88.94
462.777	86.94
462.997	80.94
463.217	91.94
463.437	93.94
463.657	88.94
463.876	68.94
464.096	90.94
464.316	84.94
464.536	89.94
464.755	98.94
464.975	81.94
465.195	93.94
465.414	96.94
465.634	84.94
465.854	95.94
466.073	78.94
466.293	88.94
466.512	101.94
466.732	76.94
466.951	83.94
467.171	85.94
467.391	86.94
467.61	81.94
467.829	70.94
468.049	83.94
468.268	90.94
468.488	92.94
468.707	92.94
468.927	93.94
469.146	92.94
469.365	75.94
469.585	92.94
469.804	93.94
470.023	91.94
470.243	91.94
470.462	99.94
470.681	86.94
470.901	96.94
471.12	86.94
471.339	92.94
471.558	78.94
471.777	98.94
471.997	101.94
472.216	106.94
472.435	100.94
472.654	79.94
472.873	88.94
473.092	89.94
473.311	97.94
473.53	88.94
473.749	96.94
473.968	90.94
474.187	72.94
474.406	92.94
474.625	87.94
474.844	84.94
475.063	88.94
475.282	103.94
475.501	107.94
475.72	98.94
475.939	104.94
476.158	89.94
476.377	86.94
476.596	105.94
476.814	86.94
477.033	77.94
477.252	93.94
477.471	90.94
477.69	89.94
477.908	92.94
478.127	92.94
478.346	93.94
478.564	89.94
478.783	87.94
479.002	104.94
479.22	87.94
479.439	77.94
479.658	82.94
479.876	97.94
480.095	87.94
480.313	91.94
480.532	101.94
480.751	92.94
480.969	83.94
481.188	103.94
481.406	97.94
481.624	96.94
481.843	90.94
482.061	88.94
482.28	78.94
482.498	91.94
482.717	91.94
482.935	81.94
483.153	82.94
483.372	91.94
483.59	96.94
483.808	74.94
484.027	90.94
484.245	83.94
484.463	92.94
484.681	88.94
484.9	84.94
485.118	89.94
485.336	87.94
485.554	87.94
485.772	83.94
485.99	96.94
486.209	103.94
486.427	84.94
486.645	88.94
486.863	94.94
487.081	98.94
487.299	98.94
487.517	86.94
487.735	94.94
487.953	101.94
488.171	97.94
488.389	88.94
488.607	87.94
488.825	97.94
489.043	91.94
489.261	95.94
489.479	96.94
489.696	93.94
489.914	101.94
490.132	92.94
490.35	94.94
490.568	97.94
490.786	93.94
491.003	97.94
491.221	106.94
491.439	104.94
491.657	104.94
491.874	103.94
492.092	98.94
492.31	107.94
492.527	109.94
492.745	94.94
492.963	83.94
493.18	100.94
493.398	97.94
493.615	95.94
493.833	107.94
494.05	106.94
494.268	106.94
494.485	98.94
494.703	97.94
494.92	99.94
495.138	114.94
495.355	96.94
495.573	90.94
495.79	107.94
496.008	104.94
496.225	98.94
496.442	99.94
496.66	87.94
496.877	82.94
497.094	87.94
497.312	82.94
497.529	92.94
497.746	103.94
497.963	103.94
498.181	115.94
498.398	101.94
498.615	85.94
498.832	110.94
499.049	96.94
499.267	108.94
499.484	99.94
499.701	100.94
499.918	102.94
500.135	108.94
500.352	113.94
500.569	124.94
500.786	102.94
501.003	118.94
501.22	105.94
501.437	98.94
501.654	101.94
501.871	116.94
502.088	102.94
502.305	84.94
502.522	96.94
502.739	96.94
502.956	97.94
503.172	100.94
503.389	101.94
503.606	82.94
503.823	104.94
504.04	91.94
504.256	104.94
504.473	94.94
504.69	100.94
504.907	84.94
505.123	92.94
505.34	104.94
505.557	100.94
505.773	89.94
505.99	86.94
506.207	98.94
506.423	94.94
506.64	95.94
506.856	98.94
507.073	82.94
507.289	96.94
507.506	86.94
507.722	93.94
507.939	92.94
508.155	104.94
508.372	86.94
508.588	80.94
508.805	84.94
509.021	94.94
509.238	91.94
509.454	88.94
509.67	82.94
509.887	89.94
510.103	89.94
510.319	102.94
510.536	99.94
510.752	72.94
510.968	96.94
511.184	84.94
511.401	92.94
511.617	102.94
511.833	93.94
512.049	82.94
512.265	84.94
512.481	83.94
512.698	96.94
512.914	92.94
513.13	95.94
513.346	104.94
513.562	87.94
513.778	92.94
513.994	90.94
514.21	83.94
514.426	86.94
514.642	88.94
514.858	93.94
515.074	108.94
515.29	101.94
515.506	92.94
515.721	100.94
515.937	87.94
516.153	91.94
516.369	83.94
516.585	97.94
516.801	96.94
517.016	111.94
517.232	93.94
517.448	93.94
517.664	101.94
517.879	80.94
