Data from Ni(NO3)2@0.0625M.TitratingCurve.Agarose3%dH2O.NegLispCup.LampEnergy10.LIBS07252019_HRD10591_18-13-10-568.txt Node
Date: Thu Jul 25 18:13:10 EDT 2019
User: cochatt
Spectrometer: HR+D1059
Trigger mode: 1
Integration Time (sec): 1.000000E-1
Scans to average: 1
Electric dark correction enabled: true
Nonlinearity correction enabled: false
Boxcar width: 0
XAxis mode: Wavelengths
Number of Pixels in Spectrum: 2048
>>>>>Begin Spectral Data<<<<<
223.165	-10.81
223.4	-10.81
223.635	-10.81
223.869	-31.81
224.104	-20.81
224.338	-24.81
224.573	-14.81
224.808	-13.81
225.042	-0.81
225.277	-11.81
225.511	-9.81
225.746	-4.81
225.98	3.19
226.215	18.19
226.449	21.19
226.683	20.19
226.918	33.19
227.152	48.19
227.387	41.19
227.621	43.19
227.856	40.19
228.09	33.19
228.324	40.19
228.559	50.19
228.793	63.19
229.027	70.19
229.262	90.19
229.496	94.19
229.73	102.19
229.964	102.19
230.199	89.19
230.433	114.19
230.667	103.19
230.901	104.19
231.136	94.19
231.37	128.19
231.604	130.19
231.838	122.19
232.072	109.19
232.306	108.19
232.541	120.19
232.775	123.19
233.009	126.19
233.243	122.19
233.477	121.19
233.711	114.19
233.945	123.19
234.179	118.19
234.413	119.19
234.647	113.19
234.881	125.19
235.115	136.19
235.349	116.19
235.583	137.19
235.817	137.19
236.051	135.19
236.285	131.19
236.519	120.19
236.753	120.19
236.987	132.19
237.221	124.19
237.455	132.19
237.689	135.19
237.922	131.19
238.156	127.19
238.39	125.19
238.624	124.19
238.858	145.19
239.091	140.19
239.325	142.19
239.559	139.19
239.793	135.19
240.027	142.19
240.26	141.19
240.494	132.19
240.728	139.19
240.961	142.19
241.195	147.19
241.429	139.19
241.662	153.19
241.896	148.19
242.13	155.19
242.363	159.19
242.597	166.19
242.83	143.19
243.064	147.19
243.298	153.19
243.531	146.19
243.765	142.19
243.998	150.19
244.232	164.19
244.465	171.19
244.699	168.19
244.932	160.19
245.166	169.19
245.399	166.19
245.633	183.19
245.866	162.19
246.099	159.19
246.333	153.19
246.566	179.19
246.8	170.19
247.033	161.19
247.266	166.19
247.5	162.19
247.733	178.19
247.966	169.19
248.2	155.19
248.433	169.19
248.666	177.19
248.899	185.19
249.133	187.19
249.366	178.19
249.599	190.19
249.832	197.19
250.066	190.19
250.299	186.19
250.532	192.19
250.765	195.19
250.998	183.19
251.231	184.19
251.465	203.19
251.698	190.19
251.931	205.19
252.164	202.19
252.397	212.19
252.63	211.19
252.863	205.19
253.096	199.19
253.329	196.19
253.562	215.19
253.795	211.19
254.028	215.19
254.261	205.19
254.494	197.19
254.727	182.19
254.96	219.19
255.193	202.19
255.426	217.19
255.659	206.19
255.892	201.19
256.124	208.19
256.357	225.19
256.59	209.19
256.823	204.19
257.056	218.19
257.289	207.19
257.521	230.19
257.754	208.19
257.987	219.19
258.22	229.19
258.452	220.19
258.685	240.19
258.918	214.19
259.151	238.19
259.383	213.19
259.616	231.19
259.849	223.19
260.081	232.19
260.314	228.19
260.547	223.19
260.779	225.19
261.012	249.19
261.244	239.19
261.477	220.19
261.71	234.19
261.942	235.19
262.175	229.19
262.407	250.19
262.64	242.19
262.872	255.19
263.105	227.19
263.337	247.19
263.57	231.19
263.802	249.19
264.035	250.19
264.267	251.19
264.499	247.19
264.732	266.19
264.964	251.19
265.197	244.19
265.429	246.19
265.661	240.19
265.894	264.19
266.126	268.19
266.358	269.19
266.591	247.19
266.823	255.19
267.055	248.19
267.287	266.19
267.52	255.19
267.752	248.19
267.984	269.19
268.216	261.19
268.448	259.19
268.681	265.19
268.913	279.19
269.145	273.19
269.377	276.19
269.609	267.19
269.841	267.19
270.073	260.19
270.306	265.19
270.538	275.19
270.77	277.19
271.002	254.19
271.234	265.19
271.466	281.19
271.698	278.19
271.93	269.19
272.162	275.19
272.394	272.19
272.626	266.19
272.858	287.19
273.09	289.19
273.322	269.19
273.553	284.19
273.785	296.19
274.017	275.19
274.249	289.19
274.481	289.19
274.713	296.19
274.945	285.19
275.176	305.19
275.408	297.19
275.64	297.19
275.872	303.19
276.104	291.19
276.335	311.19
276.567	295.19
276.799	302.19
277.031	309.19
277.262	284.19
277.494	303.19
277.726	309.19
277.957	301.19
278.189	287.19
278.421	325.19
278.652	311.19
278.884	326.19
279.115	310.19
279.347	316.19
279.579	336.19
279.81	323.19
280.042	319.19
280.273	309.19
280.505	321.19
280.736	332.19
280.968	321.19
281.199	332.19
281.431	326.19
281.662	312.19
281.894	319.19
282.125	337.19
282.356	346.19
282.588	331.19
282.819	329.19
283.051	325.19
283.282	324.19
283.513	332.19
283.745	340.19
283.976	339.19
284.207	312.19
284.439	341.19
284.67	345.19
284.901	338.19
285.132	355.19
285.364	368.19
285.595	364.19
285.826	346.19
286.057	367.19
286.288	343.19
286.52	348.19
286.751	352.19
286.982	348.19
287.213	363.19
287.444	374.19
287.675	361.19
287.906	365.19
288.138	373.19
288.369	361.19
288.6	387.19
288.831	373.19
289.062	380.19
289.293	357.19
289.524	364.19
289.755	361.19
289.986	352.19
290.217	339.19
290.448	385.19
290.679	356.19
290.91	379.19
291.141	354.19
291.371	375.19
291.602	381.19
291.833	356.19
292.064	376.19
292.295	379.19
292.526	380.19
292.757	358.19
292.987	358.19
293.218	385.19
293.449	396.19
293.68	372.19
293.91	375.19
294.141	371.19
294.372	376.19
294.603	379.19
294.833	383.19
295.064	369.19
295.295	377.19
295.525	380.19
295.756	387.19
295.987	406.19
296.217	400.19
296.448	389.19
296.679	394.19
296.909	410.19
297.14	398.19
297.37	401.19
297.601	395.19
297.831	421.19
298.062	406.19
298.292	390.19
298.523	412.19
298.753	430.19
298.984	409.19
299.214	405.19
299.445	411.19
299.675	395.19
299.905	409.19
300.136	413.19
300.366	425.19
300.597	411.19
300.827	432.19
301.057	429.19
301.288	431.19
301.518	428.19
301.748	446.19
301.979	435.19
302.209	431.19
302.439	425.19
302.669	409.19
302.9	407.19
303.13	399.19
303.36	420.19
303.59	411.19
303.82	422.19
304.051	432.19
304.281	408.19
304.511	417.19
304.741	425.19
304.971	409.19
305.201	415.19
305.431	403.19
305.661	418.19
305.891	401.19
306.121	423.19
306.352	402.19
306.582	418.19
306.812	392.19
307.042	425.19
307.272	418.19
307.502	413.19
307.731	410.19
307.961	413.19
308.191	403.19
308.421	401.19
308.651	410.19
308.881	405.19
309.111	421.19
309.341	431.19
309.571	415.19
309.8	425.19
310.03	394.19
310.26	399.19
310.49	418.19
310.72	427.19
310.949	446.19
311.179	421.19
311.409	413.19
311.639	413.19
311.868	402.19
312.098	436.19
312.328	433.19
312.557	439.19
312.787	417.19
313.017	449.19
313.246	452.19
313.476	421.19
313.706	439.19
313.935	424.19
314.165	444.19
314.394	447.19
314.624	456.19
314.853	452.19
315.083	426.19
315.312	454.19
315.542	439.19
315.771	439.19
316.001	434.19
316.23	449.19
316.46	439.19
316.689	421.19
316.919	461.19
317.148	434.19
317.377	425.19
317.607	424.19
317.836	423.19
318.065	412.19
318.295	441.19
318.524	441.19
318.753	446.19
318.983	426.19
319.212	428.19
319.441	425.19
319.67	434.19
319.9	453.19
320.129	425.19
320.358	437.19
320.587	421.19
320.816	436.19
321.046	433.19
321.275	419.19
321.504	446.19
321.733	452.19
321.962	423.19
322.191	437.19
322.42	441.19
322.649	437.19
322.878	440.19
323.108	447.19
323.337	431.19
323.566	419.19
323.795	463.19
324.024	449.19
324.253	443.19
324.482	445.19
324.71	456.19
324.939	445.19
325.168	442.19
325.397	458.19
325.626	471.19
325.855	462.19
326.084	463.19
326.313	481.19
326.542	467.19
326.77	501.19
326.999	476.19
327.228	482.19
327.457	456.19
327.686	470.19
327.914	485.19
328.143	491.19
328.372	486.19
328.6	487.19
328.829	491.19
329.058	454.19
329.287	488.19
329.515	502.19
329.744	475.19
329.972	473.19
330.201	485.19
330.43	495.19
330.658	495.19
330.887	493.19
331.115	475.19
331.344	493.19
331.572	516.19
331.801	497.19
332.03	523.19
332.258	538.19
332.486	547.19
332.715	577.19
332.943	604.19
333.172	625.19
333.4	657.19
333.629	647.19
333.857	658.19
334.085	641.19
334.314	620.19
334.542	627.19
334.771	617.19
334.999	603.19
335.227	580.19
335.455	603.19
335.684	598.19
335.912	572.19
336.14	586.19
336.369	559.19
336.597	582.19
336.825	567.19
337.053	557.19
337.281	548.19
337.51	570.19
337.738	533.19
337.966	539.19
338.194	541.19
338.422	522.19
338.65	529.19
338.878	519.19
339.106	514.19
339.334	513.19
339.562	505.19
339.79	503.19
340.018	499.19
340.246	499.19
340.474	522.19
340.702	518.19
340.93	499.19
341.158	506.19
341.386	515.19
341.614	519.19
341.842	516.19
342.07	472.19
342.298	519.19
342.526	479.19
342.754	507.19
342.981	515.19
343.209	503.19
343.437	540.19
343.665	563.19
343.893	637.19
344.12	639.19
344.348	607.19
344.576	564.19
344.804	554.19
345.031	525.19
345.259	531.19
345.487	519.19
345.714	527.19
345.942	497.19
346.17	506.19
346.397	506.19
346.625	495.19
346.853	498.19
347.08	487.19
347.308	517.19
347.535	488.19
347.763	525.19
347.99	529.19
348.218	510.19
348.445	503.19
348.673	504.19
348.9	499.19
349.128	507.19
349.355	476.19
349.583	500.19
349.81	485.19
350.037	487.19
350.265	484.19
350.492	508.19
350.72	495.19
350.947	488.19
351.174	460.19
351.402	474.19
351.629	481.19
351.856	509.19
352.083	477.19
352.311	463.19
352.538	472.19
352.765	465.19
352.992	492.19
353.22	490.19
353.447	482.19
353.674	461.19
353.901	474.19
354.128	480.19
354.355	481.19
354.583	488.19
354.81	474.19
355.037	488.19
355.264	488.19
355.491	463.19
355.718	450.19
355.945	487.19
356.172	469.19
356.399	493.19
356.626	477.19
356.853	487.19
357.08	469.19
357.307	477.19
357.534	492.19
357.761	485.19
357.988	475.19
358.215	489.19
358.441	498.19
358.668	488.19
358.895	472.19
359.122	495.19
359.349	495.19
359.576	496.19
359.802	487.19
360.029	488.19
360.256	469.19
360.483	477.19
360.709	458.19
360.936	476.19
361.163	478.19
361.39	475.19
361.616	498.19
361.843	488.19
362.07	476.19
362.296	469.19
362.523	473.19
362.749	497.19
362.976	468.19
363.203	469.19
363.429	463.19
363.656	470.19
363.882	480.19
364.109	466.19
364.335	490.19
364.562	466.19
364.788	471.19
365.015	480.19
365.241	479.19
365.468	477.19
365.694	465.19
365.92	464.19
366.147	476.19
366.373	495.19
366.599	492.19
366.826	455.19
367.052	499.19
367.278	478.19
367.505	458.19
367.731	482.19
367.957	480.19
368.184	487.19
368.41	465.19
368.636	477.19
368.862	484.19
369.089	490.19
369.315	478.19
369.541	507.19
369.767	485.19
369.993	485.19
370.219	509.19
370.445	503.19
370.672	488.19
370.898	515.19
371.124	515.19
371.35	532.19
371.576	504.19
371.802	499.19
372.028	546.19
372.254	504.19
372.48	514.19
372.706	533.19
372.932	544.19
373.158	556.19
373.384	521.19
373.61	517.19
373.835	527.19
374.061	521.19
374.287	523.19
374.513	543.19
374.739	558.19
374.965	561.19
375.191	581.19
375.416	570.19
375.642	554.19
375.868	562.19
376.094	546.19
376.319	537.19
376.545	538.19
376.771	513.19
376.997	510.19
377.222	529.19
377.448	512.19
377.674	516.19
377.899	513.19
378.125	528.19
378.35	518.19
378.576	505.19
378.802	501.19
379.027	523.19
379.253	523.19
379.478	511.19
379.704	533.19
379.929	541.19
380.155	507.19
380.38	522.19
380.606	515.19
380.831	531.19
381.057	499.19
381.282	529.19
381.507	526.19
381.733	508.19
381.958	520.19
382.184	518.19
382.409	537.19
382.634	552.19
382.86	552.19
383.085	559.19
383.31	533.19
383.535	576.19
383.761	593.19
383.986	592.19
384.211	604.19
384.436	602.19
384.662	613.19
384.887	630.19
385.112	614.19
385.337	609.19
385.562	654.19
385.787	620.19
386.013	615.19
386.238	635.19
386.463	651.19
386.688	636.19
386.913	609.19
387.138	634.19
387.363	594.19
387.588	607.19
387.813	600.19
388.038	600.19
388.263	610.19
388.488	629.19
388.713	629.19
388.938	619.19
389.163	576.19
389.387	587.19
389.612	608.19
389.837	595.19
390.062	593.19
390.287	627.19
390.512	585.19
390.736	591.19
390.961	608.19
391.186	612.19
391.411	651.19
391.636	667.19
391.86	687.19
392.085	703.19
392.31	709.19
392.534	677.19
392.759	654.19
392.984	676.19
393.208	652.19
393.433	630.19
393.658	644.19
393.882	649.19
394.107	657.19
394.331	668.19
394.556	654.19
394.78	649.19
395.005	661.19
395.229	667.19
395.454	680.19
395.678	681.19
395.903	660.19
396.127	693.19
396.352	670.19
396.576	668.19
396.801	653.19
397.025	653.19
397.249	668.19
397.474	699.19
397.698	683.19
397.922	674.19
398.147	692.19
398.371	667.19
398.595	708.19
398.82	746.19
399.044	832.19
399.268	907.19
399.492	1089.19
399.717	1245.19
399.941	1196.19
400.165	1025.19
400.389	919.19
400.613	856.19
400.837	815.19
401.062	800.19
401.286	759.19
401.51	770.19
401.734	771.19
401.958	763.19
402.182	761.19
402.406	792.19
402.63	802.19
402.854	812.19
403.078	809.19
403.302	873.19
403.526	883.19
403.75	899.19
403.974	914.19
404.198	908.19
404.422	937.19
404.645	903.19
404.869	859.19
405.093	883.19
405.317	855.19
405.541	873.19
405.765	859.19
405.988	847.19
406.212	838.19
406.436	812.19
406.66	867.19
406.883	875.19
407.107	924.19
407.331	968.19
407.555	1027.19
407.778	1016.19
408.002	959.19
408.226	951.19
408.449	897.19
408.673	881.19
408.896	843.19
409.12	876.19
409.344	891.19
409.567	873.19
409.791	911.19
410.014	909.19
410.238	891.19
410.461	864.19
410.685	873.19
410.908	834.19
411.132	802.19
411.355	809.19
411.578	785.19
411.802	800.19
412.025	796.19
412.249	827.19
412.472	853.19
412.695	802.19
412.919	775.19
413.142	776.19
413.365	780.19
413.589	785.19
413.812	751.19
414.035	771.19
414.258	770.19
414.482	778.19
414.705	801.19
414.928	776.19
415.151	785.19
415.374	786.19
415.597	778.19
415.821	760.19
416.044	768.19
416.267	740.19
416.49	757.19
416.713	753.19
416.936	742.19
417.159	757.19
417.382	755.19
417.605	770.19
417.828	771.19
418.051	791.19
418.274	779.19
418.497	772.19
418.72	790.19
418.943	798.19
419.166	841.19
419.389	886.19
419.611	858.19
419.834	830.19
420.057	805.19
420.28	802.19
420.503	767.19
420.726	782.19
420.948	771.19
421.171	756.19
421.394	740.19
421.617	768.19
421.839	772.19
422.062	768.19
422.285	776.19
422.507	791.19
422.73	827.19
422.953	815.19
423.175	808.19
423.398	820.19
423.621	833.19
423.843	838.19
424.066	866.19
424.288	863.19
424.511	828.19
424.733	817.19
424.956	807.19
425.178	791.19
425.401	782.19
425.623	803.19
425.846	749.19
426.068	743.19
426.291	709.19
426.513	716.19
426.735	721.19
426.958	717.19
427.18	692.19
427.402	713.19
427.625	716.19
427.847	710.19
428.069	685.19
428.292	693.19
428.514	689.19
428.736	675.19
428.958	683.19
429.181	659.19
429.403	658.19
429.625	668.19
429.847	658.19
430.069	671.19
430.292	672.19
430.514	661.19
430.736	675.19
430.958	666.19
431.18	687.19
431.402	708.19
431.624	710.19
431.846	728.19
432.068	690.19
432.29	705.19
432.512	670.19
432.734	722.19
432.956	702.19
433.178	713.19
433.4	705.19
433.622	706.19
433.844	695.19
434.066	711.19
434.287	716.19
434.509	741.19
434.731	763.19
434.953	781.19
435.175	820.19
435.397	771.19
435.618	713.19
435.84	713.19
436.062	700.19
436.284	689.19
436.505	704.19
436.727	708.19
436.949	695.19
437.17	710.19
437.392	682.19
437.614	709.19
437.835	689.19
438.057	690.19
438.278	671.19
438.5	685.19
438.721	667.19
438.943	669.19
439.165	687.19
439.386	703.19
439.608	688.19
439.829	701.19
440.05	696.19
440.272	731.19
440.493	697.19
440.715	695.19
440.936	734.19
441.158	738.19
441.379	785.19
441.6	817.19
441.822	779.19
442.043	793.19
442.264	774.19
442.486	753.19
442.707	759.19
442.928	795.19
443.149	791.19
443.371	773.19
443.592	794.19
443.813	788.19
444.034	809.19
444.255	817.19
444.476	857.19
444.698	918.19
444.919	981.19
445.14	976.19
445.361	915.19
445.582	800.19
445.803	767.19
446.024	739.19
446.245	731.19
446.466	715.19
446.687	720.19
446.908	708.19
447.129	684.19
447.35	694.19
447.571	694.19
447.792	666.19
448.013	671.19
448.234	643.19
448.455	654.19
448.675	641.19
448.896	631.19
449.117	636.19
449.338	625.19
449.559	637.19
449.779	637.19
450	640.19
450.221	648.19
450.442	675.19
450.662	674.19
450.883	656.19
451.104	675.19
451.324	682.19
451.545	704.19
451.766	669.19
451.986	641.19
452.207	665.19
452.428	663.19
452.648	664.19
452.869	651.19
453.089	639.19
453.31	678.19
453.53	641.19
453.751	637.19
453.971	624.19
454.192	625.19
454.412	625.19
454.633	603.19
454.853	641.19
455.073	620.19
455.294	648.19
455.514	603.19
455.734	612.19
455.955	636.19
456.175	608.19
456.395	611.19
456.616	609.19
456.836	608.19
457.056	625.19
457.276	599.19
457.497	619.19
457.717	619.19
457.937	625.19
458.157	616.19
458.377	635.19
458.598	656.19
458.818	649.19
459.038	672.19
459.258	669.19
459.478	714.19
459.698	718.19
459.918	767.19
460.138	789.19
460.358	828.19
460.578	833.19
460.798	804.19
461.018	828.19
461.238	800.19
461.458	831.19
461.678	811.19
461.898	841.19
462.118	860.19
462.338	891.19
462.558	915.19
462.777	954.19
462.997	1052.19
463.217	1173.19
463.437	1140.19
463.657	1070.19
463.876	960.19
464.096	997.19
464.316	996.19
464.536	990.19
464.755	969.19
464.975	931.19
465.195	889.19
465.414	811.19
465.634	757.19
465.854	725.19
466.073	738.19
466.293	693.19
466.512	721.19
466.732	697.19
466.951	705.19
467.171	700.19
467.391	689.19
467.61	678.19
467.829	687.19
468.049	678.19
468.268	661.19
468.488	648.19
468.707	665.19
468.927	646.19
469.146	645.19
469.365	659.19
469.585	667.19
469.804	682.19
470.023	684.19
470.243	716.19
470.462	703.19
470.681	730.19
470.901	706.19
471.12	714.19
471.339	684.19
471.558	674.19
471.777	648.19
471.997	663.19
472.216	650.19
472.435	672.19
472.654	649.19
472.873	645.19
473.092	619.19
473.311	659.19
473.53	637.19
473.749	628.19
473.968	613.19
474.187	641.19
474.406	638.19
474.625	638.19
474.844	659.19
475.063	633.19
475.282	629.19
475.501	638.19
475.72	637.19
475.939	625.19
476.158	653.19
476.377	664.19
476.596	664.19
476.814	691.19
477.033	674.19
477.252	677.19
477.471	710.19
477.69	699.19
477.908	733.19
478.127	744.19
478.346	767.19
478.564	774.19
478.783	788.19
479.002	823.19
479.22	809.19
479.439	811.19
479.658	770.19
479.876	761.19
480.095	766.19
480.313	843.19
480.532	854.19
480.751	870.19
480.969	823.19
481.188	793.19
481.406	779.19
481.624	744.19
481.843	721.19
482.061	702.19
482.28	751.19
482.498	729.19
482.717	732.19
482.935	732.19
483.153	727.19
483.372	723.19
483.59	715.19
483.808	753.19
484.027	715.19
484.245	725.19
484.463	751.19
484.681	778.19
484.9	766.19
485.118	752.19
485.336	756.19
485.554	760.19
485.772	762.19
485.99	776.19
486.209	767.19
486.427	801.19
486.645	803.19
486.863	765.19
487.081	792.19
487.299	773.19
487.517	769.19
487.735	746.19
487.953	796.19
488.171	769.19
488.389	730.19
488.607	746.19
488.825	745.19
489.043	730.19
489.261	746.19
489.479	770.19
489.696	753.19
489.914	779.19
490.132	743.19
490.35	778.19
490.568	756.19
490.786	773.19
491.003	755.19
491.221	747.19
491.439	793.19
491.657	777.19
491.874	788.19
492.092	788.19
492.31	743.19
492.527	808.19
492.745	815.19
492.963	777.19
493.18	772.19
493.398	780.19
493.615	795.19
493.833	796.19
494.05	826.19
494.268	827.19
494.485	819.19
494.703	791.19
494.92	832.19
495.138	801.19
495.355	809.19
495.573	821.19
495.79	803.19
496.008	826.19
496.225	836.19
496.442	811.19
496.66	827.19
496.877	872.19
497.094	872.19
497.312	873.19
497.529	897.19
497.746	915.19
497.963	945.19
498.181	941.19
498.398	942.19
498.615	1051.19
498.832	1135.19
499.049	1231.19
499.267	1308.19
499.484	1457.19
499.701	1642.19
499.918	1784.19
500.135	2107.19
500.352	2438.19
500.569	2543.19
500.786	2498.19
501.003	2301.19
501.22	2012.19
