Data from Ni(NO3)2@0.25M.TitratingCurve.Agarose3%dH2O.NegLispCup.LampEnergy10.LIBS07252019_HRD10591_18-05-12-566.txt Node
Date: Thu Jul 25 18:05:12 EDT 2019
User: cochatt
Spectrometer: HR+D1059
Trigger mode: 1
Integration Time (sec): 1.000000E-1
Scans to average: 1
Electric dark correction enabled: true
Nonlinearity correction enabled: false
Boxcar width: 0
XAxis mode: Wavelengths
Number of Pixels in Spectrum: 2048
>>>>>Begin Spectral Data<<<<<
223.165	-17.31
223.4	-17.31
223.635	-17.31
223.869	-19.31
224.104	-14.31
224.338	-21.31
224.573	-8.31
224.808	-7.31
225.042	-7.31
225.277	-12.31
225.511	1.69
225.746	9.69
225.98	-4.31
226.215	14.69
226.449	22.69
226.683	27.69
226.918	17.69
227.152	17.69
227.387	35.69
227.621	43.69
227.856	37.69
228.09	53.69
228.324	64.69
228.559	58.69
228.793	64.69
229.027	85.69
229.262	98.69
229.496	94.69
229.73	106.69
229.964	109.69
230.199	105.69
230.433	109.69
230.667	100.69
230.901	125.69
231.136	109.69
231.37	115.69
231.604	111.69
231.838	109.69
232.072	108.69
232.306	124.69
232.541	133.69
232.775	118.69
233.009	125.69
233.243	116.69
233.477	128.69
233.711	125.69
233.945	119.69
234.179	110.69
234.413	127.69
234.647	116.69
234.881	129.69
235.115	123.69
235.349	131.69
235.583	127.69
235.817	118.69
236.051	101.69
236.285	117.69
236.519	131.69
236.753	124.69
236.987	125.69
237.221	134.69
237.455	132.69
237.689	126.69
237.922	105.69
238.156	128.69
238.39	119.69
238.624	129.69
238.858	122.69
239.091	137.69
239.325	128.69
239.559	125.69
239.793	140.69
240.027	138.69
240.26	128.69
240.494	153.69
240.728	135.69
240.961	136.69
241.195	155.69
241.429	137.69
241.662	143.69
241.896	119.69
242.13	131.69
242.363	131.69
242.597	152.69
242.83	148.69
243.064	147.69
243.298	140.69
243.531	143.69
243.765	139.69
243.998	154.69
244.232	165.69
244.465	149.69
244.699	143.69
244.932	159.69
245.166	152.69
245.399	154.69
245.633	155.69
245.866	166.69
246.099	161.69
246.333	154.69
246.566	154.69
246.8	153.69
247.033	180.69
247.266	163.69
247.5	163.69
247.733	173.69
247.966	167.69
248.2	176.69
248.433	184.69
248.666	193.69
248.899	176.69
249.133	179.69
249.366	174.69
249.599	195.69
249.832	169.69
250.066	191.69
250.299	184.69
250.532	183.69
250.765	181.69
250.998	201.69
251.231	206.69
251.465	189.69
251.698	190.69
251.931	197.69
252.164	204.69
252.397	195.69
252.63	198.69
252.863	199.69
253.096	221.69
253.329	202.69
253.562	202.69
253.795	227.69
254.028	218.69
254.261	227.69
254.494	208.69
254.727	231.69
254.96	218.69
255.193	213.69
255.426	232.69
255.659	238.69
255.892	221.69
256.124	213.69
256.357	241.69
256.59	225.69
256.823	236.69
257.056	234.69
257.289	232.69
257.521	255.69
257.754	256.69
257.987	259.69
258.22	241.69
258.452	246.69
258.685	238.69
258.918	241.69
259.151	258.69
259.383	263.69
259.616	239.69
259.849	246.69
260.081	251.69
260.314	259.69
260.547	243.69
260.779	272.69
261.012	269.69
261.244	264.69
261.477	267.69
261.71	266.69
261.942	267.69
262.175	262.69
262.407	268.69
262.64	272.69
262.872	276.69
263.105	269.69
263.337	282.69
263.57	291.69
263.802	286.69
264.035	285.69
264.267	280.69
264.499	281.69
264.732	279.69
264.964	291.69
265.197	291.69
265.429	289.69
265.661	274.69
265.894	281.69
266.126	293.69
266.358	293.69
266.591	283.69
266.823	287.69
267.055	297.69
267.287	302.69
267.52	280.69
267.752	303.69
267.984	311.69
268.216	310.69
268.448	304.69
268.681	299.69
268.913	295.69
269.145	307.69
269.377	307.69
269.609	309.69
269.841	302.69
270.073	317.69
270.306	300.69
270.538	304.69
270.77	299.69
271.002	301.69
271.234	309.69
271.466	301.69
271.698	322.69
271.93	302.69
272.162	319.69
272.394	318.69
272.626	311.69
272.858	315.69
273.09	325.69
273.322	335.69
273.553	325.69
273.785	329.69
274.017	323.69
274.249	313.69
274.481	311.69
274.713	308.69
274.945	325.69
275.176	326.69
275.408	312.69
275.64	308.69
275.872	320.69
276.104	334.69
276.335	332.69
276.567	317.69
276.799	319.69
277.031	334.69
277.262	310.69
277.494	331.69
277.726	335.69
277.957	342.69
278.189	332.69
278.421	351.69
278.652	344.69
278.884	337.69
279.115	317.69
279.347	354.69
279.579	345.69
279.81	351.69
280.042	350.69
280.273	338.69
280.505	340.69
280.736	357.69
280.968	372.69
281.199	341.69
281.431	335.69
281.662	353.69
281.894	368.69
282.125	356.69
282.356	352.69
282.588	345.69
282.819	348.69
283.051	345.69
283.282	348.69
283.513	345.69
283.745	364.69
283.976	375.69
284.207	351.69
284.439	349.69
284.67	371.69
284.901	358.69
285.132	349.69
285.364	350.69
285.595	357.69
285.826	357.69
286.057	364.69
286.288	380.69
286.52	381.69
286.751	367.69
286.982	364.69
287.213	370.69
287.444	379.69
287.675	369.69
287.906	390.69
288.138	368.69
288.369	377.69
288.6	384.69
288.831	363.69
289.062	366.69
289.293	357.69
289.524	391.69
289.755	372.69
289.986	379.69
290.217	373.69
290.448	368.69
290.679	387.69
290.91	373.69
291.141	379.69
291.371	383.69
291.602	391.69
291.833	369.69
292.064	389.69
292.295	372.69
292.526	364.69
292.757	375.69
292.987	367.69
293.218	380.69
293.449	387.69
293.68	371.69
293.91	377.69
294.141	386.69
294.372	403.69
294.603	369.69
294.833	389.69
295.064	380.69
295.295	378.69
295.525	375.69
295.756	394.69
295.987	382.69
296.217	367.69
296.448	383.69
296.679	385.69
296.909	388.69
297.14	389.69
297.37	411.69
297.601	399.69
297.831	380.69
298.062	387.69
298.292	411.69
298.523	426.69
298.753	413.69
298.984	380.69
299.214	395.69
299.445	387.69
299.675	397.69
299.905	399.69
300.136	406.69
300.366	420.69
300.597	414.69
300.827	402.69
301.057	406.69
301.288	416.69
301.518	402.69
301.748	402.69
301.979	422.69
302.209	408.69
302.439	424.69
302.669	424.69
302.9	447.69
303.13	438.69
303.36	435.69
303.59	419.69
303.82	407.69
304.051	425.69
304.281	436.69
304.511	433.69
304.741	432.69
304.971	444.69
305.201	460.69
305.431	449.69
305.661	427.69
305.891	421.69
306.121	425.69
306.352	414.69
306.582	417.69
306.812	398.69
307.042	410.69
307.272	423.69
307.502	399.69
307.731	435.69
307.961	428.69
308.191	413.69
308.421	417.69
308.651	426.69
308.881	420.69
309.111	422.69
309.341	411.69
309.571	420.69
309.8	413.69
310.03	445.69
310.26	445.69
310.49	446.69
310.72	437.69
310.949	422.69
311.179	461.69
311.409	447.69
311.639	446.69
311.868	438.69
312.098	444.69
312.328	452.69
312.557	463.69
312.787	441.69
313.017	485.69
313.246	472.69
313.476	471.69
313.706	489.69
313.935	440.69
314.165	461.69
314.394	473.69
314.624	490.69
314.853	483.69
315.083	474.69
315.312	480.69
315.542	466.69
315.771	483.69
316.001	478.69
316.23	487.69
316.46	456.69
316.689	483.69
316.919	483.69
317.148	481.69
317.377	497.69
317.607	480.69
317.836	484.69
318.065	469.69
318.295	484.69
318.524	497.69
318.753	514.69
318.983	493.69
319.212	472.69
319.441	496.69
319.67	495.69
319.9	491.69
320.129	509.69
320.358	482.69
320.587	480.69
320.816	507.69
321.046	515.69
321.275	519.69
321.504	515.69
321.733	496.69
321.962	491.69
322.191	531.69
322.42	523.69
322.649	534.69
322.878	507.69
323.108	517.69
323.337	534.69
323.566	531.69
323.795	552.69
324.024	534.69
324.253	543.69
324.482	552.69
324.71	541.69
324.939	537.69
325.168	580.69
325.397	575.69
325.626	552.69
325.855	556.69
326.084	577.69
326.313	575.69
326.542	575.69
326.77	612.69
326.999	580.69
327.228	566.69
327.457	564.69
327.686	560.69
327.914	568.69
328.143	569.69
328.372	593.69
328.6	565.69
328.829	580.69
329.058	577.69
329.287	582.69
329.515	606.69
329.744	606.69
329.972	624.69
330.201	609.69
330.43	607.69
330.658	612.69
330.887	603.69
331.115	638.69
331.344	645.69
331.572	645.69
331.801	685.69
332.03	660.69
332.258	669.69
332.486	676.69
332.715	678.69
332.943	719.69
333.172	707.69
333.4	724.69
333.629	724.69
333.857	760.69
334.085	779.69
334.314	764.69
334.542	770.69
334.771	759.69
334.999	761.69
335.227	790.69
335.455	759.69
335.684	745.69
335.912	773.69
336.14	763.69
336.369	765.69
336.597	744.69
336.825	763.69
337.053	741.69
337.281	747.69
337.51	717.69
337.738	734.69
337.966	714.69
338.194	702.69
338.422	699.69
338.65	689.69
338.878	704.69
339.106	696.69
339.334	717.69
339.562	692.69
339.79	670.69
340.018	669.69
340.246	675.69
340.474	669.69
340.702	651.69
340.93	676.69
341.158	681.69
341.386	690.69
341.614	719.69
341.842	694.69
342.07	685.69
342.298	643.69
342.526	663.69
342.754	669.69
342.981	665.69
343.209	708.69
343.437	708.69
343.665	708.69
343.893	749.69
344.12	767.69
344.348	747.69
344.576	752.69
344.804	717.69
345.031	719.69
345.259	689.69
345.487	697.69
345.714	696.69
345.942	668.69
346.17	697.69
346.397	680.69
346.625	660.69
346.853	639.69
347.08	651.69
347.308	646.69
347.535	659.69
347.763	673.69
347.99	662.69
348.218	649.69
348.445	651.69
348.673	641.69
348.9	624.69
349.128	634.69
349.355	643.69
349.583	687.69
349.81	645.69
350.037	635.69
350.265	625.69
350.492	633.69
350.72	617.69
350.947	643.69
351.174	648.69
351.402	636.69
351.629	670.69
351.856	658.69
352.083	641.69
352.311	647.69
352.538	672.69
352.765	658.69
352.992	650.69
353.22	620.69
353.447	620.69
353.674	614.69
353.901	606.69
354.128	635.69
354.355	603.69
354.583	607.69
354.81	600.69
355.037	624.69
355.264	635.69
355.491	613.69
355.718	613.69
355.945	611.69
356.172	588.69
356.399	609.69
356.626	629.69
356.853	653.69
357.08	638.69
357.307	613.69
357.534	620.69
357.761	614.69
357.988	622.69
358.215	620.69
358.441	636.69
358.668	603.69
358.895	631.69
359.122	645.69
359.349	628.69
359.576	599.69
359.802	602.69
360.029	637.69
360.256	593.69
360.483	607.69
360.709	617.69
360.936	623.69
361.163	611.69
361.39	615.69
361.616	636.69
361.843	637.69
362.07	662.69
362.296	656.69
362.523	617.69
362.749	621.69
362.976	635.69
363.203	612.69
363.429	620.69
363.656	598.69
363.882	619.69
364.109	605.69
364.335	601.69
364.562	600.69
364.788	616.69
365.015	601.69
365.241	600.69
365.468	594.69
365.694	619.69
365.92	608.69
366.147	622.69
366.373	618.69
366.599	619.69
366.826	595.69
367.052	592.69
367.278	610.69
367.505	624.69
367.731	646.69
367.957	617.69
368.184	597.69
368.41	615.69
368.636	624.69
368.862	614.69
369.089	605.69
369.315	621.69
369.541	639.69
369.767	615.69
369.993	625.69
370.219	650.69
370.445	625.69
370.672	638.69
370.898	651.69
371.124	631.69
371.35	636.69
371.576	633.69
371.802	668.69
372.028	647.69
372.254	647.69
372.48	633.69
372.706	661.69
372.932	670.69
373.158	650.69
373.384	655.69
373.61	641.69
373.835	658.69
374.061	653.69
374.287	642.69
374.513	655.69
374.739	670.69
374.965	684.69
375.191	710.69
375.416	657.69
375.642	664.69
375.868	671.69
376.094	637.69
376.319	653.69
376.545	634.69
376.771	636.69
376.997	639.69
377.222	648.69
377.448	637.69
377.674	639.69
377.899	647.69
378.125	632.69
378.35	626.69
378.576	630.69
378.802	645.69
379.027	609.69
379.253	606.69
379.478	637.69
379.704	635.69
379.929	614.69
380.155	619.69
380.38	591.69
380.606	601.69
380.831	613.69
381.057	626.69
381.282	622.69
381.507	619.69
381.733	636.69
381.958	643.69
382.184	658.69
382.409	660.69
382.634	672.69
382.86	640.69
383.085	634.69
383.31	661.69
383.535	669.69
383.761	643.69
383.986	684.69
384.211	708.69
384.436	675.69
384.662	673.69
384.887	691.69
385.112	693.69
385.337	717.69
385.562	696.69
385.787	683.69
386.013	703.69
386.238	721.69
386.463	732.69
386.688	714.69
386.913	729.69
387.138	729.69
387.363	700.69
387.588	722.69
387.813	717.69
388.038	713.69
388.263	693.69
388.488	702.69
388.713	715.69
388.938	721.69
389.163	714.69
389.387	737.69
389.612	720.69
389.837	732.69
390.062	684.69
390.287	717.69
390.512	744.69
390.736	723.69
390.961	721.69
391.186	733.69
391.411	774.69
391.636	765.69
391.86	769.69
392.085	792.69
392.31	776.69
392.534	760.69
392.759	757.69
392.984	749.69
393.208	745.69
393.433	748.69
393.658	785.69
393.882	784.69
394.107	768.69
394.331	786.69
394.556	775.69
394.78	759.69
395.005	767.69
395.229	769.69
395.454	762.69
395.678	782.69
395.903	780.69
396.127	776.69
396.352	776.69
396.576	779.69
396.801	770.69
397.025	763.69
397.249	797.69
397.474	795.69
397.698	812.69
397.922	845.69
398.147	804.69
398.371	821.69
398.595	874.69
398.82	880.69
399.044	935.69
399.268	958.69
399.492	1076.69
399.717	1117.69
399.941	1151.69
400.165	1112.69
400.389	1045.69
400.613	973.69
400.837	975.69
401.062	919.69
401.286	937.69
401.51	924.69
401.734	899.69
401.958	906.69
402.182	916.69
402.406	929.69
402.63	919.69
402.854	926.69
403.078	948.69
403.302	944.69
403.526	935.69
403.75	950.69
403.974	935.69
404.198	935.69
404.422	939.69
404.645	950.69
404.869	943.69
405.093	947.69
405.317	955.69
405.541	971.69
405.765	961.69
405.988	949.69
406.212	967.69
406.436	974.69
406.66	1007.69
406.883	981.69
407.107	1019.69
407.331	1057.69
407.555	1089.69
407.778	1088.69
408.002	1070.69
408.226	1052.69
408.449	1061.69
408.673	1030.69
408.896	980.69
409.12	1000.69
409.344	1018.69
409.567	1006.69
409.791	1016.69
410.014	1025.69
410.238	979.69
410.461	947.69
410.685	972.69
410.908	972.69
411.132	953.69
411.355	955.69
411.578	942.69
411.802	932.69
412.025	961.69
412.249	947.69
412.472	940.69
412.695	928.69
412.919	936.69
413.142	949.69
413.365	935.69
413.589	925.69
413.812	921.69
414.035	912.69
414.258	910.69
414.482	928.69
414.705	945.69
414.928	955.69
415.151	968.69
415.374	908.69
415.597	915.69
415.821	907.69
416.044	897.69
416.267	920.69
416.49	888.69
416.713	942.69
416.936	921.69
417.159	902.69
417.382	898.69
417.605	902.69
417.828	880.69
418.051	911.69
418.274	910.69
418.497	889.69
418.72	923.69
418.943	924.69
419.166	1000.69
419.389	1020.69
419.611	985.69
419.834	982.69
420.057	949.69
420.28	933.69
420.503	884.69
420.726	876.69
420.948	907.69
421.171	896.69
421.394	901.69
421.617	914.69
421.839	956.69
422.062	923.69
422.285	893.69
422.507	933.69
422.73	940.69
422.953	920.69
423.175	938.69
423.398	922.69
423.621	944.69
423.843	960.69
424.066	970.69
424.288	939.69
424.511	933.69
424.733	911.69
424.956	909.69
425.178	909.69
425.401	903.69
425.623	934.69
425.846	896.69
426.068	923.69
426.291	920.69
426.513	896.69
426.735	894.69
426.958	893.69
427.18	873.69
427.402	887.69
427.625	889.69
427.847	880.69
428.069	871.69
428.292	877.69
428.514	881.69
428.736	847.69
428.958	875.69
429.181	859.69
429.403	823.69
429.625	851.69
429.847	866.69
430.069	852.69
430.292	852.69
430.514	853.69
430.736	860.69
430.958	871.69
431.18	849.69
431.402	827.69
431.624	875.69
431.846	873.69
432.068	849.69
432.29	886.69
432.512	848.69
432.734	869.69
432.956	874.69
433.178	893.69
433.4	873.69
433.622	881.69
433.844	906.69
434.066	876.69
434.287	905.69
434.509	915.69
434.731	918.69
434.953	951.69
435.175	948.69
435.397	947.69
435.618	922.69
435.84	900.69
436.062	835.69
436.284	885.69
436.505	870.69
436.727	887.69
436.949	885.69
437.17	903.69
437.392	857.69
437.614	861.69
437.835	848.69
438.057	856.69
438.278	831.69
438.5	853.69
438.721	848.69
438.943	884.69
439.165	890.69
439.386	859.69
439.608	883.69
439.829	845.69
440.05	907.69
440.272	894.69
440.493	891.69
440.715	887.69
440.936	908.69
441.158	913.69
441.379	940.69
441.6	931.69
441.822	974.69
442.043	953.69
442.264	930.69
442.486	924.69
442.707	933.69
442.928	903.69
443.149	939.69
443.371	947.69
443.592	954.69
443.813	956.69
444.034	969.69
444.255	989.69
444.476	975.69
444.698	1061.69
444.919	1047.69
445.14	1135.69
445.361	1072.69
445.582	1000.69
445.803	965.69
446.024	914.69
446.245	932.69
446.466	923.69
446.687	902.69
446.908	919.69
447.129	922.69
447.35	845.69
447.571	873.69
447.792	826.69
448.013	822.69
448.234	806.69
448.455	831.69
448.675	841.69
448.896	825.69
449.117	836.69
449.338	847.69
449.559	820.69
449.779	803.69
450	827.69
450.221	807.69
450.442	815.69
450.662	802.69
450.883	825.69
451.104	845.69
451.324	822.69
451.545	815.69
451.766	827.69
451.986	803.69
452.207	821.69
452.428	778.69
452.648	806.69
452.869	819.69
453.089	790.69
453.31	806.69
453.53	769.69
453.751	786.69
453.971	765.69
454.192	791.69
454.412	773.69
454.633	784.69
454.853	769.69
455.073	764.69
455.294	797.69
455.514	737.69
455.734	762.69
455.955	777.69
456.175	756.69
456.395	739.69
456.616	740.69
456.836	757.69
457.056	787.69
457.276	775.69
457.497	757.69
457.717	741.69
457.937	771.69
458.157	765.69
458.377	752.69
458.598	799.69
458.818	803.69
459.038	847.69
459.258	843.69
459.478	888.69
459.698	927.69
459.918	898.69
460.138	939.69
460.358	931.69
460.578	998.69
460.798	975.69
461.018	999.69
461.238	996.69
461.458	997.69
461.678	993.69
461.898	973.69
462.118	998.69
462.338	1080.69
462.558	1096.69
462.777	1104.69
462.997	1175.69
463.217	1220.69
463.437	1213.69
463.657	1223.69
463.876	1158.69
464.096	1155.69
464.316	1116.69
464.536	1111.69
464.755	1088.69
464.975	1090.69
465.195	983.69
465.414	958.69
465.634	919.69
465.854	944.69
466.073	889.69
466.293	868.69
466.512	876.69
466.732	852.69
466.951	858.69
467.171	856.69
467.391	886.69
467.61	858.69
467.829	846.69
468.049	828.69
468.268	827.69
468.488	839.69
468.707	828.69
468.927	838.69
469.146	843.69
469.365	836.69
469.585	831.69
469.804	847.69
470.023	883.69
470.243	853.69
470.462	858.69
470.681	857.69
470.901	850.69
471.12	854.69
471.339	842.69
471.558	833.69
471.777	852.69
471.997	852.69
472.216	835.69
472.435	825.69
472.654	825.69
472.873	806.69
473.092	831.69
473.311	798.69
473.53	822.69
473.749	823.69
473.968	789.69
474.187	795.69
474.406	816.69
474.625	840.69
474.844	820.69
475.063	851.69
475.282	819.69
475.501	807.69
475.72	832.69
475.939	847.69
476.158	836.69
476.377	855.69
476.596	835.69
476.814	850.69
477.033	840.69
477.252	854.69
477.471	885.69
477.69	921.69
477.908	903.69
478.127	952.69
478.346	936.69
478.564	933.69
478.783	967.69
479.002	974.69
479.22	971.69
479.439	985.69
479.658	994.69
479.876	1014.69
480.095	972.69
480.313	1030.69
480.532	1045.69
480.751	1023.69
480.969	1016.69
481.188	988.69
481.406	963.69
481.624	927.69
481.843	940.69
482.061	951.69
482.28	903.69
482.498	973.69
482.717	914.69
482.935	910.69
483.153	941.69
483.372	954.69
483.59	955.69
483.808	949.69
484.027	935.69
484.245	908.69
484.463	947.69
484.681	950.69
484.9	973.69
485.118	981.69
485.336	940.69
485.554	963.69
485.772	965.69
485.99	987.69
486.209	969.69
486.427	975.69
486.645	955.69
486.863	965.69
487.081	932.69
487.299	975.69
487.517	969.69
487.735	959.69
487.953	972.69
488.171	1001.69
488.389	979.69
488.607	957.69
488.825	965.69
489.043	980.69
489.261	971.69
489.479	978.69
489.696	974.69
489.914	963.69
490.132	981.69
490.35	991.69
490.568	953.69
490.786	1030.69
491.003	987.69
491.221	973.69
491.439	1003.69
491.657	1021.69
491.874	1016.69
492.092	1040.69
492.31	1028.69
492.527	1019.69
492.745	1002.69
492.963	1037.69
493.18	1041.69
493.398	1054.69
493.615	1055.69
493.833	1066.69
494.05	1042.69
494.268	1055.69
494.485	1048.69
494.703	1046.69
494.92	1053.69
495.138	1045.69
495.355	1066.69
495.573	1075.69
495.79	1059.69
496.008	1107.69
496.225	1104.69
496.442	1109.69
496.66	1138.69
496.877	1145.69
497.094	1139.69
497.312	1192.69
497.529	1204.69
497.746	1220.69
497.963	1251.69
498.181	1313.69
498.398	1344.69
498.615	1396.69
498.832	1489.69
499.049	1530.69
499.267	1644.69
499.484	1742.69
499.701	1894.69
499.918	2016.69
500.135	2147.69
500.352	2277.69
