Data from Ni(NO3)2@0.5M.TitratingCurve.Agarose3%dH2O.NegLispCup.LampEnergy10.LIBS07252019_HRD10591_18-00-21-564.txt Node
Date: Thu Jul 25 18:00:21 EDT 2019
User: cochatt
Spectrometer: HR+D1059
Trigger mode: 1
Integration Time (sec): 1.000000E-1
Scans to average: 1
Electric dark correction enabled: true
Nonlinearity correction enabled: false
Boxcar width: 0
XAxis mode: Wavelengths
Number of Pixels in Spectrum: 2048
>>>>>Begin Spectral Data<<<<<
223.165	-12.5
223.4	-12.5
223.635	-12.5
223.869	-23.5
224.104	-20.5
224.338	-8.5
224.573	-16.5
224.808	-7.5
225.042	-10.5
225.277	-7.5
225.511	0.5
225.746	21.5
225.98	-6.5
226.215	12.5
226.449	13.5
226.683	17.5
226.918	22.5
227.152	25.5
227.387	42.5
227.621	32.5
227.856	42.5
228.09	39.5
228.324	61.5
228.559	69.5
228.793	85.5
229.027	133.5
229.262	143.5
229.496	157.5
229.73	159.5
229.964	188.5
230.199	193.5
230.433	203.5
230.667	202.5
230.901	206.5
231.136	189.5
231.37	187.5
231.604	195.5
231.838	211.5
232.072	224.5
232.306	215.5
232.541	192.5
232.775	198.5
233.009	202.5
233.243	199.5
233.477	195.5
233.711	203.5
233.945	210.5
234.179	188.5
234.413	186.5
234.647	202.5
234.881	211.5
235.115	188.5
235.349	200.5
235.583	214.5
235.817	204.5
236.051	194.5
236.285	191.5
236.519	202.5
236.753	203.5
236.987	200.5
237.221	215.5
237.455	211.5
237.689	215.5
237.922	224.5
238.156	222.5
238.39	206.5
238.624	224.5
238.858	228.5
239.091	243.5
239.325	247.5
239.559	235.5
239.793	266.5
240.027	265.5
240.26	227.5
240.494	242.5
240.728	221.5
240.961	223.5
241.195	229.5
241.429	256.5
241.662	257.5
241.896	265.5
242.13	290.5
242.363	270.5
242.597	261.5
242.83	264.5
243.064	261.5
243.298	258.5
243.531	265.5
243.765	284.5
243.998	293.5
244.232	300.5
244.465	292.5
244.699	279.5
244.932	279.5
245.166	292.5
245.399	298.5
245.633	303.5
245.866	288.5
246.099	299.5
246.333	289.5
246.566	290.5
246.8	304.5
247.033	306.5
247.266	301.5
247.5	296.5
247.733	303.5
247.966	305.5
248.2	317.5
248.433	331.5
248.666	328.5
248.899	326.5
249.133	330.5
249.366	325.5
249.599	333.5
249.832	337.5
250.066	358.5
250.299	343.5
250.532	351.5
250.765	369.5
250.998	356.5
251.231	383.5
251.465	371.5
251.698	369.5
251.931	369.5
252.164	359.5
252.397	373.5
252.63	385.5
252.863	380.5
253.096	385.5
253.329	395.5
253.562	389.5
253.795	399.5
254.028	398.5
254.261	383.5
254.494	385.5
254.727	399.5
254.96	403.5
255.193	412.5
255.426	404.5
255.659	412.5
255.892	427.5
256.124	416.5
256.357	428.5
256.59	417.5
256.823	445.5
257.056	418.5
257.289	416.5
257.521	427.5
257.754	427.5
257.987	450.5
258.22	441.5
258.452	451.5
258.685	437.5
258.918	445.5
259.151	461.5
259.383	453.5
259.616	458.5
259.849	453.5
260.081	453.5
260.314	454.5
260.547	470.5
260.779	468.5
261.012	473.5
261.244	477.5
261.477	484.5
261.71	484.5
261.942	481.5
262.175	485.5
262.407	490.5
262.64	472.5
262.872	496.5
263.105	482.5
263.337	475.5
263.57	486.5
263.802	474.5
264.035	499.5
264.267	509.5
264.499	503.5
264.732	496.5
264.964	505.5
265.197	517.5
265.429	517.5
265.661	520.5
265.894	535.5
266.126	525.5
266.358	543.5
266.591	528.5
266.823	538.5
267.055	533.5
267.287	559.5
267.52	513.5
267.752	546.5
267.984	537.5
268.216	554.5
268.448	553.5
268.681	565.5
268.913	560.5
269.145	558.5
269.377	559.5
269.609	563.5
269.841	559.5
270.073	548.5
270.306	556.5
270.538	571.5
270.77	563.5
271.002	571.5
271.234	553.5
271.466	598.5
271.698	577.5
271.93	582.5
272.162	585.5
272.394	595.5
272.626	593.5
272.858	583.5
273.09	595.5
273.322	604.5
273.553	614.5
273.785	633.5
274.017	605.5
274.249	608.5
274.481	620.5
274.713	599.5
274.945	609.5
275.176	622.5
275.408	635.5
275.64	633.5
275.872	600.5
276.104	626.5
276.335	635.5
276.567	621.5
276.799	630.5
277.031	645.5
277.262	632.5
277.494	657.5
277.726	643.5
277.957	651.5
278.189	649.5
278.421	665.5
278.652	645.5
278.884	681.5
279.115	666.5
279.347	673.5
279.579	672.5
279.81	691.5
280.042	671.5
280.273	691.5
280.505	692.5
280.736	690.5
280.968	665.5
281.199	683.5
281.431	692.5
281.662	673.5
281.894	697.5
282.125	707.5
282.356	680.5
282.588	708.5
282.819	691.5
283.051	678.5
283.282	695.5
283.513	724.5
283.745	703.5
283.976	721.5
284.207	733.5
284.439	733.5
284.67	717.5
284.901	712.5
285.132	711.5
285.364	744.5
285.595	738.5
285.826	726.5
286.057	736.5
286.288	702.5
286.52	769.5
286.751	722.5
286.982	741.5
287.213	743.5
287.444	714.5
287.675	726.5
287.906	765.5
288.138	779.5
288.369	740.5
288.6	748.5
288.831	745.5
289.062	753.5
289.293	759.5
289.524	726.5
289.755	770.5
289.986	777.5
290.217	783.5
290.448	794.5
290.679	755.5
290.91	744.5
291.141	773.5
291.371	772.5
291.602	781.5
291.833	773.5
292.064	771.5
292.295	759.5
292.526	772.5
292.757	765.5
292.987	782.5
293.218	783.5
293.449	773.5
293.68	767.5
293.91	789.5
294.141	757.5
294.372	779.5
294.603	781.5
294.833	789.5
295.064	764.5
295.295	783.5
295.525	774.5
295.756	784.5
295.987	810.5
296.217	805.5
296.448	786.5
296.679	804.5
296.909	827.5
297.14	803.5
297.37	811.5
297.601	826.5
297.831	812.5
298.062	828.5
298.292	811.5
298.523	839.5
298.753	835.5
298.984	837.5
299.214	856.5
299.445	833.5
299.675	843.5
299.905	853.5
300.136	841.5
300.366	867.5
300.597	881.5
300.827	849.5
301.057	856.5
301.288	866.5
301.518	874.5
301.748	875.5
301.979	881.5
302.209	872.5
302.439	883.5
302.669	880.5
302.9	870.5
303.13	866.5
303.36	896.5
303.59	883.5
303.82	897.5
304.051	895.5
304.281	897.5
304.511	899.5
304.741	893.5
304.971	894.5
305.201	907.5
305.431	926.5
305.661	945.5
305.891	913.5
306.121	885.5
306.352	884.5
306.582	873.5
306.812	899.5
307.042	905.5
307.272	888.5
307.502	886.5
307.731	890.5
307.961	889.5
308.191	884.5
308.421	883.5
308.651	873.5
308.881	899.5
309.111	887.5
309.341	891.5
309.571	877.5
309.8	915.5
310.03	924.5
310.26	930.5
310.49	917.5
310.72	947.5
310.949	892.5
311.179	921.5
311.409	892.5
311.639	923.5
311.868	927.5
312.098	939.5
312.328	933.5
312.557	960.5
312.787	927.5
313.017	939.5
313.246	936.5
313.476	972.5
313.706	983.5
313.935	981.5
314.165	972.5
314.394	965.5
314.624	955.5
314.853	970.5
315.083	970.5
315.312	922.5
315.542	968.5
315.771	961.5
316.001	961.5
316.23	1010.5
316.46	989.5
316.689	986.5
316.919	996.5
317.148	965.5
317.377	954.5
317.607	960.5
317.836	959.5
318.065	993.5
318.295	1008.5
318.524	997.5
318.753	972.5
318.983	971.5
319.212	937.5
319.441	986.5
319.67	977.5
319.9	993.5
320.129	995.5
320.358	1001.5
320.587	985.5
320.816	999.5
321.046	1011.5
321.275	1004.5
321.504	1004.5
321.733	1009.5
321.962	1002.5
322.191	999.5
322.42	999.5
322.649	1045.5
322.878	1036.5
323.108	1027.5
323.337	1049.5
323.566	1028.5
323.795	1050.5
324.024	1017.5
324.253	1048.5
324.482	1062.5
324.71	1019.5
324.939	1057.5
325.168	1050.5
325.397	1074.5
325.626	1085.5
325.855	1068.5
326.084	1081.5
326.313	1077.5
326.542	1101.5
326.77	1102.5
326.999	1084.5
327.228	1062.5
327.457	1073.5
327.686	1095.5
327.914	1083.5
328.143	1060.5
328.372	1098.5
328.6	1091.5
328.829	1087.5
329.058	1075.5
329.287	1082.5
329.515	1100.5
329.744	1107.5
329.972	1101.5
330.201	1112.5
330.43	1101.5
330.658	1122.5
330.887	1109.5
331.115	1145.5
331.344	1154.5
331.572	1143.5
331.801	1154.5
332.03	1193.5
332.258	1194.5
332.486	1186.5
332.715	1211.5
332.943	1194.5
333.172	1243.5
333.4	1265.5
333.629	1307.5
333.857	1292.5
334.085	1313.5
334.314	1334.5
334.542	1290.5
334.771	1324.5
334.999	1294.5
335.227	1311.5
335.455	1311.5
335.684	1281.5
335.912	1310.5
336.14	1275.5
336.369	1301.5
336.597	1300.5
336.825	1306.5
337.053	1312.5
337.281	1308.5
337.51	1251.5
337.738	1253.5
337.966	1247.5
338.194	1259.5
338.422	1275.5
338.65	1214.5
338.878	1241.5
339.106	1239.5
339.334	1207.5
339.562	1225.5
339.79	1203.5
340.018	1171.5
340.246	1184.5
340.474	1189.5
340.702	1165.5
340.93	1180.5
341.158	1148.5
341.386	1225.5
341.614	1243.5
341.842	1214.5
342.07	1201.5
342.298	1171.5
342.526	1209.5
342.754	1143.5
342.981	1146.5
343.209	1165.5
343.437	1214.5
343.665	1254.5
343.893	1287.5
344.12	1315.5
344.348	1293.5
344.576	1272.5
344.804	1315.5
345.031	1235.5
345.259	1173.5
345.487	1204.5
345.714	1176.5
345.942	1211.5
346.17	1197.5
346.397	1180.5
346.625	1152.5
346.853	1145.5
347.08	1132.5
347.308	1151.5
347.535	1115.5
347.763	1099.5
347.99	1142.5
348.218	1109.5
348.445	1130.5
348.673	1117.5
348.9	1136.5
349.128	1126.5
349.355	1126.5
349.583	1155.5
349.81	1105.5
350.037	1097.5
350.265	1062.5
350.492	1119.5
350.72	1119.5
350.947	1097.5
351.174	1111.5
351.402	1136.5
351.629	1164.5
351.856	1149.5
352.083	1118.5
352.311	1129.5
352.538	1147.5
352.765	1161.5
352.992	1055.5
353.22	1091.5
353.447	1083.5
353.674	1049.5
353.901	1108.5
354.128	1089.5
354.355	1087.5
354.583	1079.5
354.81	1091.5
355.037	1092.5
355.264	1106.5
355.491	1105.5
355.718	1090.5
355.945	1072.5
356.172	1058.5
356.399	1119.5
356.626	1108.5
356.853	1155.5
357.08	1083.5
357.307	1096.5
357.534	1085.5
357.761	1080.5
357.988	1073.5
358.215	1093.5
358.441	1064.5
358.668	1068.5
358.895	1104.5
359.122	1089.5
359.349	1077.5
359.576	1100.5
359.802	1097.5
360.029	1098.5
360.256	1076.5
360.483	1053.5
360.709	1108.5
360.936	1120.5
361.163	1087.5
361.39	1123.5
361.616	1112.5
361.843	1138.5
362.07	1139.5
362.296	1157.5
362.523	1104.5
362.749	1089.5
362.976	1092.5
363.203	1077.5
363.429	1097.5
363.656	1090.5
363.882	1125.5
364.109	1083.5
364.335	1066.5
364.562	1098.5
364.788	1109.5
365.015	1112.5
365.241	1096.5
365.468	1072.5
365.694	1095.5
365.92	1089.5
366.147	1088.5
366.373	1123.5
366.599	1098.5
366.826	1085.5
367.052	1092.5
367.278	1109.5
367.505	1083.5
367.731	1119.5
367.957	1119.5
368.184	1105.5
368.41	1108.5
368.636	1112.5
368.862	1127.5
369.089	1149.5
369.315	1120.5
369.541	1122.5
369.767	1139.5
369.993	1147.5
370.219	1157.5
370.445	1174.5
370.672	1188.5
370.898	1153.5
371.124	1160.5
371.35	1164.5
371.576	1203.5
371.802	1163.5
372.028	1171.5
372.254	1212.5
372.48	1169.5
372.706	1191.5
372.932	1179.5
373.158	1236.5
373.384	1208.5
373.61	1211.5
373.835	1202.5
374.061	1217.5
374.287	1218.5
374.513	1223.5
374.739	1228.5
374.965	1231.5
375.191	1229.5
375.416	1239.5
375.642	1242.5
375.868	1242.5
376.094	1202.5
376.319	1194.5
376.545	1184.5
376.771	1185.5
376.997	1181.5
377.222	1194.5
377.448	1195.5
377.674	1176.5
377.899	1174.5
378.125	1195.5
378.35	1188.5
378.576	1186.5
378.802	1159.5
379.027	1163.5
379.253	1175.5
379.478	1164.5
379.704	1159.5
379.929	1123.5
380.155	1183.5
380.38	1163.5
380.606	1168.5
380.831	1159.5
381.057	1173.5
381.282	1137.5
381.507	1183.5
381.733	1186.5
381.958	1181.5
382.184	1193.5
382.409	1227.5
382.634	1191.5
382.86	1184.5
383.085	1229.5
383.31	1227.5
383.535	1232.5
383.761	1241.5
383.986	1258.5
384.211	1270.5
384.436	1293.5
384.662	1293.5
384.887	1269.5
385.112	1305.5
385.337	1338.5
385.562	1325.5
385.787	1341.5
386.013	1347.5
386.238	1363.5
386.463	1331.5
386.688	1362.5
386.913	1345.5
387.138	1387.5
387.363	1366.5
387.588	1331.5
387.813	1374.5
388.038	1338.5
388.263	1344.5
388.488	1359.5
388.713	1363.5
388.938	1328.5
389.163	1353.5
389.387	1349.5
389.612	1367.5
389.837	1364.5
390.062	1365.5
390.287	1364.5
390.512	1358.5
390.736	1336.5
390.961	1419.5
391.186	1401.5
391.411	1384.5
391.636	1419.5
391.86	1457.5
392.085	1458.5
392.31	1473.5
392.534	1464.5
392.759	1463.5
392.984	1436.5
393.208	1440.5
393.433	1436.5
393.658	1413.5
393.882	1412.5
394.107	1423.5
394.331	1409.5
394.556	1442.5
394.78	1433.5
395.005	1446.5
395.229	1422.5
395.454	1471.5
395.678	1451.5
395.903	1484.5
396.127	1482.5
396.352	1484.5
396.576	1476.5
396.801	1496.5
397.025	1488.5
397.249	1494.5
397.474	1491.5
397.698	1505.5
397.922	1587.5
398.147	1572.5
398.371	1560.5
398.595	1615.5
398.82	1651.5
399.044	1731.5
399.268	1795.5
399.492	1903.5
399.717	2026.5
399.941	2055.5
400.165	1947.5
400.389	1876.5
400.613	1799.5
400.837	1783.5
401.062	1713.5
401.286	1727.5
401.51	1714.5
401.734	1650.5
401.958	1667.5
402.182	1639.5
402.406	1655.5
402.63	1647.5
402.854	1657.5
403.078	1696.5
403.302	1702.5
403.526	1687.5
403.75	1700.5
403.974	1737.5
404.198	1711.5
404.422	1738.5
404.645	1706.5
404.869	1687.5
405.093	1709.5
405.317	1737.5
405.541	1736.5
405.765	1747.5
405.988	1779.5
406.212	1781.5
406.436	1749.5
406.66	1796.5
406.883	1813.5
407.107	1884.5
407.331	1935.5
407.555	1947.5
407.778	2010.5
408.002	1950.5
408.226	1926.5
408.449	1974.5
408.673	1916.5
408.896	1884.5
409.12	1824.5
409.344	1868.5
409.567	1827.5
409.791	1834.5
410.014	1804.5
410.238	1778.5
410.461	1721.5
410.685	1762.5
410.908	1743.5
411.132	1754.5
411.355	1701.5
411.578	1699.5
411.802	1702.5
412.025	1729.5
412.249	1742.5
412.472	1717.5
412.695	1688.5
412.919	1683.5
413.142	1694.5
413.365	1648.5
413.589	1670.5
413.812	1673.5
414.035	1690.5
414.258	1667.5
414.482	1644.5
414.705	1671.5
414.928	1671.5
415.151	1655.5
415.374	1643.5
415.597	1637.5
415.821	1643.5
416.044	1612.5
416.267	1644.5
416.49	1624.5
416.713	1592.5
416.936	1569.5
417.159	1599.5
417.382	1571.5
417.605	1557.5
417.828	1603.5
418.051	1569.5
418.274	1603.5
418.497	1591.5
418.72	1593.5
418.943	1579.5
419.166	1719.5
419.389	1786.5
419.611	1759.5
419.834	1666.5
420.057	1683.5
420.28	1627.5
420.503	1538.5
420.726	1570.5
420.948	1596.5
421.171	1587.5
421.394	1589.5
421.617	1561.5
421.839	1591.5
422.062	1593.5
422.285	1546.5
422.507	1605.5
422.73	1573.5
422.953	1564.5
423.175	1591.5
423.398	1585.5
423.621	1586.5
423.843	1590.5
424.066	1605.5
424.288	1608.5
424.511	1573.5
424.733	1586.5
424.956	1550.5
425.178	1560.5
425.401	1562.5
425.623	1591.5
425.846	1541.5
426.068	1526.5
426.291	1508.5
426.513	1539.5
426.735	1539.5
426.958	1549.5
427.18	1463.5
427.402	1492.5
427.625	1541.5
427.847	1504.5
428.069	1491.5
428.292	1513.5
428.514	1458.5
428.736	1474.5
428.958	1519.5
429.181	1455.5
429.403	1471.5
429.625	1430.5
429.847	1465.5
430.069	1463.5
430.292	1498.5
430.514	1467.5
430.736	1481.5
430.958	1461.5
431.18	1473.5
431.402	1480.5
431.624	1460.5
431.846	1481.5
432.068	1491.5
432.29	1510.5
432.512	1459.5
432.734	1499.5
432.956	1475.5
433.178	1504.5
433.4	1504.5
433.622	1521.5
433.844	1512.5
434.066	1524.5
434.287	1552.5
434.509	1556.5
434.731	1571.5
434.953	1567.5
435.175	1602.5
435.397	1628.5
435.618	1539.5
435.84	1555.5
436.062	1503.5
436.284	1512.5
436.505	1482.5
436.727	1447.5
436.949	1497.5
437.17	1502.5
437.392	1471.5
437.614	1471.5
437.835	1463.5
438.057	1447.5
438.278	1416.5
438.5	1388.5
438.721	1415.5
438.943	1421.5
439.165	1429.5
439.386	1471.5
439.608	1448.5
439.829	1463.5
440.05	1445.5
440.272	1492.5
440.493	1466.5
440.715	1490.5
440.936	1530.5
441.158	1481.5
441.379	1538.5
441.6	1595.5
441.822	1588.5
442.043	1575.5
442.264	1551.5
442.486	1545.5
442.707	1560.5
442.928	1533.5
443.149	1565.5
443.371	1555.5
443.592	1632.5
443.813	1598.5
444.034	1590.5
444.255	1624.5
444.476	1655.5
444.698	1678.5
444.919	1740.5
445.14	1791.5
445.361	1722.5
445.582	1659.5
445.803	1559.5
446.024	1518.5
446.245	1526.5
446.466	1496.5
446.687	1511.5
446.908	1459.5
447.129	1425.5
447.35	1411.5
447.571	1416.5
447.792	1394.5
448.013	1385.5
448.234	1391.5
448.455	1354.5
448.675	1365.5
448.896	1353.5
449.117	1347.5
449.338	1341.5
449.559	1337.5
449.779	1316.5
450	1329.5
450.221	1327.5
450.442	1336.5
450.662	1346.5
450.883	1337.5
451.104	1379.5
451.324	1320.5
451.545	1350.5
451.766	1321.5
451.986	1335.5
452.207	1311.5
452.428	1328.5
452.648	1325.5
452.869	1255.5
453.089	1307.5
453.31	1347.5
453.53	1270.5
453.751	1319.5
453.971	1279.5
454.192	1304.5
454.412	1312.5
454.633	1289.5
454.853	1279.5
455.073	1257.5
455.294	1277.5
455.514	1285.5
455.734	1309.5
455.955	1318.5
456.175	1323.5
456.395	1270.5
456.616	1267.5
456.836	1275.5
457.056	1282.5
457.276	1234.5
457.497	1269.5
457.717	1292.5
457.937	1310.5
458.157	1305.5
458.377	1299.5
458.598	1340.5
458.818	1370.5
459.038	1419.5
459.258	1426.5
459.478	1500.5
459.698	1587.5
459.918	1565.5
460.138	1581.5
460.358	1591.5
460.578	1639.5
460.798	1692.5
461.018	1650.5
461.238	1614.5
461.458	1632.5
461.678	1584.5
461.898	1659.5
462.118	1614.5
462.338	1727.5
462.558	1733.5
462.777	1807.5
462.997	1896.5
463.217	1917.5
463.437	1969.5
463.657	1977.5
463.876	1850.5
464.096	1854.5
464.316	1814.5
464.536	1788.5
464.755	1768.5
464.975	1697.5
465.195	1649.5
465.414	1615.5
465.634	1521.5
465.854	1501.5
466.073	1505.5
466.293	1439.5
466.512	1461.5
466.732	1410.5
466.951	1443.5
467.171	1447.5
467.391	1432.5
467.61	1381.5
467.829	1373.5
468.049	1397.5
468.268	1357.5
468.488	1389.5
468.707	1358.5
468.927	1341.5
469.146	1361.5
469.365	1369.5
469.585	1385.5
469.804	1406.5
470.023	1423.5
470.243	1401.5
470.462	1405.5
470.681	1422.5
470.901	1428.5
471.12	1408.5
471.339	1409.5
471.558	1405.5
471.777	1394.5
471.997	1377.5
472.216	1388.5
472.435	1392.5
472.654	1365.5
472.873	1395.5
473.092	1366.5
473.311	1378.5
473.53	1363.5
473.749	1371.5
473.968	1375.5
474.187	1352.5
474.406	1367.5
474.625	1385.5
474.844	1364.5
475.063	1365.5
475.282	1393.5
475.501	1409.5
475.72	1413.5
475.939	1417.5
476.158	1403.5
476.377	1433.5
476.596	1443.5
476.814	1459.5
477.033	1468.5
477.252	1496.5
477.471	1456.5
477.69	1492.5
477.908	1605.5
478.127	1581.5
478.346	1603.5
478.564	1621.5
478.783	1618.5
479.002	1709.5
479.22	1717.5
479.439	1627.5
479.658	1659.5
479.876	1669.5
480.095	1659.5
480.313	1699.5
480.532	1733.5
480.751	1713.5
480.969	1695.5
481.188	1694.5
481.406	1682.5
481.624	1655.5
481.843	1647.5
482.061	1606.5
482.28	1674.5
482.498	1641.5
482.717	1631.5
482.935	1649.5
483.153	1665.5
483.372	1678.5
483.59	1681.5
483.808	1675.5
484.027	1652.5
484.245	1667.5
484.463	1669.5
484.681	1704.5
484.9	1700.5
485.118	1721.5
485.336	1674.5
485.554	1683.5
485.772	1720.5
485.99	1688.5
486.209	1671.5
486.427	1695.5
486.645	1674.5
486.863	1715.5
487.081	1705.5
487.299	1682.5
487.517	1703.5
487.735	1739.5
487.953	1721.5
488.171	1723.5
488.389	1697.5
488.607	1695.5
488.825	1689.5
489.043	1697.5
489.261	1661.5
489.479	1658.5
489.696	1682.5
489.914	1682.5
490.132	1708.5
490.35	1691.5
490.568	1715.5
490.786	1726.5
491.003	1727.5
491.221	1708.5
491.439	1704.5
491.657	1720.5
491.874	1728.5
492.092	1720.5
492.31	1721.5
492.527	1735.5
492.745	1717.5
492.963	1721.5
493.18	1708.5
493.398	1727.5
493.615	1711.5
493.833	1742.5
494.05	1695.5
494.268	1756.5
494.485	1748.5
494.703	1740.5
494.92	1800.5
495.138	1780.5
495.355	1777.5
495.573	1763.5
495.79	1809.5
496.008	1831.5
496.225	1803.5
496.442	1860.5
496.66	1837.5
496.877	1870.5
497.094	1903.5
497.312	1923.5
497.529	1938.5
497.746	1993.5
497.963	2065.5
498.181	2098.5
498.398	2124.5
498.615	2274.5
498.832	2332.5
499.049	2484.5
499.267	2584.5
499.484	2778.5
499.701	2883.5
499.918	3028.5
500.135	3239.5
500.352	3343.5
500.569	3429.5
500.786	3481.5
501.003	3392.5
501.22	3192.5
501.437	3026.5
501.654	2827.5
501.871	2657.5
502.088	2534.5
502.305	2453.5
502.522	2361.5
502.739	2254.5
502.956	2171.5
503.172	2102.5
503.389	2067.5
503.606	1979.5
503.823	1980.5
504.04	1943.5
504.256	1935.5
504.473	1891.5
504.69	1877.5
504.907	1814.5
505.123	1783.5
505.34	1756.5
505.557	1732.5
505.773	1687.5
505.99	1653.5
506.207	1624.5
506.423	1603.5
506.64	1577.5
506.856	1576.5
507.073	1588.5
507.289	1539.5
