Data from Ni(NO3)2Standard.Agarose3%.GreenCap.LampEnergy5.5.E.O_HRD10591_14-41-53-189.txt Node
Date: Mon Jul 22 14:41:53 EDT 2019
User: cochatt
Spectrometer: HR+D1059
Trigger mode: 1
Integration Time (sec): 1.000000E-1
Scans to average: 1
Electric dark correction enabled: true
Nonlinearity correction enabled: false
Boxcar width: 0
XAxis mode: Wavelengths
Number of Pixels in Spectrum: 2048
>>>>>Begin Spectral Data<<<<<
223.165	-7.38
223.4	-7.38
223.635	-7.38
223.869	-15.38
224.104	-11.38
224.338	-8.38
224.573	-27.38
224.808	-11.38
225.042	-15.38
225.277	0.62
225.511	-15.38
225.746	7.62
225.98	13.62
226.215	11.62
226.449	3.62
226.683	16.62
226.918	25.62
227.152	32.62
227.387	46.62
227.621	38.62
227.856	32.62
228.09	49.62
228.324	48.62
228.559	57.62
228.793	40.62
229.027	65.62
229.262	74.62
229.496	64.62
229.73	74.62
229.964	79.62
230.199	60.62
230.433	72.62
230.667	77.62
230.901	67.62
231.136	78.62
231.37	85.62
231.604	86.62
231.838	92.62
232.072	77.62
232.306	84.62
232.541	81.62
232.775	86.62
233.009	85.62
233.243	90.62
233.477	82.62
233.711	87.62
233.945	67.62
234.179	77.62
234.413	82.62
234.647	83.62
234.881	81.62
235.115	80.62
235.349	80.62
235.583	87.62
235.817	82.62
236.051	87.62
236.285	88.62
236.519	71.62
236.753	65.62
236.987	74.62
237.221	64.62
237.455	76.62
237.689	74.62
237.922	82.62
238.156	65.62
238.39	78.62
238.624	69.62
238.858	77.62
239.091	82.62
239.325	87.62
239.559	80.62
239.793	80.62
240.027	83.62
240.26	69.62
240.494	68.62
240.728	80.62
240.961	54.62
241.195	78.62
241.429	70.62
241.662	60.62
241.896	67.62
242.13	82.62
242.363	75.62
242.597	68.62
242.83	74.62
243.064	73.62
243.298	76.62
243.531	78.62
243.765	72.62
243.998	74.62
244.232	79.62
244.465	81.62
244.699	80.62
244.932	72.62
245.166	61.62
245.399	80.62
245.633	81.62
245.866	77.62
246.099	81.62
246.333	70.62
246.566	57.62
246.8	67.62
247.033	73.62
247.266	80.62
247.5	69.62
247.733	89.62
247.966	69.62
248.2	78.62
248.433	74.62
248.666	72.62
248.899	68.62
249.133	73.62
249.366	80.62
249.599	80.62
249.832	85.62
250.066	79.62
250.299	85.62
250.532	90.62
250.765	61.62
250.998	81.62
251.231	72.62
251.465	89.62
251.698	75.62
251.931	64.62
252.164	84.62
252.397	77.62
252.63	85.62
252.863	86.62
253.096	67.62
253.329	85.62
253.562	74.62
253.795	87.62
254.028	74.62
254.261	77.62
254.494	81.62
254.727	83.62
254.96	77.62
255.193	83.62
255.426	78.62
255.659	78.62
255.892	97.62
256.124	83.62
256.357	82.62
256.59	81.62
256.823	87.62
257.056	73.62
257.289	90.62
257.521	48.62
257.754	82.62
257.987	77.62
258.22	78.62
258.452	86.62
258.685	76.62
258.918	83.62
259.151	74.62
259.383	57.62
259.616	74.62
259.849	84.62
260.081	92.62
260.314	84.62
260.547	75.62
260.779	77.62
261.012	83.62
261.244	83.62
261.477	92.62
261.71	79.62
261.942	82.62
262.175	78.62
262.407	82.62
262.64	76.62
262.872	77.62
263.105	90.62
263.337	74.62
263.57	67.62
263.802	82.62
264.035	78.62
264.267	64.62
264.499	77.62
264.732	92.62
264.964	80.62
265.197	74.62
265.429	93.62
265.661	86.62
265.894	89.62
266.126	90.62
266.358	79.62
266.591	80.62
266.823	90.62
267.055	96.62
267.287	80.62
267.52	91.62
267.752	90.62
267.984	79.62
268.216	88.62
268.448	88.62
268.681	91.62
268.913	83.62
269.145	92.62
269.377	86.62
269.609	81.62
269.841	78.62
270.073	84.62
270.306	76.62
270.538	89.62
270.77	105.62
271.002	82.62
271.234	90.62
271.466	76.62
271.698	77.62
271.93	65.62
272.162	74.62
272.394	80.62
272.626	96.62
272.858	86.62
273.09	92.62
273.322	94.62
273.553	75.62
273.785	83.62
274.017	80.62
274.249	70.62
274.481	70.62
274.713	72.62
274.945	84.62
275.176	84.62
275.408	88.62
275.64	84.62
275.872	102.62
276.104	71.62
276.335	77.62
276.567	94.62
276.799	84.62
277.031	80.62
277.262	83.62
277.494	85.62
277.726	96.62
277.957	86.62
278.189	81.62
278.421	84.62
278.652	87.62
278.884	83.62
279.115	92.62
279.347	82.62
279.579	91.62
279.81	81.62
280.042	87.62
280.273	88.62
280.505	84.62
280.736	94.62
280.968	69.62
281.199	82.62
281.431	90.62
281.662	82.62
281.894	71.62
282.125	78.62
282.356	88.62
282.588	89.62
282.819	90.62
283.051	86.62
283.282	64.62
283.513	82.62
283.745	73.62
283.976	78.62
284.207	76.62
284.439	81.62
284.67	84.62
284.901	93.62
285.132	83.62
285.364	73.62
285.595	85.62
285.826	85.62
286.057	84.62
286.288	88.62
286.52	97.62
286.751	87.62
286.982	77.62
287.213	82.62
287.444	95.62
287.675	80.62
287.906	81.62
288.138	74.62
288.369	85.62
288.6	83.62
288.831	86.62
289.062	84.62
289.293	87.62
289.524	83.62
289.755	84.62
289.986	84.62
290.217	86.62
290.448	76.62
290.679	81.62
290.91	66.62
291.141	75.62
291.371	83.62
291.602	81.62
291.833	96.62
292.064	89.62
292.295	66.62
292.526	78.62
292.757	73.62
292.987	87.62
293.218	84.62
293.449	90.62
293.68	90.62
293.91	98.62
294.141	89.62
294.372	84.62
294.603	92.62
294.833	86.62
295.064	78.62
295.295	91.62
295.525	82.62
295.756	83.62
295.987	94.62
296.217	86.62
296.448	92.62
296.679	91.62
296.909	77.62
297.14	84.62
297.37	103.62
297.601	90.62
297.831	81.62
298.062	78.62
298.292	92.62
298.523	89.62
298.753	88.62
298.984	83.62
299.214	90.62
299.445	106.62
299.675	78.62
299.905	96.62
300.136	89.62
300.366	92.62
300.597	86.62
300.827	74.62
301.057	78.62
301.288	92.62
301.518	93.62
301.748	103.62
301.979	88.62
302.209	90.62
302.439	77.62
302.669	79.62
302.9	83.62
303.13	78.62
303.36	77.62
303.59	93.62
303.82	102.62
304.051	85.62
304.281	91.62
304.511	91.62
304.741	87.62
304.971	74.62
305.201	85.62
305.431	82.62
305.661	101.62
305.891	90.62
306.121	63.62
306.352	69.62
306.582	76.62
306.812	71.62
307.042	68.62
307.272	90.62
307.502	89.62
307.731	90.62
307.961	90.62
308.191	91.62
308.421	77.62
308.651	88.62
308.881	81.62
309.111	90.62
309.341	76.62
309.571	94.62
309.8	98.62
310.03	95.62
310.26	94.62
310.49	88.62
310.72	85.62
310.949	82.62
311.179	88.62
311.409	89.62
311.639	92.62
311.868	88.62
312.098	84.62
312.328	75.62
312.557	84.62
312.787	101.62
313.017	81.62
313.246	80.62
313.476	81.62
313.706	83.62
313.935	90.62
314.165	91.62
314.394	82.62
314.624	73.62
314.853	93.62
315.083	80.62
315.312	80.62
315.542	96.62
315.771	87.62
316.001	79.62
316.23	81.62
316.46	76.62
316.689	86.62
316.919	86.62
317.148	86.62
317.377	92.62
317.607	91.62
317.836	74.62
318.065	82.62
318.295	99.62
318.524	90.62
318.753	76.62
318.983	60.62
319.212	64.62
319.441	93.62
319.67	83.62
319.9	95.62
320.129	96.62
320.358	97.62
320.587	72.62
320.816	94.62
321.046	88.62
321.275	93.62
321.504	71.62
321.733	88.62
321.962	90.62
322.191	83.62
322.42	94.62
322.649	82.62
322.878	84.62
323.108	99.62
323.337	70.62
323.566	84.62
323.795	93.62
324.024	88.62
324.253	81.62
324.482	84.62
324.71	84.62
324.939	83.62
325.168	80.62
325.397	78.62
325.626	83.62
325.855	80.62
326.084	97.62
326.313	96.62
326.542	84.62
326.77	96.62
326.999	95.62
327.228	82.62
327.457	84.62
327.686	85.62
327.914	89.62
328.143	92.62
328.372	90.62
328.6	85.62
328.829	84.62
329.058	78.62
329.287	90.62
329.515	78.62
329.744	93.62
329.972	104.62
330.201	81.62
330.43	80.62
330.658	99.62
330.887	84.62
331.115	86.62
331.344	89.62
331.572	101.62
331.801	69.62
332.03	89.62
332.258	98.62
332.486	82.62
332.715	78.62
332.943	84.62
333.172	77.62
333.4	92.62
333.629	86.62
333.857	87.62
334.085	87.62
334.314	85.62
334.542	81.62
334.771	84.62
334.999	91.62
335.227	89.62
335.455	90.62
335.684	81.62
335.912	81.62
336.14	88.62
336.369	87.62
336.597	92.62
336.825	78.62
337.053	89.62
337.281	91.62
337.51	87.62
337.738	92.62
337.966	85.62
338.194	87.62
338.422	99.62
338.65	96.62
338.878	90.62
339.106	85.62
339.334	85.62
339.562	77.62
339.79	88.62
340.018	95.62
340.246	88.62
340.474	82.62
340.702	65.62
340.93	82.62
341.158	83.62
341.386	94.62
341.614	83.62
341.842	87.62
342.07	93.62
342.298	90.62
342.526	84.62
342.754	85.62
342.981	78.62
343.209	77.62
343.437	89.62
343.665	98.62
343.893	77.62
344.12	80.62
344.348	94.62
344.576	88.62
344.804	74.62
345.031	88.62
345.259	100.62
345.487	83.62
345.714	77.62
345.942	77.62
346.17	86.62
346.397	86.62
346.625	100.62
346.853	83.62
347.08	81.62
347.308	85.62
347.535	73.62
347.763	86.62
347.99	82.62
348.218	90.62
348.445	84.62
348.673	79.62
348.9	84.62
349.128	90.62
349.355	93.62
349.583	84.62
349.81	74.62
350.037	86.62
350.265	90.62
350.492	92.62
350.72	77.62
350.947	89.62
351.174	71.62
351.402	80.62
351.629	86.62
351.856	81.62
352.083	82.62
352.311	81.62
352.538	71.62
352.765	88.62
352.992	100.62
353.22	90.62
353.447	77.62
353.674	90.62
353.901	86.62
354.128	86.62
354.355	76.62
354.583	87.62
354.81	91.62
355.037	77.62
355.264	91.62
355.491	88.62
355.718	86.62
355.945	99.62
356.172	77.62
356.399	92.62
356.626	80.62
356.853	91.62
357.08	89.62
357.307	75.62
357.534	76.62
357.761	88.62
357.988	90.62
358.215	91.62
358.441	82.62
358.668	88.62
358.895	84.62
359.122	89.62
359.349	72.62
359.576	83.62
359.802	78.62
360.029	81.62
360.256	80.62
360.483	69.62
360.709	75.62
360.936	84.62
361.163	97.62
361.39	77.62
361.616	85.62
361.843	88.62
362.07	87.62
362.296	83.62
362.523	101.62
362.749	87.62
362.976	83.62
363.203	84.62
363.429	77.62
363.656	90.62
363.882	80.62
364.109	84.62
364.335	98.62
364.562	94.62
364.788	83.62
365.015	82.62
365.241	68.62
365.468	84.62
365.694	80.62
365.92	81.62
366.147	81.62
366.373	82.62
366.599	79.62
366.826	89.62
367.052	90.62
367.278	66.62
367.505	76.62
367.731	93.62
367.957	79.62
368.184	80.62
368.41	88.62
368.636	90.62
368.862	89.62
369.089	89.62
369.315	72.62
369.541	84.62
369.767	99.62
369.993	92.62
370.219	80.62
370.445	78.62
370.672	81.62
370.898	85.62
371.124	84.62
371.35	83.62
371.576	91.62
371.802	79.62
372.028	83.62
372.254	86.62
372.48	84.62
372.706	77.62
372.932	86.62
373.158	94.62
373.384	89.62
373.61	90.62
373.835	71.62
374.061	80.62
374.287	88.62
374.513	95.62
374.739	81.62
374.965	87.62
375.191	82.62
375.416	81.62
375.642	83.62
375.868	83.62
376.094	82.62
376.319	77.62
376.545	85.62
376.771	83.62
376.997	85.62
377.222	82.62
377.448	93.62
377.674	83.62
377.899	90.62
378.125	97.62
378.35	91.62
378.576	86.62
378.802	87.62
379.027	69.62
379.253	86.62
379.478	71.62
379.704	83.62
379.929	70.62
380.155	86.62
380.38	83.62
380.606	99.62
380.831	85.62
381.057	89.62
381.282	75.62
381.507	76.62
381.733	91.62
381.958	80.62
382.184	92.62
382.409	82.62
382.634	98.62
382.86	81.62
383.085	86.62
383.31	82.62
383.535	91.62
383.761	75.62
383.986	79.62
384.211	81.62
384.436	74.62
384.662	78.62
384.887	87.62
385.112	76.62
385.337	89.62
385.562	92.62
385.787	87.62
386.013	88.62
386.238	79.62
386.463	84.62
386.688	90.62
386.913	84.62
387.138	83.62
387.363	86.62
387.588	83.62
387.813	75.62
388.038	77.62
388.263	96.62
388.488	77.62
388.713	92.62
388.938	89.62
389.163	78.62
389.387	72.62
389.612	83.62
389.837	85.62
390.062	87.62
390.287	88.62
390.512	89.62
390.736	65.62
390.961	83.62
391.186	79.62
391.411	73.62
391.636	74.62
391.86	89.62
392.085	78.62
392.31	77.62
392.534	82.62
392.759	80.62
392.984	84.62
393.208	82.62
393.433	79.62
393.658	92.62
393.882	80.62
394.107	92.62
394.331	77.62
394.556	81.62
394.78	83.62
395.005	78.62
395.229	85.62
395.454	88.62
395.678	70.62
395.903	89.62
396.127	87.62
396.352	85.62
396.576	88.62
396.801	91.62
397.025	78.62
397.249	92.62
397.474	85.62
397.698	88.62
397.922	82.62
398.147	76.62
398.371	82.62
398.595	95.62
398.82	76.62
399.044	83.62
399.268	71.62
399.492	81.62
399.717	82.62
399.941	80.62
400.165	81.62
400.389	93.62
400.613	84.62
400.837	87.62
401.062	85.62
401.286	73.62
401.51	83.62
401.734	92.62
401.958	77.62
402.182	86.62
402.406	79.62
402.63	88.62
402.854	90.62
403.078	83.62
403.302	92.62
403.526	83.62
403.75	97.62
403.974	92.62
404.198	78.62
404.422	66.62
404.645	74.62
404.869	82.62
405.093	79.62
405.317	90.62
405.541	79.62
405.765	88.62
405.988	79.62
406.212	85.62
406.436	80.62
406.66	100.62
406.883	79.62
407.107	85.62
407.331	78.62
407.555	70.62
407.778	85.62
408.002	82.62
408.226	75.62
408.449	80.62
408.673	84.62
408.896	97.62
409.12	81.62
409.344	91.62
409.567	96.62
409.791	97.62
410.014	86.62
410.238	97.62
410.461	86.62
410.685	89.62
410.908	91.62
411.132	98.62
411.355	85.62
411.578	80.62
411.802	83.62
412.025	83.62
412.249	76.62
412.472	87.62
412.695	84.62
412.919	76.62
413.142	84.62
413.365	86.62
413.589	82.62
413.812	79.62
414.035	78.62
414.258	91.62
414.482	90.62
414.705	98.62
414.928	81.62
415.151	83.62
415.374	83.62
415.597	87.62
415.821	75.62
416.044	84.62
416.267	90.62
416.49	91.62
416.713	75.62
416.936	100.62
417.159	97.62
417.382	96.62
417.605	79.62
417.828	79.62
418.051	73.62
418.274	76.62
418.497	82.62
418.72	84.62
418.943	86.62
419.166	87.62
419.389	76.62
419.611	81.62
419.834	88.62
420.057	90.62
420.28	97.62
420.503	89.62
420.726	93.62
420.948	67.62
421.171	77.62
421.394	72.62
421.617	81.62
421.839	85.62
422.062	65.62
422.285	74.62
422.507	85.62
422.73	78.62
422.953	86.62
423.175	87.62
423.398	92.62
423.621	92.62
423.843	83.62
424.066	65.62
424.288	76.62
424.511	78.62
424.733	79.62
424.956	87.62
425.178	93.62
425.401	78.62
425.623	87.62
425.846	74.62
426.068	88.62
426.291	84.62
426.513	82.62
426.735	81.62
426.958	76.62
427.18	79.62
427.402	78.62
427.625	71.62
427.847	92.62
428.069	91.62
428.292	78.62
428.514	83.62
428.736	72.62
428.958	78.62
429.181	91.62
429.403	87.62
429.625	83.62
429.847	80.62
430.069	72.62
430.292	77.62
430.514	83.62
430.736	87.62
430.958	85.62
431.18	90.62
431.402	78.62
431.624	80.62
431.846	83.62
432.068	84.62
432.29	90.62
432.512	70.62
432.734	85.62
432.956	89.62
433.178	86.62
433.4	90.62
433.622	85.62
433.844	84.62
434.066	82.62
434.287	87.62
434.509	81.62
434.731	107.62
434.953	82.62
435.175	87.62
435.397	83.62
435.618	80.62
435.84	87.62
436.062	85.62
436.284	80.62
436.505	78.62
436.727	85.62
436.949	84.62
437.17	84.62
437.392	75.62
437.614	85.62
437.835	86.62
438.057	89.62
438.278	95.62
438.5	91.62
438.721	73.62
438.943	89.62
439.165	95.62
439.386	84.62
439.608	82.62
439.829	87.62
440.05	86.62
440.272	61.62
440.493	98.62
440.715	88.62
440.936	85.62
441.158	88.62
441.379	86.62
441.6	82.62
441.822	88.62
442.043	91.62
442.264	97.62
442.486	90.62
442.707	78.62
442.928	74.62
443.149	72.62
443.371	77.62
443.592	80.62
443.813	89.62
444.034	85.62
444.255	104.62
444.476	80.62
444.698	91.62
444.919	85.62
445.14	206.62
445.361	157.62
445.582	83.62
445.803	81.62
446.024	82.62
446.245	85.62
446.466	92.62
446.687	67.62
446.908	88.62
447.129	91.62
447.35	80.62
447.571	82.62
447.792	90.62
448.013	85.62
448.234	68.62
448.455	75.62
448.675	92.62
448.896	95.62
449.117	97.62
449.338	80.62
449.559	88.62
449.779	85.62
450	91.62
450.221	78.62
450.442	72.62
450.662	83.62
450.883	80.62
451.104	74.62
451.324	86.62
451.545	86.62
451.766	74.62
451.986	92.62
452.207	86.62
452.428	92.62
452.648	85.62
452.869	96.62
453.089	72.62
453.31	92.62
453.53	94.62
453.751	93.62
453.971	73.62
454.192	76.62
454.412	77.62
454.633	77.62
454.853	81.62
455.073	73.62
455.294	96.62
455.514	85.62
455.734	87.62
455.955	79.62
456.175	84.62
456.395	72.62
456.616	79.62
456.836	81.62
457.056	82.62
457.276	95.62
457.497	82.62
457.717	80.62
457.937	83.62
458.157	97.62
458.377	94.62
458.598	69.62
458.818	91.62
459.038	90.62
459.258	79.62
459.478	86.62
459.698	89.62
459.918	90.62
460.138	85.62
460.358	78.62
460.578	84.62
460.798	76.62
461.018	84.62
461.238	78.62
461.458	75.62
461.678	81.62
461.898	86.62
462.118	91.62
462.338	87.62
462.558	97.62
462.777	81.62
462.997	89.62
463.217	89.62
463.437	93.62
463.657	98.62
463.876	95.62
464.096	83.62
464.316	82.62
464.536	94.62
464.755	92.62
464.975	92.62
465.195	90.62
465.414	86.62
465.634	85.62
465.854	81.62
466.073	94.62
466.293	85.62
466.512	92.62
466.732	93.62
466.951	81.62
467.171	72.62
467.391	61.62
467.61	83.62
467.829	95.62
468.049	86.62
468.268	84.62
468.488	76.62
468.707	75.62
468.927	78.62
469.146	76.62
469.365	98.62
469.585	85.62
469.804	91.62
470.023	81.62
470.243	100.62
470.462	87.62
470.681	82.62
470.901	73.62
471.12	66.62
471.339	89.62
471.558	87.62
471.777	74.62
471.997	98.62
472.216	87.62
472.435	76.62
472.654	98.62
472.873	98.62
473.092	89.62
473.311	78.62
473.53	88.62
473.749	90.62
473.968	79.62
474.187	97.62
474.406	84.62
474.625	95.62
474.844	86.62
475.063	77.62
475.282	90.62
475.501	90.62
475.72	93.62
475.939	97.62
476.158	78.62
476.377	74.62
476.596	84.62
476.814	80.62
477.033	65.62
477.252	96.62
477.471	87.62
477.69	80.62
477.908	93.62
478.127	84.62
478.346	93.62
478.564	97.62
478.783	83.62
479.002	91.62
479.22	83.62
479.439	102.62
479.658	77.62
479.876	86.62
480.095	69.62
480.313	89.62
480.532	91.62
480.751	100.62
480.969	83.62
481.188	83.62
481.406	88.62
481.624	86.62
481.843	80.62
482.061	88.62
482.28	89.62
482.498	88.62
482.717	77.62
482.935	84.62
483.153	88.62
483.372	86.62
483.59	74.62
483.808	90.62
484.027	88.62
484.245	98.62
484.463	89.62
484.681	83.62
484.9	101.62
485.118	90.62
485.336	86.62
485.554	69.62
485.772	87.62
485.99	80.62
486.209	91.62
486.427	92.62
486.645	83.62
486.863	103.62
487.081	94.62
487.299	89.62
487.517	92.62
487.735	92.62
487.953	86.62
488.171	89.62
488.389	79.62
488.607	97.62
488.825	88.62
489.043	109.62
489.261	96.62
489.479	90.62
489.696	92.62
489.914	88.62
490.132	105.62
490.35	97.62
490.568	101.62
490.786	93.62
491.003	91.62
491.221	111.62
491.439	98.62
491.657	99.62
491.874	102.62
492.092	108.62
492.31	106.62
492.527	92.62
492.745	93.62
492.963	89.62
493.18	88.62
493.398	97.62
493.615	88.62
493.833	79.62
494.05	92.62
494.268	92.62
494.485	94.62
494.703	92.62
494.92	97.62
495.138	87.62
495.355	96.62
495.573	85.62
495.79	114.62
496.008	96.62
496.225	87.62
496.442	85.62
496.66	97.62
496.877	102.62
497.094	103.62
497.312	93.62
497.529	93.62
497.746	91.62
497.963	95.62
498.181	84.62
498.398	94.62
498.615	99.62
498.832	100.62
499.049	94.62
499.267	96.62
499.484	116.62
499.701	87.62
499.918	93.62
500.135	103.62
500.352	110.62
500.569	102.62
500.786	114.62
501.003	98.62
501.22	98.62
501.437	91.62
501.654	93.62
501.871	98.62
502.088	88.62
502.305	113.62
502.522	100.62
502.739	88.62
502.956	99.62
503.172	92.62
503.389	97.62
503.606	99.62
503.823	82.62
504.04	87.62
504.256	94.62
504.473	88.62
504.69	99.62
504.907	105.62
505.123	92.62
505.34	91.62
505.557	97.62
505.773	91.62
505.99	89.62
506.207	96.62
506.423	80.62
506.64	102.62
506.856	90.62
507.073	87.62
507.289	100.62
507.506	77.62
507.722	81.62
507.939	93.62
508.155	99.62
508.372	95.62
508.588	94.62
508.805	103.62
509.021	86.62
509.238	92.62
509.454	86.62
509.67	89.62
509.887	96.62
510.103	84.62
510.319	92.62
510.536	96.62
510.752	107.62
510.968	83.62
511.184	93.62
511.401	100.62
511.617	84.62
511.833	92.62
512.049	95.62
512.265	88.62
512.481	91.62
512.698	90.62
512.914	85.62
513.13	102.62
513.346	86.62
513.562	92.62
513.778	101.62
513.994	81.62
514.21	105.62
514.426	84.62
514.642	91.62
514.858	97.62
515.074	82.62
515.29	95.62
515.506	93.62
515.721	93.62
515.937	105.62
516.153	90.62
516.369	94.62
516.585	98.62
516.801	96.62
517.016	91.62
517.232	96.62
517.448	106.62
517.664	101.62
517.879	85.62
518.095	93.62
518.311	93.62
518.527	78.62
518.742	96.62
