Data from Ni(NO3)2@0.25M.TitratingCurve.Agarose3%dH2O.NegLispCup.LampEnergy10.LIBS07252019_HRD10591_18-04-27-566.txt Node
Date: Thu Jul 25 18:04:27 EDT 2019
User: cochatt
Spectrometer: HR+D1059
Trigger mode: 1
Integration Time (sec): 1.000000E-1
Scans to average: 1
Electric dark correction enabled: true
Nonlinearity correction enabled: false
Boxcar width: 0
XAxis mode: Wavelengths
Number of Pixels in Spectrum: 2048
>>>>>Begin Spectral Data<<<<<
223.165	-2.88
223.4	-2.88
223.635	-2.88
223.869	-18.88
224.104	-24.88
224.338	-5.88
224.573	-0.88
224.808	-5.88
225.042	-14.88
225.277	-10.88
225.511	-6.88
225.746	12.12
225.98	2.12
226.215	8.12
226.449	15.12
226.683	15.12
226.918	18.12
227.152	21.12
227.387	54.12
227.621	34.12
227.856	54.12
228.09	46.12
228.324	56.12
228.559	71.12
228.793	86.12
229.027	96.12
229.262	106.12
229.496	112.12
229.73	120.12
229.964	109.12
230.199	135.12
230.433	128.12
230.667	124.12
230.901	126.12
231.136	115.12
231.37	123.12
231.604	137.12
231.838	133.12
232.072	145.12
232.306	141.12
232.541	148.12
232.775	134.12
233.009	138.12
233.243	149.12
233.477	141.12
233.711	142.12
233.945	128.12
234.179	131.12
234.413	145.12
234.647	139.12
234.881	137.12
235.115	138.12
235.349	138.12
235.583	142.12
235.817	145.12
236.051	135.12
236.285	135.12
236.519	150.12
236.753	140.12
236.987	143.12
237.221	138.12
237.455	125.12
237.689	140.12
237.922	153.12
238.156	155.12
238.39	157.12
238.624	141.12
238.858	153.12
239.091	125.12
239.325	147.12
239.559	153.12
239.793	165.12
240.027	161.12
240.26	159.12
240.494	167.12
240.728	165.12
240.961	163.12
241.195	165.12
241.429	155.12
241.662	154.12
241.896	164.12
242.13	157.12
242.363	165.12
242.597	179.12
242.83	144.12
243.064	176.12
243.298	169.12
243.531	163.12
243.765	160.12
243.998	169.12
244.232	178.12
244.465	177.12
244.699	189.12
244.932	200.12
245.166	179.12
245.399	191.12
245.633	183.12
245.866	208.12
246.099	202.12
246.333	171.12
246.566	191.12
246.8	184.12
247.033	184.12
247.266	198.12
247.5	205.12
247.733	187.12
247.966	181.12
248.2	205.12
248.433	197.12
248.666	211.12
248.899	213.12
249.133	203.12
249.366	214.12
249.599	204.12
249.832	193.12
250.066	224.12
250.299	224.12
250.532	221.12
250.765	235.12
250.998	232.12
251.231	220.12
251.465	246.12
251.698	236.12
251.931	229.12
252.164	245.12
252.397	238.12
252.63	251.12
252.863	235.12
253.096	244.12
253.329	263.12
253.562	251.12
253.795	238.12
254.028	258.12
254.261	248.12
254.494	249.12
254.727	267.12
254.96	275.12
255.193	281.12
255.426	255.12
255.659	254.12
255.892	283.12
256.124	258.12
256.357	294.12
256.59	287.12
256.823	273.12
257.056	268.12
257.289	284.12
257.521	275.12
257.754	286.12
257.987	291.12
258.22	300.12
258.452	294.12
258.685	283.12
258.918	303.12
259.151	286.12
259.383	288.12
259.616	280.12
259.849	288.12
260.081	291.12
260.314	293.12
260.547	295.12
260.779	294.12
261.012	299.12
261.244	299.12
261.477	305.12
261.71	300.12
261.942	321.12
262.175	317.12
262.407	319.12
262.64	315.12
262.872	317.12
263.105	334.12
263.337	326.12
263.57	302.12
263.802	314.12
264.035	315.12
264.267	326.12
264.499	328.12
264.732	324.12
264.964	331.12
265.197	334.12
265.429	323.12
265.661	327.12
265.894	315.12
266.126	316.12
266.358	319.12
266.591	335.12
266.823	342.12
267.055	349.12
267.287	343.12
267.52	346.12
267.752	337.12
267.984	339.12
268.216	349.12
268.448	352.12
268.681	357.12
268.913	347.12
269.145	352.12
269.377	352.12
269.609	352.12
269.841	343.12
270.073	353.12
270.306	367.12
270.538	331.12
270.77	342.12
271.002	362.12
271.234	369.12
271.466	359.12
271.698	349.12
271.93	375.12
272.162	342.12
272.394	361.12
272.626	338.12
272.858	379.12
273.09	363.12
273.322	401.12
273.553	386.12
273.785	380.12
274.017	363.12
274.249	379.12
274.481	382.12
274.713	352.12
274.945	375.12
275.176	386.12
275.408	383.12
275.64	389.12
275.872	381.12
276.104	401.12
276.335	389.12
276.567	390.12
276.799	379.12
277.031	378.12
277.262	394.12
277.494	402.12
277.726	389.12
277.957	411.12
278.189	384.12
278.421	401.12
278.652	400.12
278.884	404.12
279.115	394.12
279.347	423.12
279.579	393.12
279.81	411.12
280.042	408.12
280.273	407.12
280.505	402.12
280.736	428.12
280.968	406.12
281.199	411.12
281.431	416.12
281.662	413.12
281.894	408.12
282.125	416.12
282.356	410.12
282.588	425.12
282.819	424.12
283.051	425.12
283.282	431.12
283.513	449.12
283.745	416.12
283.976	421.12
284.207	430.12
284.439	435.12
284.67	435.12
284.901	417.12
285.132	439.12
285.364	421.12
285.595	429.12
285.826	467.12
286.057	443.12
286.288	443.12
286.52	414.12
286.751	445.12
286.982	457.12
287.213	439.12
287.444	450.12
287.675	448.12
287.906	460.12
288.138	448.12
288.369	454.12
288.6	457.12
288.831	458.12
289.062	462.12
289.293	477.12
289.524	448.12
289.755	441.12
289.986	449.12
290.217	462.12
290.448	456.12
290.679	465.12
290.91	448.12
291.141	458.12
291.371	475.12
291.602	464.12
291.833	435.12
292.064	456.12
292.295	477.12
292.526	446.12
292.757	462.12
292.987	471.12
293.218	464.12
293.449	454.12
293.68	447.12
293.91	466.12
294.141	473.12
294.372	465.12
294.603	467.12
294.833	474.12
295.064	461.12
295.295	468.12
295.525	466.12
295.756	475.12
295.987	455.12
296.217	466.12
296.448	478.12
296.679	476.12
296.909	482.12
297.14	475.12
297.37	479.12
297.601	483.12
297.831	479.12
298.062	487.12
298.292	491.12
298.523	495.12
298.753	493.12
298.984	497.12
299.214	491.12
299.445	485.12
299.675	486.12
299.905	499.12
300.136	491.12
300.366	521.12
300.597	502.12
300.827	507.12
301.057	537.12
301.288	521.12
301.518	523.12
301.748	520.12
301.979	540.12
302.209	546.12
302.439	535.12
302.669	525.12
302.9	509.12
303.13	525.12
303.36	523.12
303.59	509.12
303.82	499.12
304.051	543.12
304.281	532.12
304.511	506.12
304.741	519.12
304.971	545.12
305.201	537.12
305.431	545.12
305.661	526.12
305.891	543.12
306.121	510.12
306.352	533.12
306.582	539.12
306.812	522.12
307.042	527.12
307.272	517.12
307.502	490.12
307.731	506.12
307.961	529.12
308.191	538.12
308.421	529.12
308.651	525.12
308.881	523.12
309.111	524.12
309.341	513.12
309.571	511.12
309.8	521.12
310.03	535.12
310.26	541.12
310.49	558.12
310.72	537.12
310.949	503.12
311.179	532.12
311.409	533.12
311.639	517.12
311.868	546.12
312.098	593.12
312.328	569.12
312.557	553.12
312.787	588.12
313.017	547.12
313.246	582.12
313.476	577.12
313.706	591.12
313.935	583.12
314.165	585.12
314.394	581.12
314.624	583.12
314.853	561.12
315.083	584.12
315.312	594.12
315.542	591.12
315.771	589.12
316.001	603.12
316.23	596.12
316.46	582.12
316.689	595.12
316.919	578.12
317.148	588.12
317.377	568.12
317.607	588.12
317.836	582.12
318.065	604.12
318.295	578.12
318.524	579.12
318.753	592.12
318.983	610.12
319.212	598.12
319.441	585.12
319.67	591.12
319.9	595.12
320.129	598.12
320.358	598.12
320.587	606.12
320.816	635.12
321.046	609.12
321.275	616.12
321.504	589.12
321.733	620.12
321.962	606.12
322.191	638.12
322.42	631.12
322.649	595.12
322.878	625.12
323.108	637.12
323.337	633.12
323.566	625.12
323.795	632.12
324.024	646.12
324.253	656.12
324.482	650.12
324.71	641.12
324.939	665.12
325.168	631.12
325.397	642.12
325.626	660.12
325.855	662.12
326.084	682.12
326.313	704.12
326.542	693.12
326.77	704.12
326.999	672.12
327.228	682.12
327.457	691.12
327.686	694.12
327.914	689.12
328.143	696.12
328.372	696.12
328.6	710.12
328.829	691.12
329.058	713.12
329.287	690.12
329.515	736.12
329.744	724.12
329.972	730.12
330.201	723.12
330.43	724.12
330.658	730.12
330.887	723.12
331.115	722.12
331.344	746.12
331.572	761.12
331.801	778.12
332.03	775.12
332.258	782.12
332.486	786.12
332.715	839.12
332.943	840.12
333.172	843.12
333.4	883.12
333.629	883.12
333.857	869.12
334.085	882.12
334.314	882.12
334.542	886.12
334.771	873.12
334.999	899.12
335.227	895.12
335.455	892.12
335.684	898.12
335.912	914.12
336.14	877.12
336.369	898.12
336.597	922.12
336.825	899.12
337.053	900.12
337.281	897.12
337.51	891.12
337.738	866.12
337.966	857.12
338.194	866.12
338.422	837.12
338.65	866.12
338.878	840.12
339.106	811.12
339.334	853.12
339.562	851.12
339.79	777.12
340.018	782.12
340.246	752.12
340.474	784.12
340.702	798.12
340.93	805.12
341.158	787.12
341.386	833.12
341.614	833.12
341.842	828.12
342.07	775.12
342.298	765.12
342.526	780.12
342.754	778.12
342.981	802.12
343.209	814.12
343.437	841.12
343.665	853.12
343.893	916.12
344.12	894.12
344.348	898.12
344.576	898.12
344.804	892.12
345.031	811.12
345.259	838.12
345.487	818.12
345.714	817.12
345.942	838.12
346.17	833.12
346.397	817.12
346.625	789.12
346.853	776.12
347.08	777.12
347.308	779.12
347.535	747.12
347.763	795.12
347.99	766.12
348.218	749.12
348.445	765.12
348.673	739.12
348.9	750.12
349.128	783.12
349.355	757.12
349.583	747.12
349.81	746.12
350.037	762.12
350.265	743.12
350.492	729.12
350.72	761.12
350.947	758.12
351.174	738.12
351.402	781.12
351.629	766.12
351.856	741.12
352.083	751.12
352.311	739.12
352.538	752.12
352.765	785.12
352.992	728.12
353.22	706.12
353.447	720.12
353.674	733.12
353.901	723.12
354.128	746.12
354.355	726.12
354.583	728.12
354.81	720.12
355.037	731.12
355.264	731.12
355.491	720.12
355.718	707.12
355.945	706.12
356.172	732.12
356.399	737.12
356.626	765.12
356.853	759.12
357.08	747.12
357.307	751.12
357.534	752.12
357.761	740.12
357.988	713.12
358.215	730.12
358.441	717.12
358.668	712.12
358.895	725.12
359.122	726.12
359.349	746.12
359.576	731.12
359.802	733.12
360.029	738.12
360.256	743.12
360.483	738.12
360.709	721.12
360.936	727.12
361.163	746.12
361.39	742.12
361.616	730.12
361.843	752.12
362.07	785.12
362.296	783.12
362.523	733.12
362.749	701.12
362.976	720.12
363.203	724.12
363.429	713.12
363.656	720.12
363.882	713.12
364.109	725.12
364.335	726.12
364.562	749.12
364.788	723.12
365.015	723.12
365.241	731.12
365.468	711.12
365.694	718.12
365.92	713.12
366.147	737.12
366.373	722.12
366.599	730.12
366.826	733.12
367.052	732.12
367.278	736.12
367.505	722.12
367.731	709.12
367.957	718.12
368.184	706.12
368.41	737.12
368.636	720.12
368.862	742.12
369.089	762.12
369.315	744.12
369.541	743.12
369.767	722.12
369.993	734.12
370.219	759.12
370.445	775.12
370.672	763.12
370.898	761.12
371.124	761.12
371.35	767.12
371.576	783.12
371.802	755.12
372.028	770.12
372.254	779.12
372.48	776.12
372.706	778.12
372.932	790.12
373.158	796.12
373.384	796.12
373.61	782.12
373.835	778.12
374.061	791.12
374.287	770.12
374.513	816.12
374.739	815.12
374.965	808.12
375.191	838.12
375.416	842.12
375.642	782.12
375.868	797.12
376.094	807.12
376.319	773.12
376.545	769.12
376.771	779.12
376.997	752.12
377.222	802.12
377.448	752.12
377.674	777.12
377.899	735.12
378.125	762.12
378.35	752.12
378.576	732.12
378.802	759.12
379.027	745.12
379.253	746.12
379.478	731.12
379.704	732.12
379.929	753.12
380.155	743.12
380.38	760.12
380.606	752.12
380.831	744.12
381.057	768.12
381.282	754.12
381.507	750.12
381.733	755.12
381.958	747.12
382.184	765.12
382.409	774.12
382.634	787.12
382.86	774.12
383.085	792.12
383.31	797.12
383.535	816.12
383.761	800.12
383.986	820.12
384.211	821.12
384.436	819.12
384.662	865.12
384.887	849.12
385.112	840.12
385.337	861.12
385.562	879.12
385.787	902.12
386.013	895.12
386.238	874.12
386.463	851.12
386.688	900.12
386.913	906.12
387.138	881.12
387.363	889.12
387.588	901.12
387.813	878.12
388.038	887.12
388.263	894.12
388.488	911.12
388.713	882.12
388.938	882.12
389.163	880.12
389.387	926.12
389.612	882.12
389.837	889.12
390.062	897.12
390.287	904.12
390.512	871.12
390.736	902.12
390.961	898.12
391.186	916.12
391.411	943.12
391.636	940.12
391.86	961.12
392.085	973.12
392.31	939.12
392.534	958.12
392.759	943.12
392.984	952.12
393.208	935.12
393.433	938.12
393.658	961.12
393.882	907.12
394.107	935.12
394.331	935.12
394.556	927.12
394.78	939.12
395.005	941.12
395.229	949.12
395.454	951.12
395.678	985.12
395.903	999.12
396.127	966.12
396.352	972.12
396.576	937.12
396.801	964.12
397.025	986.12
397.249	975.12
397.474	1031.12
397.698	992.12
397.922	1005.12
398.147	1026.12
398.371	1054.12
398.595	1034.12
398.82	1098.12
399.044	1174.12
399.268	1253.12
399.492	1377.12
399.717	1404.12
399.941	1430.12
400.165	1370.12
400.389	1337.12
400.613	1261.12
400.837	1200.12
401.062	1193.12
401.286	1150.12
401.51	1110.12
401.734	1132.12
401.958	1154.12
402.182	1111.12
402.406	1150.12
402.63	1099.12
402.854	1154.12
403.078	1161.12
403.302	1151.12
403.526	1189.12
403.75	1183.12
403.974	1184.12
404.198	1179.12
404.422	1192.12
404.645	1185.12
404.869	1189.12
405.093	1158.12
405.317	1173.12
405.541	1189.12
405.765	1177.12
405.988	1205.12
406.212	1175.12
406.436	1193.12
406.66	1234.12
406.883	1274.12
407.107	1263.12
407.331	1339.12
407.555	1343.12
407.778	1345.12
408.002	1397.12
408.226	1303.12
408.449	1338.12
408.673	1267.12
408.896	1232.12
409.12	1261.12
409.344	1269.12
409.567	1227.12
409.791	1220.12
410.014	1243.12
410.238	1217.12
410.461	1232.12
410.685	1177.12
410.908	1215.12
411.132	1187.12
411.355	1181.12
411.578	1170.12
411.802	1145.12
412.025	1157.12
412.249	1175.12
412.472	1210.12
412.695	1181.12
412.919	1146.12
413.142	1170.12
413.365	1178.12
413.589	1137.12
413.812	1150.12
414.035	1107.12
414.258	1133.12
414.482	1118.12
414.705	1150.12
414.928	1121.12
415.151	1149.12
415.374	1129.12
415.597	1155.12
415.821	1117.12
416.044	1106.12
416.267	1116.12
416.49	1078.12
416.713	1081.12
416.936	1118.12
417.159	1083.12
417.382	1103.12
417.605	1143.12
417.828	1130.12
418.051	1103.12
418.274	1125.12
418.497	1112.12
418.72	1155.12
418.943	1118.12
419.166	1207.12
419.389	1250.12
419.611	1269.12
419.834	1217.12
420.057	1173.12
420.28	1155.12
420.503	1107.12
420.726	1093.12
420.948	1080.12
421.171	1115.12
421.394	1102.12
421.617	1099.12
421.839	1095.12
422.062	1108.12
422.285	1107.12
422.507	1133.12
422.73	1151.12
422.953	1133.12
423.175	1144.12
423.398	1126.12
423.621	1123.12
423.843	1130.12
424.066	1157.12
424.288	1150.12
424.511	1159.12
424.733	1151.12
424.956	1143.12
425.178	1131.12
425.401	1089.12
425.623	1132.12
425.846	1115.12
426.068	1105.12
426.291	1125.12
426.513	1082.12
426.735	1095.12
426.958	1089.12
427.18	1056.12
427.402	1056.12
427.625	1073.12
427.847	1043.12
428.069	1093.12
428.292	1094.12
428.514	1027.12
428.736	1026.12
428.958	1053.12
429.181	1038.12
429.403	1052.12
429.625	1027.12
429.847	1001.12
430.069	1029.12
430.292	1035.12
430.514	1034.12
430.736	1059.12
430.958	1039.12
431.18	1021.12
431.402	1043.12
431.624	1050.12
431.846	1050.12
432.068	1039.12
432.29	1067.12
432.512	1013.12
432.734	1083.12
432.956	1085.12
433.178	1085.12
433.4	1088.12
433.622	1074.12
433.844	1087.12
434.066	1101.12
434.287	1085.12
434.509	1099.12
434.731	1141.12
434.953	1121.12
435.175	1163.12
435.397	1155.12
435.618	1101.12
435.84	1082.12
436.062	1056.12
436.284	1097.12
436.505	1073.12
436.727	1082.12
436.949	1033.12
437.17	1053.12
437.392	1019.12
437.614	1026.12
437.835	1008.12
438.057	1059.12
438.278	1010.12
438.5	999.12
438.721	1000.12
438.943	1039.12
439.165	1029.12
439.386	1033.12
439.608	1082.12
439.829	1063.12
440.05	1032.12
440.272	1071.12
440.493	1089.12
440.715	1104.12
440.936	1090.12
441.158	1095.12
441.379	1103.12
441.6	1156.12
441.822	1141.12
442.043	1139.12
442.264	1137.12
442.486	1130.12
442.707	1152.12
442.928	1122.12
443.149	1167.12
443.371	1148.12
443.592	1162.12
443.813	1165.12
444.034	1190.12
444.255	1159.12
444.476	1209.12
444.698	1253.12
444.919	1260.12
445.14	1350.12
445.361	1274.12
445.582	1208.12
445.803	1148.12
446.024	1128.12
446.245	1124.12
446.466	1118.12
446.687	1098.12
446.908	1099.12
447.129	1078.12
447.35	1049.12
447.571	1018.12
447.792	1009.12
448.013	1021.12
448.234	988.12
448.455	986.12
448.675	1001.12
448.896	1000.12
449.117	983.12
449.338	974.12
449.559	967.12
449.779	968.12
450	975.12
450.221	1009.12
450.442	979.12
450.662	997.12
450.883	993.12
451.104	966.12
451.324	978.12
451.545	945.12
451.766	982.12
451.986	951.12
452.207	979.12
452.428	949.12
452.648	960.12
452.869	938.12
453.089	929.12
453.31	949.12
453.53	949.12
453.751	929.12
453.971	938.12
454.192	919.12
454.412	905.12
454.633	944.12
454.853	923.12
455.073	906.12
455.294	976.12
455.514	903.12
455.734	937.12
455.955	916.12
456.175	915.12
456.395	907.12
456.616	919.12
456.836	905.12
457.056	918.12
457.276	920.12
457.497	946.12
457.717	908.12
457.937	970.12
458.157	954.12
458.377	960.12
458.598	995.12
458.818	1007.12
459.038	1019.12
459.258	1037.12
459.478	1055.12
459.698	1082.12
459.918	1122.12
460.138	1130.12
460.358	1153.12
460.578	1179.12
460.798	1203.12
461.018	1247.12
461.238	1195.12
461.458	1238.12
461.678	1191.12
461.898	1216.12
462.118	1252.12
462.338	1289.12
462.558	1297.12
462.777	1376.12
462.997	1418.12
463.217	1440.12
463.437	1453.12
463.657	1472.12
463.876	1408.12
464.096	1420.12
464.316	1398.12
464.536	1315.12
464.755	1341.12
464.975	1269.12
465.195	1249.12
465.414	1202.12
465.634	1130.12
465.854	1107.12
466.073	1089.12
466.293	1136.12
466.512	1061.12
466.732	1043.12
466.951	1025.12
467.171	1040.12
467.391	1048.12
467.61	1007.12
467.829	1045.12
468.049	1030.12
468.268	994.12
468.488	1001.12
468.707	960.12
468.927	991.12
469.146	1009.12
469.365	1005.12
469.585	985.12
469.804	1042.12
470.023	1018.12
470.243	1031.12
470.462	1055.12
470.681	1021.12
470.901	1067.12
471.12	1007.12
471.339	1026.12
471.558	1033.12
471.777	1057.12
471.997	1031.12
472.216	1025.12
472.435	1015.12
472.654	968.12
472.873	961.12
473.092	1002.12
473.311	977.12
473.53	998.12
473.749	1007.12
473.968	986.12
474.187	981.12
474.406	982.12
474.625	970.12
474.844	999.12
475.063	992.12
475.282	1026.12
475.501	1003.12
475.72	1008.12
475.939	999.12
476.158	1022.12
476.377	1045.12
476.596	1012.12
476.814	1061.12
477.033	1013.12
477.252	1056.12
477.471	1077.12
477.69	1096.12
477.908	1111.12
478.127	1141.12
478.346	1143.12
478.564	1134.12
478.783	1159.12
479.002	1187.12
479.22	1215.12
479.439	1233.12
479.658	1208.12
479.876	1195.12
480.095	1195.12
480.313	1236.12
480.532	1225.12
480.751	1239.12
480.969	1189.12
481.188	1193.12
481.406	1172.12
481.624	1151.12
481.843	1127.12
482.061	1124.12
482.28	1155.12
482.498	1121.12
482.717	1105.12
482.935	1114.12
483.153	1129.12
483.372	1141.12
483.59	1126.12
483.808	1137.12
484.027	1110.12
484.245	1142.12
484.463	1157.12
484.681	1175.12
484.9	1162.12
485.118	1149.12
485.336	1143.12
485.554	1154.12
485.772	1179.12
485.99	1162.12
486.209	1185.12
486.427	1171.12
486.645	1163.12
486.863	1186.12
487.081	1194.12
487.299	1205.12
487.517	1205.12
487.735	1201.12
487.953	1214.12
488.171	1163.12
488.389	1190.12
488.607	1170.12
488.825	1136.12
489.043	1163.12
489.261	1139.12
489.479	1201.12
489.696	1187.12
489.914	1194.12
490.132	1182.12
490.35	1161.12
490.568	1210.12
490.786	1190.12
491.003	1207.12
491.221	1235.12
491.439	1186.12
491.657	1198.12
491.874	1231.12
492.092	1285.12
492.31	1241.12
492.527	1254.12
492.745	1260.12
492.963	1247.12
493.18	1239.12
493.398	1246.12
493.615	1269.12
493.833	1242.12
494.05	1257.12
494.268	1282.12
494.485	1257.12
494.703	1276.12
494.92	1264.12
495.138	1281.12
495.355	1318.12
495.573	1305.12
495.79	1286.12
496.008	1285.12
496.225	1324.12
496.442	1349.12
