Data from Ni(NO3)2@0.0625M.TitratingCurve.Agarose3%dH2O.NegLispCup.LampEnergy10.LIBS07252019_HRD10591_18-13-45-574.txt Node
Date: Thu Jul 25 18:13:45 EDT 2019
User: cochatt
Spectrometer: HR+D1059
Trigger mode: 1
Integration Time (sec): 1.000000E-1
Scans to average: 1
Electric dark correction enabled: true
Nonlinearity correction enabled: false
Boxcar width: 0
XAxis mode: Wavelengths
Number of Pixels in Spectrum: 2048
>>>>>Begin Spectral Data<<<<<
223.165	-8.5
223.4	-8.5
223.635	-8.5
223.869	-14.5
224.104	-13.5
224.338	-6.5
224.573	-22.5
224.808	-14.5
225.042	-10.5
225.277	-12.5
225.511	-7.5
225.746	3.5
225.98	4.5
226.215	5.5
226.449	9.5
226.683	30.5
226.918	23.5
227.152	33.5
227.387	40.5
227.621	51.5
227.856	46.5
228.09	35.5
228.324	47.5
228.559	61.5
228.793	73.5
229.027	90.5
229.262	91.5
229.496	96.5
229.73	93.5
229.964	116.5
230.199	98.5
230.433	102.5
230.667	106.5
230.901	116.5
231.136	119.5
231.37	122.5
231.604	123.5
231.838	121.5
232.072	100.5
232.306	117.5
232.541	125.5
232.775	125.5
233.009	130.5
233.243	114.5
233.477	137.5
233.711	143.5
233.945	129.5
234.179	117.5
234.413	131.5
234.647	140.5
234.881	128.5
235.115	119.5
235.349	131.5
235.583	133.5
235.817	138.5
236.051	125.5
236.285	119.5
236.519	135.5
236.753	126.5
236.987	119.5
237.221	116.5
237.455	147.5
237.689	130.5
237.922	135.5
238.156	125.5
238.39	136.5
238.624	126.5
238.858	133.5
239.091	144.5
239.325	130.5
239.559	137.5
239.793	129.5
240.027	144.5
240.26	148.5
240.494	138.5
240.728	155.5
240.961	146.5
241.195	144.5
241.429	139.5
241.662	135.5
241.896	145.5
242.13	149.5
242.363	142.5
242.597	149.5
242.83	145.5
243.064	142.5
243.298	146.5
243.531	160.5
243.765	153.5
243.998	168.5
244.232	151.5
244.465	149.5
244.699	161.5
244.932	157.5
245.166	171.5
245.399	175.5
245.633	158.5
245.866	163.5
246.099	161.5
246.333	161.5
246.566	158.5
246.8	155.5
247.033	168.5
247.266	174.5
247.5	175.5
247.733	155.5
247.966	169.5
248.2	178.5
248.433	169.5
248.666	191.5
248.899	182.5
249.133	169.5
249.366	198.5
249.599	165.5
249.832	174.5
250.066	198.5
250.299	189.5
250.532	181.5
250.765	173.5
250.998	206.5
251.231	199.5
251.465	199.5
251.698	197.5
251.931	200.5
252.164	192.5
252.397	192.5
252.63	202.5
252.863	209.5
253.096	206.5
253.329	226.5
253.562	222.5
253.795	210.5
254.028	205.5
254.261	210.5
254.494	185.5
254.727	214.5
254.96	213.5
255.193	204.5
255.426	208.5
255.659	207.5
255.892	207.5
256.124	205.5
256.357	213.5
256.59	215.5
256.823	208.5
257.056	211.5
257.289	218.5
257.521	211.5
257.754	215.5
257.987	227.5
258.22	219.5
258.452	236.5
258.685	208.5
258.918	202.5
259.151	214.5
259.383	237.5
259.616	225.5
259.849	229.5
260.081	230.5
260.314	231.5
260.547	219.5
260.779	226.5
261.012	220.5
261.244	223.5
261.477	243.5
261.71	234.5
261.942	238.5
262.175	239.5
262.407	232.5
262.64	236.5
262.872	246.5
263.105	235.5
263.337	241.5
263.57	241.5
263.802	254.5
264.035	242.5
264.267	238.5
264.499	239.5
264.732	239.5
264.964	244.5
265.197	254.5
265.429	252.5
265.661	259.5
265.894	250.5
266.126	247.5
266.358	251.5
266.591	269.5
266.823	268.5
267.055	257.5
267.287	246.5
267.52	269.5
267.752	263.5
267.984	249.5
268.216	264.5
268.448	270.5
268.681	278.5
268.913	275.5
269.145	255.5
269.377	263.5
269.609	261.5
269.841	270.5
270.073	268.5
270.306	262.5
270.538	277.5
270.77	285.5
271.002	277.5
271.234	285.5
271.466	275.5
271.698	279.5
271.93	281.5
272.162	276.5
272.394	269.5
272.626	278.5
272.858	282.5
273.09	284.5
273.322	301.5
273.553	274.5
273.785	307.5
274.017	296.5
274.249	271.5
274.481	296.5
274.713	287.5
274.945	282.5
275.176	294.5
275.408	294.5
275.64	298.5
275.872	298.5
276.104	297.5
276.335	295.5
276.567	305.5
276.799	304.5
277.031	307.5
277.262	295.5
277.494	297.5
277.726	307.5
277.957	299.5
278.189	302.5
278.421	305.5
278.652	319.5
278.884	335.5
279.115	295.5
279.347	307.5
279.579	319.5
279.81	311.5
280.042	316.5
280.273	312.5
280.505	305.5
280.736	324.5
280.968	321.5
281.199	324.5
281.431	341.5
281.662	329.5
281.894	326.5
282.125	308.5
282.356	319.5
282.588	327.5
282.819	315.5
283.051	332.5
283.282	339.5
283.513	319.5
283.745	334.5
283.976	358.5
284.207	334.5
284.439	334.5
284.67	322.5
284.901	331.5
285.132	337.5
285.364	344.5
285.595	338.5
285.826	344.5
286.057	340.5
286.288	349.5
286.52	340.5
286.751	364.5
286.982	361.5
287.213	347.5
287.444	334.5
287.675	341.5
287.906	357.5
288.138	351.5
288.369	358.5
288.6	361.5
288.831	364.5
289.062	344.5
289.293	354.5
289.524	347.5
289.755	369.5
289.986	364.5
290.217	375.5
290.448	377.5
290.679	370.5
290.91	376.5
291.141	377.5
291.371	362.5
291.602	371.5
291.833	367.5
292.064	363.5
292.295	364.5
292.526	371.5
292.757	349.5
292.987	362.5
293.218	369.5
293.449	369.5
293.68	377.5
293.91	366.5
294.141	362.5
294.372	378.5
294.603	353.5
294.833	377.5
295.064	383.5
295.295	372.5
295.525	380.5
295.756	378.5
295.987	380.5
296.217	403.5
296.448	377.5
296.679	379.5
296.909	392.5
297.14	375.5
297.37	410.5
297.601	395.5
297.831	401.5
298.062	404.5
298.292	411.5
298.523	417.5
298.753	409.5
298.984	389.5
299.214	392.5
299.445	414.5
299.675	411.5
299.905	419.5
300.136	411.5
300.366	385.5
300.597	409.5
300.827	406.5
301.057	436.5
301.288	449.5
301.518	420.5
301.748	425.5
301.979	423.5
302.209	425.5
302.439	450.5
302.669	429.5
302.9	401.5
303.13	418.5
303.36	407.5
303.59	406.5
303.82	415.5
304.051	430.5
304.281	420.5
304.511	402.5
304.741	430.5
304.971	422.5
305.201	424.5
305.431	435.5
305.661	419.5
305.891	407.5
306.121	422.5
306.352	397.5
306.582	396.5
306.812	396.5
307.042	397.5
307.272	408.5
307.502	412.5
307.731	415.5
307.961	389.5
308.191	427.5
308.421	410.5
308.651	398.5
308.881	407.5
309.111	425.5
309.341	407.5
309.571	413.5
309.8	415.5
310.03	426.5
310.26	394.5
310.49	400.5
310.72	441.5
310.949	412.5
311.179	430.5
311.409	436.5
311.639	426.5
311.868	428.5
312.098	428.5
312.328	443.5
312.557	437.5
312.787	431.5
313.017	430.5
313.246	432.5
313.476	446.5
313.706	423.5
313.935	453.5
314.165	441.5
314.394	451.5
314.624	457.5
314.853	417.5
315.083	444.5
315.312	430.5
315.542	441.5
315.771	462.5
316.001	454.5
316.23	442.5
316.46	419.5
316.689	442.5
316.919	432.5
317.148	441.5
317.377	426.5
317.607	431.5
317.836	433.5
318.065	423.5
318.295	435.5
318.524	427.5
318.753	436.5
318.983	446.5
319.212	428.5
319.441	439.5
319.67	437.5
319.9	432.5
320.129	425.5
320.358	441.5
320.587	418.5
320.816	421.5
321.046	446.5
321.275	443.5
321.504	449.5
321.733	420.5
321.962	436.5
322.191	443.5
322.42	438.5
322.649	429.5
322.878	437.5
323.108	428.5
323.337	443.5
323.566	435.5
323.795	454.5
324.024	443.5
324.253	455.5
324.482	435.5
324.71	458.5
324.939	447.5
325.168	451.5
325.397	433.5
325.626	481.5
325.855	462.5
326.084	464.5
326.313	473.5
326.542	461.5
326.77	471.5
326.999	479.5
327.228	463.5
327.457	466.5
327.686	490.5
327.914	478.5
328.143	477.5
328.372	474.5
328.6	482.5
328.829	475.5
329.058	471.5
329.287	477.5
329.515	471.5
329.744	495.5
329.972	477.5
330.201	517.5
330.43	480.5
330.658	491.5
330.887	482.5
331.115	486.5
331.344	510.5
331.572	503.5
331.801	509.5
332.03	533.5
332.258	536.5
332.486	546.5
332.715	571.5
332.943	604.5
333.172	607.5
333.4	653.5
333.629	649.5
333.857	664.5
334.085	658.5
334.314	629.5
334.542	630.5
334.771	611.5
334.999	595.5
335.227	591.5
335.455	614.5
335.684	611.5
335.912	600.5
336.14	591.5
336.369	574.5
336.597	579.5
336.825	573.5
337.053	576.5
337.281	579.5
337.51	560.5
337.738	535.5
337.966	523.5
338.194	537.5
338.422	521.5
338.65	511.5
338.878	519.5
339.106	505.5
339.334	539.5
339.562	533.5
339.79	528.5
340.018	506.5
340.246	491.5
340.474	498.5
340.702	511.5
340.93	524.5
341.158	518.5
341.386	500.5
341.614	498.5
341.842	504.5
342.07	484.5
342.298	487.5
342.526	507.5
342.754	497.5
342.981	502.5
343.209	514.5
343.437	543.5
343.665	559.5
343.893	610.5
344.12	623.5
344.348	606.5
344.576	563.5
344.804	556.5
345.031	519.5
345.259	531.5
345.487	517.5
345.714	507.5
345.942	508.5
346.17	495.5
346.397	506.5
346.625	479.5
346.853	487.5
347.08	483.5
347.308	492.5
347.535	505.5
347.763	485.5
347.99	490.5
348.218	485.5
348.445	505.5
348.673	497.5
348.9	498.5
349.128	493.5
349.355	481.5
349.583	484.5
349.81	497.5
350.037	495.5
350.265	489.5
350.492	476.5
350.72	484.5
350.947	480.5
351.174	493.5
351.402	469.5
351.629	468.5
351.856	470.5
352.083	478.5
352.311	454.5
352.538	477.5
352.765	461.5
352.992	485.5
353.22	470.5
353.447	472.5
353.674	456.5
353.901	446.5
354.128	481.5
354.355	497.5
354.583	472.5
354.81	478.5
355.037	483.5
355.264	480.5
355.491	454.5
355.718	481.5
355.945	487.5
356.172	478.5
356.399	497.5
356.626	485.5
356.853	474.5
357.08	461.5
357.307	487.5
357.534	478.5
357.761	461.5
357.988	477.5
358.215	462.5
358.441	510.5
358.668	476.5
358.895	466.5
359.122	496.5
359.349	488.5
359.576	489.5
359.802	466.5
360.029	484.5
360.256	472.5
360.483	477.5
360.709	483.5
360.936	492.5
361.163	485.5
361.39	478.5
361.616	458.5
361.843	478.5
362.07	453.5
362.296	470.5
362.523	462.5
362.749	473.5
362.976	494.5
363.203	486.5
363.429	470.5
363.656	463.5
363.882	490.5
364.109	470.5
364.335	478.5
364.562	475.5
364.788	483.5
365.015	475.5
365.241	482.5
365.468	467.5
365.694	454.5
365.92	452.5
366.147	480.5
366.373	476.5
366.599	478.5
366.826	476.5
367.052	473.5
367.278	453.5
367.505	481.5
367.731	483.5
367.957	481.5
368.184	490.5
368.41	491.5
368.636	489.5
368.862	492.5
369.089	488.5
369.315	489.5
369.541	492.5
369.767	497.5
369.993	498.5
370.219	497.5
370.445	489.5
370.672	520.5
370.898	502.5
371.124	505.5
371.35	510.5
371.576	536.5
371.802	532.5
372.028	514.5
372.254	503.5
372.48	521.5
372.706	553.5
372.932	565.5
373.158	540.5
373.384	527.5
373.61	489.5
373.835	526.5
374.061	523.5
374.287	551.5
374.513	537.5
374.739	545.5
374.965	569.5
375.191	584.5
375.416	588.5
375.642	580.5
375.868	555.5
376.094	537.5
376.319	533.5
376.545	519.5
376.771	517.5
376.997	541.5
377.222	523.5
377.448	518.5
377.674	515.5
377.899	528.5
378.125	522.5
378.35	535.5
378.576	502.5
378.802	500.5
379.027	493.5
379.253	494.5
379.478	505.5
379.704	515.5
379.929	513.5
380.155	527.5
380.38	504.5
380.606	517.5
380.831	496.5
381.057	510.5
381.282	518.5
381.507	528.5
381.733	525.5
381.958	517.5
382.184	522.5
382.409	540.5
382.634	551.5
382.86	539.5
383.085	553.5
383.31	562.5
383.535	573.5
383.761	581.5
383.986	572.5
384.211	597.5
384.436	610.5
384.662	606.5
384.887	612.5
385.112	605.5
385.337	654.5
385.562	627.5
385.787	629.5
386.013	619.5
386.238	609.5
386.463	644.5
386.688	605.5
386.913	613.5
387.138	630.5
387.363	599.5
387.588	606.5
387.813	639.5
388.038	633.5
388.263	594.5
388.488	623.5
388.713	620.5
388.938	621.5
389.163	595.5
389.387	622.5
389.612	610.5
389.837	600.5
390.062	595.5
390.287	598.5
390.512	606.5
390.736	598.5
390.961	617.5
391.186	629.5
391.411	645.5
391.636	674.5
391.86	687.5
392.085	725.5
392.31	701.5
392.534	684.5
392.759	662.5
392.984	638.5
393.208	645.5
393.433	667.5
393.658	653.5
393.882	669.5
394.107	671.5
394.331	669.5
394.556	694.5
394.78	689.5
395.005	658.5
395.229	653.5
395.454	692.5
395.678	718.5
395.903	713.5
396.127	702.5
396.352	659.5
396.576	643.5
396.801	644.5
397.025	663.5
397.249	662.5
397.474	689.5
397.698	695.5
397.922	693.5
398.147	673.5
398.371	703.5
398.595	721.5
398.82	775.5
399.044	856.5
399.268	919.5
399.492	1089.5
399.717	1203.5
399.941	1166.5
400.165	1021.5
400.389	941.5
400.613	872.5
400.837	822.5
401.062	797.5
401.286	774.5
401.51	787.5
401.734	783.5
401.958	799.5
402.182	795.5
402.406	809.5
402.63	831.5
402.854	846.5
403.078	841.5
403.302	859.5
403.526	899.5
403.75	898.5
403.974	902.5
404.198	910.5
404.422	908.5
404.645	884.5
404.869	861.5
405.093	890.5
405.317	853.5
405.541	878.5
405.765	853.5
405.988	837.5
406.212	854.5
406.436	862.5
406.66	860.5
406.883	893.5
407.107	917.5
407.331	1011.5
407.555	1023.5
407.778	1000.5
408.002	992.5
408.226	940.5
408.449	949.5
408.673	902.5
408.896	883.5
409.12	854.5
409.344	904.5
409.567	895.5
409.791	912.5
410.014	894.5
410.238	876.5
410.461	860.5
410.685	863.5
410.908	855.5
411.132	831.5
411.355	838.5
411.578	796.5
411.802	819.5
412.025	812.5
412.249	819.5
412.472	804.5
412.695	798.5
412.919	773.5
413.142	789.5
413.365	754.5
413.589	773.5
413.812	777.5
414.035	770.5
414.258	770.5
414.482	792.5
414.705	768.5
414.928	782.5
415.151	781.5
415.374	766.5
415.597	767.5
415.821	772.5
416.044	747.5
416.267	757.5
416.49	757.5
416.713	751.5
416.936	773.5
417.159	771.5
417.382	733.5
417.605	760.5
417.828	809.5
418.051	789.5
418.274	776.5
418.497	783.5
418.72	814.5
418.943	791.5
419.166	839.5
419.389	886.5
419.611	849.5
419.834	818.5
420.057	807.5
420.28	756.5
420.503	777.5
420.726	774.5
420.948	771.5
421.171	781.5
421.394	758.5
421.617	767.5
421.839	745.5
422.062	781.5
422.285	783.5
422.507	793.5
422.73	800.5
422.953	825.5
423.175	827.5
423.398	861.5
423.621	828.5
423.843	821.5
424.066	822.5
424.288	814.5
424.511	811.5
424.733	773.5
424.956	804.5
425.178	770.5
425.401	778.5
425.623	783.5
425.846	761.5
426.068	738.5
426.291	749.5
426.513	734.5
426.735	722.5
426.958	725.5
427.18	686.5
427.402	699.5
427.625	701.5
427.847	683.5
428.069	688.5
428.292	689.5
428.514	674.5
428.736	686.5
428.958	698.5
429.181	655.5
429.403	666.5
429.625	690.5
429.847	669.5
430.069	659.5
430.292	662.5
430.514	673.5
430.736	665.5
430.958	656.5
431.18	659.5
431.402	693.5
431.624	661.5
431.846	691.5
432.068	669.5
432.29	680.5
432.512	675.5
432.734	708.5
432.956	685.5
433.178	680.5
433.4	703.5
433.622	670.5
433.844	691.5
434.066	693.5
434.287	694.5
434.509	714.5
434.731	745.5
434.953	769.5
435.175	775.5
435.397	757.5
435.618	727.5
435.84	710.5
436.062	678.5
436.284	680.5
436.505	689.5
436.727	677.5
436.949	679.5
437.17	688.5
437.392	669.5
437.614	680.5
437.835	662.5
438.057	662.5
438.278	664.5
438.5	656.5
438.721	655.5
438.943	676.5
439.165	657.5
439.386	660.5
439.608	685.5
439.829	675.5
440.05	677.5
440.272	687.5
440.493	679.5
440.715	698.5
440.936	720.5
441.158	718.5
441.379	732.5
441.6	759.5
441.822	804.5
442.043	785.5
442.264	747.5
442.486	723.5
442.707	765.5
442.928	791.5
443.149	749.5
443.371	729.5
443.592	792.5
443.813	769.5
444.034	797.5
444.255	807.5
444.476	856.5
444.698	899.5
444.919	935.5
445.14	989.5
445.361	882.5
445.582	808.5
445.803	749.5
446.024	739.5
446.245	717.5
446.466	709.5
446.687	670.5
446.908	691.5
447.129	684.5
447.35	683.5
447.571	654.5
447.792	639.5
448.013	650.5
448.234	655.5
448.455	642.5
448.675	617.5
448.896	629.5
449.117	641.5
449.338	644.5
449.559	667.5
449.779	653.5
450	630.5
450.221	636.5
450.442	636.5
450.662	639.5
450.883	649.5
451.104	652.5
451.324	651.5
451.545	622.5
451.766	645.5
451.986	624.5
452.207	625.5
452.428	642.5
452.648	634.5
452.869	638.5
453.089	595.5
453.31	624.5
453.53	632.5
453.751	614.5
453.971	614.5
454.192	629.5
454.412	591.5
454.633	608.5
454.853	611.5
455.073	609.5
455.294	606.5
455.514	593.5
455.734	602.5
455.955	567.5
456.175	603.5
456.395	590.5
456.616	575.5
456.836	593.5
457.056	579.5
457.276	562.5
457.497	590.5
457.717	609.5
457.937	584.5
458.157	587.5
458.377	609.5
458.598	617.5
458.818	620.5
459.038	662.5
459.258	693.5
459.478	715.5
459.698	699.5
459.918	732.5
460.138	761.5
460.358	818.5
460.578	821.5
460.798	814.5
461.018	854.5
461.238	811.5
461.458	801.5
461.678	794.5
461.898	839.5
462.118	851.5
462.338	876.5
462.558	864.5
462.777	935.5
462.997	1010.5
463.217	1139.5
463.437	1096.5
463.657	1005.5
463.876	949.5
464.096	953.5
464.316	956.5
464.536	954.5
464.755	908.5
464.975	909.5
465.195	830.5
465.414	792.5
465.634	750.5
465.854	747.5
466.073	724.5
466.293	700.5
466.512	689.5
466.732	661.5
466.951	661.5
467.171	647.5
467.391	647.5
467.61	662.5
467.829	651.5
468.049	659.5
468.268	626.5
468.488	647.5
468.707	629.5
468.927	620.5
469.146	630.5
469.365	639.5
469.585	669.5
469.804	658.5
470.023	680.5
470.243	670.5
470.462	691.5
470.681	669.5
470.901	707.5
471.12	669.5
471.339	658.5
471.558	641.5
471.777	627.5
471.997	641.5
472.216	619.5
472.435	618.5
472.654	604.5
472.873	611.5
473.092	598.5
473.311	633.5
473.53	614.5
473.749	615.5
473.968	636.5
474.187	621.5
474.406	610.5
474.625	622.5
474.844	605.5
475.063	605.5
475.282	615.5
475.501	623.5
475.72	626.5
475.939	641.5
476.158	653.5
476.377	636.5
476.596	619.5
476.814	635.5
477.033	685.5
477.252	667.5
477.471	676.5
477.69	682.5
477.908	717.5
478.127	743.5
478.346	725.5
478.564	760.5
478.783	722.5
479.002	786.5
479.22	797.5
479.439	781.5
479.658	765.5
479.876	761.5
480.095	785.5
480.313	805.5
480.532	862.5
480.751	817.5
480.969	789.5
481.188	741.5
481.406	735.5
481.624	745.5
481.843	709.5
482.061	697.5
482.28	710.5
482.498	718.5
482.717	704.5
482.935	714.5
483.153	700.5
483.372	702.5
483.59	697.5
483.808	695.5
484.027	678.5
484.245	682.5
484.463	725.5
484.681	707.5
484.9	705.5
485.118	722.5
485.336	737.5
485.554	745.5
485.772	727.5
485.99	743.5
486.209	764.5
486.427	735.5
486.645	735.5
486.863	715.5
487.081	719.5
487.299	718.5
487.517	713.5
487.735	720.5
487.953	747.5
488.171	701.5
488.389	738.5
488.607	729.5
488.825	722.5
489.043	695.5
489.261	710.5
489.479	714.5
489.696	712.5
489.914	727.5
490.132	708.5
490.35	715.5
490.568	713.5
490.786	721.5
491.003	720.5
491.221	728.5
491.439	707.5
491.657	706.5
491.874	744.5
492.092	731.5
492.31	727.5
492.527	759.5
492.745	761.5
492.963	751.5
493.18	734.5
493.398	773.5
493.615	754.5
493.833	750.5
494.05	784.5
494.268	777.5
494.485	775.5
494.703	782.5
494.92	769.5
495.138	759.5
495.355	773.5
495.573	775.5
495.79	772.5
496.008	792.5
496.225	779.5
496.442	781.5
496.66	794.5
496.877	776.5
497.094	824.5
497.312	849.5
497.529	835.5
497.746	891.5
497.963	913.5
498.181	942.5
498.398	989.5
498.615	1059.5
498.832	1113.5
499.049	1174.5
499.267	1317.5
499.484	1445.5
499.701	1571.5
499.918	1813.5
500.135	2041.5
500.352	2315.5
500.569	2454.5
500.786	2376.5
501.003	2159.5
501.22	1960.5
501.437	1729.5
501.654	1491.5
501.871	1371.5
502.088	1274.5
502.305	1146.5
502.522	1127.5
502.739	1084.5
502.956	1015.5
503.172	934.5
503.389	909.5
503.606	892.5
503.823	875.5
504.04	882.5
504.256	891.5
504.473	933.5
504.69	940.5
504.907	934.5
505.123	855.5
505.34	797.5
505.557	771.5
505.773	738.5
505.99	728.5
506.207	707.5
506.423	689.5
506.64	720.5
506.856	715.5
507.073	701.5
507.289	705.5
507.506	699.5
507.722	675.5
507.939	666.5
508.155	691.5
508.372	663.5
508.588	647.5
508.805	634.5
509.021	633.5
509.238	643.5
509.454	631.5
509.67	639.5
509.887	619.5
510.103	645.5
510.319	645.5
510.536	634.5
510.752	611.5
510.968	627.5
511.184	625.5
511.401	631.5
511.617	630.5
511.833	620.5
512.049	612.5
512.265	630.5
512.481	629.5
512.698	613.5
512.914	618.5
513.13	638.5
513.346	634.5
513.562	631.5
513.778	638.5
513.994	623.5
514.21	643.5
514.426	645.5
514.642	640.5
514.858	637.5
515.074	645.5
515.29	661.5
515.506	677.5
515.721	669.5
515.937	681.5
516.153	690.5
516.369	710.5
516.585	677.5
516.801	746.5
517.016	781.5
517.232	840.5
517.448	883.5
517.664	892.5
517.879	896.5
518.095	893.5
518.311	875.5
518.527	835.5
518.742	773.5
518.958	777.5
519.173	759.5
