Data from Ni(NO3)2@0.125M.TitratingCurve.Agarose3%dH2O.NegLispCup.LampEnergy10.LIBS07252019_HRD10591_18-11-12-568.txt Node
Date: Thu Jul 25 18:11:12 EDT 2019
User: cochatt
Spectrometer: HR+D1059
Trigger mode: 1
Integration Time (sec): 1.000000E-1
Scans to average: 1
Electric dark correction enabled: true
Nonlinearity correction enabled: false
Boxcar width: 0
XAxis mode: Wavelengths
Number of Pixels in Spectrum: 2048
>>>>>Begin Spectral Data<<<<<
223.165	-11.62
223.4	-11.62
223.635	-11.62
223.869	-12.62
224.104	-24.62
224.338	-23.62
224.573	-21.62
224.808	-14.62
225.042	-4.62
225.277	-1.62
225.511	2.38
225.746	3.38
225.98	-0.62
226.215	0.38
226.449	29.38
226.683	12.38
226.918	23.38
227.152	44.38
227.387	20.38
227.621	29.38
227.856	49.38
228.09	42.38
228.324	44.38
228.559	57.38
228.793	59.38
229.027	105.38
229.262	125.38
229.496	119.38
229.73	119.38
229.964	131.38
230.199	149.38
230.433	137.38
230.667	150.38
230.901	131.38
231.136	138.38
231.37	134.38
231.604	151.38
231.838	144.38
232.072	153.38
232.306	159.38
232.541	149.38
232.775	146.38
233.009	163.38
233.243	155.38
233.477	164.38
233.711	139.38
233.945	148.38
234.179	151.38
234.413	166.38
234.647	155.38
234.881	159.38
235.115	169.38
235.349	167.38
235.583	172.38
235.817	145.38
236.051	169.38
236.285	162.38
236.519	151.38
236.753	157.38
236.987	168.38
237.221	169.38
237.455	167.38
237.689	164.38
237.922	184.38
238.156	163.38
238.39	177.38
238.624	180.38
238.858	175.38
239.091	182.38
239.325	175.38
239.559	185.38
239.793	175.38
240.027	179.38
240.26	198.38
240.494	188.38
240.728	197.38
240.961	188.38
241.195	202.38
241.429	201.38
241.662	198.38
241.896	199.38
242.13	210.38
242.363	227.38
242.597	217.38
242.83	201.38
243.064	196.38
243.298	215.38
243.531	221.38
243.765	215.38
243.998	205.38
244.232	231.38
244.465	226.38
244.699	223.38
244.932	243.38
245.166	236.38
245.399	225.38
245.633	233.38
245.866	200.38
246.099	231.38
246.333	229.38
246.566	220.38
246.8	221.38
247.033	229.38
247.266	233.38
247.5	249.38
247.733	264.38
247.966	238.38
248.2	252.38
248.433	255.38
248.666	239.38
248.899	255.38
249.133	261.38
249.366	272.38
249.599	265.38
249.832	259.38
250.066	255.38
250.299	251.38
250.532	269.38
250.765	258.38
250.998	263.38
251.231	263.38
251.465	269.38
251.698	294.38
251.931	288.38
252.164	296.38
252.397	280.38
252.63	287.38
252.863	283.38
253.096	305.38
253.329	295.38
253.562	286.38
253.795	278.38
254.028	291.38
254.261	301.38
254.494	288.38
254.727	302.38
254.96	295.38
255.193	299.38
255.426	303.38
255.659	283.38
255.892	312.38
256.124	283.38
256.357	308.38
256.59	317.38
256.823	314.38
257.056	316.38
257.289	338.38
257.521	315.38
257.754	322.38
257.987	322.38
258.22	312.38
258.452	311.38
258.685	329.38
258.918	349.38
259.151	337.38
259.383	328.38
259.616	329.38
259.849	328.38
260.081	318.38
260.314	336.38
260.547	354.38
260.779	325.38
261.012	333.38
261.244	347.38
261.477	336.38
261.71	364.38
261.942	343.38
262.175	334.38
262.407	349.38
262.64	343.38
262.872	339.38
263.105	345.38
263.337	370.38
263.57	373.38
263.802	368.38
264.035	375.38
264.267	349.38
264.499	354.38
264.732	374.38
264.964	359.38
265.197	371.38
265.429	363.38
265.661	395.38
265.894	367.38
266.126	369.38
266.358	388.38
266.591	375.38
266.823	387.38
267.055	386.38
267.287	380.38
267.52	399.38
267.752	389.38
267.984	372.38
268.216	385.38
268.448	389.38
268.681	388.38
268.913	394.38
269.145	406.38
269.377	399.38
269.609	397.38
269.841	397.38
270.073	394.38
270.306	403.38
270.538	420.38
270.77	414.38
271.002	404.38
271.234	405.38
271.466	434.38
271.698	435.38
271.93	403.38
272.162	413.38
272.394	428.38
272.626	425.38
272.858	412.38
273.09	420.38
273.322	425.38
273.553	423.38
273.785	426.38
274.017	408.38
274.249	422.38
274.481	440.38
274.713	421.38
274.945	419.38
275.176	424.38
275.408	454.38
275.64	448.38
275.872	453.38
276.104	462.38
276.335	467.38
276.567	449.38
276.799	435.38
277.031	441.38
277.262	456.38
277.494	464.38
277.726	464.38
277.957	480.38
278.189	469.38
278.421	469.38
278.652	443.38
278.884	464.38
279.115	450.38
279.347	483.38
279.579	476.38
279.81	477.38
280.042	485.38
280.273	489.38
280.505	496.38
280.736	499.38
280.968	473.38
281.199	499.38
281.431	491.38
281.662	492.38
281.894	490.38
282.125	517.38
282.356	519.38
282.588	513.38
282.819	501.38
283.051	484.38
283.282	488.38
283.513	500.38
283.745	511.38
283.976	497.38
284.207	512.38
284.439	520.38
284.67	518.38
284.901	500.38
285.132	536.38
285.364	531.38
285.595	535.38
285.826	524.38
286.057	531.38
286.288	552.38
286.52	539.38
286.751	537.38
286.982	543.38
287.213	523.38
287.444	555.38
287.675	541.38
287.906	545.38
288.138	549.38
288.369	580.38
288.6	559.38
288.831	555.38
289.062	564.38
289.293	541.38
289.524	549.38
289.755	563.38
289.986	566.38
290.217	577.38
290.448	567.38
290.679	542.38
290.91	589.38
291.141	563.38
291.371	554.38
291.602	577.38
291.833	574.38
292.064	580.38
292.295	571.38
292.526	563.38
292.757	583.38
292.987	592.38
293.218	541.38
293.449	587.38
293.68	568.38
293.91	563.38
294.141	581.38
294.372	561.38
294.603	593.38
294.833	577.38
295.064	589.38
295.295	579.38
295.525	573.38
295.756	579.38
295.987	586.38
296.217	592.38
296.448	580.38
296.679	615.38
296.909	604.38
297.14	603.38
297.37	583.38
297.601	602.38
297.831	619.38
298.062	597.38
298.292	619.38
298.523	643.38
298.753	658.38
298.984	610.38
299.214	587.38
299.445	610.38
299.675	614.38
299.905	604.38
300.136	614.38
300.366	629.38
300.597	632.38
300.827	628.38
301.057	640.38
301.288	654.38
301.518	616.38
301.748	663.38
301.979	654.38
302.209	648.38
302.439	636.38
302.669	649.38
302.9	652.38
303.13	637.38
303.36	639.38
303.59	638.38
303.82	616.38
304.051	636.38
304.281	641.38
304.511	641.38
304.741	649.38
304.971	657.38
305.201	625.38
305.431	618.38
305.661	621.38
305.891	630.38
306.121	633.38
306.352	641.38
306.582	641.38
306.812	616.38
307.042	635.38
307.272	641.38
307.502	628.38
307.731	643.38
307.961	610.38
308.191	634.38
308.421	649.38
308.651	620.38
308.881	625.38
309.111	628.38
309.341	610.38
309.571	630.38
309.8	620.38
310.03	626.38
310.26	619.38
310.49	632.38
310.72	641.38
310.949	643.38
311.179	636.38
311.409	652.38
311.639	635.38
311.868	647.38
312.098	654.38
312.328	661.38
312.557	647.38
312.787	639.38
313.017	667.38
313.246	682.38
313.476	684.38
313.706	690.38
313.935	681.38
314.165	699.38
314.394	679.38
314.624	691.38
314.853	674.38
315.083	676.38
315.312	705.38
315.542	667.38
315.771	655.38
316.001	672.38
316.23	669.38
316.46	671.38
316.689	663.38
316.919	684.38
317.148	657.38
317.377	668.38
317.607	666.38
317.836	659.38
318.065	651.38
318.295	681.38
318.524	658.38
318.753	667.38
318.983	684.38
319.212	675.38
319.441	651.38
319.67	677.38
319.9	660.38
320.129	657.38
320.358	671.38
320.587	668.38
320.816	683.38
321.046	683.38
321.275	669.38
321.504	661.38
321.733	667.38
321.962	658.38
322.191	687.38
322.42	655.38
322.649	678.38
322.878	691.38
323.108	693.38
323.337	696.38
323.566	700.38
323.795	712.38
324.024	698.38
324.253	683.38
324.482	688.38
324.71	695.38
324.939	691.38
325.168	700.38
325.397	690.38
325.626	709.38
325.855	705.38
326.084	730.38
326.313	748.38
326.542	744.38
326.77	752.38
326.999	742.38
327.228	711.38
327.457	709.38
327.686	712.38
327.914	725.38
328.143	727.38
328.372	738.38
328.6	744.38
328.829	744.38
329.058	744.38
329.287	740.38
329.515	760.38
329.744	757.38
329.972	767.38
330.201	767.38
330.43	786.38
330.658	745.38
330.887	777.38
331.115	775.38
331.344	773.38
331.572	809.38
331.801	810.38
332.03	837.38
332.258	845.38
332.486	880.38
332.715	914.38
332.943	924.38
333.172	965.38
333.4	1032.38
333.629	1022.38
333.857	1021.38
334.085	998.38
334.314	1001.38
334.542	977.38
334.771	961.38
334.999	930.38
335.227	939.38
335.455	925.38
335.684	921.38
335.912	939.38
336.14	897.38
336.369	892.38
336.597	908.38
336.825	914.38
337.053	911.38
337.281	897.38
337.51	876.38
337.738	873.38
337.966	841.38
338.194	843.38
338.422	819.38
338.65	801.38
338.878	772.38
339.106	810.38
339.334	834.38
339.562	787.38
339.79	783.38
340.018	807.38
340.246	781.38
340.474	780.38
340.702	772.38
340.93	798.38
341.158	787.38
341.386	786.38
341.614	783.38
341.842	790.38
342.07	742.38
342.298	770.38
342.526	795.38
342.754	759.38
342.981	796.38
343.209	807.38
343.437	827.38
343.665	872.38
343.893	972.38
344.12	983.38
344.348	962.38
344.576	874.38
344.804	852.38
345.031	800.38
345.259	791.38
345.487	781.38
345.714	785.38
345.942	793.38
346.17	769.38
346.397	773.38
346.625	760.38
346.853	751.38
347.08	773.38
347.308	778.38
347.535	749.38
347.763	782.38
347.99	782.38
348.218	770.38
348.445	742.38
348.673	755.38
348.9	755.38
349.128	761.38
349.355	729.38
349.583	755.38
349.81	713.38
350.037	739.38
350.265	721.38
350.492	715.38
350.72	728.38
350.947	727.38
351.174	733.38
351.402	771.38
351.629	746.38
351.856	721.38
352.083	707.38
352.311	721.38
352.538	735.38
352.765	706.38
352.992	721.38
353.22	703.38
353.447	731.38
353.674	702.38
353.901	739.38
354.128	749.38
354.355	730.38
354.583	731.38
354.81	730.38
355.037	727.38
355.264	723.38
355.491	732.38
355.718	747.38
355.945	746.38
356.172	739.38
356.399	738.38
356.626	740.38
356.853	709.38
357.08	716.38
357.307	735.38
357.534	737.38
357.761	731.38
357.988	733.38
358.215	765.38
358.441	735.38
358.668	716.38
358.895	717.38
359.122	742.38
359.349	719.38
359.576	713.38
359.802	713.38
360.029	708.38
360.256	754.38
360.483	706.38
360.709	709.38
360.936	718.38
361.163	722.38
361.39	722.38
361.616	712.38
361.843	742.38
362.07	747.38
362.296	727.38
362.523	728.38
362.749	744.38
362.976	702.38
363.203	752.38
363.429	714.38
363.656	725.38
363.882	690.38
364.109	728.38
364.335	709.38
364.562	715.38
364.788	715.38
365.015	740.38
365.241	728.38
365.468	729.38
365.694	715.38
365.92	719.38
366.147	697.38
366.373	729.38
366.599	720.38
366.826	704.38
367.052	707.38
367.278	752.38
367.505	729.38
367.731	735.38
367.957	729.38
368.184	725.38
368.41	744.38
368.636	732.38
368.862	722.38
369.089	737.38
369.315	745.38
369.541	726.38
369.767	739.38
369.993	760.38
370.219	765.38
370.445	771.38
370.672	797.38
370.898	765.38
371.124	778.38
371.35	779.38
371.576	791.38
371.802	810.38
372.028	804.38
372.254	764.38
372.48	794.38
372.706	811.38
372.932	816.38
373.158	817.38
373.384	785.38
373.61	767.38
373.835	815.38
374.061	789.38
374.287	795.38
374.513	833.38
374.739	829.38
374.965	889.38
375.191	897.38
375.416	856.38
375.642	860.38
375.868	849.38
376.094	820.38
376.319	792.38
376.545	801.38
376.771	788.38
376.997	810.38
377.222	800.38
377.448	788.38
377.674	797.38
377.899	785.38
378.125	789.38
378.35	821.38
378.576	813.38
378.802	748.38
379.027	775.38
379.253	791.38
379.478	773.38
379.704	805.38
379.929	786.38
380.155	743.38
380.38	743.38
380.606	761.38
380.831	784.38
381.057	789.38
381.282	770.38
381.507	809.38
381.733	792.38
381.958	780.38
382.184	832.38
382.409	832.38
382.634	818.38
382.86	839.38
383.085	860.38
383.31	907.38
383.535	883.38
383.761	888.38
383.986	899.38
384.211	928.38
384.436	911.38
384.662	950.38
384.887	954.38
385.112	949.38
385.337	963.38
385.562	962.38
385.787	950.38
386.013	961.38
386.238	951.38
386.463	973.38
386.688	969.38
386.913	950.38
387.138	957.38
387.363	949.38
387.588	967.38
387.813	950.38
388.038	909.38
388.263	931.38
388.488	957.38
388.713	936.38
388.938	929.38
389.163	937.38
389.387	940.38
389.612	917.38
389.837	931.38
390.062	910.38
390.287	936.38
390.512	944.38
390.736	964.38
390.961	971.38
391.186	966.38
391.411	994.38
391.636	1029.38
391.86	1047.38
392.085	1107.38
392.31	1053.38
392.534	1070.38
392.759	1040.38
392.984	1004.38
393.208	1015.38
393.433	1009.38
393.658	1018.38
393.882	1014.38
394.107	1001.38
394.331	1027.38
394.556	1031.38
394.78	1027.38
395.005	1043.38
395.229	1030.38
395.454	1073.38
395.678	1083.38
395.903	1075.38
396.127	1047.38
396.352	1030.38
396.576	993.38
396.801	986.38
397.025	969.38
397.249	1057.38
397.474	1057.38
397.698	1090.38
397.922	1081.38
398.147	1076.38
398.371	1103.38
398.595	1115.38
398.82	1194.38
399.044	1255.38
399.268	1409.38
399.492	1656.38
399.717	1928.38
399.941	1895.38
400.165	1643.38
400.389	1478.38
400.613	1330.38
400.837	1253.38
401.062	1229.38
401.286	1205.38
401.51	1222.38
401.734	1223.38
401.958	1215.38
402.182	1250.38
402.406	1265.38
402.63	1266.38
402.854	1299.38
403.078	1278.38
403.302	1358.38
403.526	1361.38
403.75	1393.38
403.974	1445.38
404.198	1429.38
404.422	1442.38
404.645	1402.38
404.869	1393.38
405.093	1380.38
405.317	1339.38
405.541	1370.38
405.765	1324.38
405.988	1346.38
406.212	1307.38
406.436	1291.38
406.66	1343.38
406.883	1362.38
407.107	1473.38
407.331	1541.38
407.555	1608.38
407.778	1580.38
408.002	1510.38
408.226	1511.38
408.449	1456.38
408.673	1376.38
408.896	1400.38
409.12	1338.38
409.344	1359.38
409.567	1353.38
409.791	1409.38
410.014	1369.38
410.238	1360.38
410.461	1371.38
410.685	1312.38
410.908	1304.38
411.132	1308.38
411.355	1261.38
411.578	1280.38
411.802	1287.38
412.025	1257.38
412.249	1279.38
412.472	1257.38
412.695	1240.38
412.919	1222.38
413.142	1207.38
413.365	1216.38
413.589	1232.38
413.812	1213.38
414.035	1173.38
414.258	1166.38
414.482	1213.38
414.705	1256.38
414.928	1218.38
415.151	1187.38
415.374	1225.38
415.597	1209.38
415.821	1176.38
416.044	1187.38
416.267	1179.38
416.49	1174.38
416.713	1162.38
416.936	1203.38
417.159	1169.38
417.382	1183.38
417.605	1177.38
417.828	1156.38
418.051	1169.38
418.274	1201.38
418.497	1190.38
418.72	1209.38
418.943	1217.38
419.166	1315.38
419.389	1368.38
419.611	1376.38
419.834	1293.38
420.057	1248.38
420.28	1229.38
420.503	1196.38
420.726	1167.38
420.948	1173.38
421.171	1173.38
421.394	1234.38
421.617	1172.38
421.839	1221.38
422.062	1184.38
422.285	1199.38
422.507	1204.38
422.73	1218.38
422.953	1226.38
423.175	1270.38
423.398	1252.38
423.621	1260.38
423.843	1253.38
424.066	1288.38
424.288	1267.38
424.511	1309.38
424.733	1267.38
424.956	1244.38
425.178	1204.38
425.401	1210.38
425.623	1185.38
425.846	1191.38
426.068	1160.38
426.291	1126.38
426.513	1133.38
426.735	1123.38
426.958	1093.38
427.18	1089.38
427.402	1076.38
427.625	1105.38
427.847	1057.38
428.069	1042.38
428.292	1047.38
428.514	1094.38
428.736	1074.38
428.958	1077.38
429.181	1028.38
429.403	1024.38
429.625	998.38
429.847	1033.38
430.069	1043.38
430.292	1037.38
430.514	1035.38
430.736	1032.38
430.958	1056.38
431.18	1042.38
431.402	1033.38
431.624	1038.38
431.846	1045.38
432.068	1046.38
432.29	1084.38
432.512	1047.38
432.734	1047.38
432.956	1093.38
433.178	1096.38
433.4	1064.38
433.622	1063.38
433.844	1092.38
434.066	1047.38
434.287	1075.38
434.509	1135.38
434.731	1162.38
434.953	1220.38
435.175	1239.38
435.397	1185.38
435.618	1140.38
435.84	1094.38
436.062	1090.38
436.284	1057.38
436.505	1048.38
436.727	1068.38
436.949	1067.38
437.17	1065.38
437.392	1024.38
437.614	1039.38
437.835	1015.38
438.057	1044.38
438.278	1005.38
438.5	1008.38
438.721	1025.38
438.943	1037.38
439.165	1001.38
439.386	1041.38
439.608	1057.38
439.829	1037.38
440.05	1060.38
440.272	1080.38
440.493	1073.38
440.715	1091.38
440.936	1097.38
441.158	1100.38
441.379	1164.38
441.6	1205.38
441.822	1242.38
442.043	1217.38
442.264	1171.38
442.486	1185.38
442.707	1172.38
442.928	1183.38
443.149	1171.38
443.371	1188.38
443.592	1209.38
443.813	1193.38
444.034	1241.38
444.255	1242.38
444.476	1323.38
444.698	1415.38
444.919	1471.38
445.14	1506.38
445.361	1351.38
445.582	1257.38
445.803	1186.38
446.024	1087.38
446.245	1106.38
446.466	1093.38
446.687	1050.38
446.908	1057.38
447.129	1072.38
447.35	1038.38
447.571	1015.38
447.792	1023.38
448.013	1034.38
448.234	954.38
448.455	976.38
448.675	955.38
448.896	999.38
449.117	972.38
449.338	971.38
449.559	969.38
449.779	950.38
450	959.38
450.221	969.38
450.442	978.38
450.662	977.38
450.883	990.38
451.104	996.38
451.324	980.38
451.545	976.38
451.766	969.38
451.986	990.38
452.207	983.38
452.428	974.38
452.648	980.38
452.869	959.38
453.089	956.38
453.31	955.38
453.53	938.38
453.751	914.38
453.971	931.38
454.192	922.38
454.412	921.38
454.633	931.38
454.853	918.38
455.073	919.38
455.294	912.38
455.514	915.38
455.734	895.38
455.955	883.38
456.175	917.38
456.395	923.38
456.616	920.38
456.836	889.38
457.056	899.38
457.276	866.38
457.497	915.38
457.717	923.38
457.937	902.38
458.157	929.38
458.377	914.38
458.598	960.38
458.818	980.38
459.038	1021.38
459.258	1048.38
459.478	1060.38
459.698	1102.38
459.918	1135.38
460.138	1172.38
460.358	1235.38
460.578	1243.38
460.798	1269.38
461.018	1270.38
461.238	1265.38
461.458	1233.38
461.678	1251.38
461.898	1241.38
462.118	1288.38
462.338	1344.38
462.558	1370.38
462.777	1457.38
462.997	1561.38
463.217	1722.38
463.437	1736.38
463.657	1612.38
463.876	1488.38
464.096	1479.38
464.316	1448.38
464.536	1504.38
464.755	1434.38
464.975	1385.38
465.195	1300.38
465.414	1227.38
465.634	1153.38
465.854	1135.38
466.073	1109.38
466.293	1080.38
466.512	1040.38
466.732	1043.38
466.951	1030.38
467.171	1007.38
467.391	1035.38
467.61	1052.38
467.829	1029.38
468.049	1007.38
468.268	986.38
468.488	976.38
468.707	975.38
468.927	935.38
469.146	963.38
469.365	967.38
469.585	986.38
469.804	1024.38
470.023	1038.38
470.243	1057.38
470.462	1056.38
470.681	1039.38
470.901	1056.38
471.12	1031.38
471.339	1002.38
471.558	989.38
471.777	973.38
471.997	980.38
472.216	965.38
472.435	928.38
472.654	973.38
472.873	956.38
473.092	915.38
473.311	945.38
473.53	928.38
473.749	918.38
473.968	939.38
474.187	944.38
474.406	945.38
474.625	950.38
474.844	940.38
475.063	941.38
475.282	965.38
475.501	953.38
475.72	952.38
475.939	988.38
476.158	961.38
476.377	968.38
476.596	978.38
476.814	978.38
477.033	1003.38
477.252	1023.38
477.471	1033.38
477.69	1033.38
477.908	1099.38
478.127	1119.38
478.346	1148.38
478.564	1155.38
478.783	1159.38
479.002	1183.38
479.22	1200.38
479.439	1177.38
479.658	1190.38
479.876	1176.38
480.095	1195.38
480.313	1285.38
480.532	1290.38
480.751	1297.38
480.969	1188.38
481.188	1153.38
481.406	1114.38
481.624	1102.38
481.843	1104.38
482.061	1098.38
482.28	1089.38
482.498	1094.38
482.717	1051.38
482.935	1051.38
483.153	1062.38
483.372	1079.38
483.59	1088.38
483.808	1075.38
484.027	1071.38
484.245	1123.38
484.463	1089.38
484.681	1098.38
484.9	1093.38
485.118	1092.38
485.336	1091.38
485.554	1127.38
485.772	1146.38
485.99	1137.38
486.209	1174.38
486.427	1176.38
486.645	1149.38
486.863	1176.38
487.081	1183.38
487.299	1169.38
487.517	1146.38
487.735	1153.38
487.953	1177.38
488.171	1180.38
488.389	1130.38
488.607	1091.38
488.825	1138.38
489.043	1140.38
489.261	1108.38
489.479	1126.38
489.696	1113.38
489.914	1121.38
490.132	1158.38
490.35	1141.38
490.568	1137.38
490.786	1132.38
491.003	1125.38
491.221	1136.38
491.439	1152.38
491.657	1158.38
491.874	1163.38
492.092	1161.38
492.31	1167.38
492.527	1159.38
492.745	1161.38
492.963	1180.38
493.18	1163.38
493.398	1188.38
493.615	1207.38
493.833	1180.38
494.05	1220.38
494.268	1210.38
494.485	1215.38
494.703	1201.38
494.92	1194.38
495.138	1198.38
495.355	1171.38
495.573	1169.38
495.79	1180.38
496.008	1191.38
496.225	1197.38
