Data from Ni(NO3)2@0.25M.TitratingCurve.Agarose3%dH2O.NegLispCup.LampEnergy10.LIBS07252019_HRD10591_18-04-26-566.txt Node
Date: Thu Jul 25 18:04:26 EDT 2019
User: cochatt
Spectrometer: HR+D1059
Trigger mode: 1
Integration Time (sec): 1.000000E-1
Scans to average: 1
Electric dark correction enabled: true
Nonlinearity correction enabled: false
Boxcar width: 0
XAxis mode: Wavelengths
Number of Pixels in Spectrum: 2048
>>>>>Begin Spectral Data<<<<<
223.165	-15.25
223.4	-15.25
223.635	-15.25
223.869	-29.25
224.104	-24.25
224.338	-20.25
224.573	-20.25
224.808	-8.25
225.042	-14.25
225.277	-7.25
225.511	4.75
225.746	4.75
225.98	4.75
226.215	11.75
226.449	18.75
226.683	28.75
226.918	23.75
227.152	41.75
227.387	40.75
227.621	40.75
227.856	33.75
228.09	27.75
228.324	53.75
228.559	63.75
228.793	58.75
229.027	82.75
229.262	101.75
229.496	100.75
229.73	81.75
229.964	104.75
230.199	112.75
230.433	111.75
230.667	110.75
230.901	113.75
231.136	107.75
231.37	102.75
231.604	120.75
231.838	111.75
232.072	127.75
232.306	103.75
232.541	123.75
232.775	115.75
233.009	111.75
233.243	125.75
233.477	118.75
233.711	117.75
233.945	113.75
234.179	123.75
234.413	135.75
234.647	118.75
234.881	127.75
235.115	143.75
235.349	134.75
235.583	117.75
235.817	115.75
236.051	125.75
236.285	126.75
236.519	115.75
236.753	119.75
236.987	125.75
237.221	108.75
237.455	134.75
237.689	135.75
237.922	127.75
238.156	118.75
238.39	119.75
238.624	131.75
238.858	123.75
239.091	129.75
239.325	138.75
239.559	145.75
239.793	147.75
240.027	149.75
240.26	121.75
240.494	147.75
240.728	145.75
240.961	145.75
241.195	147.75
241.429	145.75
241.662	140.75
241.896	145.75
242.13	150.75
242.363	138.75
242.597	139.75
242.83	138.75
243.064	143.75
243.298	135.75
243.531	151.75
243.765	142.75
243.998	147.75
244.232	147.75
244.465	165.75
244.699	156.75
244.932	151.75
245.166	164.75
245.399	167.75
245.633	152.75
245.866	152.75
246.099	152.75
246.333	155.75
246.566	159.75
246.8	155.75
247.033	156.75
247.266	171.75
247.5	157.75
247.733	171.75
247.966	177.75
248.2	158.75
248.433	181.75
248.666	168.75
248.899	175.75
249.133	195.75
249.366	180.75
249.599	187.75
249.832	198.75
250.066	191.75
250.299	191.75
250.532	179.75
250.765	164.75
250.998	207.75
251.231	216.75
251.465	199.75
251.698	201.75
251.931	217.75
252.164	204.75
252.397	212.75
252.63	221.75
252.863	203.75
253.096	211.75
253.329	202.75
253.562	212.75
253.795	238.75
254.028	208.75
254.261	208.75
254.494	220.75
254.727	234.75
254.96	228.75
255.193	229.75
255.426	235.75
255.659	230.75
255.892	216.75
256.124	240.75
256.357	232.75
256.59	244.75
256.823	232.75
257.056	263.75
257.289	242.75
257.521	256.75
257.754	237.75
257.987	244.75
258.22	248.75
258.452	251.75
258.685	257.75
258.918	243.75
259.151	249.75
259.383	266.75
259.616	268.75
259.849	245.75
260.081	261.75
260.314	258.75
260.547	250.75
260.779	259.75
261.012	269.75
261.244	269.75
261.477	280.75
261.71	271.75
261.942	250.75
262.175	269.75
262.407	283.75
262.64	287.75
262.872	273.75
263.105	275.75
263.337	285.75
263.57	276.75
263.802	276.75
264.035	280.75
264.267	288.75
264.499	300.75
264.732	285.75
264.964	296.75
265.197	291.75
265.429	300.75
265.661	277.75
265.894	288.75
266.126	281.75
266.358	281.75
266.591	306.75
266.823	291.75
267.055	264.75
267.287	290.75
267.52	294.75
267.752	303.75
267.984	298.75
268.216	313.75
268.448	311.75
268.681	289.75
268.913	303.75
269.145	326.75
269.377	310.75
269.609	297.75
269.841	287.75
270.073	325.75
270.306	315.75
270.538	311.75
270.77	301.75
271.002	310.75
271.234	303.75
271.466	310.75
271.698	317.75
271.93	317.75
272.162	319.75
272.394	311.75
272.626	295.75
272.858	318.75
273.09	316.75
273.322	321.75
273.553	328.75
273.785	328.75
274.017	322.75
274.249	322.75
274.481	331.75
274.713	318.75
274.945	314.75
275.176	337.75
275.408	313.75
275.64	319.75
275.872	329.75
276.104	345.75
276.335	333.75
276.567	319.75
276.799	352.75
277.031	327.75
277.262	351.75
277.494	339.75
277.726	336.75
277.957	340.75
278.189	340.75
278.421	339.75
278.652	328.75
278.884	340.75
279.115	366.75
279.347	341.75
279.579	351.75
279.81	345.75
280.042	363.75
280.273	341.75
280.505	353.75
280.736	368.75
280.968	353.75
281.199	347.75
281.431	356.75
281.662	379.75
281.894	347.75
282.125	346.75
282.356	363.75
282.588	339.75
282.819	372.75
283.051	366.75
283.282	367.75
283.513	385.75
283.745	347.75
283.976	369.75
284.207	371.75
284.439	356.75
284.67	383.75
284.901	379.75
285.132	380.75
285.364	368.75
285.595	380.75
285.826	359.75
286.057	383.75
286.288	373.75
286.52	370.75
286.751	380.75
286.982	403.75
287.213	371.75
287.444	371.75
287.675	374.75
287.906	382.75
288.138	390.75
288.369	378.75
288.6	382.75
288.831	389.75
289.062	406.75
289.293	386.75
289.524	392.75
289.755	390.75
289.986	396.75
290.217	376.75
290.448	392.75
290.679	401.75
290.91	377.75
291.141	404.75
291.371	404.75
291.602	396.75
291.833	389.75
292.064	392.75
292.295	390.75
292.526	412.75
292.757	390.75
292.987	394.75
293.218	371.75
293.449	407.75
293.68	367.75
293.91	375.75
294.141	381.75
294.372	407.75
294.603	407.75
294.833	385.75
295.064	407.75
295.295	388.75
295.525	383.75
295.756	401.75
295.987	393.75
296.217	409.75
296.448	420.75
296.679	424.75
296.909	405.75
297.14	400.75
297.37	430.75
297.601	413.75
297.831	417.75
298.062	399.75
298.292	424.75
298.523	436.75
298.753	446.75
298.984	415.75
299.214	418.75
299.445	424.75
299.675	429.75
299.905	419.75
300.136	421.75
300.366	425.75
300.597	431.75
300.827	429.75
301.057	427.75
301.288	441.75
301.518	418.75
301.748	435.75
301.979	452.75
302.209	451.75
302.439	440.75
302.669	450.75
302.9	444.75
303.13	452.75
303.36	421.75
303.59	448.75
303.82	457.75
304.051	472.75
304.281	449.75
304.511	448.75
304.741	444.75
304.971	450.75
305.201	451.75
305.431	471.75
305.661	460.75
305.891	443.75
306.121	454.75
306.352	451.75
306.582	456.75
306.812	441.75
307.042	453.75
307.272	443.75
307.502	444.75
307.731	457.75
307.961	439.75
308.191	450.75
308.421	433.75
308.651	441.75
308.881	442.75
309.111	436.75
309.341	450.75
309.571	440.75
309.8	461.75
310.03	482.75
310.26	469.75
310.49	488.75
310.72	461.75
310.949	461.75
311.179	460.75
311.409	484.75
311.639	473.75
311.868	467.75
312.098	464.75
312.328	471.75
312.557	477.75
312.787	483.75
313.017	476.75
313.246	483.75
313.476	511.75
313.706	485.75
313.935	501.75
314.165	520.75
314.394	505.75
314.624	508.75
314.853	484.75
315.083	483.75
315.312	480.75
315.542	488.75
315.771	525.75
316.001	498.75
316.23	520.75
316.46	507.75
316.689	512.75
316.919	508.75
317.148	524.75
317.377	504.75
317.607	530.75
317.836	508.75
318.065	493.75
318.295	515.75
318.524	490.75
318.753	513.75
318.983	523.75
319.212	519.75
319.441	519.75
319.67	516.75
319.9	517.75
320.129	519.75
320.358	529.75
320.587	533.75
320.816	530.75
321.046	541.75
321.275	545.75
321.504	541.75
321.733	554.75
321.962	546.75
322.191	542.75
322.42	547.75
322.649	553.75
322.878	535.75
323.108	542.75
323.337	563.75
323.566	556.75
323.795	548.75
324.024	572.75
324.253	572.75
324.482	573.75
324.71	584.75
324.939	574.75
325.168	560.75
325.397	595.75
325.626	586.75
325.855	591.75
326.084	599.75
326.313	620.75
326.542	595.75
326.77	615.75
326.999	605.75
327.228	618.75
327.457	592.75
327.686	633.75
327.914	625.75
328.143	619.75
328.372	619.75
328.6	625.75
328.829	641.75
329.058	605.75
329.287	656.75
329.515	631.75
329.744	636.75
329.972	662.75
330.201	643.75
330.43	660.75
330.658	652.75
330.887	668.75
331.115	646.75
331.344	685.75
331.572	664.75
331.801	675.75
332.03	708.75
332.258	705.75
332.486	725.75
332.715	708.75
332.943	725.75
333.172	757.75
333.4	792.75
333.629	788.75
333.857	803.75
334.085	799.75
334.314	815.75
334.542	802.75
334.771	810.75
334.999	826.75
335.227	785.75
335.455	800.75
335.684	805.75
335.912	780.75
336.14	786.75
336.369	748.75
336.597	771.75
336.825	808.75
337.053	807.75
337.281	765.75
337.51	735.75
337.738	769.75
337.966	738.75
338.194	760.75
338.422	757.75
338.65	734.75
338.878	715.75
339.106	730.75
339.334	732.75
339.562	745.75
339.79	729.75
340.018	689.75
340.246	679.75
340.474	717.75
340.702	696.75
340.93	718.75
341.158	688.75
341.386	728.75
341.614	770.75
341.842	751.75
342.07	735.75
342.298	701.75
342.526	716.75
342.754	710.75
342.981	688.75
343.209	720.75
343.437	780.75
343.665	801.75
343.893	824.75
344.12	838.75
344.348	784.75
344.576	784.75
344.804	784.75
345.031	756.75
345.259	730.75
345.487	713.75
345.714	731.75
345.942	735.75
346.17	719.75
346.397	713.75
346.625	700.75
346.853	697.75
347.08	692.75
347.308	698.75
347.535	705.75
347.763	704.75
347.99	672.75
348.218	693.75
348.445	671.75
348.673	647.75
348.9	683.75
349.128	677.75
349.355	696.75
349.583	701.75
349.81	669.75
350.037	665.75
350.265	653.75
350.492	690.75
350.72	654.75
350.947	657.75
351.174	694.75
351.402	710.75
351.629	702.75
351.856	696.75
352.083	660.75
352.311	679.75
352.538	698.75
352.765	712.75
352.992	678.75
353.22	656.75
353.447	663.75
353.674	658.75
353.901	656.75
354.128	667.75
354.355	655.75
354.583	649.75
354.81	652.75
355.037	659.75
355.264	647.75
355.491	665.75
355.718	661.75
355.945	644.75
356.172	676.75
356.399	678.75
356.626	679.75
356.853	697.75
357.08	676.75
357.307	671.75
357.534	639.75
357.761	681.75
357.988	665.75
358.215	663.75
358.441	640.75
358.668	655.75
358.895	683.75
359.122	671.75
359.349	685.75
359.576	660.75
359.802	660.75
360.029	660.75
360.256	639.75
360.483	665.75
360.709	685.75
360.936	675.75
361.163	657.75
361.39	656.75
361.616	670.75
361.843	692.75
362.07	707.75
362.296	692.75
362.523	679.75
362.749	657.75
362.976	641.75
363.203	639.75
363.429	636.75
363.656	652.75
363.882	634.75
364.109	615.75
364.335	649.75
364.562	644.75
364.788	656.75
365.015	661.75
365.241	648.75
365.468	638.75
365.694	665.75
365.92	649.75
366.147	655.75
366.373	682.75
366.599	628.75
366.826	665.75
367.052	663.75
367.278	653.75
367.505	669.75
367.731	650.75
367.957	695.75
368.184	664.75
368.41	663.75
368.636	671.75
368.862	627.75
369.089	663.75
369.315	673.75
369.541	663.75
369.767	672.75
369.993	655.75
370.219	679.75
370.445	663.75
370.672	683.75
370.898	669.75
371.124	693.75
371.35	680.75
371.576	697.75
371.802	687.75
372.028	664.75
372.254	689.75
372.48	700.75
372.706	707.75
372.932	713.75
373.158	694.75
373.384	698.75
373.61	696.75
373.835	699.75
374.061	689.75
374.287	722.75
374.513	696.75
374.739	713.75
374.965	708.75
375.191	756.75
375.416	720.75
375.642	701.75
375.868	695.75
376.094	703.75
376.319	682.75
376.545	691.75
376.771	689.75
376.997	688.75
377.222	681.75
377.448	687.75
377.674	671.75
377.899	676.75
378.125	683.75
378.35	664.75
378.576	661.75
378.802	665.75
379.027	645.75
379.253	654.75
379.478	646.75
379.704	660.75
379.929	678.75
380.155	687.75
380.38	669.75
380.606	692.75
380.831	679.75
381.057	695.75
381.282	671.75
381.507	644.75
381.733	684.75
381.958	672.75
382.184	684.75
382.409	696.75
382.634	681.75
382.86	715.75
383.085	715.75
383.31	703.75
383.535	720.75
383.761	706.75
383.986	744.75
384.211	746.75
384.436	719.75
384.662	761.75
384.887	741.75
385.112	753.75
385.337	737.75
385.562	770.75
385.787	782.75
386.013	808.75
386.238	782.75
386.463	765.75
386.688	790.75
386.913	781.75
387.138	779.75
387.363	785.75
387.588	788.75
387.813	763.75
388.038	777.75
388.263	788.75
388.488	756.75
388.713	748.75
388.938	769.75
389.163	756.75
389.387	779.75
389.612	740.75
389.837	757.75
390.062	760.75
390.287	799.75
390.512	773.75
390.736	781.75
390.961	805.75
391.186	807.75
391.411	812.75
391.636	860.75
391.86	872.75
392.085	855.75
392.31	858.75
392.534	844.75
392.759	824.75
392.984	812.75
393.208	815.75
393.433	822.75
393.658	832.75
393.882	820.75
394.107	800.75
394.331	834.75
394.556	823.75
394.78	832.75
395.005	819.75
395.229	852.75
395.454	845.75
395.678	866.75
395.903	857.75
396.127	882.75
396.352	843.75
396.576	819.75
396.801	855.75
397.025	861.75
397.249	832.75
397.474	881.75
397.698	882.75
397.922	894.75
398.147	902.75
398.371	924.75
398.595	957.75
398.82	981.75
399.044	1032.75
399.268	1113.75
399.492	1203.75
399.717	1279.75
399.941	1268.75
400.165	1211.75
400.389	1155.75
400.613	1101.75
400.837	1016.75
401.062	1003.75
401.286	1015.75
401.51	973.75
401.734	966.75
401.958	992.75
402.182	995.75
402.406	981.75
402.63	1004.75
402.854	986.75
403.078	1004.75
403.302	1039.75
403.526	1048.75
403.75	1057.75
403.974	1054.75
404.198	1058.75
404.422	1068.75
404.645	1040.75
404.869	1064.75
405.093	1040.75
405.317	1023.75
405.541	1056.75
405.765	1038.75
405.988	1034.75
406.212	1040.75
406.436	1055.75
406.66	1098.75
406.883	1055.75
407.107	1111.75
407.331	1188.75
407.555	1207.75
407.778	1187.75
408.002	1169.75
408.226	1148.75
408.449	1161.75
408.673	1093.75
408.896	1079.75
409.12	1072.75
409.344	1094.75
409.567	1068.75
409.791	1091.75
410.014	1052.75
410.238	1068.75
410.461	1077.75
410.685	1059.75
410.908	1022.75
411.132	1045.75
411.355	1026.75
411.578	1018.75
411.802	1018.75
412.025	1017.75
412.249	1027.75
412.472	1011.75
412.695	995.75
412.919	1020.75
413.142	995.75
413.365	1009.75
413.589	985.75
413.812	984.75
414.035	976.75
414.258	1006.75
414.482	987.75
414.705	1035.75
414.928	987.75
415.151	1013.75
415.374	987.75
415.597	1018.75
415.821	974.75
416.044	984.75
416.267	971.75
416.49	979.75
416.713	978.75
416.936	971.75
417.159	976.75
417.382	984.75
417.605	968.75
417.828	1007.75
418.051	986.75
418.274	982.75
418.497	958.75
418.72	1000.75
418.943	1003.75
419.166	1016.75
419.389	1087.75
419.611	1079.75
419.834	1066.75
420.057	1048.75
420.28	984.75
420.503	986.75
420.726	987.75
420.948	1001.75
421.171	977.75
421.394	990.75
421.617	976.75
421.839	967.75
422.062	992.75
422.285	1002.75
422.507	1034.75
422.73	990.75
422.953	988.75
423.175	1015.75
423.398	1021.75
423.621	997.75
423.843	1032.75
424.066	1050.75
424.288	1025.75
424.511	1043.75
424.733	1013.75
424.956	1023.75
425.178	1011.75
425.401	999.75
425.623	985.75
425.846	1004.75
426.068	977.75
426.291	969.75
426.513	957.75
426.735	960.75
426.958	956.75
427.18	939.75
427.402	950.75
427.625	973.75
427.847	960.75
428.069	956.75
428.292	951.75
428.514	939.75
428.736	929.75
428.958	954.75
429.181	947.75
429.403	915.75
429.625	913.75
429.847	902.75
430.069	951.75
430.292	931.75
430.514	917.75
430.736	901.75
430.958	936.75
431.18	923.75
431.402	899.75
431.624	919.75
431.846	935.75
432.068	959.75
432.29	929.75
432.512	940.75
432.734	951.75
432.956	909.75
433.178	938.75
433.4	960.75
433.622	955.75
433.844	983.75
434.066	947.75
434.287	957.75
434.509	959.75
434.731	985.75
434.953	1023.75
435.175	1025.75
435.397	1032.75
435.618	969.75
435.84	984.75
436.062	938.75
436.284	972.75
436.505	933.75
436.727	941.75
436.949	939.75
437.17	941.75
437.392	931.75
437.614	936.75
437.835	898.75
438.057	921.75
438.278	889.75
438.5	883.75
438.721	907.75
438.943	938.75
439.165	908.75
439.386	936.75
439.608	953.75
439.829	943.75
440.05	965.75
440.272	974.75
440.493	967.75
440.715	971.75
440.936	974.75
441.158	977.75
441.379	994.75
441.6	1058.75
441.822	1044.75
442.043	1046.75
442.264	1014.75
442.486	990.75
442.707	1035.75
442.928	1010.75
443.149	1047.75
443.371	1030.75
443.592	1047.75
443.813	1035.75
444.034	1048.75
444.255	1069.75
444.476	1108.75
444.698	1091.75
444.919	1162.75
445.14	1236.75
445.361	1147.75
445.582	1074.75
445.803	1019.75
446.024	996.75
446.245	1024.75
446.466	1000.75
446.687	1002.75
446.908	971.75
447.129	999.75
447.35	930.75
447.571	979.75
447.792	909.75
448.013	907.75
448.234	930.75
448.455	896.75
448.675	866.75
448.896	915.75
449.117	884.75
449.338	883.75
449.559	874.75
449.779	895.75
450	867.75
450.221	891.75
450.442	899.75
450.662	875.75
450.883	879.75
451.104	879.75
451.324	896.75
451.545	908.75
451.766	873.75
451.986	880.75
452.207	869.75
452.428	851.75
452.648	855.75
452.869	836.75
453.089	832.75
453.31	864.75
453.53	867.75
453.751	829.75
453.971	819.75
454.192	821.75
454.412	829.75
454.633	838.75
454.853	809.75
455.073	823.75
455.294	838.75
455.514	835.75
455.734	834.75
455.955	807.75
456.175	839.75
456.395	826.75
456.616	811.75
456.836	844.75
457.056	819.75
457.276	826.75
457.497	838.75
457.717	841.75
457.937	867.75
458.157	837.75
458.377	880.75
458.598	856.75
458.818	896.75
459.038	903.75
459.258	928.75
459.478	931.75
459.698	991.75
459.918	987.75
460.138	1029.75
460.358	1045.75
460.578	1092.75
460.798	1082.75
461.018	1107.75
461.238	1075.75
461.458	1073.75
461.678	1084.75
461.898	1060.75
462.118	1097.75
462.338	1147.75
462.558	1171.75
462.777	1206.75
462.997	1287.75
463.217	1368.75
463.437	1332.75
463.657	1258.75
463.876	1263.75
464.096	1251.75
464.316	1244.75
464.536	1207.75
464.755	1183.75
464.975	1106.75
465.195	1104.75
465.414	1048.75
465.634	1011.75
465.854	974.75
466.073	996.75
466.293	966.75
466.512	980.75
466.732	932.75
466.951	933.75
467.171	931.75
467.391	951.75
467.61	923.75
467.829	917.75
468.049	934.75
468.268	897.75
468.488	886.75
468.707	896.75
468.927	890.75
469.146	903.75
469.365	930.75
469.585	910.75
469.804	908.75
470.023	943.75
470.243	928.75
470.462	939.75
470.681	966.75
470.901	929.75
471.12	952.75
471.339	927.75
471.558	917.75
471.777	919.75
471.997	897.75
472.216	890.75
472.435	879.75
472.654	883.75
472.873	885.75
473.092	883.75
473.311	892.75
473.53	911.75
473.749	863.75
473.968	883.75
474.187	860.75
474.406	886.75
474.625	876.75
474.844	882.75
475.063	889.75
475.282	929.75
475.501	894.75
475.72	910.75
475.939	909.75
476.158	937.75
476.377	921.75
476.596	928.75
476.814	965.75
477.033	916.75
477.252	917.75
477.471	976.75
477.69	987.75
477.908	1003.75
478.127	1057.75
478.346	1050.75
478.564	1055.75
478.783	1046.75
479.002	1087.75
479.22	1092.75
479.439	1076.75
479.658	1087.75
479.876	1075.75
480.095	1071.75
480.313	1123.75
480.532	1122.75
480.751	1114.75
480.969	1069.75
481.188	1055.75
481.406	1056.75
481.624	1033.75
481.843	1024.75
482.061	1020.75
482.28	1024.75
482.498	1025.75
482.717	1014.75
482.935	1004.75
483.153	1035.75
483.372	1052.75
483.59	1045.75
483.808	1043.75
484.027	1031.75
484.245	1032.75
484.463	1023.75
484.681	1058.75
484.9	1047.75
485.118	1054.75
485.336	1024.75
485.554	1034.75
485.772	1024.75
485.99	1053.75
486.209	1055.75
486.427	1038.75
486.645	1073.75
486.863	1109.75
487.081	1055.75
487.299	1038.75
487.517	1063.75
487.735	1052.75
487.953	1045.75
488.171	1096.75
488.389	1088.75
488.607	1058.75
488.825	1041.75
489.043	1051.75
489.261	1081.75
489.479	1074.75
489.696	1070.75
489.914	1072.75
490.132	1053.75
490.35	1082.75
490.568	1081.75
490.786	1086.75
491.003	1082.75
491.221	1091.75
491.439	1107.75
491.657	1097.75
491.874	1135.75
492.092	1115.75
492.31	1147.75
492.527	1147.75
492.745	1128.75
492.963	1124.75
493.18	1129.75
493.398	1147.75
493.615	1157.75
493.833	1156.75
494.05	1172.75
494.268	1158.75
494.485	1143.75
494.703	1175.75
494.92	1162.75
495.138	1205.75
495.355	1185.75
495.573	1183.75
495.79	1183.75
496.008	1201.75
496.225	1195.75
496.442	1227.75
496.66	1256.75
496.877	1227.75
497.094	1236.75
497.312	1289.75
497.529	1271.75
497.746	1337.75
497.963	1353.75
498.181	1412.75
498.398	1461.75
