Data from Ni(NO3)2@0.125M.TitratingCurve.Agarose3%dH2O.NegLispCup.LampEnergy10.LIBS07252019_HRD10591_18-09-02-570.txt Node
Date: Thu Jul 25 18:09:02 EDT 2019
User: cochatt
Spectrometer: HR+D1059
Trigger mode: 1
Integration Time (sec): 1.000000E-1
Scans to average: 1
Electric dark correction enabled: true
Nonlinearity correction enabled: false
Boxcar width: 0
XAxis mode: Wavelengths
Number of Pixels in Spectrum: 2048
>>>>>Begin Spectral Data<<<<<
223.165	-21.31
223.4	-21.31
223.635	-21.31
223.869	-5.31
224.104	-19.31
224.338	5.69
224.573	-7.31
224.808	-15.31
225.042	-23.31
225.277	-3.31
225.511	-10.31
225.746	-3.31
225.98	8.69
226.215	14.69
226.449	21.69
226.683	16.69
226.918	14.69
227.152	26.69
227.387	32.69
227.621	39.69
227.856	49.69
228.09	35.69
228.324	48.69
228.559	57.69
228.793	74.69
229.027	107.69
229.262	113.69
229.496	118.69
229.73	123.69
229.964	131.69
230.199	142.69
230.433	139.69
230.667	136.69
230.901	157.69
231.136	136.69
231.37	140.69
231.604	150.69
231.838	141.69
232.072	166.69
232.306	178.69
232.541	155.69
232.775	162.69
233.009	158.69
233.243	154.69
233.477	161.69
233.711	162.69
233.945	176.69
234.179	164.69
234.413	142.69
234.647	156.69
234.881	155.69
235.115	164.69
235.349	143.69
235.583	154.69
235.817	156.69
236.051	169.69
236.285	176.69
236.519	172.69
236.753	158.69
236.987	149.69
237.221	167.69
237.455	186.69
237.689	171.69
237.922	192.69
238.156	166.69
238.39	179.69
238.624	180.69
238.858	173.69
239.091	162.69
239.325	180.69
239.559	183.69
239.793	190.69
240.027	184.69
240.26	197.69
240.494	204.69
240.728	192.69
240.961	195.69
241.195	200.69
241.429	207.69
241.662	212.69
241.896	209.69
242.13	192.69
242.363	218.69
242.597	206.69
242.83	214.69
243.064	208.69
243.298	222.69
243.531	240.69
243.765	220.69
243.998	227.69
244.232	214.69
244.465	243.69
244.699	236.69
244.932	231.69
245.166	244.69
245.399	235.69
245.633	233.69
245.866	222.69
246.099	242.69
246.333	241.69
246.566	237.69
246.8	233.69
247.033	240.69
247.266	254.69
247.5	243.69
247.733	237.69
247.966	264.69
248.2	248.69
248.433	253.69
248.666	252.69
248.899	278.69
249.133	264.69
249.366	277.69
249.599	277.69
249.832	277.69
250.066	273.69
250.299	289.69
250.532	284.69
250.765	263.69
250.998	290.69
251.231	308.69
251.465	284.69
251.698	297.69
251.931	305.69
252.164	278.69
252.397	289.69
252.63	281.69
252.863	300.69
253.096	297.69
253.329	308.69
253.562	300.69
253.795	306.69
254.028	312.69
254.261	298.69
254.494	322.69
254.727	308.69
254.96	309.69
255.193	322.69
255.426	310.69
255.659	316.69
255.892	325.69
256.124	313.69
256.357	324.69
256.59	338.69
256.823	320.69
257.056	336.69
257.289	334.69
257.521	329.69
257.754	323.69
257.987	340.69
258.22	327.69
258.452	356.69
258.685	342.69
258.918	322.69
259.151	362.69
259.383	338.69
259.616	360.69
259.849	344.69
260.081	355.69
260.314	355.69
260.547	371.69
260.779	347.69
261.012	371.69
261.244	372.69
261.477	372.69
261.71	375.69
261.942	354.69
262.175	372.69
262.407	378.69
262.64	368.69
262.872	360.69
263.105	374.69
263.337	379.69
263.57	378.69
263.802	377.69
264.035	374.69
264.267	364.69
264.499	364.69
264.732	382.69
264.964	382.69
265.197	386.69
265.429	412.69
265.661	385.69
265.894	396.69
266.126	390.69
266.358	385.69
266.591	391.69
266.823	409.69
267.055	417.69
267.287	415.69
267.52	408.69
267.752	406.69
267.984	392.69
268.216	412.69
268.448	401.69
268.681	408.69
268.913	405.69
269.145	416.69
269.377	416.69
269.609	416.69
269.841	427.69
270.073	420.69
270.306	394.69
270.538	423.69
270.77	417.69
271.002	425.69
271.234	414.69
271.466	437.69
271.698	418.69
271.93	433.69
272.162	433.69
272.394	452.69
272.626	440.69
272.858	416.69
273.09	445.69
273.322	464.69
273.553	438.69
273.785	433.69
274.017	450.69
274.249	445.69
274.481	433.69
274.713	432.69
274.945	442.69
275.176	441.69
275.408	465.69
275.64	445.69
275.872	458.69
276.104	465.69
276.335	468.69
276.567	456.69
276.799	453.69
277.031	461.69
277.262	476.69
277.494	460.69
277.726	491.69
277.957	487.69
278.189	485.69
278.421	496.69
278.652	477.69
278.884	477.69
279.115	466.69
279.347	491.69
279.579	508.69
279.81	473.69
280.042	502.69
280.273	501.69
280.505	485.69
280.736	486.69
280.968	518.69
281.199	492.69
281.431	512.69
281.662	500.69
281.894	501.69
282.125	527.69
282.356	502.69
282.588	506.69
282.819	511.69
283.051	504.69
283.282	493.69
283.513	542.69
283.745	538.69
283.976	515.69
284.207	532.69
284.439	534.69
284.67	529.69
284.901	545.69
285.132	540.69
285.364	534.69
285.595	543.69
285.826	532.69
286.057	546.69
286.288	545.69
286.52	571.69
286.751	556.69
286.982	553.69
287.213	569.69
287.444	564.69
287.675	576.69
287.906	551.69
288.138	564.69
288.369	560.69
288.6	594.69
288.831	548.69
289.062	573.69
289.293	574.69
289.524	583.69
289.755	556.69
289.986	559.69
290.217	579.69
290.448	576.69
290.679	586.69
290.91	583.69
291.141	584.69
291.371	594.69
291.602	570.69
291.833	581.69
292.064	578.69
292.295	587.69
292.526	585.69
292.757	590.69
292.987	561.69
293.218	581.69
293.449	593.69
293.68	582.69
293.91	582.69
294.141	585.69
294.372	592.69
294.603	580.69
294.833	591.69
295.064	630.69
295.295	606.69
295.525	598.69
295.756	591.69
295.987	601.69
296.217	611.69
296.448	624.69
296.679	606.69
296.909	608.69
297.14	620.69
297.37	630.69
297.601	632.69
297.831	634.69
298.062	606.69
298.292	640.69
298.523	639.69
298.753	633.69
298.984	644.69
299.214	645.69
299.445	633.69
299.675	635.69
299.905	614.69
300.136	638.69
300.366	638.69
300.597	641.69
300.827	660.69
301.057	666.69
301.288	656.69
301.518	664.69
301.748	692.69
301.979	700.69
302.209	661.69
302.439	660.69
302.669	648.69
302.9	632.69
303.13	633.69
303.36	660.69
303.59	642.69
303.82	658.69
304.051	657.69
304.281	643.69
304.511	652.69
304.741	649.69
304.971	648.69
305.201	639.69
305.431	637.69
305.661	645.69
305.891	660.69
306.121	654.69
306.352	662.69
306.582	672.69
306.812	644.69
307.042	639.69
307.272	669.69
307.502	650.69
307.731	635.69
307.961	642.69
308.191	629.69
308.421	640.69
308.651	644.69
308.881	643.69
309.111	647.69
309.341	618.69
309.571	646.69
309.8	642.69
310.03	644.69
310.26	637.69
310.49	654.69
310.72	665.69
310.949	646.69
311.179	661.69
311.409	638.69
311.639	664.69
311.868	672.69
312.098	646.69
312.328	673.69
312.557	672.69
312.787	662.69
313.017	700.69
313.246	692.69
313.476	701.69
313.706	694.69
313.935	679.69
314.165	708.69
314.394	708.69
314.624	707.69
314.853	682.69
315.083	696.69
315.312	684.69
315.542	694.69
315.771	708.69
316.001	711.69
316.23	670.69
316.46	657.69
316.689	698.69
316.919	679.69
317.148	690.69
317.377	673.69
317.607	682.69
317.836	693.69
318.065	691.69
318.295	696.69
318.524	668.69
318.753	672.69
318.983	696.69
319.212	652.69
319.441	642.69
319.67	689.69
319.9	707.69
320.129	695.69
320.358	699.69
320.587	678.69
320.816	693.69
321.046	679.69
321.275	685.69
321.504	696.69
321.733	682.69
321.962	689.69
322.191	676.69
322.42	699.69
322.649	712.69
322.878	715.69
323.108	717.69
323.337	733.69
323.566	714.69
323.795	713.69
324.024	732.69
324.253	710.69
324.482	727.69
324.71	714.69
324.939	738.69
325.168	710.69
325.397	727.69
325.626	733.69
325.855	726.69
326.084	768.69
326.313	772.69
326.542	756.69
326.77	797.69
326.999	772.69
327.228	775.69
327.457	749.69
327.686	740.69
327.914	758.69
328.143	767.69
328.372	786.69
328.6	765.69
328.829	764.69
329.058	771.69
329.287	755.69
329.515	774.69
329.744	788.69
329.972	769.69
330.201	764.69
330.43	781.69
330.658	788.69
330.887	772.69
331.115	806.69
331.344	803.69
331.572	804.69
331.801	834.69
332.03	846.69
332.258	869.69
332.486	874.69
332.715	901.69
332.943	946.69
333.172	1002.69
333.4	1021.69
333.629	1061.69
333.857	1062.69
334.085	1045.69
334.314	1001.69
334.542	1010.69
334.771	1004.69
334.999	1004.69
335.227	984.69
335.455	965.69
335.684	956.69
335.912	956.69
336.14	945.69
336.369	948.69
336.597	941.69
336.825	928.69
337.053	936.69
337.281	930.69
337.51	903.69
337.738	884.69
337.966	877.69
338.194	864.69
338.422	877.69
338.65	861.69
338.878	859.69
339.106	847.69
339.334	838.69
339.562	857.69
339.79	827.69
340.018	810.69
340.246	786.69
340.474	789.69
340.702	819.69
340.93	817.69
341.158	820.69
341.386	841.69
341.614	848.69
341.842	818.69
342.07	817.69
342.298	798.69
342.526	835.69
342.754	807.69
342.981	807.69
343.209	819.69
343.437	843.69
343.665	928.69
343.893	988.69
344.12	1027.69
344.348	983.69
344.576	928.69
344.804	900.69
345.031	838.69
345.259	868.69
345.487	830.69
345.714	837.69
345.942	806.69
346.17	822.69
346.397	828.69
346.625	792.69
346.853	821.69
347.08	797.69
347.308	798.69
347.535	852.69
347.763	817.69
347.99	804.69
348.218	822.69
348.445	782.69
348.673	794.69
348.9	792.69
349.128	767.69
349.355	793.69
349.583	804.69
349.81	753.69
350.037	770.69
350.265	748.69
350.492	780.69
350.72	754.69
350.947	755.69
351.174	764.69
351.402	771.69
351.629	766.69
351.856	760.69
352.083	745.69
352.311	743.69
352.538	773.69
352.765	781.69
352.992	736.69
353.22	759.69
353.447	754.69
353.674	765.69
353.901	753.69
354.128	742.69
354.355	752.69
354.583	740.69
354.81	748.69
355.037	746.69
355.264	776.69
355.491	760.69
355.718	756.69
355.945	764.69
356.172	761.69
356.399	761.69
356.626	768.69
356.853	768.69
357.08	762.69
357.307	741.69
357.534	766.69
357.761	781.69
357.988	770.69
358.215	753.69
358.441	755.69
358.668	748.69
358.895	770.69
359.122	732.69
359.349	768.69
359.576	758.69
359.802	790.69
360.029	771.69
360.256	768.69
360.483	766.69
360.709	772.69
360.936	761.69
361.163	758.69
361.39	770.69
361.616	785.69
361.843	760.69
362.07	778.69
362.296	759.69
362.523	756.69
362.749	757.69
362.976	752.69
363.203	763.69
363.429	736.69
363.656	733.69
363.882	753.69
364.109	770.69
364.335	737.69
364.562	706.69
364.788	733.69
365.015	749.69
365.241	786.69
365.468	738.69
365.694	752.69
365.92	726.69
366.147	754.69
366.373	774.69
366.599	779.69
366.826	749.69
367.052	758.69
367.278	744.69
367.505	728.69
367.731	761.69
367.957	753.69
368.184	750.69
368.41	735.69
368.636	771.69
368.862	779.69
369.089	767.69
369.315	787.69
369.541	772.69
369.767	776.69
369.993	779.69
370.219	771.69
370.445	806.69
370.672	791.69
370.898	813.69
371.124	826.69
371.35	808.69
371.576	854.69
371.802	816.69
372.028	820.69
372.254	828.69
372.48	805.69
372.706	822.69
372.932	851.69
373.158	847.69
373.384	850.69
373.61	833.69
373.835	831.69
374.061	819.69
374.287	814.69
374.513	833.69
374.739	866.69
374.965	938.69
375.191	908.69
375.416	909.69
375.642	864.69
375.868	837.69
376.094	859.69
376.319	861.69
376.545	825.69
376.771	819.69
376.997	845.69
377.222	832.69
377.448	812.69
377.674	802.69
377.899	806.69
378.125	801.69
378.35	814.69
378.576	819.69
378.802	797.69
379.027	788.69
379.253	793.69
379.478	823.69
379.704	803.69
379.929	809.69
380.155	807.69
380.38	794.69
380.606	843.69
380.831	801.69
381.057	837.69
381.282	812.69
381.507	837.69
381.733	843.69
381.958	838.69
382.184	818.69
382.409	861.69
382.634	853.69
382.86	865.69
383.085	874.69
383.31	875.69
383.535	899.69
383.761	912.69
383.986	915.69
384.211	933.69
384.436	962.69
384.662	965.69
384.887	987.69
385.112	987.69
385.337	984.69
385.562	1001.69
385.787	1017.69
386.013	1002.69
386.238	970.69
386.463	1001.69
386.688	1010.69
386.913	950.69
387.138	964.69
387.363	958.69
387.588	947.69
387.813	929.69
388.038	959.69
388.263	954.69
388.488	977.69
388.713	971.69
388.938	938.69
389.163	954.69
389.387	953.69
389.612	946.69
389.837	965.69
390.062	948.69
390.287	934.69
390.512	938.69
390.736	954.69
390.961	985.69
391.186	987.69
391.411	998.69
391.636	1068.69
391.86	1100.69
392.085	1095.69
392.31	1109.69
392.534	1069.69
392.759	1063.69
392.984	1037.69
393.208	1035.69
393.433	1046.69
393.658	1035.69
393.882	1027.69
394.107	1053.69
394.331	1052.69
394.556	1053.69
394.78	1045.69
395.005	1075.69
395.229	1017.69
395.454	1070.69
395.678	1117.69
395.903	1109.69
396.127	1090.69
396.352	1046.69
396.576	1038.69
396.801	1008.69
397.025	1039.69
397.249	1068.69
397.474	1082.69
397.698	1117.69
397.922	1120.69
398.147	1107.69
398.371	1126.69
398.595	1144.69
398.82	1179.69
399.044	1291.69
399.268	1404.69
399.492	1626.69
399.717	1874.69
399.941	1899.69
400.165	1625.69
400.389	1447.69
400.613	1377.69
400.837	1312.69
401.062	1251.69
401.286	1262.69
401.51	1212.69
401.734	1224.69
401.958	1196.69
402.182	1245.69
402.406	1277.69
402.63	1275.69
402.854	1319.69
403.078	1309.69
403.302	1368.69
403.526	1392.69
403.75	1407.69
403.974	1426.69
404.198	1387.69
404.422	1452.69
404.645	1428.69
404.869	1421.69
405.093	1393.69
405.317	1364.69
405.541	1340.69
405.765	1371.69
405.988	1351.69
406.212	1353.69
406.436	1345.69
406.66	1368.69
406.883	1394.69
407.107	1491.69
407.331	1554.69
407.555	1637.69
407.778	1623.69
408.002	1559.69
408.226	1517.69
408.449	1476.69
408.673	1438.69
408.896	1402.69
409.12	1426.69
409.344	1417.69
409.567	1418.69
409.791	1426.69
410.014	1414.69
410.238	1389.69
410.461	1397.69
410.685	1356.69
410.908	1355.69
411.132	1339.69
411.355	1298.69
411.578	1318.69
411.802	1296.69
412.025	1302.69
412.249	1311.69
412.472	1307.69
412.695	1233.69
412.919	1250.69
413.142	1219.69
413.365	1216.69
413.589	1260.69
413.812	1258.69
414.035	1240.69
414.258	1205.69
414.482	1245.69
414.705	1259.69
414.928	1281.69
415.151	1255.69
415.374	1257.69
415.597	1235.69
415.821	1185.69
416.044	1217.69
416.267	1200.69
416.49	1212.69
416.713	1189.69
416.936	1206.69
417.159	1217.69
417.382	1205.69
417.605	1192.69
417.828	1222.69
418.051	1232.69
418.274	1204.69
418.497	1223.69
418.72	1308.69
418.943	1260.69
419.166	1358.69
419.389	1409.69
419.611	1360.69
419.834	1372.69
420.057	1306.69
420.28	1238.69
420.503	1226.69
420.726	1241.69
420.948	1207.69
421.171	1254.69
421.394	1252.69
421.617	1209.69
421.839	1280.69
422.062	1238.69
422.285	1239.69
422.507	1270.69
422.73	1276.69
422.953	1302.69
423.175	1299.69
423.398	1321.69
423.621	1295.69
423.843	1301.69
424.066	1301.69
424.288	1320.69
424.511	1330.69
424.733	1298.69
424.956	1266.69
425.178	1259.69
425.401	1220.69
425.623	1248.69
425.846	1216.69
426.068	1186.69
426.291	1194.69
426.513	1168.69
426.735	1159.69
426.958	1158.69
427.18	1152.69
427.402	1156.69
427.625	1127.69
427.847	1104.69
428.069	1125.69
428.292	1142.69
428.514	1099.69
428.736	1114.69
428.958	1103.69
429.181	1061.69
429.403	1046.69
429.625	1044.69
429.847	1048.69
430.069	1083.69
430.292	1092.69
430.514	1058.69
430.736	1077.69
430.958	1067.69
431.18	1076.69
431.402	1122.69
431.624	1089.69
431.846	1110.69
432.068	1113.69
432.29	1131.69
432.512	1109.69
432.734	1122.69
432.956	1076.69
433.178	1108.69
433.4	1113.69
433.622	1125.69
433.844	1132.69
434.066	1118.69
434.287	1129.69
434.509	1184.69
434.731	1231.69
434.953	1228.69
435.175	1279.69
435.397	1299.69
435.618	1176.69
435.84	1166.69
436.062	1154.69
436.284	1120.69
436.505	1098.69
436.727	1114.69
436.949	1111.69
437.17	1126.69
437.392	1082.69
437.614	1077.69
437.835	1067.69
438.057	1065.69
438.278	1063.69
438.5	1056.69
438.721	1046.69
438.943	1079.69
439.165	1070.69
439.386	1083.69
439.608	1111.69
439.829	1093.69
440.05	1111.69
440.272	1130.69
440.493	1135.69
440.715	1138.69
440.936	1171.69
441.158	1167.69
441.379	1193.69
441.6	1275.69
441.822	1248.69
442.043	1302.69
442.264	1241.69
442.486	1208.69
442.707	1224.69
442.928	1243.69
443.149	1198.69
443.371	1248.69
443.592	1276.69
443.813	1247.69
444.034	1286.69
444.255	1342.69
444.476	1343.69
444.698	1440.69
444.919	1509.69
445.14	1581.69
445.361	1410.69
445.582	1338.69
445.803	1237.69
446.024	1188.69
446.245	1142.69
446.466	1153.69
446.687	1109.69
446.908	1105.69
447.129	1128.69
447.35	1096.69
447.571	1094.69
447.792	1060.69
448.013	1042.69
448.234	1022.69
448.455	1036.69
448.675	1057.69
448.896	1026.69
449.117	1026.69
449.338	1022.69
449.559	1011.69
449.779	1008.69
450	1014.69
450.221	1029.69
450.442	1049.69
450.662	1010.69
450.883	1068.69
451.104	1069.69
451.324	1052.69
451.545	1046.69
451.766	1050.69
451.986	1049.69
452.207	1010.69
452.428	1039.69
452.648	1033.69
452.869	1006.69
453.089	990.69
453.31	1002.69
453.53	984.69
453.751	995.69
453.971	965.69
454.192	1000.69
454.412	1004.69
454.633	985.69
454.853	969.69
455.073	977.69
455.294	974.69
455.514	967.69
455.734	972.69
455.955	949.69
456.175	967.69
456.395	962.69
456.616	943.69
456.836	938.69
457.056	964.69
457.276	924.69
457.497	941.69
457.717	968.69
457.937	953.69
458.157	983.69
458.377	983.69
458.598	998.69
458.818	1038.69
459.038	1034.69
459.258	1107.69
459.478	1116.69
459.698	1197.69
459.918	1257.69
460.138	1284.69
460.358	1308.69
460.578	1309.69
460.798	1353.69
461.018	1352.69
461.238	1332.69
461.458	1309.69
461.678	1287.69
461.898	1292.69
462.118	1318.69
462.338	1437.69
462.558	1461.69
462.777	1481.69
462.997	1611.69
463.217	1788.69
463.437	1854.69
463.657	1664.69
463.876	1580.69
464.096	1567.69
464.316	1555.69
464.536	1569.69
464.755	1501.69
464.975	1451.69
465.195	1375.69
465.414	1310.69
465.634	1237.69
465.854	1170.69
466.073	1145.69
466.293	1129.69
466.512	1133.69
466.732	1090.69
466.951	1089.69
467.171	1079.69
467.391	1074.69
467.61	1081.69
467.829	1057.69
468.049	1038.69
468.268	1022.69
468.488	1019.69
468.707	1027.69
468.927	1028.69
469.146	1028.69
469.365	1057.69
469.585	1046.69
469.804	1080.69
470.023	1066.69
470.243	1074.69
470.462	1113.69
470.681	1109.69
470.901	1127.69
471.12	1116.69
471.339	1098.69
471.558	1076.69
471.777	1042.69
471.997	994.69
472.216	1031.69
472.435	1030.69
472.654	1011.69
472.873	1004.69
473.092	1024.69
473.311	1005.69
473.53	1003.69
473.749	953.69
473.968	971.69
474.187	987.69
474.406	1000.69
474.625	1007.69
474.844	1013.69
475.063	1002.69
475.282	994.69
475.501	1017.69
475.72	1033.69
475.939	1042.69
476.158	1048.69
476.377	1025.69
476.596	1058.69
476.814	1059.69
477.033	1023.69
477.252	1032.69
477.471	1108.69
477.69	1108.69
477.908	1159.69
478.127	1186.69
478.346	1184.69
478.564	1210.69
478.783	1229.69
479.002	1295.69
479.22	1333.69
479.439	1285.69
479.658	1281.69
479.876	1259.69
480.095	1295.69
480.313	1336.69
480.532	1348.69
480.751	1378.69
480.969	1306.69
481.188	1273.69
481.406	1216.69
481.624	1207.69
481.843	1143.69
482.061	1177.69
482.28	1146.69
482.498	1171.69
482.717	1138.69
482.935	1150.69
483.153	1145.69
483.372	1189.69
483.59	1192.69
483.808	1156.69
484.027	1182.69
484.245	1182.69
484.463	1173.69
484.681	1188.69
484.9	1202.69
485.118	1216.69
485.336	1226.69
485.554	1215.69
485.772	1222.69
485.99	1212.69
486.209	1212.69
486.427	1229.69
486.645	1252.69
486.863	1263.69
487.081	1248.69
487.299	1234.69
487.517	1193.69
487.735	1204.69
487.953	1236.69
488.171	1228.69
488.389	1204.69
488.607	1208.69
488.825	1205.69
489.043	1191.69
489.261	1195.69
489.479	1214.69
489.696	1208.69
489.914	1236.69
490.132	1190.69
490.35	1255.69
490.568	1205.69
490.786	1255.69
491.003	1237.69
491.221	1237.69
491.439	1253.69
491.657	1241.69
491.874	1226.69
492.092	1238.69
492.31	1251.69
492.527	1244.69
492.745	1277.69
492.963	1276.69
493.18	1271.69
493.398	1294.69
493.615	1265.69
493.833	1290.69
494.05	1298.69
494.268	1314.69
494.485	1306.69
494.703	1308.69
494.92	1302.69
495.138	1291.69
495.355	1288.69
