Data from Ni(NO3)2@0.5M.TitratingCurve.Agarose3%dH2O.NegLispCup.LampEnergy10.LIBS07252019_HRD10591_17-58-56-564.txt Node
Date: Thu Jul 25 17:58:56 EDT 2019
User: cochatt
Spectrometer: HR+D1059
Trigger mode: 1
Integration Time (sec): 1.000000E-1
Scans to average: 1
Electric dark correction enabled: true
Nonlinearity correction enabled: false
Boxcar width: 0
XAxis mode: Wavelengths
Number of Pixels in Spectrum: 2048
>>>>>Begin Spectral Data<<<<<
223.165	-16.31
223.4	-16.31
223.635	-16.31
223.869	-26.31
224.104	-14.31
224.338	-15.31
224.573	-17.31
224.808	-3.31
225.042	-1.31
225.277	-11.31
225.511	-8.31
225.746	-10.31
225.98	16.69
226.215	25.69
226.449	20.69
226.683	27.69
226.918	16.69
227.152	16.69
227.387	47.69
227.621	50.69
227.856	39.69
228.09	19.69
228.324	37.69
228.559	60.69
228.793	82.69
229.027	125.69
229.262	161.69
229.496	161.69
229.73	179.69
229.964	202.69
230.199	226.69
230.433	265.69
230.667	230.69
230.901	226.69
231.136	174.69
231.37	196.69
231.604	206.69
231.838	242.69
232.072	263.69
232.306	231.69
232.541	211.69
232.775	206.69
233.009	200.69
233.243	202.69
233.477	201.69
233.711	198.69
233.945	206.69
234.179	201.69
234.413	209.69
234.647	203.69
234.881	211.69
235.115	198.69
235.349	202.69
235.583	189.69
235.817	182.69
236.051	173.69
236.285	184.69
236.519	194.69
236.753	191.69
236.987	194.69
237.221	198.69
237.455	197.69
237.689	185.69
237.922	205.69
238.156	202.69
238.39	214.69
238.624	216.69
238.858	216.69
239.091	213.69
239.325	230.69
239.559	235.69
239.793	265.69
240.027	271.69
240.26	246.69
240.494	214.69
240.728	222.69
240.961	210.69
241.195	231.69
241.429	252.69
241.662	265.69
241.896	293.69
242.13	270.69
242.363	248.69
242.597	247.69
242.83	240.69
243.064	227.69
243.298	238.69
243.531	250.69
243.765	263.69
243.998	279.69
244.232	271.69
244.465	272.69
244.699	246.69
244.932	258.69
245.166	250.69
245.399	272.69
245.633	274.69
245.866	261.69
246.099	247.69
246.333	270.69
246.566	292.69
246.8	272.69
247.033	281.69
247.266	271.69
247.5	286.69
247.733	282.69
247.966	274.69
248.2	299.69
248.433	287.69
248.666	298.69
248.899	322.69
249.133	283.69
249.366	290.69
249.599	321.69
249.832	300.69
250.066	307.69
250.299	287.69
250.532	320.69
250.765	335.69
250.998	330.69
251.231	365.69
251.465	385.69
251.698	342.69
251.931	342.69
252.164	354.69
252.397	337.69
252.63	341.69
252.863	332.69
253.096	337.69
253.329	360.69
253.562	353.69
253.795	341.69
254.028	363.69
254.261	367.69
254.494	362.69
254.727	353.69
254.96	365.69
255.193	358.69
255.426	353.69
255.659	373.69
255.892	381.69
256.124	391.69
256.357	393.69
256.59	393.69
256.823	394.69
257.056	401.69
257.289	387.69
257.521	382.69
257.754	366.69
257.987	412.69
258.22	408.69
258.452	391.69
258.685	390.69
258.918	427.69
259.151	399.69
259.383	385.69
259.616	402.69
259.849	424.69
260.081	409.69
260.314	412.69
260.547	441.69
260.779	408.69
261.012	413.69
261.244	434.69
261.477	444.69
261.71	443.69
261.942	434.69
262.175	412.69
262.407	447.69
262.64	430.69
262.872	433.69
263.105	445.69
263.337	448.69
263.57	448.69
263.802	465.69
264.035	451.69
264.267	485.69
264.499	473.69
264.732	473.69
264.964	459.69
265.197	465.69
265.429	468.69
265.661	445.69
265.894	469.69
266.126	457.69
266.358	463.69
266.591	482.69
266.823	475.69
267.055	473.69
267.287	504.69
267.52	484.69
267.752	493.69
267.984	481.69
268.216	487.69
268.448	499.69
268.681	493.69
268.913	473.69
269.145	476.69
269.377	500.69
269.609	492.69
269.841	497.69
270.073	496.69
270.306	516.69
270.538	522.69
270.77	504.69
271.002	500.69
271.234	527.69
271.466	518.69
271.698	524.69
271.93	524.69
272.162	528.69
272.394	498.69
272.626	538.69
272.858	532.69
273.09	529.69
273.322	521.69
273.553	524.69
273.785	531.69
274.017	551.69
274.249	533.69
274.481	538.69
274.713	545.69
274.945	538.69
275.176	552.69
275.408	555.69
275.64	559.69
275.872	538.69
276.104	577.69
276.335	582.69
276.567	561.69
276.799	557.69
277.031	567.69
277.262	606.69
277.494	580.69
277.726	590.69
277.957	587.69
278.189	588.69
278.421	586.69
278.652	595.69
278.884	577.69
279.115	592.69
279.347	602.69
279.579	594.69
279.81	589.69
280.042	581.69
280.273	593.69
280.505	588.69
280.736	596.69
280.968	584.69
281.199	605.69
281.431	618.69
281.662	603.69
281.894	605.69
282.125	589.69
282.356	607.69
282.588	628.69
282.819	612.69
283.051	620.69
283.282	640.69
283.513	617.69
283.745	606.69
283.976	632.69
284.207	653.69
284.439	640.69
284.67	643.69
284.901	640.69
285.132	648.69
285.364	663.69
285.595	650.69
285.826	654.69
286.057	656.69
286.288	678.69
286.52	649.69
286.751	646.69
286.982	671.69
287.213	658.69
287.444	656.69
287.675	669.69
287.906	680.69
288.138	668.69
288.369	675.69
288.6	687.69
288.831	686.69
289.062	681.69
289.293	670.69
289.524	662.69
289.755	670.69
289.986	678.69
290.217	669.69
290.448	666.69
290.679	714.69
290.91	672.69
291.141	680.69
291.371	671.69
291.602	694.69
291.833	671.69
292.064	674.69
292.295	687.69
292.526	682.69
292.757	693.69
292.987	688.69
293.218	706.69
293.449	687.69
293.68	706.69
293.91	670.69
294.141	691.69
294.372	701.69
294.603	695.69
294.833	708.69
295.064	692.69
295.295	694.69
295.525	703.69
295.756	676.69
295.987	686.69
296.217	718.69
296.448	695.69
296.679	720.69
296.909	716.69
297.14	693.69
297.37	741.69
297.601	732.69
297.831	715.69
298.062	722.69
298.292	718.69
298.523	751.69
298.753	764.69
298.984	726.69
299.214	753.69
299.445	778.69
299.675	768.69
299.905	761.69
300.136	763.69
300.366	793.69
300.597	803.69
300.827	796.69
301.057	777.69
301.288	811.69
301.518	812.69
301.748	762.69
301.979	783.69
302.209	776.69
302.439	756.69
302.669	745.69
302.9	774.69
303.13	760.69
303.36	805.69
303.59	792.69
303.82	801.69
304.051	802.69
304.281	794.69
304.511	767.69
304.741	806.69
304.971	806.69
305.201	842.69
305.431	859.69
305.661	817.69
305.891	816.69
306.121	808.69
306.352	777.69
306.582	801.69
306.812	795.69
307.042	813.69
307.272	800.69
307.502	794.69
307.731	807.69
307.961	806.69
308.191	813.69
308.421	800.69
308.651	791.69
308.881	799.69
309.111	794.69
309.341	786.69
309.571	822.69
309.8	835.69
310.03	842.69
310.26	872.69
310.49	888.69
310.72	855.69
310.949	834.69
311.179	813.69
311.409	828.69
311.639	845.69
311.868	823.69
312.098	849.69
312.328	840.69
312.557	863.69
312.787	850.69
313.017	842.69
313.246	856.69
313.476	879.69
313.706	895.69
313.935	867.69
314.165	854.69
314.394	884.69
314.624	858.69
314.853	854.69
315.083	904.69
315.312	862.69
315.542	852.69
315.771	878.69
316.001	877.69
316.23	865.69
316.46	870.69
316.689	891.69
316.919	896.69
317.148	875.69
317.377	879.69
317.607	885.69
317.836	895.69
318.065	905.69
318.295	913.69
318.524	896.69
318.753	909.69
318.983	896.69
319.212	887.69
319.441	881.69
319.67	910.69
319.9	908.69
320.129	892.69
320.358	910.69
320.587	903.69
320.816	908.69
321.046	940.69
321.275	924.69
321.504	940.69
321.733	916.69
321.962	945.69
322.191	931.69
322.42	932.69
322.649	946.69
322.878	938.69
323.108	942.69
323.337	978.69
323.566	953.69
323.795	976.69
324.024	972.69
324.253	949.69
324.482	968.69
324.71	971.69
324.939	961.69
325.168	975.69
325.397	963.69
325.626	972.69
325.855	997.69
326.084	977.69
326.313	974.69
326.542	997.69
326.77	1013.69
326.999	990.69
327.228	1012.69
327.457	1009.69
327.686	975.69
327.914	997.69
328.143	992.69
328.372	1001.69
328.6	1018.69
328.829	1014.69
329.058	998.69
329.287	1015.69
329.515	1006.69
329.744	1042.69
329.972	1003.69
330.201	1038.69
330.43	1000.69
330.658	1034.69
330.887	1040.69
331.115	1029.69
331.344	1072.69
331.572	1047.69
331.801	1035.69
332.03	1103.69
332.258	1092.69
332.486	1069.69
332.715	1101.69
332.943	1098.69
333.172	1122.69
333.4	1103.69
333.629	1141.69
333.857	1151.69
334.085	1134.69
334.314	1120.69
334.542	1122.69
334.771	1170.69
334.999	1158.69
335.227	1134.69
335.455	1142.69
335.684	1181.69
335.912	1168.69
336.14	1152.69
336.369	1147.69
336.597	1194.69
336.825	1172.69
337.053	1182.69
337.281	1185.69
337.51	1190.69
337.738	1167.69
337.966	1158.69
338.194	1177.69
338.422	1168.69
338.65	1127.69
338.878	1127.69
339.106	1180.69
339.334	1161.69
339.562	1157.69
339.79	1105.69
340.018	1103.69
340.246	1094.69
340.474	1128.69
340.702	1089.69
340.93	1100.69
341.158	1134.69
341.386	1162.69
341.614	1193.69
341.842	1171.69
342.07	1102.69
342.298	1129.69
342.526	1117.69
342.754	1132.69
342.981	1103.69
343.209	1106.69
343.437	1117.69
343.665	1150.69
343.893	1176.69
344.12	1184.69
344.348	1159.69
344.576	1212.69
344.804	1209.69
345.031	1178.69
345.259	1140.69
345.487	1137.69
345.714	1142.69
345.942	1174.69
346.17	1196.69
346.397	1140.69
346.625	1103.69
346.853	1098.69
347.08	1063.69
347.308	1093.69
347.535	1080.69
347.763	1058.69
347.99	1021.69
348.218	1054.69
348.445	1059.69
348.673	1040.69
348.9	1084.69
349.128	1055.69
349.355	1130.69
349.583	1119.69
349.81	1061.69
350.037	1045.69
350.265	1067.69
350.492	1070.69
350.72	1054.69
350.947	1055.69
351.174	1070.69
351.402	1108.69
351.629	1124.69
351.856	1109.69
352.083	1099.69
352.311	1090.69
352.538	1124.69
352.765	1106.69
352.992	1036.69
353.22	1050.69
353.447	1019.69
353.674	1024.69
353.901	1009.69
354.128	1024.69
354.355	1042.69
354.583	1028.69
354.81	1001.69
355.037	1007.69
355.264	1009.69
355.491	1062.69
355.718	1020.69
355.945	1010.69
356.172	1017.69
356.399	1038.69
356.626	1052.69
356.853	1100.69
357.08	1037.69
357.307	1038.69
357.534	1044.69
357.761	1036.69
357.988	1026.69
358.215	1044.69
358.441	1007.69
358.668	1032.69
358.895	1040.69
359.122	1047.69
359.349	1032.69
359.576	1025.69
359.802	1024.69
360.029	1039.69
360.256	1028.69
360.483	1004.69
360.709	1011.69
360.936	1063.69
361.163	1063.69
361.39	1040.69
361.616	1045.69
361.843	1060.69
362.07	1124.69
362.296	1116.69
362.523	1062.69
362.749	1078.69
362.976	1068.69
363.203	1025.69
363.429	1036.69
363.656	1037.69
363.882	1005.69
364.109	1029.69
364.335	1044.69
364.562	1042.69
364.788	1039.69
365.015	1034.69
365.241	1037.69
365.468	1058.69
365.694	1037.69
365.92	1056.69
366.147	1043.69
366.373	1061.69
366.599	1060.69
366.826	1028.69
367.052	1062.69
367.278	1057.69
367.505	1052.69
367.731	1082.69
367.957	1034.69
368.184	1061.69
368.41	1079.69
368.636	1082.69
368.862	1081.69
369.089	1074.69
369.315	1070.69
369.541	1041.69
369.767	1081.69
369.993	1096.69
370.219	1062.69
370.445	1075.69
370.672	1109.69
370.898	1097.69
371.124	1131.69
371.35	1124.69
371.576	1098.69
371.802	1125.69
372.028	1103.69
372.254	1109.69
372.48	1104.69
372.706	1126.69
372.932	1128.69
373.158	1123.69
373.384	1134.69
373.61	1123.69
373.835	1129.69
374.061	1113.69
374.287	1140.69
374.513	1134.69
374.739	1132.69
374.965	1156.69
375.191	1149.69
375.416	1185.69
375.642	1120.69
375.868	1140.69
376.094	1110.69
376.319	1095.69
376.545	1100.69
376.771	1121.69
376.997	1151.69
377.222	1091.69
377.448	1117.69
377.674	1114.69
377.899	1078.69
378.125	1087.69
378.35	1100.69
378.576	1112.69
378.802	1079.69
379.027	1100.69
379.253	1068.69
379.478	1095.69
379.704	1130.69
379.929	1070.69
380.155	1096.69
380.38	1068.69
380.606	1102.69
380.831	1101.69
381.057	1099.69
381.282	1096.69
381.507	1092.69
381.733	1112.69
381.958	1117.69
382.184	1149.69
382.409	1125.69
382.634	1129.69
382.86	1142.69
383.085	1144.69
383.31	1165.69
383.535	1172.69
383.761	1146.69
383.986	1161.69
384.211	1137.69
384.436	1152.69
384.662	1177.69
384.887	1164.69
385.112	1197.69
385.337	1217.69
385.562	1241.69
385.787	1231.69
386.013	1225.69
386.238	1224.69
386.463	1234.69
386.688	1260.69
386.913	1215.69
387.138	1249.69
387.363	1263.69
387.588	1210.69
387.813	1248.69
388.038	1230.69
388.263	1260.69
388.488	1225.69
388.713	1261.69
388.938	1228.69
389.163	1240.69
389.387	1273.69
389.612	1231.69
389.837	1250.69
390.062	1231.69
390.287	1251.69
390.512	1235.69
390.736	1243.69
390.961	1305.69
391.186	1253.69
391.411	1290.69
391.636	1310.69
391.86	1289.69
392.085	1310.69
392.31	1319.69
392.534	1306.69
392.759	1284.69
392.984	1286.69
393.208	1306.69
393.433	1346.69
393.658	1313.69
393.882	1268.69
394.107	1253.69
394.331	1286.69
394.556	1280.69
394.78	1277.69
395.005	1316.69
395.229	1276.69
395.454	1313.69
395.678	1299.69
395.903	1344.69
396.127	1341.69
396.352	1292.69
396.576	1334.69
396.801	1351.69
397.025	1333.69
397.249	1378.69
397.474	1389.69
397.698	1365.69
397.922	1384.69
398.147	1357.69
398.371	1402.69
398.595	1397.69
398.82	1462.69
399.044	1488.69
399.268	1540.69
399.492	1608.69
399.717	1637.69
399.941	1616.69
400.165	1615.69
400.389	1611.69
400.613	1542.69
400.837	1534.69
401.062	1536.69
401.286	1504.69
401.51	1486.69
401.734	1460.69
401.958	1440.69
402.182	1413.69
402.406	1438.69
402.63	1446.69
402.854	1455.69
403.078	1458.69
403.302	1444.69
403.526	1465.69
403.75	1464.69
403.974	1466.69
404.198	1456.69
404.422	1446.69
404.645	1487.69
404.869	1475.69
405.093	1491.69
405.317	1479.69
405.541	1513.69
405.765	1501.69
405.988	1548.69
406.212	1543.69
406.436	1520.69
406.66	1588.69
406.883	1546.69
407.107	1628.69
407.331	1664.69
407.555	1678.69
407.778	1654.69
408.002	1633.69
408.226	1646.69
408.449	1677.69
408.673	1627.69
408.896	1607.69
409.12	1574.69
409.344	1608.69
409.567	1558.69
409.791	1576.69
410.014	1566.69
410.238	1522.69
410.461	1566.69
410.685	1547.69
410.908	1511.69
411.132	1585.69
411.355	1505.69
411.578	1526.69
411.802	1531.69
412.025	1541.69
412.249	1526.69
412.472	1508.69
412.695	1504.69
412.919	1495.69
413.142	1476.69
413.365	1503.69
413.589	1470.69
413.812	1460.69
414.035	1480.69
414.258	1490.69
414.482	1493.69
414.705	1475.69
414.928	1465.69
415.151	1476.69
415.374	1455.69
415.597	1467.69
415.821	1421.69
416.044	1419.69
416.267	1469.69
416.49	1425.69
416.713	1421.69
416.936	1419.69
417.159	1405.69
417.382	1405.69
417.605	1385.69
417.828	1396.69
418.051	1392.69
418.274	1377.69
418.497	1366.69
418.72	1447.69
418.943	1390.69
419.166	1468.69
419.389	1562.69
419.611	1516.69
419.834	1455.69
420.057	1425.69
420.28	1398.69
420.503	1368.69
420.726	1381.69
420.948	1392.69
421.171	1384.69
421.394	1412.69
421.617	1376.69
421.839	1369.69
422.062	1414.69
422.285	1381.69
422.507	1369.69
422.73	1373.69
422.953	1404.69
423.175	1370.69
423.398	1406.69
423.621	1383.69
423.843	1397.69
424.066	1387.69
424.288	1373.69
424.511	1360.69
424.733	1374.69
424.956	1389.69
425.178	1372.69
425.401	1353.69
425.623	1379.69
425.846	1381.69
426.068	1367.69
426.291	1348.69
426.513	1351.69
426.735	1388.69
426.958	1354.69
427.18	1372.69
427.402	1372.69
427.625	1365.69
427.847	1317.69
428.069	1362.69
428.292	1345.69
428.514	1360.69
428.736	1326.69
428.958	1382.69
429.181	1297.69
429.403	1316.69
429.625	1352.69
429.847	1322.69
430.069	1322.69
430.292	1341.69
430.514	1357.69
430.736	1320.69
430.958	1349.69
431.18	1358.69
431.402	1376.69
431.624	1302.69
431.846	1318.69
432.068	1316.69
432.29	1372.69
432.512	1343.69
432.734	1385.69
432.956	1372.69
433.178	1379.69
433.4	1420.69
433.622	1402.69
433.844	1404.69
434.066	1415.69
434.287	1391.69
434.509	1389.69
434.731	1403.69
434.953	1408.69
435.175	1482.69
435.397	1471.69
435.618	1390.69
435.84	1373.69
436.062	1376.69
436.284	1380.69
436.505	1378.69
436.727	1375.69
436.949	1371.69
437.17	1400.69
437.392	1343.69
437.614	1365.69
437.835	1327.69
438.057	1297.69
438.278	1317.69
438.5	1300.69
438.721	1291.69
438.943	1372.69
439.165	1337.69
439.386	1324.69
439.608	1342.69
439.829	1352.69
440.05	1327.69
440.272	1348.69
440.493	1356.69
440.715	1373.69
440.936	1367.69
441.158	1398.69
441.379	1399.69
441.6	1407.69
441.822	1436.69
442.043	1432.69
442.264	1417.69
442.486	1396.69
442.707	1412.69
442.928	1399.69
443.149	1417.69
443.371	1417.69
443.592	1530.69
443.813	1510.69
444.034	1420.69
444.255	1467.69
444.476	1487.69
444.698	1477.69
444.919	1522.69
445.14	1603.69
445.361	1544.69
445.582	1465.69
445.803	1460.69
446.024	1388.69
446.245	1408.69
446.466	1349.69
446.687	1298.69
446.908	1356.69
447.129	1307.69
447.35	1294.69
447.571	1315.69
447.792	1305.69
448.013	1271.69
448.234	1275.69
448.455	1242.69
448.675	1246.69
448.896	1245.69
449.117	1216.69
449.338	1242.69
449.559	1230.69
449.779	1254.69
450	1194.69
450.221	1241.69
450.442	1244.69
450.662	1247.69
450.883	1269.69
451.104	1313.69
451.324	1241.69
451.545	1244.69
451.766	1212.69
451.986	1212.69
452.207	1224.69
452.428	1178.69
452.648	1228.69
452.869	1227.69
453.089	1205.69
453.31	1275.69
453.53	1222.69
453.751	1204.69
453.971	1222.69
454.192	1249.69
454.412	1269.69
454.633	1242.69
454.853	1216.69
455.073	1200.69
455.294	1211.69
455.514	1196.69
455.734	1220.69
455.955	1240.69
456.175	1256.69
456.395	1206.69
456.616	1184.69
456.836	1176.69
457.056	1191.69
457.276	1206.69
457.497	1253.69
457.717	1244.69
457.937	1274.69
458.157	1238.69
458.377	1247.69
458.598	1239.69
458.818	1277.69
459.038	1294.69
459.258	1377.69
459.478	1424.69
459.698	1505.69
459.918	1469.69
460.138	1452.69
460.358	1472.69
460.578	1472.69
460.798	1529.69
461.018	1558.69
461.238	1473.69
461.458	1451.69
461.678	1419.69
461.898	1469.69
462.118	1484.69
462.338	1538.69
462.558	1550.69
462.777	1598.69
462.997	1626.69
463.217	1647.69
463.437	1729.69
463.657	1682.69
463.876	1586.69
464.096	1629.69
464.316	1598.69
464.536	1581.69
464.755	1497.69
464.975	1483.69
465.195	1445.69
465.414	1431.69
465.634	1406.69
465.854	1401.69
466.073	1343.69
466.293	1318.69
466.512	1328.69
466.732	1296.69
466.951	1297.69
467.171	1339.69
467.391	1337.69
467.61	1329.69
467.829	1314.69
468.049	1315.69
468.268	1321.69
468.488	1299.69
468.707	1280.69
468.927	1291.69
469.146	1307.69
469.365	1362.69
469.585	1302.69
469.804	1304.69
470.023	1270.69
470.243	1304.69
470.462	1304.69
470.681	1305.69
470.901	1317.69
471.12	1257.69
471.339	1312.69
471.558	1312.69
471.777	1308.69
471.997	1316.69
472.216	1303.69
472.435	1309.69
472.654	1270.69
472.873	1263.69
473.092	1293.69
473.311	1282.69
473.53	1336.69
473.749	1289.69
473.968	1300.69
474.187	1343.69
474.406	1268.69
474.625	1296.69
474.844	1288.69
475.063	1314.69
475.282	1360.69
475.501	1340.69
475.72	1323.69
475.939	1368.69
476.158	1365.69
476.377	1342.69
476.596	1371.69
476.814	1386.69
477.033	1354.69
477.252	1393.69
477.471	1412.69
477.69	1422.69
477.908	1445.69
478.127	1459.69
478.346	1422.69
478.564	1470.69
478.783	1511.69
479.002	1581.69
479.22	1603.69
479.439	1584.69
479.658	1551.69
479.876	1551.69
480.095	1499.69
480.313	1538.69
480.532	1518.69
480.751	1580.69
480.969	1527.69
481.188	1546.69
481.406	1540.69
481.624	1507.69
481.843	1499.69
482.061	1520.69
482.28	1526.69
482.498	1486.69
482.717	1503.69
482.935	1520.69
483.153	1588.69
483.372	1593.69
483.59	1595.69
483.808	1573.69
484.027	1538.69
484.245	1522.69
484.463	1525.69
484.681	1578.69
484.9	1551.69
485.118	1540.69
485.336	1539.69
485.554	1538.69
485.772	1540.69
485.99	1531.69
486.209	1566.69
486.427	1574.69
486.645	1582.69
486.863	1598.69
487.081	1555.69
487.299	1551.69
487.517	1597.69
487.735	1584.69
487.953	1636.69
488.171	1595.69
488.389	1563.69
488.607	1557.69
488.825	1585.69
489.043	1563.69
489.261	1565.69
489.479	1576.69
489.696	1548.69
489.914	1568.69
490.132	1585.69
490.35	1519.69
490.568	1570.69
490.786	1580.69
491.003	1551.69
491.221	1606.69
491.439	1607.69
