Data from Ni(NO3)2@0.5M.TitratingCurve.Agarose3%dH2O.NegLispCup.LampEnergy10.LIBS07252019_HRD10591_18-00-09-565.txt Node
Date: Thu Jul 25 18:00:09 EDT 2019
User: cochatt
Spectrometer: HR+D1059
Trigger mode: 1
Integration Time (sec): 1.000000E-1
Scans to average: 1
Electric dark correction enabled: true
Nonlinearity correction enabled: false
Boxcar width: 0
XAxis mode: Wavelengths
Number of Pixels in Spectrum: 2048
>>>>>Begin Spectral Data<<<<<
223.165	-6.88
223.4	-6.88
223.635	-6.88
223.869	-21.88
224.104	-12.88
224.338	-27.88
224.573	-10.88
224.808	-16.88
225.042	-15.88
225.277	-2.88
225.511	9.12
225.746	4.12
225.98	18.12
226.215	13.12
226.449	13.12
226.683	21.12
226.918	20.12
227.152	17.12
227.387	35.12
227.621	31.12
227.856	39.12
228.09	28.12
228.324	47.12
228.559	56.12
228.793	60.12
229.027	106.12
229.262	107.12
229.496	104.12
229.73	116.12
229.964	111.12
230.199	132.12
230.433	141.12
230.667	139.12
230.901	139.12
231.136	121.12
231.37	129.12
231.604	127.12
231.838	139.12
232.072	135.12
232.306	129.12
232.541	146.12
232.775	132.12
233.009	132.12
233.243	138.12
233.477	123.12
233.711	126.12
233.945	122.12
234.179	121.12
234.413	117.12
234.647	132.12
234.881	127.12
235.115	138.12
235.349	135.12
235.583	132.12
235.817	141.12
236.051	119.12
236.285	136.12
236.519	106.12
236.753	137.12
236.987	133.12
237.221	128.12
237.455	140.12
237.689	132.12
237.922	138.12
238.156	133.12
238.39	140.12
238.624	145.12
238.858	145.12
239.091	147.12
239.325	126.12
239.559	144.12
239.793	154.12
240.027	167.12
240.26	153.12
240.494	135.12
240.728	118.12
240.961	139.12
241.195	153.12
241.429	147.12
241.662	160.12
241.896	183.12
242.13	168.12
242.363	145.12
242.597	146.12
242.83	154.12
243.064	146.12
243.298	154.12
243.531	155.12
243.765	171.12
243.998	156.12
244.232	167.12
244.465	165.12
244.699	160.12
244.932	176.12
245.166	172.12
245.399	166.12
245.633	171.12
245.866	172.12
246.099	172.12
246.333	165.12
246.566	179.12
246.8	177.12
247.033	180.12
247.266	177.12
247.5	162.12
247.733	190.12
247.966	190.12
248.2	182.12
248.433	183.12
248.666	184.12
248.899	181.12
249.133	166.12
249.366	205.12
249.599	199.12
249.832	188.12
250.066	199.12
250.299	200.12
250.532	203.12
250.765	205.12
250.998	209.12
251.231	217.12
251.465	227.12
251.698	215.12
251.931	207.12
252.164	204.12
252.397	202.12
252.63	187.12
252.863	201.12
253.096	216.12
253.329	221.12
253.562	216.12
253.795	217.12
254.028	227.12
254.261	223.12
254.494	228.12
254.727	221.12
254.96	221.12
255.193	228.12
255.426	228.12
255.659	235.12
255.892	223.12
256.124	224.12
256.357	219.12
256.59	229.12
256.823	226.12
257.056	243.12
257.289	237.12
257.521	233.12
257.754	234.12
257.987	229.12
258.22	249.12
258.452	256.12
258.685	249.12
258.918	235.12
259.151	233.12
259.383	223.12
259.616	242.12
259.849	255.12
260.081	233.12
260.314	246.12
260.547	262.12
260.779	245.12
261.012	262.12
261.244	251.12
261.477	275.12
261.71	249.12
261.942	252.12
262.175	255.12
262.407	269.12
262.64	255.12
262.872	248.12
263.105	262.12
263.337	268.12
263.57	280.12
263.802	273.12
264.035	274.12
264.267	255.12
264.499	262.12
264.732	253.12
264.964	277.12
265.197	284.12
265.429	274.12
265.661	274.12
265.894	287.12
266.126	284.12
266.358	275.12
266.591	270.12
266.823	281.12
267.055	299.12
267.287	279.12
267.52	279.12
267.752	297.12
267.984	286.12
268.216	273.12
268.448	289.12
268.681	300.12
268.913	279.12
269.145	297.12
269.377	298.12
269.609	297.12
269.841	307.12
270.073	299.12
270.306	304.12
270.538	308.12
270.77	309.12
271.002	322.12
271.234	300.12
271.466	329.12
271.698	285.12
271.93	312.12
272.162	310.12
272.394	317.12
272.626	305.12
272.858	300.12
273.09	295.12
273.322	317.12
273.553	308.12
273.785	309.12
274.017	324.12
274.249	339.12
274.481	305.12
274.713	337.12
274.945	324.12
275.176	331.12
275.408	318.12
275.64	326.12
275.872	313.12
276.104	330.12
276.335	330.12
276.567	335.12
276.799	323.12
277.031	349.12
277.262	330.12
277.494	333.12
277.726	342.12
277.957	341.12
278.189	338.12
278.421	343.12
278.652	335.12
278.884	344.12
279.115	344.12
279.347	340.12
279.579	338.12
279.81	342.12
280.042	348.12
280.273	347.12
280.505	341.12
280.736	373.12
280.968	353.12
281.199	345.12
281.431	353.12
281.662	372.12
281.894	360.12
282.125	361.12
282.356	383.12
282.588	371.12
282.819	380.12
283.051	355.12
283.282	351.12
283.513	389.12
283.745	376.12
283.976	360.12
284.207	365.12
284.439	379.12
284.67	357.12
284.901	362.12
285.132	368.12
285.364	371.12
285.595	365.12
285.826	365.12
286.057	345.12
286.288	375.12
286.52	367.12
286.751	379.12
286.982	374.12
287.213	385.12
287.444	380.12
287.675	377.12
287.906	390.12
288.138	384.12
288.369	378.12
288.6	374.12
288.831	382.12
289.062	394.12
289.293	395.12
289.524	396.12
289.755	396.12
289.986	392.12
290.217	415.12
290.448	378.12
290.679	394.12
290.91	380.12
291.141	409.12
291.371	404.12
291.602	394.12
291.833	388.12
292.064	423.12
292.295	385.12
292.526	383.12
292.757	381.12
292.987	404.12
293.218	396.12
293.449	435.12
293.68	418.12
293.91	391.12
294.141	400.12
294.372	391.12
294.603	385.12
294.833	380.12
295.064	399.12
295.295	422.12
295.525	385.12
295.756	407.12
295.987	396.12
296.217	401.12
296.448	424.12
296.679	421.12
296.909	397.12
297.14	412.12
297.37	417.12
297.601	400.12
297.831	427.12
298.062	417.12
298.292	407.12
298.523	424.12
298.753	425.12
298.984	424.12
299.214	422.12
299.445	435.12
299.675	424.12
299.905	439.12
300.136	421.12
300.366	454.12
300.597	443.12
300.827	442.12
301.057	404.12
301.288	458.12
301.518	465.12
301.748	452.12
301.979	442.12
302.209	447.12
302.439	462.12
302.669	444.12
302.9	445.12
303.13	447.12
303.36	449.12
303.59	449.12
303.82	462.12
304.051	456.12
304.281	461.12
304.511	445.12
304.741	453.12
304.971	448.12
305.201	459.12
305.431	468.12
305.661	467.12
305.891	461.12
306.121	454.12
306.352	446.12
306.582	442.12
306.812	445.12
307.042	475.12
307.272	448.12
307.502	437.12
307.731	461.12
307.961	442.12
308.191	481.12
308.421	453.12
308.651	442.12
308.881	448.12
309.111	436.12
309.341	436.12
309.571	443.12
309.8	467.12
310.03	462.12
310.26	457.12
310.49	486.12
310.72	460.12
310.949	455.12
311.179	471.12
311.409	460.12
311.639	481.12
311.868	452.12
312.098	458.12
312.328	465.12
312.557	483.12
312.787	457.12
313.017	462.12
313.246	504.12
313.476	495.12
313.706	479.12
313.935	481.12
314.165	473.12
314.394	482.12
314.624	479.12
314.853	503.12
315.083	484.12
315.312	497.12
315.542	474.12
315.771	478.12
316.001	464.12
316.23	497.12
316.46	483.12
316.689	489.12
316.919	460.12
317.148	475.12
317.377	518.12
317.607	487.12
317.836	486.12
318.065	478.12
318.295	503.12
318.524	493.12
318.753	481.12
318.983	496.12
319.212	487.12
319.441	503.12
319.67	492.12
319.9	487.12
320.129	499.12
320.358	507.12
320.587	505.12
320.816	495.12
321.046	467.12
321.275	495.12
321.504	502.12
321.733	493.12
321.962	515.12
322.191	501.12
322.42	520.12
322.649	487.12
322.878	495.12
323.108	488.12
323.337	512.12
323.566	520.12
323.795	523.12
324.024	527.12
324.253	524.12
324.482	524.12
324.71	548.12
324.939	526.12
325.168	507.12
325.397	508.12
325.626	520.12
325.855	533.12
326.084	542.12
326.313	546.12
326.542	551.12
326.77	524.12
326.999	554.12
327.228	560.12
327.457	570.12
327.686	527.12
327.914	562.12
328.143	533.12
328.372	567.12
328.6	561.12
328.829	563.12
329.058	567.12
329.287	570.12
329.515	553.12
329.744	552.12
329.972	564.12
330.201	551.12
330.43	552.12
330.658	561.12
330.887	567.12
331.115	562.12
331.344	583.12
331.572	562.12
331.801	584.12
332.03	592.12
332.258	598.12
332.486	611.12
332.715	588.12
332.943	604.12
333.172	641.12
333.4	647.12
333.629	644.12
333.857	649.12
334.085	660.12
334.314	643.12
334.542	677.12
334.771	641.12
334.999	672.12
335.227	655.12
335.455	664.12
335.684	676.12
335.912	663.12
336.14	647.12
336.369	635.12
336.597	633.12
336.825	641.12
337.053	640.12
337.281	636.12
337.51	637.12
337.738	652.12
337.966	626.12
338.194	646.12
338.422	637.12
338.65	598.12
338.878	604.12
339.106	591.12
339.334	609.12
339.562	618.12
339.79	610.12
340.018	588.12
340.246	610.12
340.474	578.12
340.702	592.12
340.93	573.12
341.158	584.12
341.386	594.12
341.614	630.12
341.842	625.12
342.07	589.12
342.298	586.12
342.526	592.12
342.754	608.12
342.981	577.12
343.209	565.12
343.437	637.12
343.665	615.12
343.893	636.12
344.12	661.12
344.348	650.12
344.576	646.12
344.804	663.12
345.031	619.12
345.259	586.12
345.487	596.12
345.714	605.12
345.942	587.12
346.17	617.12
346.397	615.12
346.625	589.12
346.853	548.12
347.08	555.12
347.308	567.12
347.535	570.12
347.763	573.12
347.99	564.12
348.218	584.12
348.445	555.12
348.673	571.12
348.9	561.12
349.128	561.12
349.355	565.12
349.583	605.12
349.81	578.12
350.037	559.12
350.265	562.12
350.492	562.12
350.72	543.12
350.947	570.12
351.174	565.12
351.402	576.12
351.629	604.12
351.856	568.12
352.083	562.12
352.311	582.12
352.538	588.12
352.765	560.12
352.992	559.12
353.22	524.12
353.447	524.12
353.674	526.12
353.901	563.12
354.128	526.12
354.355	547.12
354.583	565.12
354.81	536.12
355.037	544.12
355.264	561.12
355.491	559.12
355.718	525.12
355.945	534.12
356.172	546.12
356.399	547.12
356.626	585.12
356.853	571.12
357.08	575.12
357.307	567.12
357.534	567.12
357.761	557.12
357.988	563.12
358.215	544.12
358.441	552.12
358.668	559.12
358.895	548.12
359.122	561.12
359.349	539.12
359.576	548.12
359.802	573.12
360.029	567.12
360.256	563.12
360.483	579.12
360.709	540.12
360.936	540.12
361.163	573.12
361.39	568.12
361.616	584.12
361.843	564.12
362.07	607.12
362.296	592.12
362.523	588.12
362.749	582.12
362.976	552.12
363.203	553.12
363.429	523.12
363.656	547.12
363.882	544.12
364.109	563.12
364.335	557.12
364.562	590.12
364.788	578.12
365.015	556.12
365.241	563.12
365.468	561.12
365.694	556.12
365.92	548.12
366.147	564.12
366.373	538.12
366.599	552.12
366.826	556.12
367.052	540.12
367.278	552.12
367.505	584.12
367.731	585.12
367.957	574.12
368.184	604.12
368.41	585.12
368.636	563.12
368.862	563.12
369.089	589.12
369.315	566.12
369.541	579.12
369.767	577.12
369.993	578.12
370.219	582.12
370.445	580.12
370.672	585.12
370.898	592.12
371.124	579.12
371.35	601.12
371.576	600.12
371.802	600.12
372.028	602.12
372.254	592.12
372.48	605.12
372.706	616.12
372.932	604.12
373.158	591.12
373.384	589.12
373.61	594.12
373.835	603.12
374.061	637.12
374.287	628.12
374.513	619.12
374.739	649.12
374.965	627.12
375.191	620.12
375.416	625.12
375.642	635.12
375.868	611.12
376.094	630.12
376.319	627.12
376.545	584.12
376.771	581.12
376.997	594.12
377.222	579.12
377.448	574.12
377.674	605.12
377.899	598.12
378.125	589.12
378.35	575.12
378.576	593.12
378.802	572.12
379.027	570.12
379.253	577.12
379.478	571.12
379.704	584.12
379.929	585.12
380.155	571.12
380.38	597.12
380.606	589.12
380.831	598.12
381.057	611.12
381.282	590.12
381.507	614.12
381.733	589.12
381.958	604.12
382.184	580.12
382.409	619.12
382.634	611.12
382.86	593.12
383.085	627.12
383.31	627.12
383.535	633.12
383.761	652.12
383.986	645.12
384.211	632.12
384.436	647.12
384.662	621.12
384.887	666.12
385.112	627.12
385.337	663.12
385.562	647.12
385.787	670.12
386.013	685.12
386.238	669.12
386.463	680.12
386.688	678.12
386.913	671.12
387.138	673.12
387.363	684.12
387.588	671.12
387.813	693.12
388.038	701.12
388.263	664.12
388.488	691.12
388.713	684.12
388.938	666.12
389.163	679.12
389.387	692.12
389.612	665.12
389.837	674.12
390.062	666.12
390.287	664.12
390.512	649.12
390.736	663.12
390.961	683.12
391.186	680.12
391.411	682.12
391.636	710.12
391.86	701.12
392.085	735.12
392.31	759.12
392.534	733.12
392.759	708.12
392.984	715.12
393.208	709.12
393.433	672.12
393.658	723.12
393.882	719.12
394.107	701.12
394.331	704.12
394.556	704.12
394.78	708.12
395.005	709.12
395.229	706.12
395.454	735.12
395.678	729.12
395.903	727.12
396.127	723.12
396.352	729.12
396.576	718.12
396.801	737.12
397.025	762.12
397.249	738.12
397.474	765.12
397.698	726.12
397.922	769.12
398.147	785.12
398.371	767.12
398.595	794.12
398.82	823.12
399.044	864.12
399.268	871.12
399.492	957.12
399.717	981.12
399.941	1012.12
400.165	977.12
400.389	912.12
400.613	897.12
400.837	869.12
401.062	852.12
401.286	829.12
401.51	825.12
401.734	831.12
401.958	800.12
402.182	799.12
402.406	827.12
402.63	829.12
402.854	808.12
403.078	828.12
403.302	850.12
403.526	856.12
403.75	848.12
403.974	860.12
404.198	867.12
404.422	868.12
404.645	824.12
404.869	850.12
405.093	864.12
405.317	843.12
405.541	841.12
405.765	831.12
405.988	888.12
406.212	902.12
406.436	838.12
406.66	872.12
406.883	891.12
407.107	921.12
407.331	928.12
407.555	972.12
407.778	948.12
408.002	960.12
408.226	954.12
408.449	921.12
408.673	924.12
408.896	923.12
409.12	882.12
409.344	914.12
409.567	882.12
409.791	886.12
410.014	864.12
410.238	854.12
410.461	871.12
410.685	882.12
410.908	853.12
411.132	884.12
411.355	884.12
411.578	859.12
411.802	851.12
412.025	846.12
412.249	848.12
412.472	843.12
412.695	847.12
412.919	828.12
413.142	807.12
413.365	820.12
413.589	826.12
413.812	834.12
414.035	815.12
414.258	818.12
414.482	833.12
414.705	845.12
414.928	826.12
415.151	820.12
415.374	831.12
415.597	821.12
415.821	817.12
416.044	783.12
416.267	816.12
416.49	781.12
416.713	814.12
416.936	805.12
417.159	799.12
417.382	770.12
417.605	777.12
417.828	792.12
418.051	805.12
418.274	795.12
418.497	812.12
418.72	807.12
418.943	770.12
419.166	828.12
419.389	888.12
419.611	872.12
419.834	829.12
420.057	843.12
420.28	799.12
420.503	822.12
420.726	789.12
420.948	787.12
421.171	786.12
421.394	782.12
421.617	772.12
421.839	779.12
422.062	770.12
422.285	780.12
422.507	797.12
422.73	807.12
422.953	809.12
423.175	817.12
423.398	804.12
423.621	763.12
423.843	779.12
424.066	833.12
424.288	802.12
424.511	795.12
424.733	804.12
424.956	802.12
425.178	802.12
425.401	777.12
425.623	801.12
425.846	781.12
426.068	786.12
426.291	753.12
426.513	767.12
426.735	783.12
426.958	786.12
427.18	728.12
427.402	753.12
427.625	746.12
427.847	752.12
428.069	725.12
428.292	766.12
428.514	742.12
428.736	733.12
428.958	746.12
429.181	743.12
429.403	736.12
429.625	735.12
429.847	732.12
430.069	744.12
430.292	762.12
430.514	745.12
430.736	732.12
430.958	767.12
431.18	739.12
431.402	759.12
431.624	741.12
431.846	765.12
432.068	744.12
432.29	764.12
432.512	748.12
432.734	792.12
432.956	763.12
433.178	755.12
433.4	781.12
433.622	801.12
433.844	782.12
434.066	788.12
434.287	791.12
434.509	757.12
434.731	789.12
434.953	799.12
435.175	819.12
435.397	839.12
435.618	763.12
435.84	776.12
436.062	759.12
436.284	749.12
436.505	774.12
436.727	771.12
436.949	760.12
437.17	751.12
437.392	734.12
437.614	755.12
437.835	721.12
438.057	725.12
438.278	709.12
438.5	715.12
438.721	738.12
438.943	711.12
439.165	719.12
439.386	721.12
439.608	720.12
439.829	711.12
440.05	754.12
440.272	733.12
440.493	739.12
440.715	753.12
440.936	777.12
441.158	772.12
441.379	761.12
441.6	802.12
441.822	845.12
442.043	789.12
442.264	790.12
442.486	795.12
442.707	767.12
442.928	746.12
443.149	801.12
443.371	800.12
443.592	825.12
443.813	815.12
444.034	804.12
444.255	829.12
444.476	826.12
444.698	852.12
444.919	882.12
445.14	953.12
445.361	892.12
445.582	837.12
445.803	805.12
446.024	752.12
446.245	789.12
446.466	747.12
446.687	771.12
446.908	723.12
447.129	745.12
447.35	713.12
447.571	737.12
447.792	714.12
448.013	709.12
448.234	706.12
448.455	710.12
448.675	708.12
448.896	675.12
449.117	678.12
449.338	691.12
449.559	689.12
449.779	680.12
450	641.12
450.221	674.12
450.442	677.12
450.662	666.12
450.883	695.12
451.104	705.12
451.324	682.12
451.545	663.12
451.766	678.12
451.986	677.12
452.207	648.12
452.428	673.12
452.648	664.12
452.869	645.12
453.089	647.12
453.31	697.12
453.53	656.12
453.751	647.12
453.971	635.12
454.192	646.12
454.412	684.12
454.633	643.12
454.853	631.12
455.073	649.12
455.294	667.12
455.514	659.12
455.734	677.12
455.955	661.12
456.175	673.12
456.395	637.12
456.616	631.12
456.836	639.12
457.056	652.12
457.276	642.12
457.497	642.12
457.717	640.12
457.937	677.12
458.157	656.12
458.377	639.12
458.598	700.12
458.818	704.12
459.038	701.12
459.258	726.12
459.478	751.12
459.698	808.12
459.918	792.12
460.138	789.12
460.358	807.12
460.578	838.12
460.798	847.12
461.018	849.12
461.238	825.12
461.458	818.12
461.678	808.12
461.898	841.12
462.118	863.12
462.338	851.12
462.558	859.12
462.777	909.12
462.997	929.12
463.217	941.12
463.437	998.12
463.657	968.12
463.876	933.12
464.096	935.12
464.316	880.12
464.536	903.12
464.755	866.12
464.975	847.12
465.195	821.12
465.414	802.12
465.634	776.12
465.854	765.12
466.073	744.12
466.293	722.12
466.512	743.12
466.732	728.12
466.951	718.12
467.171	703.12
467.391	724.12
467.61	712.12
467.829	727.12
468.049	695.12
468.268	678.12
468.488	705.12
468.707	705.12
468.927	703.12
469.146	698.12
469.365	711.12
469.585	703.12
469.804	707.12
470.023	723.12
470.243	707.12
470.462	699.12
470.681	693.12
470.901	714.12
471.12	703.12
471.339	735.12
471.558	712.12
471.777	728.12
471.997	702.12
472.216	688.12
472.435	697.12
472.654	697.12
472.873	705.12
473.092	699.12
473.311	677.12
473.53	695.12
473.749	696.12
473.968	707.12
474.187	699.12
474.406	675.12
474.625	687.12
474.844	708.12
475.063	701.12
475.282	709.12
475.501	721.12
475.72	725.12
475.939	725.12
476.158	721.12
476.377	736.12
476.596	741.12
476.814	770.12
477.033	739.12
477.252	775.12
477.471	770.12
477.69	748.12
477.908	784.12
478.127	764.12
478.346	812.12
478.564	795.12
478.783	840.12
479.002	851.12
479.22	874.12
479.439	853.12
479.658	839.12
479.876	813.12
480.095	815.12
480.313	861.12
480.532	868.12
480.751	856.12
480.969	831.12
481.188	834.12
481.406	831.12
481.624	841.12
481.843	836.12
482.061	835.12
482.28	816.12
482.498	812.12
482.717	811.12
482.935	829.12
483.153	838.12
483.372	836.12
483.59	838.12
483.808	829.12
484.027	860.12
484.245	831.12
484.463	840.12
484.681	853.12
484.9	854.12
485.118	843.12
485.336	864.12
485.554	859.12
485.772	833.12
485.99	851.12
486.209	849.12
486.427	836.12
486.645	859.12
486.863	845.12
487.081	860.12
487.299	842.12
487.517	851.12
487.735	872.12
487.953	875.12
488.171	882.12
488.389	867.12
488.607	841.12
488.825	858.12
489.043	866.12
489.261	836.12
489.479	861.12
489.696	850.12
489.914	832.12
490.132	867.12
490.35	855.12
490.568	853.12
490.786	856.12
491.003	860.12
491.221	857.12
491.439	860.12
491.657	874.12
491.874	884.12
492.092	872.12
492.31	884.12
492.527	873.12
492.745	900.12
492.963	895.12
493.18	880.12
493.398	872.12
493.615	884.12
493.833	889.12
494.05	920.12
494.268	899.12
494.485	904.12
494.703	884.12
494.92	901.12
495.138	879.12
495.355	891.12
495.573	926.12
495.79	873.12
496.008	904.12
496.225	937.12
496.442	927.12
496.66	921.12
496.877	933.12
497.094	910.12
497.312	966.12
497.529	975.12
497.746	972.12
497.963	1009.12
498.181	1047.12
498.398	1049.12
498.615	1107.12
498.832	1153.12
499.049	1206.12
499.267	1240.12
499.484	1299.12
499.701	1397.12
499.918	1492.12
500.135	1581.12
500.352	1669.12
500.569	1746.12
500.786	1702.12
501.003	1664.12
501.22	1561.12
501.437	1458.12
