Data from Ni(NO3)2Standard.Agarose3%.GreenCap.LampEnergy5.5.E.O_HRD10591_14-41-55-188.txt Node
Date: Mon Jul 22 14:41:55 EDT 2019
User: cochatt
Spectrometer: HR+D1059
Trigger mode: 1
Integration Time (sec): 1.000000E-1
Scans to average: 1
Electric dark correction enabled: true
Nonlinearity correction enabled: false
Boxcar width: 0
XAxis mode: Wavelengths
Number of Pixels in Spectrum: 2048
>>>>>Begin Spectral Data<<<<<
223.165	-10.75
223.4	-10.75
223.635	-10.75
223.869	-15.75
224.104	-27.75
224.338	3.25
224.573	-9.75
224.808	-6.75
225.042	-4.75
225.277	-13.75
225.511	-17.75
225.746	-3.75
225.98	7.25
226.215	12.25
226.449	14.25
226.683	22.25
226.918	25.25
227.152	26.25
227.387	27.25
227.621	44.25
227.856	38.25
228.09	67.25
228.324	54.25
228.559	53.25
228.793	70.25
229.027	74.25
229.262	55.25
229.496	57.25
229.73	65.25
229.964	63.25
230.199	71.25
230.433	81.25
230.667	86.25
230.901	82.25
231.136	75.25
231.37	97.25
231.604	90.25
231.838	91.25
232.072	77.25
232.306	84.25
232.541	72.25
232.775	76.25
233.009	85.25
233.243	74.25
233.477	57.25
233.711	89.25
233.945	75.25
234.179	80.25
234.413	94.25
234.647	93.25
234.881	75.25
235.115	71.25
235.349	88.25
235.583	89.25
235.817	80.25
236.051	87.25
236.285	88.25
236.519	103.25
236.753	86.25
236.987	77.25
237.221	77.25
237.455	84.25
237.689	78.25
237.922	66.25
238.156	78.25
238.39	80.25
238.624	89.25
238.858	72.25
239.091	73.25
239.325	74.25
239.559	89.25
239.793	75.25
240.027	81.25
240.26	86.25
240.494	73.25
240.728	87.25
240.961	76.25
241.195	89.25
241.429	86.25
241.662	76.25
241.896	83.25
242.13	79.25
242.363	83.25
242.597	75.25
242.83	77.25
243.064	70.25
243.298	95.25
243.531	83.25
243.765	84.25
243.998	90.25
244.232	80.25
244.465	80.25
244.699	75.25
244.932	68.25
245.166	80.25
245.399	88.25
245.633	86.25
245.866	85.25
246.099	72.25
246.333	85.25
246.566	92.25
246.8	84.25
247.033	92.25
247.266	80.25
247.5	81.25
247.733	88.25
247.966	93.25
248.2	93.25
248.433	78.25
248.666	89.25
248.899	91.25
249.133	81.25
249.366	83.25
249.599	88.25
249.832	80.25
250.066	83.25
250.299	100.25
250.532	83.25
250.765	88.25
250.998	84.25
251.231	97.25
251.465	84.25
251.698	83.25
251.931	78.25
252.164	83.25
252.397	75.25
252.63	75.25
252.863	92.25
253.096	78.25
253.329	78.25
253.562	75.25
253.795	71.25
254.028	86.25
254.261	82.25
254.494	67.25
254.727	85.25
254.96	77.25
255.193	83.25
255.426	84.25
255.659	81.25
255.892	87.25
256.124	79.25
256.357	78.25
256.59	78.25
256.823	75.25
257.056	66.25
257.289	92.25
257.521	96.25
257.754	76.25
257.987	83.25
258.22	87.25
258.452	77.25
258.685	88.25
258.918	83.25
259.151	82.25
259.383	86.25
259.616	80.25
259.849	88.25
260.081	80.25
260.314	92.25
260.547	80.25
260.779	86.25
261.012	97.25
261.244	81.25
261.477	91.25
261.71	86.25
261.942	61.25
262.175	78.25
262.407	78.25
262.64	74.25
262.872	84.25
263.105	79.25
263.337	76.25
263.57	86.25
263.802	86.25
264.035	92.25
264.267	88.25
264.499	73.25
264.732	74.25
264.964	73.25
265.197	87.25
265.429	86.25
265.661	86.25
265.894	67.25
266.126	77.25
266.358	98.25
266.591	95.25
266.823	95.25
267.055	88.25
267.287	81.25
267.52	93.25
267.752	87.25
267.984	89.25
268.216	91.25
268.448	88.25
268.681	82.25
268.913	88.25
269.145	77.25
269.377	91.25
269.609	87.25
269.841	91.25
270.073	89.25
270.306	93.25
270.538	85.25
270.77	80.25
271.002	79.25
271.234	72.25
271.466	95.25
271.698	82.25
271.93	87.25
272.162	79.25
272.394	85.25
272.626	86.25
272.858	90.25
273.09	87.25
273.322	99.25
273.553	86.25
273.785	82.25
274.017	85.25
274.249	85.25
274.481	78.25
274.713	95.25
274.945	95.25
275.176	97.25
275.408	88.25
275.64	94.25
275.872	84.25
276.104	98.25
276.335	91.25
276.567	86.25
276.799	90.25
277.031	84.25
277.262	100.25
277.494	88.25
277.726	85.25
277.957	83.25
278.189	98.25
278.421	85.25
278.652	90.25
278.884	85.25
279.115	87.25
279.347	91.25
279.579	94.25
279.81	85.25
280.042	85.25
280.273	87.25
280.505	74.25
280.736	109.25
280.968	95.25
281.199	92.25
281.431	84.25
281.662	90.25
281.894	95.25
282.125	85.25
282.356	100.25
282.588	98.25
282.819	83.25
283.051	94.25
283.282	78.25
283.513	89.25
283.745	89.25
283.976	91.25
284.207	86.25
284.439	103.25
284.67	84.25
284.901	88.25
285.132	80.25
285.364	93.25
285.595	107.25
285.826	78.25
286.057	80.25
286.288	79.25
286.52	92.25
286.751	82.25
286.982	83.25
287.213	86.25
287.444	89.25
287.675	92.25
287.906	87.25
288.138	99.25
288.369	99.25
288.6	80.25
288.831	89.25
289.062	88.25
289.293	91.25
289.524	70.25
289.755	83.25
289.986	84.25
290.217	91.25
290.448	84.25
290.679	87.25
290.91	91.25
291.141	90.25
291.371	86.25
291.602	81.25
291.833	102.25
292.064	88.25
292.295	97.25
292.526	82.25
292.757	97.25
292.987	87.25
293.218	88.25
293.449	91.25
293.68	86.25
293.91	92.25
294.141	96.25
294.372	91.25
294.603	98.25
294.833	93.25
295.064	91.25
295.295	79.25
295.525	79.25
295.756	99.25
295.987	93.25
296.217	96.25
296.448	91.25
296.679	100.25
296.909	97.25
297.14	72.25
297.37	89.25
297.601	91.25
297.831	83.25
298.062	80.25
298.292	82.25
298.523	85.25
298.753	80.25
298.984	80.25
299.214	81.25
299.445	69.25
299.675	98.25
299.905	94.25
300.136	100.25
300.366	83.25
300.597	95.25
300.827	86.25
301.057	99.25
301.288	81.25
301.518	91.25
301.748	89.25
301.979	90.25
302.209	87.25
302.439	83.25
302.669	77.25
302.9	85.25
303.13	101.25
303.36	92.25
303.59	73.25
303.82	90.25
304.051	81.25
304.281	92.25
304.511	98.25
304.741	81.25
304.971	94.25
305.201	78.25
305.431	79.25
305.661	93.25
305.891	94.25
306.121	85.25
306.352	97.25
306.582	80.25
306.812	87.25
307.042	85.25
307.272	96.25
307.502	85.25
307.731	65.25
307.961	93.25
308.191	91.25
308.421	84.25
308.651	90.25
308.881	75.25
309.111	82.25
309.341	83.25
309.571	79.25
309.8	77.25
310.03	90.25
310.26	97.25
310.49	79.25
310.72	86.25
310.949	94.25
311.179	91.25
311.409	90.25
311.639	102.25
311.868	91.25
312.098	89.25
312.328	91.25
312.557	87.25
312.787	87.25
313.017	86.25
313.246	91.25
313.476	90.25
313.706	75.25
313.935	86.25
314.165	88.25
314.394	87.25
314.624	84.25
314.853	102.25
315.083	85.25
315.312	93.25
315.542	98.25
315.771	102.25
316.001	94.25
316.23	95.25
316.46	92.25
316.689	88.25
316.919	88.25
317.148	96.25
317.377	88.25
317.607	100.25
317.836	86.25
318.065	96.25
318.295	109.25
318.524	92.25
318.753	76.25
318.983	90.25
319.212	95.25
319.441	95.25
319.67	94.25
319.9	99.25
320.129	90.25
320.358	105.25
320.587	94.25
320.816	96.25
321.046	82.25
321.275	87.25
321.504	73.25
321.733	81.25
321.962	98.25
322.191	94.25
322.42	80.25
322.649	106.25
322.878	93.25
323.108	87.25
323.337	92.25
323.566	103.25
323.795	84.25
324.024	76.25
324.253	80.25
324.482	78.25
324.71	93.25
324.939	84.25
325.168	93.25
325.397	91.25
325.626	78.25
325.855	77.25
326.084	98.25
326.313	95.25
326.542	85.25
326.77	99.25
326.999	95.25
327.228	84.25
327.457	86.25
327.686	88.25
327.914	90.25
328.143	78.25
328.372	95.25
328.6	91.25
328.829	76.25
329.058	86.25
329.287	93.25
329.515	103.25
329.744	89.25
329.972	83.25
330.201	87.25
330.43	84.25
330.658	86.25
330.887	82.25
331.115	68.25
331.344	94.25
331.572	94.25
331.801	95.25
332.03	86.25
332.258	100.25
332.486	93.25
332.715	85.25
332.943	87.25
333.172	95.25
333.4	82.25
333.629	115.25
333.857	95.25
334.085	83.25
334.314	93.25
334.542	77.25
334.771	88.25
334.999	89.25
335.227	90.25
335.455	83.25
335.684	99.25
335.912	103.25
336.14	88.25
336.369	84.25
336.597	96.25
336.825	88.25
337.053	101.25
337.281	94.25
337.51	81.25
337.738	85.25
337.966	91.25
338.194	82.25
338.422	95.25
338.65	88.25
338.878	85.25
339.106	109.25
339.334	97.25
339.562	87.25
339.79	84.25
340.018	87.25
340.246	81.25
340.474	91.25
340.702	84.25
340.93	79.25
341.158	86.25
341.386	81.25
341.614	92.25
341.842	92.25
342.07	99.25
342.298	89.25
342.526	93.25
342.754	83.25
342.981	107.25
343.209	101.25
343.437	90.25
343.665	70.25
343.893	98.25
344.12	80.25
344.348	91.25
344.576	95.25
344.804	80.25
345.031	91.25
345.259	82.25
345.487	92.25
345.714	99.25
345.942	73.25
346.17	95.25
346.397	99.25
346.625	95.25
346.853	86.25
347.08	83.25
347.308	89.25
347.535	94.25
347.763	92.25
347.99	86.25
348.218	85.25
348.445	79.25
348.673	75.25
348.9	75.25
349.128	80.25
349.355	73.25
349.583	84.25
349.81	82.25
350.037	90.25
350.265	88.25
350.492	81.25
350.72	87.25
350.947	99.25
351.174	86.25
351.402	82.25
351.629	81.25
351.856	85.25
352.083	80.25
352.311	89.25
352.538	86.25
352.765	80.25
352.992	93.25
353.22	80.25
353.447	99.25
353.674	94.25
353.901	90.25
354.128	88.25
354.355	86.25
354.583	83.25
354.81	89.25
355.037	87.25
355.264	102.25
355.491	103.25
355.718	83.25
355.945	87.25
356.172	84.25
356.399	84.25
356.626	99.25
356.853	92.25
357.08	102.25
357.307	83.25
357.534	102.25
357.761	93.25
357.988	101.25
358.215	84.25
358.441	98.25
358.668	92.25
358.895	83.25
359.122	90.25
359.349	90.25
359.576	95.25
359.802	91.25
360.029	94.25
360.256	78.25
360.483	98.25
360.709	84.25
360.936	102.25
361.163	100.25
361.39	92.25
361.616	77.25
361.843	82.25
362.07	94.25
362.296	81.25
362.523	84.25
362.749	86.25
362.976	88.25
363.203	91.25
363.429	81.25
363.656	96.25
363.882	88.25
364.109	83.25
364.335	93.25
364.562	101.25
364.788	66.25
365.015	99.25
365.241	80.25
365.468	90.25
365.694	78.25
365.92	95.25
366.147	89.25
366.373	96.25
366.599	92.25
366.826	84.25
367.052	87.25
367.278	86.25
367.505	75.25
367.731	80.25
367.957	94.25
368.184	88.25
368.41	72.25
368.636	98.25
368.862	88.25
369.089	80.25
369.315	88.25
369.541	86.25
369.767	85.25
369.993	92.25
370.219	84.25
370.445	89.25
370.672	87.25
370.898	87.25
371.124	86.25
371.35	99.25
371.576	101.25
371.802	83.25
372.028	93.25
372.254	90.25
372.48	100.25
372.706	87.25
372.932	93.25
373.158	85.25
373.384	80.25
373.61	92.25
373.835	87.25
374.061	87.25
374.287	94.25
374.513	80.25
374.739	91.25
374.965	95.25
375.191	87.25
375.416	97.25
375.642	86.25
375.868	102.25
376.094	86.25
376.319	89.25
376.545	83.25
376.771	92.25
376.997	71.25
377.222	77.25
377.448	71.25
377.674	88.25
377.899	92.25
378.125	86.25
378.35	102.25
378.576	84.25
378.802	86.25
379.027	92.25
379.253	98.25
379.478	95.25
379.704	101.25
379.929	100.25
380.155	95.25
380.38	90.25
380.606	80.25
380.831	92.25
381.057	90.25
381.282	89.25
381.507	83.25
381.733	91.25
381.958	86.25
382.184	88.25
382.409	80.25
382.634	89.25
382.86	91.25
383.085	86.25
383.31	95.25
383.535	85.25
383.761	90.25
383.986	99.25
384.211	73.25
384.436	88.25
384.662	83.25
384.887	81.25
385.112	75.25
385.337	77.25
385.562	106.25
385.787	75.25
386.013	97.25
386.238	79.25
386.463	76.25
386.688	85.25
386.913	95.25
387.138	67.25
387.363	77.25
387.588	87.25
387.813	80.25
388.038	91.25
388.263	83.25
388.488	88.25
388.713	85.25
388.938	82.25
389.163	105.25
389.387	93.25
389.612	76.25
389.837	87.25
390.062	90.25
390.287	72.25
390.512	93.25
390.736	88.25
390.961	91.25
391.186	95.25
391.411	89.25
391.636	92.25
391.86	86.25
392.085	91.25
392.31	78.25
392.534	95.25
392.759	95.25
392.984	84.25
393.208	90.25
393.433	101.25
393.658	94.25
393.882	94.25
394.107	83.25
394.331	86.25
394.556	80.25
394.78	76.25
395.005	91.25
395.229	95.25
395.454	84.25
395.678	94.25
395.903	97.25
396.127	105.25
396.352	79.25
396.576	92.25
396.801	101.25
397.025	95.25
397.249	85.25
397.474	94.25
397.698	88.25
397.922	87.25
398.147	89.25
398.371	82.25
398.595	86.25
398.82	90.25
399.044	78.25
399.268	96.25
399.492	68.25
399.717	98.25
399.941	95.25
400.165	76.25
400.389	99.25
400.613	79.25
400.837	82.25
401.062	76.25
401.286	100.25
401.51	86.25
401.734	81.25
401.958	90.25
402.182	93.25
402.406	90.25
402.63	99.25
402.854	95.25
403.078	84.25
403.302	83.25
403.526	94.25
403.75	79.25
403.974	87.25
404.198	94.25
404.422	93.25
404.645	105.25
404.869	90.25
405.093	75.25
405.317	89.25
405.541	84.25
405.765	91.25
405.988	82.25
406.212	79.25
406.436	79.25
406.66	88.25
406.883	86.25
407.107	101.25
407.331	91.25
407.555	79.25
407.778	92.25
408.002	106.25
408.226	90.25
408.449	87.25
408.673	95.25
408.896	98.25
409.12	82.25
409.344	88.25
409.567	84.25
409.791	87.25
410.014	90.25
410.238	75.25
410.461	67.25
410.685	77.25
410.908	91.25
411.132	92.25
411.355	90.25
411.578	104.25
411.802	74.25
412.025	86.25
412.249	89.25
412.472	89.25
412.695	85.25
412.919	102.25
413.142	94.25
413.365	89.25
413.589	90.25
413.812	99.25
414.035	92.25
414.258	77.25
414.482	88.25
414.705	87.25
414.928	78.25
415.151	90.25
415.374	92.25
415.597	94.25
415.821	95.25
416.044	93.25
416.267	73.25
416.49	97.25
416.713	88.25
416.936	88.25
417.159	89.25
417.382	91.25
417.605	86.25
417.828	80.25
418.051	75.25
418.274	87.25
418.497	76.25
418.72	94.25
418.943	85.25
419.166	87.25
419.389	96.25
419.611	91.25
419.834	92.25
420.057	79.25
420.28	79.25
420.503	92.25
420.726	95.25
420.948	91.25
421.171	103.25
421.394	83.25
421.617	85.25
421.839	96.25
422.062	89.25
422.285	84.25
422.507	83.25
422.73	86.25
422.953	80.25
423.175	88.25
423.398	93.25
423.621	90.25
423.843	91.25
424.066	93.25
424.288	75.25
424.511	79.25
424.733	86.25
424.956	76.25
425.178	90.25
425.401	92.25
425.623	96.25
425.846	86.25
426.068	83.25
426.291	94.25
426.513	77.25
426.735	90.25
426.958	99.25
427.18	94.25
427.402	84.25
427.625	102.25
427.847	83.25
428.069	102.25
428.292	79.25
428.514	71.25
428.736	94.25
428.958	79.25
429.181	98.25
429.403	90.25
429.625	91.25
429.847	94.25
430.069	87.25
430.292	90.25
430.514	86.25
430.736	94.25
430.958	77.25
431.18	84.25
431.402	91.25
431.624	79.25
431.846	91.25
432.068	104.25
432.29	90.25
432.512	100.25
432.734	87.25
432.956	102.25
433.178	87.25
433.4	88.25
433.622	93.25
433.844	79.25
434.066	86.25
434.287	80.25
434.509	84.25
434.731	101.25
434.953	83.25
435.175	96.25
435.397	92.25
435.618	94.25
435.84	93.25
436.062	95.25
436.284	97.25
436.505	88.25
436.727	92.25
436.949	88.25
437.17	81.25
437.392	82.25
437.614	90.25
437.835	96.25
438.057	73.25
438.278	94.25
438.5	88.25
438.721	97.25
438.943	82.25
439.165	90.25
439.386	71.25
439.608	89.25
439.829	92.25
440.05	86.25
440.272	87.25
440.493	79.25
440.715	103.25
440.936	85.25
441.158	87.25
441.379	78.25
441.6	84.25
441.822	85.25
442.043	92.25
442.264	87.25
442.486	85.25
442.707	90.25
442.928	97.25
443.149	104.25
443.371	86.25
443.592	85.25
443.813	92.25
444.034	82.25
444.255	84.25
444.476	95.25
444.698	97.25
444.919	95.25
445.14	213.25
445.361	150.25
445.582	97.25
445.803	90.25
446.024	94.25
446.245	70.25
446.466	80.25
446.687	101.25
446.908	86.25
447.129	79.25
447.35	85.25
447.571	94.25
447.792	79.25
448.013	69.25
448.234	83.25
448.455	93.25
448.675	91.25
448.896	76.25
449.117	95.25
449.338	89.25
449.559	93.25
449.779	81.25
450	90.25
450.221	91.25
450.442	96.25
450.662	77.25
450.883	92.25
451.104	95.25
451.324	99.25
451.545	80.25
451.766	93.25
451.986	92.25
452.207	82.25
452.428	80.25
452.648	79.25
452.869	80.25
453.089	111.25
453.31	87.25
453.53	94.25
453.751	68.25
453.971	90.25
454.192	82.25
454.412	85.25
454.633	72.25
454.853	84.25
455.073	73.25
455.294	102.25
455.514	87.25
455.734	79.25
455.955	81.25
456.175	86.25
456.395	87.25
456.616	94.25
456.836	99.25
457.056	94.25
457.276	87.25
457.497	86.25
457.717	76.25
457.937	80.25
458.157	82.25
458.377	80.25
458.598	94.25
458.818	93.25
459.038	89.25
459.258	88.25
459.478	95.25
459.698	79.25
459.918	83.25
460.138	104.25
460.358	77.25
460.578	95.25
460.798	77.25
461.018	76.25
461.238	95.25
461.458	100.25
461.678	80.25
461.898	81.25
462.118	80.25
462.338	97.25
462.558	79.25
462.777	91.25
462.997	96.25
463.217	100.25
463.437	83.25
463.657	90.25
463.876	89.25
464.096	87.25
464.316	86.25
464.536	97.25
464.755	87.25
464.975	79.25
465.195	88.25
465.414	83.25
465.634	75.25
465.854	91.25
466.073	89.25
466.293	78.25
466.512	80.25
466.732	86.25
466.951	98.25
467.171	88.25
467.391	81.25
467.61	94.25
467.829	94.25
468.049	94.25
468.268	97.25
468.488	90.25
468.707	89.25
468.927	96.25
469.146	82.25
469.365	100.25
469.585	88.25
469.804	79.25
470.023	86.25
470.243	80.25
470.462	79.25
470.681	86.25
470.901	83.25
471.12	79.25
471.339	100.25
471.558	100.25
471.777	95.25
471.997	89.25
472.216	89.25
472.435	99.25
472.654	90.25
472.873	88.25
473.092	87.25
473.311	83.25
473.53	100.25
473.749	88.25
473.968	90.25
474.187	87.25
474.406	87.25
474.625	84.25
474.844	89.25
475.063	90.25
475.282	86.25
475.501	83.25
475.72	91.25
475.939	94.25
476.158	80.25
476.377	90.25
476.596	95.25
476.814	97.25
477.033	101.25
477.252	66.25
477.471	70.25
477.69	81.25
477.908	114.25
478.127	100.25
478.346	92.25
478.564	88.25
478.783	99.25
479.002	90.25
479.22	89.25
479.439	91.25
479.658	87.25
479.876	102.25
480.095	90.25
480.313	92.25
480.532	94.25
480.751	91.25
480.969	89.25
481.188	85.25
481.406	86.25
481.624	91.25
481.843	84.25
482.061	102.25
482.28	81.25
482.498	92.25
482.717	75.25
482.935	89.25
483.153	95.25
483.372	88.25
483.59	95.25
483.808	84.25
484.027	99.25
484.245	96.25
484.463	101.25
484.681	89.25
484.9	94.25
485.118	76.25
485.336	95.25
485.554	87.25
485.772	94.25
485.99	82.25
486.209	84.25
486.427	98.25
486.645	88.25
486.863	94.25
487.081	76.25
487.299	90.25
487.517	79.25
487.735	90.25
487.953	84.25
488.171	106.25
488.389	86.25
488.607	79.25
488.825	87.25
489.043	97.25
489.261	82.25
489.479	88.25
489.696	97.25
489.914	96.25
490.132	81.25
490.35	94.25
490.568	94.25
490.786	107.25
491.003	95.25
491.221	95.25
491.439	95.25
491.657	91.25
491.874	93.25
492.092	99.25
492.31	88.25
492.527	89.25
492.745	93.25
492.963	107.25
493.18	99.25
493.398	104.25
493.615	99.25
493.833	103.25
494.05	106.25
494.268	100.25
494.485	110.25
494.703	95.25
494.92	109.25
495.138	95.25
495.355	88.25
495.573	89.25
495.79	106.25
496.008	85.25
496.225	87.25
496.442	107.25
496.66	91.25
496.877	103.25
497.094	98.25
497.312	84.25
497.529	80.25
497.746	104.25
497.963	106.25
498.181	99.25
498.398	100.25
498.615	108.25
498.832	94.25
499.049	104.25
499.267	104.25
499.484	111.25
499.701	116.25
499.918	108.25
500.135	94.25
500.352	114.25
500.569	126.25
500.786	104.25
501.003	118.25
501.22	120.25
501.437	105.25
501.654	100.25
501.871	96.25
502.088	112.25
502.305	123.25
502.522	102.25
502.739	114.25
502.956	100.25
503.172	101.25
503.389	109.25
503.606	100.25
503.823	105.25
504.04	99.25
504.256	98.25
504.473	108.25
504.69	98.25
504.907	89.25
505.123	97.25
505.34	100.25
505.557	91.25
505.773	90.25
505.99	96.25
506.207	83.25
506.423	101.25
506.64	92.25
506.856	88.25
507.073	108.25
507.289	93.25
507.506	92.25
507.722	82.25
507.939	95.25
508.155	91.25
508.372	97.25
508.588	95.25
508.805	98.25
509.021	90.25
509.238	93.25
509.454	99.25
509.67	86.25
509.887	81.25
510.103	83.25
510.319	93.25
510.536	106.25
510.752	85.25
510.968	94.25
511.184	105.25
511.401	93.25
511.617	100.25
511.833	94.25
512.049	91.25
512.265	100.25
512.481	91.25
512.698	92.25
512.914	82.25
513.13	92.25
513.346	94.25
513.562	98.25
513.778	90.25
513.994	74.25
514.21	98.25
514.426	92.25
514.642	87.25
514.858	93.25
515.074	93.25
515.29	95.25
515.506	88.25
515.721	101.25
515.937	98.25
516.153	100.25
516.369	81.25
516.585	87.25
516.801	89.25
517.016	106.25
517.232	94.25
517.448	88.25
517.664	98.25
