Data from Ni(NO3)2Standard.Agarose3%.GreenCap.LampEnergy5.5.E.O_HRD10591_14-41-33-188.txt Node
Date: Mon Jul 22 14:41:33 EDT 2019
User: cochatt
Spectrometer: HR+D1059
Trigger mode: 1
Integration Time (sec): 1.000000E-1
Scans to average: 1
Electric dark correction enabled: true
Nonlinearity correction enabled: false
Boxcar width: 0
XAxis mode: Wavelengths
Number of Pixels in Spectrum: 2048
>>>>>Begin Spectral Data<<<<<
223.165	-9.56
223.4	-9.56
223.635	-9.56
223.869	-8.56
224.104	-20.56
224.338	-16.56
224.573	-21.56
224.808	-16.56
225.042	-2.56
225.277	-7.56
225.511	0.44
225.746	7.44
225.98	2.44
226.215	13.44
226.449	15.44
226.683	24.44
226.918	12.44
227.152	27.44
227.387	23.44
227.621	29.44
227.856	57.44
228.09	50.44
228.324	57.44
228.559	45.44
228.793	51.44
229.027	51.44
229.262	72.44
229.496	55.44
229.73	67.44
229.964	73.44
230.199	74.44
230.433	74.44
230.667	68.44
230.901	71.44
231.136	82.44
231.37	79.44
231.604	86.44
231.838	68.44
232.072	85.44
232.306	78.44
232.541	97.44
232.775	87.44
233.009	72.44
233.243	77.44
233.477	84.44
233.711	64.44
233.945	78.44
234.179	79.44
234.413	88.44
234.647	88.44
234.881	74.44
235.115	76.44
235.349	69.44
235.583	80.44
235.817	79.44
236.051	76.44
236.285	67.44
236.519	87.44
236.753	72.44
236.987	74.44
237.221	75.44
237.455	67.44
237.689	80.44
237.922	71.44
238.156	73.44
238.39	82.44
238.624	71.44
238.858	70.44
239.091	75.44
239.325	76.44
239.559	80.44
239.793	82.44
240.027	75.44
240.26	73.44
240.494	76.44
240.728	76.44
240.961	75.44
241.195	74.44
241.429	76.44
241.662	83.44
241.896	85.44
242.13	72.44
242.363	81.44
242.597	78.44
242.83	78.44
243.064	94.44
243.298	86.44
243.531	76.44
243.765	78.44
243.998	71.44
244.232	72.44
244.465	78.44
244.699	65.44
244.932	82.44
245.166	78.44
245.399	79.44
245.633	80.44
245.866	77.44
246.099	77.44
246.333	77.44
246.566	63.44
246.8	69.44
247.033	75.44
247.266	69.44
247.5	74.44
247.733	88.44
247.966	73.44
248.2	71.44
248.433	70.44
248.666	74.44
248.899	71.44
249.133	79.44
249.366	106.44
249.599	81.44
249.832	76.44
250.066	79.44
250.299	75.44
250.532	68.44
250.765	79.44
250.998	72.44
251.231	77.44
251.465	79.44
251.698	65.44
251.931	74.44
252.164	79.44
252.397	83.44
252.63	73.44
252.863	77.44
253.096	71.44
253.329	94.44
253.562	88.44
253.795	71.44
254.028	76.44
254.261	88.44
254.494	82.44
254.727	96.44
254.96	90.44
255.193	76.44
255.426	75.44
255.659	67.44
255.892	80.44
256.124	88.44
256.357	84.44
256.59	96.44
256.823	76.44
257.056	71.44
257.289	79.44
257.521	73.44
257.754	78.44
257.987	80.44
258.22	84.44
258.452	64.44
258.685	88.44
258.918	64.44
259.151	70.44
259.383	97.44
259.616	82.44
259.849	65.44
260.081	76.44
260.314	82.44
260.547	92.44
260.779	79.44
261.012	83.44
261.244	74.44
261.477	79.44
261.71	73.44
261.942	83.44
262.175	90.44
262.407	81.44
262.64	70.44
262.872	83.44
263.105	67.44
263.337	105.44
263.57	87.44
263.802	91.44
264.035	80.44
264.267	82.44
264.499	79.44
264.732	77.44
264.964	73.44
265.197	76.44
265.429	69.44
265.661	86.44
265.894	73.44
266.126	78.44
266.358	68.44
266.591	73.44
266.823	78.44
267.055	91.44
267.287	77.44
267.52	69.44
267.752	77.44
267.984	86.44
268.216	84.44
268.448	98.44
268.681	85.44
268.913	83.44
269.145	86.44
269.377	84.44
269.609	78.44
269.841	79.44
270.073	81.44
270.306	91.44
270.538	67.44
270.77	77.44
271.002	76.44
271.234	80.44
271.466	71.44
271.698	71.44
271.93	87.44
272.162	79.44
272.394	87.44
272.626	78.44
272.858	73.44
273.09	78.44
273.322	87.44
273.553	77.44
273.785	75.44
274.017	82.44
274.249	91.44
274.481	69.44
274.713	88.44
274.945	72.44
275.176	74.44
275.408	83.44
275.64	93.44
275.872	77.44
276.104	79.44
276.335	87.44
276.567	86.44
276.799	71.44
277.031	89.44
277.262	77.44
277.494	89.44
277.726	89.44
277.957	67.44
278.189	68.44
278.421	70.44
278.652	73.44
278.884	89.44
279.115	72.44
279.347	77.44
279.579	100.44
279.81	83.44
280.042	73.44
280.273	78.44
280.505	86.44
280.736	86.44
280.968	85.44
281.199	89.44
281.431	81.44
281.662	66.44
281.894	93.44
282.125	95.44
282.356	91.44
282.588	72.44
282.819	94.44
283.051	84.44
283.282	75.44
283.513	87.44
283.745	76.44
283.976	82.44
284.207	86.44
284.439	81.44
284.67	82.44
284.901	86.44
285.132	99.44
285.364	77.44
285.595	83.44
285.826	77.44
286.057	92.44
286.288	94.44
286.52	87.44
286.751	85.44
286.982	92.44
287.213	75.44
287.444	87.44
287.675	79.44
287.906	78.44
288.138	87.44
288.369	83.44
288.6	82.44
288.831	83.44
289.062	92.44
289.293	81.44
289.524	89.44
289.755	84.44
289.986	88.44
290.217	88.44
290.448	89.44
290.679	81.44
290.91	76.44
291.141	77.44
291.371	85.44
291.602	93.44
291.833	92.44
292.064	67.44
292.295	83.44
292.526	92.44
292.757	88.44
292.987	85.44
293.218	83.44
293.449	89.44
293.68	83.44
293.91	82.44
294.141	81.44
294.372	81.44
294.603	74.44
294.833	88.44
295.064	87.44
295.295	79.44
295.525	78.44
295.756	70.44
295.987	79.44
296.217	77.44
296.448	81.44
296.679	81.44
296.909	93.44
297.14	90.44
297.37	79.44
297.601	84.44
297.831	64.44
298.062	95.44
298.292	94.44
298.523	91.44
298.753	73.44
298.984	84.44
299.214	76.44
299.445	96.44
299.675	90.44
299.905	106.44
300.136	78.44
300.366	84.44
300.597	86.44
300.827	82.44
301.057	80.44
301.288	83.44
301.518	81.44
301.748	73.44
301.979	79.44
302.209	99.44
302.439	91.44
302.669	85.44
302.9	88.44
303.13	80.44
303.36	76.44
303.59	77.44
303.82	83.44
304.051	92.44
304.281	95.44
304.511	83.44
304.741	89.44
304.971	85.44
305.201	95.44
305.431	79.44
305.661	88.44
305.891	81.44
306.121	84.44
306.352	79.44
306.582	87.44
306.812	83.44
307.042	81.44
307.272	81.44
307.502	67.44
307.731	89.44
307.961	85.44
308.191	98.44
308.421	90.44
308.651	85.44
308.881	76.44
309.111	87.44
309.341	76.44
309.571	74.44
309.8	76.44
310.03	93.44
310.26	85.44
310.49	70.44
310.72	102.44
310.949	93.44
311.179	95.44
311.409	92.44
311.639	69.44
311.868	81.44
312.098	91.44
312.328	83.44
312.557	74.44
312.787	90.44
313.017	95.44
313.246	87.44
313.476	77.44
313.706	81.44
313.935	79.44
314.165	69.44
314.394	82.44
314.624	88.44
314.853	83.44
315.083	77.44
315.312	91.44
315.542	107.44
315.771	82.44
316.001	88.44
316.23	73.44
316.46	85.44
316.689	87.44
316.919	79.44
317.148	83.44
317.377	83.44
317.607	90.44
317.836	82.44
318.065	86.44
318.295	91.44
318.524	72.44
318.753	82.44
318.983	83.44
319.212	94.44
319.441	80.44
319.67	79.44
319.9	83.44
320.129	80.44
320.358	67.44
320.587	79.44
320.816	76.44
321.046	93.44
321.275	87.44
321.504	88.44
321.733	87.44
321.962	80.44
322.191	81.44
322.42	83.44
322.649	95.44
322.878	109.44
323.108	85.44
323.337	89.44
323.566	88.44
323.795	89.44
324.024	84.44
324.253	94.44
324.482	83.44
324.71	80.44
324.939	80.44
325.168	88.44
325.397	77.44
325.626	85.44
325.855	89.44
326.084	75.44
326.313	89.44
326.542	73.44
326.77	86.44
326.999	83.44
327.228	87.44
327.457	93.44
327.686	89.44
327.914	84.44
328.143	90.44
328.372	82.44
328.6	76.44
328.829	80.44
329.058	79.44
329.287	82.44
329.515	84.44
329.744	97.44
329.972	80.44
330.201	86.44
330.43	88.44
330.658	89.44
330.887	95.44
331.115	93.44
331.344	93.44
331.572	100.44
331.801	99.44
332.03	89.44
332.258	86.44
332.486	98.44
332.715	99.44
332.943	87.44
333.172	105.44
333.4	95.44
333.629	88.44
333.857	91.44
334.085	77.44
334.314	84.44
334.542	71.44
334.771	97.44
334.999	86.44
335.227	87.44
335.455	95.44
335.684	91.44
335.912	92.44
336.14	71.44
336.369	85.44
336.597	99.44
336.825	92.44
337.053	90.44
337.281	88.44
337.51	79.44
337.738	97.44
337.966	91.44
338.194	81.44
338.422	72.44
338.65	91.44
338.878	88.44
339.106	82.44
339.334	77.44
339.562	75.44
339.79	81.44
340.018	91.44
340.246	112.44
340.474	89.44
340.702	79.44
340.93	83.44
341.158	83.44
341.386	84.44
341.614	82.44
341.842	90.44
342.07	80.44
342.298	74.44
342.526	87.44
342.754	89.44
342.981	88.44
343.209	89.44
343.437	80.44
343.665	65.44
343.893	85.44
344.12	76.44
344.348	86.44
344.576	98.44
344.804	80.44
345.031	78.44
345.259	95.44
345.487	93.44
345.714	67.44
345.942	93.44
346.17	83.44
346.397	77.44
346.625	93.44
346.853	80.44
347.08	87.44
347.308	89.44
347.535	96.44
347.763	81.44
347.99	97.44
348.218	89.44
348.445	88.44
348.673	102.44
348.9	93.44
349.128	93.44
349.355	85.44
349.583	77.44
349.81	88.44
350.037	74.44
350.265	86.44
350.492	89.44
350.72	75.44
350.947	88.44
351.174	100.44
351.402	92.44
351.629	88.44
351.856	88.44
352.083	86.44
352.311	95.44
352.538	93.44
352.765	83.44
352.992	88.44
353.22	87.44
353.447	86.44
353.674	70.44
353.901	80.44
354.128	83.44
354.355	82.44
354.583	90.44
354.81	83.44
355.037	87.44
355.264	96.44
355.491	84.44
355.718	91.44
355.945	86.44
356.172	84.44
356.399	83.44
356.626	82.44
356.853	96.44
357.08	91.44
357.307	87.44
357.534	87.44
357.761	92.44
357.988	88.44
358.215	81.44
358.441	85.44
358.668	87.44
358.895	84.44
359.122	93.44
359.349	89.44
359.576	82.44
359.802	88.44
360.029	83.44
360.256	87.44
360.483	90.44
360.709	70.44
360.936	108.44
361.163	81.44
361.39	84.44
361.616	88.44
361.843	90.44
362.07	76.44
362.296	95.44
362.523	84.44
362.749	98.44
362.976	83.44
363.203	95.44
363.429	91.44
363.656	102.44
363.882	87.44
364.109	83.44
364.335	91.44
364.562	76.44
364.788	76.44
365.015	89.44
365.241	76.44
365.468	94.44
365.694	101.44
365.92	87.44
366.147	88.44
366.373	94.44
366.599	80.44
366.826	78.44
367.052	93.44
367.278	90.44
367.505	81.44
367.731	90.44
367.957	83.44
368.184	79.44
368.41	79.44
368.636	79.44
368.862	101.44
369.089	89.44
369.315	77.44
369.541	94.44
369.767	83.44
369.993	78.44
370.219	76.44
370.445	84.44
370.672	86.44
370.898	84.44
371.124	89.44
371.35	88.44
371.576	91.44
371.802	77.44
372.028	78.44
372.254	81.44
372.48	77.44
372.706	87.44
372.932	96.44
373.158	90.44
373.384	94.44
373.61	88.44
373.835	81.44
374.061	85.44
374.287	83.44
374.513	87.44
374.739	88.44
374.965	88.44
375.191	88.44
375.416	84.44
375.642	82.44
375.868	82.44
376.094	77.44
376.319	63.44
376.545	75.44
376.771	90.44
376.997	82.44
377.222	80.44
377.448	91.44
377.674	76.44
377.899	76.44
378.125	75.44
378.35	74.44
378.576	108.44
378.802	86.44
379.027	84.44
379.253	82.44
379.478	88.44
379.704	90.44
379.929	79.44
380.155	81.44
380.38	83.44
380.606	90.44
380.831	87.44
381.057	94.44
381.282	85.44
381.507	85.44
381.733	81.44
381.958	83.44
382.184	81.44
382.409	93.44
382.634	82.44
382.86	85.44
383.085	87.44
383.31	83.44
383.535	95.44
383.761	84.44
383.986	93.44
384.211	96.44
384.436	78.44
384.662	82.44
384.887	69.44
385.112	82.44
385.337	92.44
385.562	98.44
385.787	72.44
386.013	88.44
386.238	78.44
386.463	93.44
386.688	81.44
386.913	75.44
387.138	86.44
387.363	74.44
387.588	94.44
387.813	82.44
388.038	79.44
388.263	87.44
388.488	85.44
388.713	88.44
388.938	84.44
389.163	90.44
389.387	91.44
389.612	90.44
389.837	90.44
390.062	93.44
390.287	85.44
390.512	88.44
390.736	83.44
390.961	83.44
391.186	93.44
391.411	67.44
391.636	89.44
391.86	90.44
392.085	82.44
392.31	87.44
392.534	89.44
392.759	91.44
392.984	97.44
393.208	93.44
393.433	81.44
393.658	94.44
393.882	100.44
394.107	85.44
394.331	88.44
394.556	74.44
394.78	73.44
395.005	77.44
395.229	78.44
395.454	97.44
395.678	113.44
395.903	85.44
396.127	78.44
396.352	92.44
396.576	71.44
396.801	81.44
397.025	93.44
397.249	85.44
397.474	72.44
397.698	73.44
397.922	83.44
398.147	87.44
398.371	83.44
398.595	91.44
398.82	89.44
399.044	73.44
399.268	90.44
399.492	81.44
399.717	80.44
399.941	92.44
400.165	91.44
400.389	99.44
400.613	97.44
400.837	95.44
401.062	71.44
401.286	77.44
401.51	84.44
401.734	83.44
401.958	83.44
402.182	85.44
402.406	73.44
402.63	91.44
402.854	84.44
403.078	96.44
403.302	82.44
403.526	93.44
403.75	83.44
403.974	85.44
404.198	88.44
404.422	82.44
404.645	79.44
404.869	93.44
405.093	79.44
405.317	78.44
405.541	80.44
405.765	92.44
405.988	95.44
406.212	81.44
406.436	75.44
406.66	87.44
406.883	73.44
407.107	81.44
407.331	81.44
407.555	85.44
407.778	91.44
408.002	92.44
408.226	86.44
408.449	94.44
408.673	87.44
408.896	84.44
409.12	89.44
409.344	86.44
409.567	79.44
409.791	102.44
410.014	91.44
410.238	75.44
410.461	87.44
410.685	101.44
410.908	112.44
411.132	84.44
411.355	92.44
411.578	93.44
411.802	89.44
412.025	77.44
412.249	92.44
412.472	80.44
412.695	96.44
412.919	84.44
413.142	81.44
413.365	78.44
413.589	90.44
413.812	96.44
414.035	92.44
414.258	86.44
414.482	91.44
414.705	85.44
414.928	83.44
415.151	82.44
415.374	83.44
415.597	90.44
415.821	80.44
416.044	80.44
416.267	78.44
416.49	79.44
416.713	84.44
416.936	89.44
417.159	75.44
417.382	89.44
417.605	91.44
417.828	88.44
418.051	90.44
418.274	85.44
418.497	77.44
418.72	91.44
418.943	95.44
419.166	92.44
419.389	95.44
419.611	87.44
419.834	94.44
420.057	93.44
420.28	87.44
420.503	83.44
420.726	84.44
420.948	104.44
421.171	97.44
421.394	90.44
421.617	83.44
421.839	89.44
422.062	83.44
422.285	80.44
422.507	86.44
422.73	91.44
422.953	88.44
423.175	82.44
423.398	75.44
423.621	69.44
423.843	95.44
424.066	98.44
424.288	80.44
424.511	77.44
424.733	79.44
424.956	83.44
425.178	85.44
425.401	85.44
425.623	79.44
425.846	83.44
426.068	86.44
426.291	81.44
426.513	87.44
426.735	86.44
426.958	77.44
427.18	76.44
427.402	91.44
427.625	99.44
427.847	101.44
428.069	83.44
428.292	74.44
428.514	95.44
428.736	83.44
428.958	100.44
429.181	84.44
429.403	98.44
429.625	80.44
429.847	79.44
430.069	87.44
430.292	88.44
430.514	76.44
430.736	77.44
430.958	98.44
431.18	86.44
431.402	84.44
431.624	74.44
431.846	86.44
432.068	81.44
432.29	82.44
432.512	84.44
432.734	87.44
432.956	98.44
433.178	81.44
433.4	82.44
433.622	100.44
433.844	96.44
434.066	98.44
434.287	102.44
434.509	91.44
434.731	89.44
434.953	86.44
435.175	96.44
435.397	82.44
435.618	86.44
435.84	80.44
436.062	79.44
436.284	83.44
436.505	79.44
436.727	94.44
436.949	88.44
437.17	84.44
437.392	66.44
437.614	84.44
437.835	81.44
438.057	80.44
438.278	85.44
438.5	75.44
438.721	91.44
438.943	90.44
439.165	86.44
439.386	73.44
439.608	87.44
439.829	65.44
440.05	81.44
440.272	84.44
440.493	91.44
440.715	86.44
440.936	84.44
441.158	77.44
441.379	87.44
441.6	85.44
441.822	86.44
442.043	80.44
442.264	76.44
442.486	86.44
442.707	85.44
442.928	86.44
443.149	82.44
443.371	84.44
443.592	77.44
443.813	73.44
444.034	90.44
444.255	82.44
444.476	102.44
444.698	99.44
444.919	93.44
445.14	189.44
445.361	123.44
445.582	86.44
445.803	78.44
446.024	81.44
446.245	89.44
446.466	88.44
446.687	84.44
446.908	88.44
447.129	92.44
447.35	100.44
447.571	85.44
447.792	89.44
448.013	87.44
448.234	88.44
448.455	90.44
448.675	88.44
448.896	92.44
449.117	80.44
449.338	74.44
449.559	84.44
449.779	92.44
450	96.44
450.221	81.44
450.442	75.44
450.662	84.44
450.883	92.44
451.104	95.44
451.324	83.44
451.545	79.44
451.766	88.44
451.986	81.44
452.207	83.44
452.428	82.44
452.648	91.44
452.869	79.44
453.089	79.44
453.31	80.44
453.53	86.44
453.751	77.44
453.971	91.44
454.192	92.44
454.412	75.44
454.633	84.44
454.853	77.44
455.073	77.44
455.294	85.44
455.514	90.44
455.734	87.44
455.955	97.44
456.175	78.44
456.395	90.44
456.616	80.44
456.836	95.44
457.056	80.44
457.276	84.44
457.497	87.44
457.717	94.44
457.937	91.44
458.157	83.44
458.377	89.44
458.598	91.44
458.818	84.44
459.038	92.44
459.258	85.44
459.478	78.44
459.698	86.44
459.918	72.44
460.138	84.44
460.358	89.44
460.578	103.44
460.798	92.44
461.018	78.44
461.238	84.44
461.458	97.44
461.678	74.44
461.898	97.44
462.118	95.44
462.338	90.44
462.558	93.44
462.777	96.44
462.997	93.44
463.217	84.44
463.437	90.44
463.657	82.44
463.876	94.44
464.096	93.44
464.316	97.44
464.536	87.44
464.755	93.44
464.975	89.44
465.195	92.44
465.414	81.44
465.634	89.44
465.854	88.44
466.073	74.44
466.293	85.44
466.512	99.44
466.732	81.44
466.951	89.44
467.171	92.44
467.391	94.44
467.61	88.44
467.829	75.44
468.049	92.44
468.268	92.44
468.488	74.44
468.707	92.44
468.927	71.44
469.146	78.44
469.365	72.44
469.585	88.44
469.804	97.44
470.023	86.44
470.243	77.44
470.462	84.44
470.681	86.44
470.901	76.44
471.12	78.44
471.339	99.44
471.558	91.44
471.777	87.44
471.997	103.44
472.216	98.44
472.435	86.44
472.654	81.44
472.873	92.44
473.092	72.44
473.311	67.44
473.53	83.44
473.749	96.44
473.968	96.44
474.187	94.44
474.406	93.44
474.625	78.44
474.844	85.44
475.063	87.44
475.282	93.44
475.501	91.44
475.72	99.44
475.939	85.44
476.158	84.44
476.377	96.44
476.596	71.44
476.814	84.44
477.033	80.44
477.252	76.44
477.471	91.44
477.69	91.44
477.908	92.44
478.127	87.44
478.346	87.44
478.564	83.44
478.783	86.44
479.002	96.44
479.22	98.44
479.439	83.44
479.658	85.44
479.876	85.44
480.095	100.44
480.313	88.44
480.532	90.44
480.751	105.44
480.969	88.44
481.188	92.44
481.406	90.44
481.624	102.44
481.843	104.44
482.061	99.44
482.28	87.44
482.498	93.44
482.717	90.44
482.935	91.44
483.153	81.44
483.372	96.44
483.59	101.44
483.808	88.44
484.027	106.44
484.245	103.44
484.463	97.44
484.681	113.44
484.9	81.44
485.118	82.44
485.336	81.44
485.554	97.44
485.772	93.44
485.99	82.44
486.209	77.44
486.427	80.44
486.645	101.44
486.863	88.44
487.081	79.44
487.299	87.44
487.517	95.44
487.735	96.44
487.953	97.44
488.171	96.44
488.389	101.44
488.607	81.44
488.825	99.44
489.043	86.44
489.261	99.44
489.479	103.44
489.696	82.44
489.914	97.44
490.132	93.44
490.35	87.44
490.568	80.44
490.786	81.44
491.003	87.44
491.221	92.44
491.439	93.44
491.657	83.44
491.874	86.44
492.092	82.44
492.31	93.44
492.527	83.44
492.745	99.44
492.963	92.44
493.18	92.44
493.398	106.44
493.615	117.44
493.833	100.44
494.05	89.44
494.268	84.44
494.485	88.44
494.703	76.44
494.92	92.44
495.138	100.44
495.355	98.44
495.573	110.44
495.79	81.44
496.008	104.44
496.225	92.44
496.442	83.44
496.66	75.44
496.877	108.44
497.094	115.44
497.312	97.44
497.529	92.44
497.746	88.44
497.963	95.44
498.181	101.44
498.398	96.44
498.615	99.44
498.832	97.44
499.049	97.44
499.267	105.44
499.484	111.44
499.701	112.44
499.918	90.44
500.135	119.44
500.352	94.44
500.569	106.44
500.786	122.44
501.003	119.44
501.22	93.44
501.437	119.44
501.654	106.44
501.871	97.44
502.088	105.44
502.305	91.44
502.522	92.44
502.739	99.44
502.956	89.44
503.172	95.44
503.389	97.44
503.606	104.44
503.823	93.44
504.04	76.44
504.256	91.44
504.473	93.44
504.69	98.44
504.907	104.44
505.123	87.44
505.34	91.44
505.557	104.44
505.773	96.44
505.99	77.44
506.207	83.44
506.423	96.44
506.64	85.44
506.856	101.44
507.073	78.44
507.289	85.44
507.506	88.44
507.722	90.44
507.939	81.44
508.155	91.44
508.372	95.44
508.588	92.44
508.805	95.44
509.021	90.44
509.238	95.44
509.454	73.44
509.67	89.44
509.887	81.44
510.103	102.44
510.319	108.44
510.536	83.44
510.752	84.44
510.968	95.44
511.184	96.44
511.401	85.44
511.617	90.44
511.833	96.44
512.049	83.44
512.265	81.44
512.481	80.44
512.698	92.44
512.914	86.44
513.13	82.44
513.346	77.44
513.562	94.44
513.778	86.44
513.994	96.44
514.21	86.44
514.426	100.44
514.642	89.44
514.858	85.44
515.074	76.44
515.29	91.44
515.506	94.44
515.721	92.44
515.937	111.44
516.153	89.44
516.369	91.44
516.585	99.44
516.801	84.44
517.016	107.44
517.232	95.44
517.448	87.44
517.664	86.44
517.879	89.44
518.095	86.44
518.311	89.44
518.527	97.44
