Data from Ni(NO3)2@0.5M.TitratingCurve.Agarose3%dH2O.NegLispCup.LampEnergy10.LIBS07252019_HRD10591_17-57-24-564.txt Node
Date: Thu Jul 25 17:57:24 EDT 2019
User: cochatt
Spectrometer: HR+D1059
Trigger mode: 1
Integration Time (sec): 1.000000E-1
Scans to average: 1
Electric dark correction enabled: true
Nonlinearity correction enabled: false
Boxcar width: 0
XAxis mode: Wavelengths
Number of Pixels in Spectrum: 2048
>>>>>Begin Spectral Data<<<<<
223.165	-13.31
223.4	-13.31
223.635	-13.31
223.869	-17.31
224.104	-23.31
224.338	-18.31
224.573	-10.31
224.808	-6.31
225.042	-18.31
225.277	-18.31
225.511	5.69
225.746	-3.31
225.98	23.69
226.215	9.69
226.449	16.69
226.683	7.69
226.918	25.69
227.152	39.69
227.387	25.69
227.621	44.69
227.856	43.69
228.09	49.69
228.324	64.69
228.559	62.69
228.793	85.69
229.027	146.69
229.262	140.69
229.496	163.69
229.73	143.69
229.964	181.69
230.199	198.69
230.433	187.69
230.667	195.69
230.901	192.69
231.136	160.69
231.37	160.69
231.604	196.69
231.838	205.69
232.072	215.69
232.306	197.69
232.541	199.69
232.775	188.69
233.009	170.69
233.243	187.69
233.477	176.69
233.711	173.69
233.945	189.69
234.179	190.69
234.413	205.69
234.647	196.69
234.881	211.69
235.115	204.69
235.349	199.69
235.583	191.69
235.817	201.69
236.051	183.69
236.285	180.69
236.519	209.69
236.753	230.69
236.987	203.69
237.221	213.69
237.455	211.69
237.689	204.69
237.922	211.69
238.156	209.69
238.39	206.69
238.624	212.69
238.858	221.69
239.091	227.69
239.325	235.69
239.559	248.69
239.793	247.69
240.027	248.69
240.26	233.69
240.494	247.69
240.728	244.69
240.961	244.69
241.195	253.69
241.429	236.69
241.662	250.69
241.896	279.69
242.13	293.69
242.363	281.69
242.597	261.69
242.83	257.69
243.064	259.69
243.298	267.69
243.531	284.69
243.765	281.69
243.998	304.69
244.232	299.69
244.465	292.69
244.699	285.69
244.932	299.69
245.166	307.69
245.399	287.69
245.633	304.69
245.866	293.69
246.099	278.69
246.333	314.69
246.566	294.69
246.8	298.69
247.033	307.69
247.266	326.69
247.5	342.69
247.733	327.69
247.966	337.69
248.2	313.69
248.433	341.69
248.666	353.69
248.899	330.69
249.133	329.69
249.366	348.69
249.599	357.69
249.832	353.69
250.066	358.69
250.299	352.69
250.532	352.69
250.765	373.69
250.998	365.69
251.231	376.69
251.465	397.69
251.698	381.69
251.931	389.69
252.164	399.69
252.397	387.69
252.63	411.69
252.863	396.69
253.096	409.69
253.329	419.69
253.562	411.69
253.795	408.69
254.028	397.69
254.261	428.69
254.494	411.69
254.727	428.69
254.96	433.69
255.193	437.69
255.426	425.69
255.659	427.69
255.892	445.69
256.124	441.69
256.357	460.69
256.59	476.69
256.823	444.69
257.056	470.69
257.289	428.69
257.521	439.69
257.754	460.69
257.987	473.69
258.22	503.69
258.452	482.69
258.685	468.69
258.918	485.69
259.151	465.69
259.383	496.69
259.616	489.69
259.849	503.69
260.081	475.69
260.314	516.69
260.547	511.69
260.779	501.69
261.012	525.69
261.244	521.69
261.477	541.69
261.71	513.69
261.942	491.69
262.175	494.69
262.407	529.69
262.64	541.69
262.872	526.69
263.105	532.69
263.337	548.69
263.57	541.69
263.802	543.69
264.035	528.69
264.267	551.69
264.499	554.69
264.732	565.69
264.964	570.69
265.197	559.69
265.429	563.69
265.661	557.69
265.894	548.69
266.126	582.69
266.358	565.69
266.591	577.69
266.823	576.69
267.055	577.69
267.287	580.69
267.52	579.69
267.752	582.69
267.984	588.69
268.216	600.69
268.448	591.69
268.681	588.69
268.913	596.69
269.145	588.69
269.377	583.69
269.609	603.69
269.841	596.69
270.073	598.69
270.306	600.69
270.538	617.69
270.77	599.69
271.002	635.69
271.234	624.69
271.466	623.69
271.698	621.69
271.93	619.69
272.162	635.69
272.394	608.69
272.626	623.69
272.858	641.69
273.09	649.69
273.322	652.69
273.553	631.69
273.785	669.69
274.017	632.69
274.249	662.69
274.481	663.69
274.713	647.69
274.945	657.69
275.176	663.69
275.408	668.69
275.64	664.69
275.872	649.69
276.104	702.69
276.335	663.69
276.567	667.69
276.799	674.69
277.031	691.69
277.262	705.69
277.494	696.69
277.726	713.69
277.957	703.69
278.189	697.69
278.421	715.69
278.652	695.69
278.884	678.69
279.115	700.69
279.347	689.69
279.579	700.69
279.81	697.69
280.042	699.69
280.273	719.69
280.505	719.69
280.736	721.69
280.968	704.69
281.199	698.69
281.431	718.69
281.662	740.69
281.894	720.69
282.125	683.69
282.356	729.69
282.588	736.69
282.819	687.69
283.051	700.69
283.282	733.69
283.513	738.69
283.745	729.69
283.976	733.69
284.207	732.69
284.439	779.69
284.67	741.69
284.901	733.69
285.132	723.69
285.364	741.69
285.595	781.69
285.826	744.69
286.057	745.69
286.288	752.69
286.52	765.69
286.751	744.69
286.982	780.69
287.213	756.69
287.444	736.69
287.675	760.69
287.906	783.69
288.138	769.69
288.369	777.69
288.6	777.69
288.831	779.69
289.062	781.69
289.293	774.69
289.524	805.69
289.755	799.69
289.986	812.69
290.217	788.69
290.448	813.69
290.679	792.69
290.91	793.69
291.141	760.69
291.371	777.69
291.602	793.69
291.833	825.69
292.064	788.69
292.295	805.69
292.526	796.69
292.757	793.69
292.987	801.69
293.218	783.69
293.449	811.69
293.68	816.69
293.91	815.69
294.141	773.69
294.372	809.69
294.603	771.69
294.833	792.69
295.064	802.69
295.295	800.69
295.525	798.69
295.756	817.69
295.987	800.69
296.217	809.69
296.448	798.69
296.679	785.69
296.909	800.69
297.14	793.69
297.37	815.69
297.601	805.69
297.831	830.69
298.062	828.69
298.292	856.69
298.523	842.69
298.753	854.69
298.984	857.69
299.214	846.69
299.445	848.69
299.675	845.69
299.905	871.69
300.136	863.69
300.366	911.69
300.597	895.69
300.827	873.69
301.057	901.69
301.288	849.69
301.518	856.69
301.748	892.69
301.979	897.69
302.209	890.69
302.439	889.69
302.669	890.69
302.9	887.69
303.13	879.69
303.36	889.69
303.59	917.69
303.82	919.69
304.051	906.69
304.281	932.69
304.511	906.69
304.741	903.69
304.971	934.69
305.201	949.69
305.431	934.69
305.661	929.69
305.891	930.69
306.121	931.69
306.352	932.69
306.582	912.69
306.812	901.69
307.042	924.69
307.272	919.69
307.502	904.69
307.731	978.69
307.961	895.69
308.191	926.69
308.421	935.69
308.651	915.69
308.881	902.69
309.111	926.69
309.341	934.69
309.571	963.69
309.8	950.69
310.03	945.69
310.26	973.69
310.49	955.69
310.72	967.69
310.949	930.69
311.179	948.69
311.409	967.69
311.639	972.69
311.868	965.69
312.098	1014.69
312.328	967.69
312.557	986.69
312.787	989.69
313.017	972.69
313.246	991.69
313.476	1015.69
313.706	1037.69
313.935	1025.69
314.165	1035.69
314.394	1028.69
314.624	1000.69
314.853	1017.69
315.083	1034.69
315.312	1039.69
315.542	1044.69
315.771	1027.69
316.001	1029.69
316.23	1050.69
316.46	1033.69
316.689	1057.69
316.919	1056.69
317.148	1028.69
317.377	1046.69
317.607	1069.69
317.836	1068.69
318.065	1085.69
318.295	1073.69
318.524	1050.69
318.753	1080.69
318.983	1094.69
319.212	1067.69
319.441	1077.69
319.67	1112.69
319.9	1118.69
320.129	1104.69
320.358	1081.69
320.587	1101.69
320.816	1137.69
321.046	1108.69
321.275	1115.69
321.504	1124.69
321.733	1105.69
321.962	1104.69
322.191	1117.69
322.42	1131.69
322.649	1130.69
322.878	1127.69
323.108	1141.69
323.337	1125.69
323.566	1158.69
323.795	1173.69
324.024	1184.69
324.253	1191.69
324.482	1190.69
324.71	1151.69
324.939	1164.69
325.168	1179.69
325.397	1173.69
325.626	1168.69
325.855	1169.69
326.084	1165.69
326.313	1192.69
326.542	1195.69
326.77	1200.69
326.999	1203.69
327.228	1229.69
327.457	1211.69
327.686	1207.69
327.914	1193.69
328.143	1230.69
328.372	1194.69
328.6	1233.69
328.829	1209.69
329.058	1211.69
329.287	1223.69
329.515	1223.69
329.744	1242.69
329.972	1248.69
330.201	1241.69
330.43	1251.69
330.658	1246.69
330.887	1225.69
331.115	1236.69
331.344	1263.69
331.572	1258.69
331.801	1267.69
332.03	1274.69
332.258	1233.69
332.486	1268.69
332.715	1277.69
332.943	1270.69
333.172	1267.69
333.4	1302.69
333.629	1273.69
333.857	1255.69
334.085	1311.69
334.314	1325.69
334.542	1303.69
334.771	1315.69
334.999	1324.69
335.227	1298.69
335.455	1300.69
335.684	1317.69
335.912	1353.69
336.14	1330.69
336.369	1347.69
336.597	1356.69
336.825	1323.69
337.053	1342.69
337.281	1389.69
337.51	1323.69
337.738	1344.69
337.966	1335.69
338.194	1362.69
338.422	1368.69
338.65	1315.69
338.878	1344.69
339.106	1346.69
339.334	1340.69
339.562	1308.69
339.79	1291.69
340.018	1292.69
340.246	1295.69
340.474	1317.69
340.702	1337.69
340.93	1310.69
341.158	1290.69
341.386	1325.69
341.614	1344.69
341.842	1362.69
342.07	1285.69
342.298	1307.69
342.526	1337.69
342.754	1316.69
342.981	1298.69
343.209	1315.69
343.437	1343.69
343.665	1363.69
343.893	1333.69
344.12	1310.69
344.348	1331.69
344.576	1345.69
344.804	1357.69
345.031	1307.69
345.259	1339.69
345.487	1376.69
345.714	1344.69
345.942	1319.69
346.17	1367.69
346.397	1344.69
346.625	1321.69
346.853	1301.69
347.08	1272.69
347.308	1290.69
347.535	1259.69
347.763	1280.69
347.99	1230.69
348.218	1287.69
348.445	1297.69
348.673	1254.69
348.9	1287.69
349.128	1315.69
349.355	1292.69
349.583	1307.69
349.81	1285.69
350.037	1274.69
350.265	1268.69
350.492	1283.69
350.72	1273.69
350.947	1311.69
351.174	1314.69
351.402	1329.69
351.629	1293.69
351.856	1292.69
352.083	1280.69
352.311	1278.69
352.538	1277.69
352.765	1316.69
352.992	1240.69
353.22	1272.69
353.447	1254.69
353.674	1235.69
353.901	1221.69
354.128	1251.69
354.355	1254.69
354.583	1262.69
354.81	1248.69
355.037	1280.69
355.264	1232.69
355.491	1240.69
355.718	1224.69
355.945	1256.69
356.172	1278.69
356.399	1271.69
356.626	1284.69
356.853	1304.69
357.08	1248.69
357.307	1223.69
357.534	1245.69
357.761	1242.69
357.988	1258.69
358.215	1254.69
358.441	1231.69
358.668	1227.69
358.895	1259.69
359.122	1233.69
359.349	1267.69
359.576	1271.69
359.802	1278.69
360.029	1251.69
360.256	1263.69
360.483	1255.69
360.709	1243.69
360.936	1259.69
361.163	1285.69
361.39	1259.69
361.616	1249.69
361.843	1279.69
362.07	1331.69
362.296	1312.69
362.523	1243.69
362.749	1252.69
362.976	1258.69
363.203	1227.69
363.429	1235.69
363.656	1269.69
363.882	1258.69
364.109	1245.69
364.335	1247.69
364.562	1241.69
364.788	1244.69
365.015	1296.69
365.241	1262.69
365.468	1237.69
365.694	1273.69
365.92	1269.69
366.147	1273.69
366.373	1271.69
366.599	1258.69
366.826	1249.69
367.052	1276.69
367.278	1266.69
367.505	1246.69
367.731	1301.69
367.957	1299.69
368.184	1243.69
368.41	1272.69
368.636	1307.69
368.862	1292.69
369.089	1284.69
369.315	1258.69
369.541	1273.69
369.767	1280.69
369.993	1283.69
370.219	1269.69
370.445	1308.69
370.672	1279.69
370.898	1300.69
371.124	1274.69
371.35	1317.69
371.576	1318.69
371.802	1272.69
372.028	1313.69
372.254	1297.69
372.48	1260.69
372.706	1304.69
372.932	1308.69
373.158	1264.69
373.384	1274.69
373.61	1258.69
373.835	1298.69
374.061	1253.69
374.287	1299.69
374.513	1263.69
374.739	1299.69
374.965	1292.69
375.191	1295.69
375.416	1293.69
375.642	1276.69
375.868	1282.69
376.094	1243.69
376.319	1254.69
376.545	1275.69
376.771	1262.69
376.997	1247.69
377.222	1273.69
377.448	1267.69
377.674	1263.69
377.899	1239.69
378.125	1255.69
378.35	1257.69
378.576	1247.69
378.802	1256.69
379.027	1239.69
379.253	1222.69
379.478	1230.69
379.704	1214.69
379.929	1267.69
380.155	1221.69
380.38	1233.69
380.606	1275.69
380.831	1250.69
381.057	1280.69
381.282	1230.69
381.507	1252.69
381.733	1250.69
381.958	1236.69
382.184	1269.69
382.409	1262.69
382.634	1259.69
382.86	1256.69
383.085	1288.69
383.31	1279.69
383.535	1264.69
383.761	1263.69
383.986	1304.69
384.211	1244.69
384.436	1270.69
384.662	1265.69
384.887	1293.69
385.112	1277.69
385.337	1289.69
385.562	1283.69
385.787	1279.69
386.013	1326.69
386.238	1322.69
386.463	1314.69
386.688	1337.69
386.913	1292.69
387.138	1328.69
387.363	1303.69
387.588	1333.69
387.813	1313.69
388.038	1307.69
388.263	1334.69
388.488	1309.69
388.713	1315.69
388.938	1345.69
389.163	1323.69
389.387	1329.69
389.612	1291.69
389.837	1325.69
390.062	1322.69
390.287	1317.69
390.512	1301.69
390.736	1299.69
390.961	1319.69
391.186	1306.69
391.411	1315.69
391.636	1309.69
391.86	1337.69
392.085	1343.69
392.31	1321.69
392.534	1331.69
392.759	1351.69
392.984	1325.69
393.208	1338.69
393.433	1331.69
393.658	1308.69
393.882	1318.69
394.107	1357.69
394.331	1297.69
394.556	1339.69
394.78	1319.69
395.005	1334.69
395.229	1322.69
395.454	1302.69
395.678	1324.69
395.903	1330.69
396.127	1343.69
396.352	1361.69
396.576	1310.69
396.801	1323.69
397.025	1329.69
397.249	1370.69
397.474	1350.69
397.698	1354.69
397.922	1368.69
398.147	1370.69
398.371	1360.69
398.595	1384.69
398.82	1407.69
399.044	1403.69
399.268	1412.69
399.492	1416.69
399.717	1486.69
399.941	1438.69
400.165	1439.69
400.389	1473.69
400.613	1451.69
400.837	1424.69
401.062	1439.69
401.286	1415.69
401.51	1420.69
401.734	1400.69
401.958	1409.69
402.182	1425.69
402.406	1379.69
402.63	1424.69
402.854	1442.69
403.078	1413.69
403.302	1429.69
403.526	1424.69
403.75	1398.69
403.974	1404.69
404.198	1372.69
404.422	1399.69
404.645	1403.69
404.869	1427.69
405.093	1437.69
405.317	1434.69
405.541	1454.69
405.765	1401.69
405.988	1431.69
406.212	1470.69
406.436	1441.69
406.66	1482.69
406.883	1446.69
407.107	1486.69
407.331	1481.69
407.555	1477.69
407.778	1500.69
408.002	1498.69
408.226	1521.69
408.449	1531.69
408.673	1506.69
408.896	1481.69
409.12	1463.69
409.344	1503.69
409.567	1468.69
409.791	1443.69
410.014	1441.69
410.238	1455.69
410.461	1483.69
410.685	1469.69
410.908	1441.69
411.132	1447.69
411.355	1412.69
411.578	1464.69
411.802	1471.69
412.025	1437.69
412.249	1483.69
412.472	1429.69
412.695	1415.69
412.919	1399.69
413.142	1430.69
413.365	1416.69
413.589	1459.69
413.812	1403.69
414.035	1396.69
414.258	1402.69
414.482	1431.69
414.705	1402.69
414.928	1413.69
415.151	1430.69
415.374	1435.69
415.597	1399.69
415.821	1400.69
416.044	1396.69
416.267	1389.69
416.49	1385.69
416.713	1379.69
416.936	1398.69
417.159	1384.69
417.382	1325.69
417.605	1379.69
417.828	1349.69
418.051	1395.69
418.274	1357.69
418.497	1352.69
418.72	1369.69
418.943	1333.69
419.166	1371.69
419.389	1518.69
419.611	1472.69
419.834	1380.69
420.057	1385.69
420.28	1380.69
420.503	1365.69
420.726	1344.69
420.948	1349.69
421.171	1321.69
421.394	1372.69
421.617	1345.69
421.839	1347.69
422.062	1374.69
422.285	1318.69
422.507	1395.69
422.73	1362.69
422.953	1379.69
423.175	1348.69
423.398	1376.69
423.621	1361.69
423.843	1355.69
424.066	1349.69
424.288	1349.69
424.511	1355.69
424.733	1350.69
424.956	1331.69
425.178	1356.69
425.401	1369.69
425.623	1377.69
425.846	1343.69
426.068	1369.69
426.291	1350.69
426.513	1398.69
426.735	1332.69
426.958	1339.69
427.18	1288.69
427.402	1393.69
427.625	1371.69
427.847	1347.69
428.069	1354.69
428.292	1369.69
428.514	1349.69
428.736	1356.69
428.958	1384.69
429.181	1359.69
429.403	1352.69
429.625	1386.69
429.847	1372.69
430.069	1376.69
430.292	1340.69
430.514	1365.69
430.736	1348.69
430.958	1351.69
431.18	1353.69
431.402	1374.69
431.624	1341.69
431.846	1312.69
432.068	1319.69
432.29	1349.69
432.512	1344.69
432.734	1377.69
432.956	1341.69
433.178	1436.69
433.4	1387.69
433.622	1405.69
433.844	1425.69
434.066	1401.69
434.287	1388.69
434.509	1350.69
434.731	1335.69
434.953	1353.69
435.175	1416.69
435.397	1413.69
435.618	1370.69
435.84	1411.69
436.062	1375.69
436.284	1329.69
436.505	1368.69
436.727	1387.69
436.949	1379.69
437.17	1353.69
437.392	1388.69
437.614	1341.69
437.835	1309.69
438.057	1326.69
438.278	1308.69
438.5	1318.69
438.721	1304.69
438.943	1300.69
439.165	1339.69
439.386	1355.69
439.608	1356.69
439.829	1334.69
440.05	1335.69
440.272	1362.69
440.493	1310.69
440.715	1345.69
440.936	1371.69
441.158	1345.69
441.379	1358.69
441.6	1383.69
441.822	1343.69
442.043	1375.69
442.264	1342.69
442.486	1349.69
442.707	1369.69
442.928	1347.69
443.149	1361.69
443.371	1345.69
443.592	1403.69
443.813	1403.69
444.034	1363.69
444.255	1392.69
444.476	1395.69
444.698	1358.69
444.919	1373.69
445.14	1503.69
445.361	1410.69
445.582	1370.69
445.803	1347.69
446.024	1326.69
446.245	1371.69
446.466	1325.69
446.687	1322.69
446.908	1344.69
447.129	1316.69
447.35	1323.69
447.571	1288.69
447.792	1291.69
448.013	1289.69
448.234	1291.69
448.455	1261.69
448.675	1243.69
448.896	1222.69
449.117	1253.69
449.338	1260.69
449.559	1275.69
449.779	1255.69
450	1253.69
450.221	1241.69
450.442	1261.69
450.662	1253.69
450.883	1269.69
451.104	1233.69
451.324	1263.69
451.545	1248.69
451.766	1251.69
451.986	1203.69
452.207	1235.69
452.428	1247.69
452.648	1256.69
452.869	1191.69
453.089	1251.69
453.31	1254.69
453.53	1223.69
453.751	1160.69
453.971	1228.69
454.192	1243.69
454.412	1214.69
454.633	1200.69
454.853	1229.69
455.073	1249.69
455.294	1226.69
455.514	1227.69
455.734	1240.69
455.955	1239.69
456.175	1235.69
456.395	1189.69
456.616	1193.69
456.836	1214.69
457.056	1179.69
457.276	1213.69
457.497	1229.69
457.717	1201.69
457.937	1244.69
458.157	1236.69
458.377	1228.69
458.598	1239.69
458.818	1253.69
459.038	1277.69
459.258	1233.69
459.478	1291.69
459.698	1321.69
459.918	1341.69
460.138	1337.69
460.358	1331.69
460.578	1279.69
460.798	1345.69
461.018	1377.69
461.238	1339.69
461.458	1313.69
461.678	1297.69
461.898	1304.69
462.118	1313.69
462.338	1358.69
462.558	1374.69
462.777	1370.69
462.997	1412.69
463.217	1390.69
463.437	1443.69
463.657	1419.69
463.876	1395.69
464.096	1367.69
464.316	1383.69
464.536	1365.69
464.755	1393.69
464.975	1350.69
465.195	1319.69
465.414	1331.69
465.634	1308.69
465.854	1293.69
466.073	1300.69
466.293	1308.69
466.512	1286.69
466.732	1297.69
466.951	1320.69
467.171	1296.69
467.391	1298.69
467.61	1279.69
467.829	1317.69
468.049	1317.69
468.268	1296.69
468.488	1276.69
468.707	1301.69
468.927	1309.69
469.146	1298.69
469.365	1315.69
469.585	1273.69
469.804	1335.69
470.023	1315.69
470.243	1297.69
470.462	1309.69
470.681	1296.69
470.901	1291.69
471.12	1275.69
471.339	1296.69
471.558	1320.69
471.777	1296.69
471.997	1306.69
472.216	1339.69
472.435	1331.69
472.654	1324.69
472.873	1324.69
473.092	1338.69
473.311	1323.69
473.53	1331.69
473.749	1357.69
473.968	1390.69
474.187	1323.69
474.406	1303.69
474.625	1336.69
474.844	1343.69
475.063	1361.69
475.282	1397.69
475.501	1416.69
475.72	1393.69
475.939	1399.69
476.158	1421.69
476.377	1443.69
476.596	1412.69
476.814	1400.69
477.033	1406.69
477.252	1429.69
477.471	1449.69
477.69	1456.69
477.908	1492.69
478.127	1496.69
478.346	1484.69
478.564	1504.69
478.783	1526.69
479.002	1563.69
479.22	1569.69
479.439	1559.69
479.658	1553.69
479.876	1550.69
480.095	1524.69
480.313	1541.69
480.532	1540.69
480.751	1569.69
480.969	1553.69
481.188	1539.69
481.406	1558.69
481.624	1539.69
481.843	1570.69
482.061	1574.69
482.28	1603.69
482.498	1573.69
482.717	1571.69
482.935	1583.69
483.153	1667.69
483.372	1659.69
483.59	1699.69
483.808	1616.69
484.027	1638.69
484.245	1675.69
484.463	1654.69
484.681	1685.69
484.9	1667.69
485.118	1659.69
485.336	1617.69
485.554	1639.69
485.772	1653.69
485.99	1630.69
486.209	1631.69
486.427	1649.69
486.645	1667.69
486.863	1685.69
487.081	1649.69
487.299	1710.69
487.517	1661.69
487.735	1665.69
487.953	1688.69
488.171	1696.69
488.389	1696.69
488.607	1690.69
488.825	1669.69
489.043	1697.69
489.261	1658.69
489.479	1636.69
489.696	1671.69
489.914	1656.69
490.132	1652.69
490.35	1681.69
490.568	1700.69
490.786	1672.69
