Data from Ni(NO3)2@0.125M.TitratingCurve.Agarose3%dH2O.NegLispCup.LampEnergy10.LIBS07252019_HRD10591_18-08-29-567.txt Node
Date: Thu Jul 25 18:08:29 EDT 2019
User: cochatt
Spectrometer: HR+D1059
Trigger mode: 1
Integration Time (sec): 1.000000E-1
Scans to average: 1
Electric dark correction enabled: true
Nonlinearity correction enabled: false
Boxcar width: 0
XAxis mode: Wavelengths
Number of Pixels in Spectrum: 2048
>>>>>Begin Spectral Data<<<<<
223.165	-9.81
223.4	-9.81
223.635	-9.81
223.869	-20.81
224.104	-11.81
224.338	-0.81
224.573	-7.81
224.808	-25.81
225.042	-0.81
225.277	-10.81
225.511	0.19
225.746	-6.81
225.98	5.19
226.215	19.19
226.449	16.19
226.683	9.19
226.918	17.19
227.152	28.19
227.387	35.19
227.621	21.19
227.856	45.19
228.09	50.19
228.324	64.19
228.559	63.19
228.793	86.19
229.027	137.19
229.262	137.19
229.496	136.19
229.73	148.19
229.964	165.19
230.199	159.19
230.433	170.19
230.667	173.19
230.901	146.19
231.136	156.19
231.37	162.19
231.604	180.19
231.838	188.19
232.072	187.19
232.306	183.19
232.541	183.19
232.775	180.19
233.009	184.19
233.243	173.19
233.477	184.19
233.711	180.19
233.945	189.19
234.179	202.19
234.413	162.19
234.647	188.19
234.881	201.19
235.115	189.19
235.349	183.19
235.583	195.19
235.817	188.19
236.051	194.19
236.285	207.19
236.519	216.19
236.753	180.19
236.987	191.19
237.221	203.19
237.455	204.19
237.689	198.19
237.922	211.19
238.156	219.19
238.39	207.19
238.624	219.19
238.858	215.19
239.091	230.19
239.325	231.19
239.559	235.19
239.793	226.19
240.027	230.19
240.26	231.19
240.494	232.19
240.728	244.19
240.961	219.19
241.195	251.19
241.429	263.19
241.662	261.19
241.896	278.19
242.13	259.19
242.363	270.19
242.597	255.19
242.83	264.19
243.064	273.19
243.298	267.19
243.531	274.19
243.765	273.19
243.998	289.19
244.232	289.19
244.465	294.19
244.699	279.19
244.932	291.19
245.166	286.19
245.399	310.19
245.633	279.19
245.866	292.19
246.099	310.19
246.333	301.19
246.566	307.19
246.8	317.19
247.033	309.19
247.266	324.19
247.5	336.19
247.733	316.19
247.966	294.19
248.2	311.19
248.433	305.19
248.666	340.19
248.899	334.19
249.133	326.19
249.366	326.19
249.599	356.19
249.832	328.19
250.066	345.19
250.299	359.19
250.532	348.19
250.765	361.19
250.998	349.19
251.231	344.19
251.465	363.19
251.698	380.19
251.931	375.19
252.164	388.19
252.397	398.19
252.63	377.19
252.863	375.19
253.096	413.19
253.329	390.19
253.562	380.19
253.795	407.19
254.028	392.19
254.261	393.19
254.494	402.19
254.727	395.19
254.96	397.19
255.193	407.19
255.426	419.19
255.659	424.19
255.892	428.19
256.124	425.19
256.357	422.19
256.59	405.19
256.823	435.19
257.056	427.19
257.289	450.19
257.521	431.19
257.754	432.19
257.987	425.19
258.22	435.19
258.452	441.19
258.685	459.19
258.918	456.19
259.151	451.19
259.383	479.19
259.616	453.19
259.849	447.19
260.081	454.19
260.314	454.19
260.547	470.19
260.779	444.19
261.012	488.19
261.244	497.19
261.477	469.19
261.71	486.19
261.942	484.19
262.175	470.19
262.407	491.19
262.64	489.19
262.872	472.19
263.105	492.19
263.337	495.19
263.57	509.19
263.802	500.19
264.035	511.19
264.267	496.19
264.499	514.19
264.732	529.19
264.964	504.19
265.197	517.19
265.429	541.19
265.661	516.19
265.894	524.19
266.126	530.19
266.358	538.19
266.591	525.19
266.823	535.19
267.055	522.19
267.287	558.19
267.52	525.19
267.752	528.19
267.984	558.19
268.216	539.19
268.448	558.19
268.681	567.19
268.913	537.19
269.145	551.19
269.377	544.19
269.609	545.19
269.841	566.19
270.073	568.19
270.306	568.19
270.538	573.19
270.77	563.19
271.002	581.19
271.234	547.19
271.466	561.19
271.698	565.19
271.93	580.19
272.162	555.19
272.394	571.19
272.626	586.19
272.858	577.19
273.09	587.19
273.322	596.19
273.553	575.19
273.785	610.19
274.017	592.19
274.249	584.19
274.481	615.19
274.713	602.19
274.945	607.19
275.176	621.19
275.408	617.19
275.64	647.19
275.872	613.19
276.104	632.19
276.335	639.19
276.567	635.19
276.799	636.19
277.031	627.19
277.262	619.19
277.494	617.19
277.726	627.19
277.957	659.19
278.189	633.19
278.421	643.19
278.652	647.19
278.884	668.19
279.115	641.19
279.347	657.19
279.579	677.19
279.81	674.19
280.042	671.19
280.273	645.19
280.505	663.19
280.736	660.19
280.968	663.19
281.199	663.19
281.431	700.19
281.662	691.19
281.894	687.19
282.125	670.19
282.356	718.19
282.588	686.19
282.819	698.19
283.051	697.19
283.282	715.19
283.513	704.19
283.745	718.19
283.976	712.19
284.207	709.19
284.439	705.19
284.67	733.19
284.901	742.19
285.132	705.19
285.364	725.19
285.595	740.19
285.826	724.19
286.057	758.19
286.288	725.19
286.52	744.19
286.751	734.19
286.982	733.19
287.213	728.19
287.444	761.19
287.675	752.19
287.906	775.19
288.138	775.19
288.369	735.19
288.6	780.19
288.831	750.19
289.062	757.19
289.293	763.19
289.524	772.19
289.755	761.19
289.986	749.19
290.217	768.19
290.448	757.19
290.679	784.19
290.91	767.19
291.141	771.19
291.371	781.19
291.602	778.19
291.833	785.19
292.064	761.19
292.295	773.19
292.526	775.19
292.757	772.19
292.987	749.19
293.218	759.19
293.449	793.19
293.68	771.19
293.91	779.19
294.141	790.19
294.372	775.19
294.603	796.19
294.833	805.19
295.064	803.19
295.295	787.19
295.525	778.19
295.756	788.19
295.987	805.19
296.217	797.19
296.448	789.19
296.679	825.19
296.909	817.19
297.14	804.19
297.37	830.19
297.601	842.19
297.831	789.19
298.062	814.19
298.292	821.19
298.523	846.19
298.753	871.19
298.984	856.19
299.214	844.19
299.445	852.19
299.675	832.19
299.905	856.19
300.136	837.19
300.366	844.19
300.597	854.19
300.827	880.19
301.057	886.19
301.288	892.19
301.518	890.19
301.748	893.19
301.979	909.19
302.209	908.19
302.439	910.19
302.669	876.19
302.9	891.19
303.13	892.19
303.36	878.19
303.59	859.19
303.82	881.19
304.051	906.19
304.281	880.19
304.511	883.19
304.741	883.19
304.971	889.19
305.201	869.19
305.431	875.19
305.661	870.19
305.891	877.19
306.121	908.19
306.352	863.19
306.582	850.19
306.812	846.19
307.042	874.19
307.272	870.19
307.502	848.19
307.731	867.19
307.961	878.19
308.191	869.19
308.421	857.19
308.651	863.19
308.881	868.19
309.111	878.19
309.341	858.19
309.571	871.19
309.8	867.19
310.03	889.19
310.26	889.19
310.49	884.19
310.72	880.19
310.949	869.19
311.179	872.19
311.409	878.19
311.639	904.19
311.868	893.19
312.098	905.19
312.328	899.19
312.557	895.19
312.787	899.19
313.017	932.19
313.246	943.19
313.476	939.19
313.706	921.19
313.935	964.19
314.165	969.19
314.394	944.19
314.624	961.19
314.853	942.19
315.083	949.19
315.312	945.19
315.542	936.19
315.771	945.19
316.001	920.19
316.23	955.19
316.46	939.19
316.689	938.19
316.919	944.19
317.148	932.19
317.377	935.19
317.607	937.19
317.836	904.19
318.065	921.19
318.295	943.19
318.524	927.19
318.753	951.19
318.983	921.19
319.212	913.19
319.441	926.19
319.67	974.19
319.9	933.19
320.129	949.19
320.358	926.19
320.587	949.19
320.816	955.19
321.046	944.19
321.275	949.19
321.504	956.19
321.733	968.19
321.962	963.19
322.191	956.19
322.42	968.19
322.649	995.19
322.878	956.19
323.108	944.19
323.337	977.19
323.566	978.19
323.795	968.19
324.024	1020.19
324.253	1005.19
324.482	1001.19
324.71	999.19
324.939	1007.19
325.168	1001.19
325.397	987.19
325.626	1021.19
325.855	999.19
326.084	1027.19
326.313	1078.19
326.542	1050.19
326.77	1056.19
326.999	1032.19
327.228	1041.19
327.457	1029.19
327.686	1073.19
327.914	1042.19
328.143	1059.19
328.372	1036.19
328.6	1080.19
328.829	1064.19
329.058	1062.19
329.287	1080.19
329.515	1091.19
329.744	1086.19
329.972	1093.19
330.201	1095.19
330.43	1101.19
330.658	1085.19
330.887	1129.19
331.115	1129.19
331.344	1126.19
331.572	1159.19
331.801	1172.19
332.03	1184.19
332.258	1179.19
332.486	1290.19
332.715	1302.19
332.943	1329.19
333.172	1422.19
333.4	1495.19
333.629	1535.19
333.857	1542.19
334.085	1500.19
334.314	1467.19
334.542	1419.19
334.771	1422.19
334.999	1400.19
335.227	1361.19
335.455	1367.19
335.684	1345.19
335.912	1325.19
336.14	1317.19
336.369	1275.19
336.597	1294.19
336.825	1313.19
337.053	1304.19
337.281	1285.19
337.51	1239.19
337.738	1212.19
337.966	1224.19
338.194	1228.19
338.422	1209.19
338.65	1182.19
338.878	1204.19
339.106	1209.19
339.334	1203.19
339.562	1193.19
339.79	1157.19
340.018	1167.19
340.246	1101.19
340.474	1139.19
340.702	1114.19
340.93	1158.19
341.158	1143.19
341.386	1154.19
341.614	1181.19
341.842	1148.19
342.07	1128.19
342.298	1100.19
342.526	1135.19
342.754	1160.19
342.981	1165.19
343.209	1157.19
343.437	1237.19
343.665	1328.19
343.893	1408.19
344.12	1471.19
344.348	1414.19
344.576	1306.19
344.804	1273.19
345.031	1214.19
345.259	1179.19
345.487	1136.19
345.714	1144.19
345.942	1142.19
346.17	1152.19
346.397	1148.19
346.625	1113.19
346.853	1097.19
347.08	1091.19
347.308	1106.19
347.535	1106.19
347.763	1101.19
347.99	1120.19
348.218	1110.19
348.445	1112.19
348.673	1076.19
348.9	1115.19
349.128	1105.19
349.355	1101.19
349.583	1085.19
349.81	1064.19
350.037	1079.19
350.265	1035.19
350.492	1051.19
350.72	1035.19
350.947	1065.19
351.174	1069.19
351.402	1077.19
351.629	1064.19
351.856	1069.19
352.083	1086.19
352.311	1067.19
352.538	1094.19
352.765	1071.19
352.992	1012.19
353.22	1035.19
353.447	1007.19
353.674	1054.19
353.901	1058.19
354.128	1031.19
354.355	1055.19
354.583	1044.19
354.81	1031.19
355.037	1089.19
355.264	1056.19
355.491	1057.19
355.718	1051.19
355.945	1053.19
356.172	1048.19
356.399	1071.19
356.626	1078.19
356.853	1083.19
357.08	1086.19
357.307	1053.19
357.534	1070.19
357.761	1045.19
357.988	1059.19
358.215	1065.19
358.441	1083.19
358.668	1031.19
358.895	1050.19
359.122	1059.19
359.349	1062.19
359.576	1061.19
359.802	1070.19
360.029	1058.19
360.256	1086.19
360.483	1062.19
360.709	1037.19
360.936	1038.19
361.163	1041.19
361.39	1062.19
361.616	1056.19
361.843	1030.19
362.07	1059.19
362.296	1044.19
362.523	1059.19
362.749	1055.19
362.976	1033.19
363.203	1034.19
363.429	1064.19
363.656	1077.19
363.882	1019.19
364.109	1032.19
364.335	1041.19
364.562	1061.19
364.788	1038.19
365.015	1043.19
365.241	1023.19
365.468	1031.19
365.694	1057.19
365.92	1053.19
366.147	1029.19
366.373	1040.19
366.599	1070.19
366.826	1011.19
367.052	1055.19
367.278	1042.19
367.505	1046.19
367.731	1061.19
367.957	1069.19
368.184	1045.19
368.41	1060.19
368.636	1030.19
368.862	1056.19
369.089	1085.19
369.315	1052.19
369.541	1098.19
369.767	1111.19
369.993	1100.19
370.219	1061.19
370.445	1104.19
370.672	1094.19
370.898	1106.19
371.124	1113.19
371.35	1151.19
371.576	1145.19
371.802	1120.19
372.028	1125.19
372.254	1123.19
372.48	1159.19
372.706	1191.19
372.932	1164.19
373.158	1147.19
373.384	1152.19
373.61	1112.19
373.835	1169.19
374.061	1135.19
374.287	1141.19
374.513	1149.19
374.739	1165.19
374.965	1242.19
375.191	1260.19
375.416	1261.19
375.642	1179.19
375.868	1214.19
376.094	1177.19
376.319	1161.19
376.545	1151.19
376.771	1124.19
376.997	1128.19
377.222	1146.19
377.448	1143.19
377.674	1132.19
377.899	1073.19
378.125	1106.19
378.35	1105.19
378.576	1098.19
378.802	1090.19
379.027	1108.19
379.253	1102.19
379.478	1093.19
379.704	1118.19
379.929	1077.19
380.155	1087.19
380.38	1102.19
380.606	1104.19
380.831	1094.19
381.057	1135.19
381.282	1126.19
381.507	1141.19
381.733	1149.19
381.958	1164.19
382.184	1174.19
382.409	1171.19
382.634	1145.19
382.86	1192.19
383.085	1184.19
383.31	1199.19
383.535	1208.19
383.761	1243.19
383.986	1244.19
384.211	1294.19
384.436	1301.19
384.662	1326.19
384.887	1381.19
385.112	1356.19
385.337	1384.19
385.562	1373.19
385.787	1380.19
386.013	1379.19
386.238	1374.19
386.463	1383.19
386.688	1385.19
386.913	1329.19
387.138	1338.19
387.363	1344.19
387.588	1342.19
387.813	1303.19
388.038	1342.19
388.263	1334.19
388.488	1332.19
388.713	1364.19
388.938	1329.19
389.163	1307.19
389.387	1324.19
389.612	1288.19
389.837	1276.19
390.062	1291.19
390.287	1339.19
390.512	1302.19
390.736	1329.19
390.961	1350.19
391.186	1388.19
391.411	1440.19
391.636	1457.19
391.86	1496.19
392.085	1512.19
392.31	1560.19
392.534	1475.19
392.759	1463.19
392.984	1433.19
393.208	1434.19
393.433	1409.19
393.658	1421.19
393.882	1420.19
394.107	1400.19
394.331	1420.19
394.556	1438.19
394.78	1445.19
395.005	1451.19
395.229	1472.19
395.454	1519.19
395.678	1516.19
395.903	1514.19
396.127	1482.19
396.352	1453.19
396.576	1416.19
396.801	1432.19
397.025	1429.19
397.249	1451.19
397.474	1480.19
397.698	1534.19
397.922	1532.19
398.147	1483.19
398.371	1555.19
398.595	1583.19
398.82	1686.19
399.044	1765.19
399.268	1969.19
399.492	2358.19
399.717	2699.19
399.941	2685.19
400.165	2362.19
400.389	2083.19
400.613	1927.19
400.837	1846.19
401.062	1717.19
401.286	1741.19
401.51	1721.19
401.734	1686.19
401.958	1702.19
402.182	1769.19
402.406	1716.19
402.63	1770.19
402.854	1843.19
403.078	1851.19
403.302	1889.19
403.526	1945.19
403.75	1975.19
403.974	2025.19
404.198	2026.19
404.422	1991.19
404.645	2051.19
404.869	1922.19
405.093	1956.19
405.317	1941.19
405.541	1937.19
405.765	1916.19
405.988	1879.19
406.212	1851.19
406.436	1891.19
406.66	1917.19
406.883	1968.19
407.107	2104.19
407.331	2176.19
407.555	2235.19
407.778	2235.19
408.002	2212.19
408.226	2083.19
408.449	2038.19
408.673	2025.19
408.896	1940.19
409.12	1898.19
409.344	1938.19
409.567	1901.19
409.791	1926.19
410.014	1910.19
410.238	1893.19
410.461	1904.19
410.685	1862.19
410.908	1788.19
411.132	1805.19
411.355	1760.19
411.578	1759.19
411.802	1751.19
412.025	1776.19
412.249	1765.19
412.472	1819.19
412.695	1759.19
412.919	1699.19
413.142	1725.19
413.365	1706.19
413.589	1739.19
413.812	1687.19
414.035	1689.19
414.258	1672.19
414.482	1703.19
414.705	1717.19
414.928	1711.19
415.151	1693.19
415.374	1726.19
415.597	1652.19
415.821	1691.19
416.044	1709.19
416.267	1661.19
416.49	1662.19
416.713	1690.19
416.936	1725.19
417.159	1699.19
417.382	1684.19
417.605	1670.19
417.828	1671.19
418.051	1691.19
418.274	1663.19
418.497	1699.19
418.72	1740.19
418.943	1735.19
419.166	1859.19
419.389	1990.19
419.611	1923.19
419.834	1862.19
420.057	1807.19
420.28	1741.19
420.503	1679.19
420.726	1700.19
420.948	1691.19
421.171	1693.19
421.394	1687.19
421.617	1695.19
421.839	1732.19
422.062	1772.19
422.285	1695.19
422.507	1762.19
422.73	1760.19
422.953	1776.19
423.175	1836.19
423.398	1826.19
423.621	1837.19
423.843	1863.19
424.066	1871.19
424.288	1820.19
424.511	1832.19
424.733	1811.19
424.956	1773.19
425.178	1772.19
425.401	1736.19
425.623	1731.19
425.846	1654.19
426.068	1638.19
426.291	1637.19
426.513	1599.19
426.735	1646.19
426.958	1608.19
427.18	1551.19
427.402	1550.19
427.625	1571.19
427.847	1499.19
428.069	1512.19
428.292	1524.19
428.514	1514.19
428.736	1499.19
428.958	1515.19
429.181	1457.19
429.403	1468.19
429.625	1479.19
429.847	1454.19
430.069	1464.19
430.292	1475.19
430.514	1475.19
430.736	1481.19
430.958	1479.19
431.18	1470.19
431.402	1493.19
431.624	1519.19
431.846	1514.19
432.068	1528.19
432.29	1530.19
432.512	1498.19
432.734	1593.19
432.956	1512.19
433.178	1500.19
433.4	1504.19
433.622	1543.19
433.844	1564.19
434.066	1554.19
434.287	1548.19
434.509	1600.19
434.731	1703.19
434.953	1712.19
435.175	1732.19
435.397	1717.19
435.618	1627.19
435.84	1584.19
436.062	1514.19
436.284	1510.19
436.505	1516.19
436.727	1517.19
436.949	1530.19
437.17	1515.19
437.392	1511.19
437.614	1506.19
437.835	1455.19
438.057	1478.19
438.278	1443.19
438.5	1447.19
438.721	1436.19
438.943	1452.19
439.165	1419.19
439.386	1496.19
439.608	1479.19
439.829	1502.19
440.05	1494.19
440.272	1495.19
440.493	1496.19
440.715	1556.19
440.936	1600.19
441.158	1624.19
441.379	1635.19
441.6	1755.19
441.822	1787.19
442.043	1731.19
442.264	1706.19
442.486	1672.19
442.707	1716.19
442.928	1709.19
443.149	1724.19
443.371	1658.19
443.592	1694.19
443.813	1772.19
444.034	1731.19
444.255	1817.19
444.476	1885.19
444.698	2044.19
444.919	2147.19
445.14	2190.19
445.361	1950.19
445.582	1792.19
445.803	1660.19
446.024	1651.19
446.245	1599.19
446.466	1582.19
446.687	1571.19
446.908	1550.19
447.129	1493.19
447.35	1491.19
447.571	1453.19
447.792	1425.19
448.013	1431.19
448.234	1422.19
448.455	1383.19
448.675	1426.19
448.896	1380.19
449.117	1360.19
449.338	1374.19
449.559	1369.19
449.779	1355.19
450	1368.19
450.221	1365.19
450.442	1379.19
450.662	1395.19
450.883	1416.19
451.104	1412.19
451.324	1419.19
451.545	1423.19
451.766	1413.19
451.986	1385.19
452.207	1391.19
452.428	1377.19
452.648	1376.19
452.869	1382.19
453.089	1344.19
453.31	1369.19
453.53	1356.19
453.751	1355.19
453.971	1345.19
454.192	1362.19
454.412	1291.19
454.633	1329.19
454.853	1310.19
455.073	1276.19
455.294	1306.19
455.514	1284.19
455.734	1291.19
455.955	1281.19
456.175	1291.19
456.395	1279.19
456.616	1273.19
456.836	1287.19
457.056	1257.19
457.276	1291.19
457.497	1326.19
457.717	1285.19
457.937	1288.19
458.157	1308.19
458.377	1312.19
458.598	1332.19
458.818	1380.19
459.038	1411.19
459.258	1523.19
459.478	1543.19
459.698	1620.19
459.918	1626.19
460.138	1717.19
460.358	1840.19
460.578	1877.19
460.798	1879.19
461.018	1828.19
461.238	1845.19
461.458	1795.19
461.678	1820.19
461.898	1832.19
462.118	1829.19
462.338	1921.19
462.558	1987.19
462.777	2101.19
462.997	2278.19
463.217	2551.19
463.437	2524.19
463.657	2271.19
463.876	2137.19
464.096	2102.19
464.316	2133.19
464.536	2161.19
464.755	2077.19
464.975	1980.19
465.195	1891.19
465.414	1795.19
465.634	1686.19
465.854	1587.19
466.073	1557.19
466.293	1531.19
466.512	1484.19
466.732	1445.19
466.951	1466.19
467.171	1466.19
467.391	1499.19
467.61	1465.19
467.829	1437.19
468.049	1447.19
468.268	1379.19
468.488	1358.19
468.707	1393.19
468.927	1413.19
469.146	1376.19
469.365	1405.19
469.585	1417.19
469.804	1446.19
470.023	1491.19
470.243	1527.19
470.462	1511.19
470.681	1543.19
470.901	1509.19
471.12	1494.19
471.339	1459.19
471.558	1431.19
471.777	1403.19
471.997	1395.19
472.216	1426.19
472.435	1428.19
472.654	1342.19
472.873	1336.19
473.092	1359.19
473.311	1321.19
473.53	1364.19
473.749	1339.19
473.968	1323.19
474.187	1337.19
474.406	1328.19
474.625	1357.19
474.844	1338.19
475.063	1334.19
475.282	1343.19
475.501	1381.19
475.72	1383.19
475.939	1392.19
476.158	1411.19
476.377	1427.19
476.596	1430.19
476.814	1453.19
477.033	1416.19
477.252	1466.19
477.471	1517.19
477.69	1510.19
477.908	1575.19
478.127	1638.19
478.346	1660.19
478.564	1659.19
478.783	1681.19
479.002	1753.19
479.22	1745.19
479.439	1700.19
479.658	1676.19
479.876	1727.19
480.095	1709.19
480.313	1819.19
480.532	1882.19
480.751	1892.19
480.969	1790.19
481.188	1709.19
481.406	1672.19
481.624	1595.19
481.843	1589.19
482.061	1542.19
482.28	1534.19
482.498	1532.19
482.717	1534.19
482.935	1557.19
483.153	1549.19
483.372	1563.19
483.59	1553.19
483.808	1532.19
484.027	1507.19
484.245	1551.19
484.463	1581.19
484.681	1551.19
484.9	1581.19
485.118	1614.19
485.336	1603.19
485.554	1578.19
485.772	1636.19
485.99	1644.19
486.209	1637.19
486.427	1657.19
486.645	1619.19
486.863	1629.19
487.081	1620.19
487.299	1621.19
487.517	1603.19
487.735	1596.19
487.953	1621.19
488.171	1651.19
488.389	1624.19
488.607	1634.19
488.825	1592.19
489.043	1587.19
489.261	1580.19
489.479	1601.19
489.696	1637.19
489.914	1622.19
490.132	1619.19
490.35	1633.19
490.568	1668.19
490.786	1639.19
491.003	1649.19
491.221	1631.19
491.439	1658.19
