Data from Ni(NO3)2@0.5M.TitratingCurve.Agarose3%dH2O.NegLispCup.LampEnergy10.LIBS07252019_HRD10591_18-00-05-564.txt Node
Date: Thu Jul 25 18:00:05 EDT 2019
User: cochatt
Spectrometer: HR+D1059
Trigger mode: 1
Integration Time (sec): 1.000000E-1
Scans to average: 1
Electric dark correction enabled: true
Nonlinearity correction enabled: false
Boxcar width: 0
XAxis mode: Wavelengths
Number of Pixels in Spectrum: 2048
>>>>>Begin Spectral Data<<<<<
223.165	-8.25
223.4	-8.25
223.635	-8.25
223.869	-23.25
224.104	-29.25
224.338	-22.25
224.573	-20.25
224.808	-2.25
225.042	-2.25
225.277	-0.25
225.511	2.75
225.746	5.75
225.98	15.75
226.215	20.75
226.449	1.75
226.683	28.75
226.918	8.75
227.152	23.75
227.387	13.75
227.621	30.75
227.856	45.75
228.09	62.75
228.324	54.75
228.559	59.75
228.793	72.75
229.027	142.75
229.262	146.75
229.496	136.75
229.73	143.75
229.964	179.75
230.199	196.75
230.433	197.75
230.667	186.75
230.901	174.75
231.136	164.75
231.37	154.75
231.604	191.75
231.838	206.75
232.072	212.75
232.306	187.75
232.541	203.75
232.775	188.75
233.009	184.75
233.243	178.75
233.477	167.75
233.711	179.75
233.945	189.75
234.179	204.75
234.413	192.75
234.647	198.75
234.881	211.75
235.115	210.75
235.349	184.75
235.583	193.75
235.817	196.75
236.051	191.75
236.285	185.75
236.519	196.75
236.753	200.75
236.987	199.75
237.221	198.75
237.455	202.75
237.689	191.75
237.922	212.75
238.156	202.75
238.39	207.75
238.624	208.75
238.858	208.75
239.091	215.75
239.325	215.75
239.559	224.75
239.793	257.75
240.027	251.75
240.26	210.75
240.494	210.75
240.728	228.75
240.961	244.75
241.195	220.75
241.429	237.75
241.662	240.75
241.896	237.75
242.13	268.75
242.363	255.75
242.597	232.75
242.83	260.75
243.064	256.75
243.298	255.75
243.531	249.75
243.765	264.75
243.998	274.75
244.232	269.75
244.465	253.75
244.699	268.75
244.932	274.75
245.166	274.75
245.399	273.75
245.633	270.75
245.866	254.75
246.099	264.75
246.333	284.75
246.566	266.75
246.8	276.75
247.033	277.75
247.266	266.75
247.5	293.75
247.733	282.75
247.966	284.75
248.2	304.75
248.433	298.75
248.666	295.75
248.899	318.75
249.133	317.75
249.366	323.75
249.599	305.75
249.832	317.75
250.066	317.75
250.299	306.75
250.532	312.75
250.765	336.75
250.998	327.75
251.231	337.75
251.465	344.75
251.698	338.75
251.931	347.75
252.164	335.75
252.397	333.75
252.63	342.75
252.863	352.75
253.096	375.75
253.329	345.75
253.562	368.75
253.795	349.75
254.028	372.75
254.261	365.75
254.494	365.75
254.727	360.75
254.96	393.75
255.193	364.75
255.426	369.75
255.659	374.75
255.892	369.75
256.124	403.75
256.357	404.75
256.59	398.75
256.823	376.75
257.056	400.75
257.289	385.75
257.521	394.75
257.754	374.75
257.987	405.75
258.22	393.75
258.452	410.75
258.685	405.75
258.918	388.75
259.151	398.75
259.383	435.75
259.616	413.75
259.849	388.75
260.081	420.75
260.314	417.75
260.547	425.75
260.779	416.75
261.012	434.75
261.244	425.75
261.477	446.75
261.71	454.75
261.942	436.75
262.175	441.75
262.407	436.75
262.64	437.75
262.872	452.75
263.105	452.75
263.337	463.75
263.57	459.75
263.802	465.75
264.035	482.75
264.267	477.75
264.499	453.75
264.732	478.75
264.964	484.75
265.197	483.75
265.429	485.75
265.661	476.75
265.894	479.75
266.126	486.75
266.358	497.75
266.591	472.75
266.823	479.75
267.055	498.75
267.287	486.75
267.52	488.75
267.752	488.75
267.984	522.75
268.216	494.75
268.448	505.75
268.681	480.75
268.913	485.75
269.145	505.75
269.377	519.75
269.609	532.75
269.841	522.75
270.073	514.75
270.306	510.75
270.538	510.75
270.77	517.75
271.002	540.75
271.234	515.75
271.466	538.75
271.698	524.75
271.93	538.75
272.162	545.75
272.394	548.75
272.626	538.75
272.858	545.75
273.09	539.75
273.322	531.75
273.553	544.75
273.785	548.75
274.017	548.75
274.249	551.75
274.481	552.75
274.713	579.75
274.945	563.75
275.176	585.75
275.408	569.75
275.64	570.75
275.872	550.75
276.104	576.75
276.335	574.75
276.567	561.75
276.799	581.75
277.031	579.75
277.262	593.75
277.494	566.75
277.726	572.75
277.957	615.75
278.189	595.75
278.421	604.75
278.652	598.75
278.884	633.75
279.115	620.75
279.347	617.75
279.579	629.75
279.81	606.75
280.042	602.75
280.273	633.75
280.505	619.75
280.736	636.75
280.968	619.75
281.199	634.75
281.431	628.75
281.662	638.75
281.894	629.75
282.125	636.75
282.356	631.75
282.588	660.75
282.819	645.75
283.051	631.75
283.282	633.75
283.513	642.75
283.745	674.75
283.976	645.75
284.207	656.75
284.439	674.75
284.67	649.75
284.901	662.75
285.132	654.75
285.364	679.75
285.595	682.75
285.826	661.75
286.057	654.75
286.288	681.75
286.52	681.75
286.751	681.75
286.982	689.75
287.213	666.75
287.444	669.75
287.675	692.75
287.906	674.75
288.138	678.75
288.369	694.75
288.6	703.75
288.831	673.75
289.062	662.75
289.293	699.75
289.524	698.75
289.755	691.75
289.986	675.75
290.217	680.75
290.448	688.75
290.679	702.75
290.91	717.75
291.141	717.75
291.371	693.75
291.602	713.75
291.833	724.75
292.064	696.75
292.295	714.75
292.526	716.75
292.757	706.75
292.987	694.75
293.218	713.75
293.449	721.75
293.68	711.75
293.91	718.75
294.141	694.75
294.372	711.75
294.603	699.75
294.833	718.75
295.064	726.75
295.295	712.75
295.525	712.75
295.756	742.75
295.987	713.75
296.217	723.75
296.448	728.75
296.679	735.75
296.909	730.75
297.14	738.75
297.37	747.75
297.601	761.75
297.831	734.75
298.062	755.75
298.292	774.75
298.523	799.75
298.753	769.75
298.984	780.75
299.214	773.75
299.445	790.75
299.675	780.75
299.905	787.75
300.136	806.75
300.366	810.75
300.597	805.75
300.827	795.75
301.057	818.75
301.288	821.75
301.518	805.75
301.748	814.75
301.979	826.75
302.209	828.75
302.439	790.75
302.669	799.75
302.9	806.75
303.13	788.75
303.36	811.75
303.59	808.75
303.82	841.75
304.051	835.75
304.281	838.75
304.511	793.75
304.741	804.75
304.971	844.75
305.201	837.75
305.431	863.75
305.661	834.75
305.891	850.75
306.121	826.75
306.352	810.75
306.582	821.75
306.812	791.75
307.042	825.75
307.272	806.75
307.502	803.75
307.731	811.75
307.961	816.75
308.191	827.75
308.421	824.75
308.651	837.75
308.881	804.75
309.111	820.75
309.341	821.75
309.571	832.75
309.8	829.75
310.03	856.75
310.26	880.75
310.49	886.75
310.72	850.75
310.949	849.75
311.179	845.75
311.409	853.75
311.639	853.75
311.868	843.75
312.098	847.75
312.328	868.75
312.557	885.75
312.787	885.75
313.017	861.75
313.246	885.75
313.476	876.75
313.706	891.75
313.935	894.75
314.165	882.75
314.394	885.75
314.624	885.75
314.853	892.75
315.083	915.75
315.312	921.75
315.542	877.75
315.771	874.75
316.001	904.75
316.23	896.75
316.46	879.75
316.689	899.75
316.919	919.75
317.148	900.75
317.377	901.75
317.607	905.75
317.836	889.75
318.065	917.75
318.295	920.75
318.524	892.75
318.753	899.75
318.983	886.75
319.212	899.75
319.441	911.75
319.67	926.75
319.9	898.75
320.129	898.75
320.358	914.75
320.587	896.75
320.816	909.75
321.046	916.75
321.275	941.75
321.504	929.75
321.733	946.75
321.962	920.75
322.191	931.75
322.42	937.75
322.649	926.75
322.878	916.75
323.108	942.75
323.337	964.75
323.566	948.75
323.795	922.75
324.024	958.75
324.253	945.75
324.482	952.75
324.71	946.75
324.939	948.75
325.168	981.75
325.397	1000.75
325.626	969.75
325.855	993.75
326.084	971.75
326.313	988.75
326.542	977.75
326.77	1006.75
326.999	987.75
327.228	1000.75
327.457	984.75
327.686	994.75
327.914	1005.75
328.143	1036.75
328.372	1010.75
328.6	1016.75
328.829	1011.75
329.058	981.75
329.287	1004.75
329.515	990.75
329.744	1036.75
329.972	1052.75
330.201	1026.75
330.43	1038.75
330.658	1042.75
330.887	1065.75
331.115	1065.75
331.344	1093.75
331.572	1065.75
331.801	1060.75
332.03	1110.75
332.258	1068.75
332.486	1117.75
332.715	1117.75
332.943	1123.75
333.172	1140.75
333.4	1178.75
333.629	1210.75
333.857	1224.75
334.085	1205.75
334.314	1216.75
334.542	1240.75
334.771	1222.75
334.999	1212.75
335.227	1221.75
335.455	1205.75
335.684	1196.75
335.912	1244.75
336.14	1195.75
336.369	1173.75
336.597	1203.75
336.825	1234.75
337.053	1187.75
337.281	1186.75
337.51	1157.75
337.738	1181.75
337.966	1173.75
338.194	1172.75
338.422	1158.75
338.65	1090.75
338.878	1123.75
339.106	1141.75
339.334	1150.75
339.562	1140.75
339.79	1111.75
340.018	1104.75
340.246	1100.75
340.474	1074.75
340.702	1085.75
340.93	1089.75
341.158	1083.75
341.386	1124.75
341.614	1179.75
341.842	1129.75
342.07	1083.75
342.298	1085.75
342.526	1131.75
342.754	1074.75
342.981	1067.75
343.209	1105.75
343.437	1152.75
343.665	1191.75
343.893	1189.75
344.12	1214.75
344.348	1190.75
344.576	1188.75
344.804	1179.75
345.031	1157.75
345.259	1120.75
345.487	1144.75
345.714	1112.75
345.942	1108.75
346.17	1122.75
346.397	1100.75
346.625	1088.75
346.853	1045.75
347.08	1024.75
347.308	1033.75
347.535	1050.75
347.763	1030.75
347.99	1049.75
348.218	1036.75
348.445	1056.75
348.673	1014.75
348.9	1050.75
349.128	1049.75
349.355	1079.75
349.583	1058.75
349.81	1053.75
350.037	1023.75
350.265	1021.75
350.492	1019.75
350.72	1009.75
350.947	1029.75
351.174	1056.75
351.402	1057.75
351.629	1078.75
351.856	1064.75
352.083	1056.75
352.311	1051.75
352.538	1067.75
352.765	1064.75
352.992	1019.75
353.22	1006.75
353.447	1019.75
353.674	1024.75
353.901	1017.75
354.128	992.75
354.355	1017.75
354.583	1029.75
354.81	1018.75
355.037	981.75
355.264	1020.75
355.491	1038.75
355.718	1028.75
355.945	1004.75
356.172	993.75
356.399	1020.75
356.626	1026.75
356.853	1085.75
357.08	1032.75
357.307	1042.75
357.534	1030.75
357.761	1030.75
357.988	1004.75
358.215	1004.75
358.441	1004.75
358.668	1021.75
358.895	1012.75
359.122	1000.75
359.349	1003.75
359.576	1043.75
359.802	1020.75
360.029	1017.75
360.256	1028.75
360.483	1014.75
360.709	1032.75
360.936	1010.75
361.163	1044.75
361.39	1054.75
361.616	1033.75
361.843	1065.75
362.07	1081.75
362.296	1046.75
362.523	1043.75
362.749	1036.75
362.976	1010.75
363.203	999.75
363.429	999.75
363.656	1038.75
363.882	1014.75
364.109	1053.75
364.335	1012.75
364.562	1039.75
364.788	984.75
365.015	1043.75
365.241	1016.75
365.468	992.75
365.694	1010.75
365.92	1022.75
366.147	994.75
366.373	1028.75
366.599	1055.75
366.826	1032.75
367.052	1014.75
367.278	1061.75
367.505	1031.75
367.731	1053.75
367.957	1051.75
368.184	1041.75
368.41	1040.75
368.636	1057.75
368.862	1082.75
369.089	1041.75
369.315	1066.75
369.541	1044.75
369.767	1038.75
369.993	1061.75
370.219	1058.75
370.445	1086.75
370.672	1057.75
370.898	1080.75
371.124	1058.75
371.35	1086.75
371.576	1103.75
371.802	1091.75
372.028	1092.75
372.254	1116.75
372.48	1097.75
372.706	1115.75
372.932	1104.75
373.158	1100.75
373.384	1088.75
373.61	1104.75
373.835	1129.75
374.061	1076.75
374.287	1134.75
374.513	1111.75
374.739	1129.75
374.965	1164.75
375.191	1180.75
375.416	1144.75
375.642	1125.75
375.868	1117.75
376.094	1097.75
376.319	1117.75
376.545	1120.75
376.771	1092.75
376.997	1117.75
377.222	1104.75
377.448	1103.75
377.674	1054.75
377.899	1094.75
378.125	1095.75
378.35	1079.75
378.576	1082.75
378.802	1101.75
379.027	1050.75
379.253	1096.75
379.478	1096.75
379.704	1093.75
379.929	1069.75
380.155	1080.75
380.38	1068.75
380.606	1092.75
380.831	1092.75
381.057	1115.75
381.282	1098.75
381.507	1100.75
381.733	1070.75
381.958	1076.75
382.184	1110.75
382.409	1126.75
382.634	1128.75
382.86	1109.75
383.085	1124.75
383.31	1157.75
383.535	1138.75
383.761	1133.75
383.986	1173.75
384.211	1179.75
384.436	1173.75
384.662	1196.75
384.887	1202.75
385.112	1222.75
385.337	1216.75
385.562	1197.75
385.787	1254.75
386.013	1266.75
386.238	1245.75
386.463	1280.75
386.688	1244.75
386.913	1266.75
387.138	1277.75
387.363	1286.75
387.588	1249.75
387.813	1284.75
388.038	1246.75
388.263	1260.75
388.488	1256.75
388.713	1269.75
388.938	1248.75
389.163	1258.75
389.387	1258.75
389.612	1282.75
389.837	1260.75
390.062	1253.75
390.287	1257.75
390.512	1281.75
390.736	1288.75
390.961	1239.75
391.186	1300.75
391.411	1344.75
391.636	1333.75
391.86	1404.75
392.085	1403.75
392.31	1347.75
392.534	1342.75
392.759	1342.75
392.984	1312.75
393.208	1320.75
393.433	1347.75
393.658	1313.75
393.882	1303.75
394.107	1331.75
394.331	1330.75
394.556	1302.75
394.78	1339.75
395.005	1340.75
395.229	1300.75
395.454	1366.75
395.678	1368.75
395.903	1358.75
396.127	1404.75
396.352	1378.75
396.576	1381.75
396.801	1352.75
397.025	1381.75
397.249	1364.75
397.474	1395.75
397.698	1388.75
397.922	1462.75
398.147	1413.75
398.371	1448.75
398.595	1499.75
398.82	1536.75
399.044	1584.75
399.268	1688.75
399.492	1774.75
399.717	1878.75
399.941	1882.75
400.165	1832.75
400.389	1728.75
400.613	1642.75
400.837	1634.75
401.062	1548.75
401.286	1590.75
401.51	1538.75
401.734	1565.75
401.958	1544.75
402.182	1574.75
402.406	1554.75
402.63	1530.75
402.854	1536.75
403.078	1570.75
403.302	1576.75
403.526	1573.75
403.75	1572.75
403.974	1621.75
404.198	1591.75
404.422	1607.75
404.645	1594.75
404.869	1558.75
405.093	1631.75
405.317	1562.75
405.541	1606.75
405.765	1638.75
405.988	1605.75
406.212	1641.75
406.436	1642.75
406.66	1660.75
406.883	1676.75
407.107	1753.75
407.331	1796.75
407.555	1857.75
407.778	1812.75
408.002	1789.75
408.226	1799.75
408.449	1766.75
408.673	1725.75
408.896	1718.75
409.12	1672.75
409.344	1699.75
409.567	1680.75
409.791	1640.75
410.014	1651.75
410.238	1636.75
410.461	1622.75
410.685	1645.75
410.908	1611.75
411.132	1614.75
411.355	1557.75
411.578	1594.75
411.802	1555.75
412.025	1587.75
412.249	1592.75
412.472	1610.75
412.695	1549.75
412.919	1548.75
413.142	1571.75
413.365	1524.75
413.589	1533.75
413.812	1526.75
414.035	1482.75
414.258	1559.75
414.482	1509.75
414.705	1524.75
414.928	1554.75
415.151	1520.75
415.374	1516.75
415.597	1499.75
415.821	1456.75
416.044	1516.75
416.267	1505.75
416.49	1491.75
416.713	1494.75
416.936	1493.75
417.159	1496.75
417.382	1492.75
417.605	1468.75
417.828	1483.75
418.051	1500.75
418.274	1495.75
418.497	1453.75
418.72	1504.75
418.943	1480.75
419.166	1536.75
419.389	1694.75
419.611	1632.75
419.834	1566.75
420.057	1544.75
420.28	1483.75
420.503	1454.75
420.726	1474.75
420.948	1464.75
421.171	1487.75
421.394	1448.75
421.617	1456.75
421.839	1454.75
422.062	1462.75
422.285	1470.75
422.507	1500.75
422.73	1453.75
422.953	1493.75
423.175	1491.75
423.398	1483.75
423.621	1473.75
423.843	1498.75
424.066	1486.75
424.288	1490.75
424.511	1489.75
424.733	1455.75
424.956	1465.75
425.178	1472.75
425.401	1485.75
425.623	1487.75
425.846	1448.75
426.068	1461.75
426.291	1447.75
426.513	1407.75
426.735	1403.75
426.958	1446.75
427.18	1386.75
427.402	1397.75
427.625	1419.75
427.847	1406.75
428.069	1399.75
428.292	1420.75
428.514	1361.75
428.736	1373.75
428.958	1385.75
429.181	1358.75
429.403	1335.75
429.625	1391.75
429.847	1364.75
430.069	1361.75
430.292	1400.75
430.514	1368.75
430.736	1349.75
430.958	1376.75
431.18	1387.75
431.402	1377.75
431.624	1350.75
431.846	1370.75
432.068	1373.75
432.29	1418.75
432.512	1340.75
432.734	1377.75
432.956	1355.75
433.178	1406.75
433.4	1424.75
433.622	1407.75
433.844	1418.75
434.066	1428.75
434.287	1422.75
434.509	1408.75
434.731	1447.75
434.953	1470.75
435.175	1460.75
435.397	1481.75
435.618	1468.75
435.84	1430.75
436.062	1388.75
436.284	1390.75
436.505	1389.75
436.727	1376.75
436.949	1377.75
437.17	1377.75
437.392	1382.75
437.614	1333.75
437.835	1294.75
438.057	1342.75
438.278	1296.75
438.5	1347.75
438.721	1300.75
438.943	1314.75
439.165	1328.75
439.386	1349.75
439.608	1348.75
439.829	1338.75
440.05	1351.75
440.272	1379.75
440.493	1347.75
440.715	1401.75
440.936	1440.75
441.158	1405.75
441.379	1417.75
441.6	1477.75
441.822	1483.75
442.043	1457.75
442.264	1444.75
442.486	1423.75
442.707	1480.75
442.928	1430.75
443.149	1457.75
443.371	1475.75
443.592	1533.75
443.813	1488.75
444.034	1468.75
444.255	1485.75
444.476	1573.75
444.698	1611.75
444.919	1608.75
445.14	1689.75
445.361	1598.75
445.582	1515.75
445.803	1464.75
446.024	1404.75
446.245	1393.75
446.466	1410.75
446.687	1364.75
446.908	1376.75
447.129	1372.75
447.35	1318.75
447.571	1309.75
447.792	1307.75
448.013	1265.75
448.234	1280.75
448.455	1284.75
448.675	1227.75
448.896	1272.75
449.117	1289.75
449.338	1261.75
449.559	1250.75
449.779	1255.75
450	1217.75
450.221	1270.75
450.442	1228.75
450.662	1227.75
450.883	1248.75
451.104	1257.75
451.324	1290.75
451.545	1255.75
451.766	1252.75
451.986	1229.75
452.207	1220.75
452.428	1216.75
452.648	1229.75
452.869	1208.75
453.089	1206.75
453.31	1224.75
453.53	1180.75
453.751	1189.75
453.971	1207.75
454.192	1257.75
454.412	1191.75
454.633	1174.75
454.853	1198.75
455.073	1178.75
455.294	1218.75
455.514	1222.75
455.734	1209.75
455.955	1221.75
456.175	1211.75
456.395	1189.75
456.616	1182.75
456.836	1189.75
457.056	1205.75
457.276	1193.75
457.497	1217.75
457.717	1219.75
457.937	1217.75
458.157	1236.75
458.377	1235.75
458.598	1275.75
458.818	1292.75
459.038	1340.75
459.258	1332.75
459.478	1377.75
459.698	1469.75
459.918	1480.75
460.138	1437.75
460.358	1509.75
460.578	1511.75
460.798	1554.75
461.018	1548.75
461.238	1502.75
461.458	1504.75
461.678	1508.75
461.898	1568.75
462.118	1514.75
462.338	1586.75
462.558	1639.75
462.777	1673.75
462.997	1739.75
463.217	1788.75
463.437	1832.75
463.657	1846.75
463.876	1737.75
464.096	1715.75
464.316	1640.75
464.536	1625.75
464.755	1631.75
464.975	1601.75
465.195	1564.75
465.414	1476.75
465.634	1414.75
465.854	1416.75
466.073	1399.75
466.293	1364.75
466.512	1328.75
466.732	1319.75
466.951	1329.75
467.171	1337.75
467.391	1328.75
467.61	1300.75
467.829	1316.75
468.049	1282.75
468.268	1267.75
468.488	1282.75
468.707	1296.75
468.927	1319.75
469.146	1305.75
469.365	1316.75
469.585	1300.75
469.804	1286.75
470.023	1324.75
470.243	1317.75
470.462	1315.75
470.681	1336.75
470.901	1360.75
471.12	1294.75
471.339	1312.75
471.558	1289.75
471.777	1292.75
471.997	1308.75
472.216	1244.75
472.435	1274.75
472.654	1264.75
472.873	1266.75
473.092	1301.75
473.311	1258.75
473.53	1264.75
473.749	1236.75
473.968	1258.75
474.187	1253.75
474.406	1298.75
474.625	1279.75
474.844	1304.75
475.063	1282.75
475.282	1300.75
475.501	1300.75
475.72	1314.75
475.939	1312.75
476.158	1329.75
476.377	1323.75
476.596	1324.75
476.814	1337.75
477.033	1371.75
477.252	1396.75
477.471	1376.75
477.69	1429.75
477.908	1458.75
478.127	1480.75
478.346	1451.75
478.564	1493.75
478.783	1532.75
479.002	1564.75
479.22	1579.75
479.439	1560.75
479.658	1542.75
479.876	1583.75
480.095	1558.75
480.313	1644.75
480.532	1610.75
480.751	1595.75
480.969	1556.75
481.188	1538.75
481.406	1573.75
481.624	1526.75
481.843	1475.75
482.061	1520.75
482.28	1512.75
482.498	1516.75
482.717	1485.75
482.935	1509.75
483.153	1537.75
483.372	1586.75
483.59	1565.75
483.808	1517.75
484.027	1522.75
484.245	1538.75
484.463	1562.75
484.681	1545.75
484.9	1530.75
485.118	1561.75
485.336	1546.75
485.554	1574.75
485.772	1586.75
485.99	1555.75
486.209	1538.75
486.427	1529.75
486.645	1576.75
486.863	1571.75
487.081	1579.75
487.299	1562.75
487.517	1566.75
487.735	1560.75
487.953	1601.75
488.171	1588.75
488.389	1559.75
488.607	1569.75
488.825	1549.75
489.043	1586.75
489.261	1570.75
489.479	1537.75
489.696	1554.75
489.914	1562.75
490.132	1564.75
490.35	1553.75
490.568	1564.75
490.786	1559.75
491.003	1580.75
491.221	1579.75
491.439	1586.75
491.657	1558.75
