Data from Ni(NO3)2@0.5M.TitratingCurve.Agarose3%dH2O.NegLispCup.LampEnergy10.LIBS07252019_HRD10591_17-58-04-564.txt Node
Date: Thu Jul 25 17:58:04 EDT 2019
User: cochatt
Spectrometer: HR+D1059
Trigger mode: 1
Integration Time (sec): 1.000000E-1
Scans to average: 1
Electric dark correction enabled: true
Nonlinearity correction enabled: false
Boxcar width: 0
XAxis mode: Wavelengths
Number of Pixels in Spectrum: 2048
>>>>>Begin Spectral Data<<<<<
223.165	-15.12
223.4	-15.12
223.635	-15.12
223.869	-28.12
224.104	-16.12
224.338	-17.12
224.573	-18.12
224.808	-11.12
225.042	-17.12
225.277	0.88
225.511	3.88
225.746	7.88
225.98	4.88
226.215	4.88
226.449	23.88
226.683	10.88
226.918	24.88
227.152	40.88
227.387	33.88
227.621	28.88
227.856	35.88
228.09	44.88
228.324	33.88
228.559	60.88
228.793	62.88
229.027	130.88
229.262	159.88
229.496	179.88
229.73	150.88
229.964	201.88
230.199	219.88
230.433	238.88
230.667	209.88
230.901	214.88
231.136	190.88
231.37	192.88
231.604	218.88
231.838	226.88
232.072	236.88
232.306	213.88
232.541	199.88
232.775	194.88
233.009	182.88
233.243	182.88
233.477	172.88
233.711	166.88
233.945	190.88
234.179	184.88
234.413	199.88
234.647	195.88
234.881	199.88
235.115	204.88
235.349	207.88
235.583	184.88
235.817	189.88
236.051	201.88
236.285	181.88
236.519	191.88
236.753	188.88
236.987	182.88
237.221	189.88
237.455	190.88
237.689	192.88
237.922	206.88
238.156	194.88
238.39	186.88
238.624	205.88
238.858	206.88
239.091	209.88
239.325	227.88
239.559	229.88
239.793	261.88
240.027	246.88
240.26	238.88
240.494	217.88
240.728	223.88
240.961	219.88
241.195	225.88
241.429	232.88
241.662	254.88
241.896	261.88
242.13	278.88
242.363	248.88
242.597	257.88
242.83	229.88
243.064	227.88
243.298	245.88
243.531	252.88
243.765	261.88
243.998	272.88
244.232	278.88
244.465	266.88
244.699	257.88
244.932	258.88
245.166	247.88
245.399	269.88
245.633	266.88
245.866	277.88
246.099	263.88
246.333	263.88
246.566	282.88
246.8	285.88
247.033	278.88
247.266	278.88
247.5	300.88
247.733	297.88
247.966	311.88
248.2	296.88
248.433	294.88
248.666	297.88
248.899	313.88
249.133	300.88
249.366	331.88
249.599	327.88
249.832	317.88
250.066	318.88
250.299	313.88
250.532	339.88
250.765	332.88
250.998	353.88
251.231	371.88
251.465	376.88
251.698	369.88
251.931	353.88
252.164	353.88
252.397	367.88
252.63	363.88
252.863	354.88
253.096	356.88
253.329	354.88
253.562	371.88
253.795	376.88
254.028	378.88
254.261	385.88
254.494	375.88
254.727	386.88
254.96	403.88
255.193	401.88
255.426	384.88
255.659	406.88
255.892	399.88
256.124	402.88
256.357	415.88
256.59	422.88
256.823	416.88
257.056	411.88
257.289	415.88
257.521	422.88
257.754	431.88
257.987	416.88
258.22	441.88
258.452	434.88
258.685	443.88
258.918	439.88
259.151	427.88
259.383	466.88
259.616	436.88
259.849	428.88
260.081	454.88
260.314	449.88
260.547	457.88
260.779	441.88
261.012	464.88
261.244	461.88
261.477	491.88
261.71	487.88
261.942	461.88
262.175	466.88
262.407	514.88
262.64	457.88
262.872	480.88
263.105	471.88
263.337	514.88
263.57	475.88
263.802	492.88
264.035	490.88
264.267	521.88
264.499	501.88
264.732	512.88
264.964	495.88
265.197	492.88
265.429	514.88
265.661	485.88
265.894	514.88
266.126	512.88
266.358	533.88
266.591	517.88
266.823	548.88
267.055	542.88
267.287	538.88
267.52	520.88
267.752	524.88
267.984	516.88
268.216	538.88
268.448	535.88
268.681	562.88
268.913	554.88
269.145	544.88
269.377	547.88
269.609	566.88
269.841	587.88
270.073	550.88
270.306	537.88
270.538	556.88
270.77	548.88
271.002	565.88
271.234	549.88
271.466	584.88
271.698	575.88
271.93	581.88
272.162	572.88
272.394	576.88
272.626	581.88
272.858	580.88
273.09	608.88
273.322	587.88
273.553	602.88
273.785	563.88
274.017	579.88
274.249	606.88
274.481	610.88
274.713	598.88
274.945	638.88
275.176	593.88
275.408	608.88
275.64	616.88
275.872	601.88
276.104	632.88
276.335	613.88
276.567	602.88
276.799	619.88
277.031	644.88
277.262	615.88
277.494	624.88
277.726	646.88
277.957	620.88
278.189	622.88
278.421	623.88
278.652	625.88
278.884	635.88
279.115	634.88
279.347	652.88
279.579	657.88
279.81	663.88
280.042	650.88
280.273	640.88
280.505	674.88
280.736	630.88
280.968	640.88
281.199	654.88
281.431	650.88
281.662	682.88
281.894	668.88
282.125	688.88
282.356	656.88
282.588	681.88
282.819	686.88
283.051	683.88
283.282	661.88
283.513	678.88
283.745	697.88
283.976	667.88
284.207	684.88
284.439	699.88
284.67	693.88
284.901	672.88
285.132	688.88
285.364	680.88
285.595	699.88
285.826	667.88
286.057	695.88
286.288	717.88
286.52	688.88
286.751	727.88
286.982	712.88
287.213	702.88
287.444	710.88
287.675	686.88
287.906	697.88
288.138	700.88
288.369	711.88
288.6	739.88
288.831	720.88
289.062	737.88
289.293	724.88
289.524	728.88
289.755	729.88
289.986	757.88
290.217	726.88
290.448	733.88
290.679	720.88
290.91	730.88
291.141	737.88
291.371	731.88
291.602	748.88
291.833	736.88
292.064	730.88
292.295	754.88
292.526	733.88
292.757	733.88
292.987	728.88
293.218	707.88
293.449	726.88
293.68	731.88
293.91	771.88
294.141	736.88
294.372	724.88
294.603	746.88
294.833	758.88
295.064	744.88
295.295	750.88
295.525	716.88
295.756	750.88
295.987	744.88
296.217	747.88
296.448	764.88
296.679	759.88
296.909	782.88
297.14	743.88
297.37	756.88
297.601	792.88
297.831	766.88
298.062	755.88
298.292	778.88
298.523	764.88
298.753	786.88
298.984	793.88
299.214	770.88
299.445	788.88
299.675	817.88
299.905	785.88
300.136	784.88
300.366	846.88
300.597	841.88
300.827	812.88
301.057	810.88
301.288	833.88
301.518	826.88
301.748	831.88
301.979	791.88
302.209	802.88
302.439	830.88
302.669	791.88
302.9	821.88
303.13	826.88
303.36	834.88
303.59	831.88
303.82	832.88
304.051	867.88
304.281	856.88
304.511	860.88
304.741	838.88
304.971	892.88
305.201	879.88
305.431	903.88
305.661	918.88
305.891	898.88
306.121	898.88
306.352	872.88
306.582	847.88
306.812	843.88
307.042	878.88
307.272	854.88
307.502	847.88
307.731	880.88
307.961	864.88
308.191	868.88
308.421	864.88
308.651	866.88
308.881	842.88
309.111	843.88
309.341	850.88
309.571	895.88
309.8	912.88
310.03	907.88
310.26	963.88
310.49	969.88
310.72	879.88
310.949	891.88
311.179	906.88
311.409	902.88
311.639	912.88
311.868	908.88
312.098	898.88
312.328	931.88
312.557	942.88
312.787	908.88
313.017	932.88
313.246	940.88
313.476	962.88
313.706	953.88
313.935	980.88
314.165	926.88
314.394	930.88
314.624	956.88
314.853	955.88
315.083	930.88
315.312	929.88
315.542	936.88
315.771	974.88
316.001	946.88
316.23	963.88
316.46	968.88
316.689	964.88
316.919	959.88
317.148	971.88
317.377	989.88
317.607	977.88
317.836	1011.88
318.065	1003.88
318.295	1023.88
318.524	1020.88
318.753	1011.88
318.983	1016.88
319.212	1012.88
319.441	1010.88
319.67	1026.88
319.9	1031.88
320.129	1020.88
320.358	1022.88
320.587	1030.88
320.816	1020.88
321.046	1030.88
321.275	1054.88
321.504	1043.88
321.733	1038.88
321.962	1072.88
322.191	1055.88
322.42	1065.88
322.649	1063.88
322.878	1083.88
323.108	1076.88
323.337	1083.88
323.566	1088.88
323.795	1108.88
324.024	1083.88
324.253	1103.88
324.482	1073.88
324.71	1093.88
324.939	1116.88
325.168	1106.88
325.397	1110.88
325.626	1115.88
325.855	1099.88
326.084	1103.88
326.313	1112.88
326.542	1093.88
326.77	1142.88
326.999	1099.88
327.228	1124.88
327.457	1143.88
327.686	1144.88
327.914	1131.88
328.143	1166.88
328.372	1164.88
328.6	1151.88
328.829	1144.88
329.058	1137.88
329.287	1125.88
329.515	1174.88
329.744	1164.88
329.972	1171.88
330.201	1160.88
330.43	1194.88
330.658	1166.88
330.887	1151.88
331.115	1187.88
331.344	1197.88
331.572	1182.88
331.801	1188.88
332.03	1202.88
332.258	1202.88
332.486	1191.88
332.715	1216.88
332.943	1238.88
333.172	1244.88
333.4	1259.88
333.629	1241.88
333.857	1243.88
334.085	1247.88
334.314	1238.88
334.542	1266.88
334.771	1294.88
334.999	1260.88
335.227	1271.88
335.455	1282.88
335.684	1294.88
335.912	1258.88
336.14	1288.88
336.369	1294.88
336.597	1320.88
336.825	1312.88
337.053	1304.88
337.281	1292.88
337.51	1284.88
337.738	1278.88
337.966	1280.88
338.194	1330.88
338.422	1314.88
338.65	1253.88
338.878	1256.88
339.106	1262.88
339.334	1312.88
339.562	1289.88
339.79	1268.88
340.018	1284.88
340.246	1279.88
340.474	1241.88
340.702	1286.88
340.93	1278.88
341.158	1305.88
341.386	1324.88
341.614	1328.88
341.842	1314.88
342.07	1266.88
342.298	1254.88
342.526	1219.88
342.754	1243.88
342.981	1278.88
343.209	1268.88
343.437	1314.88
343.665	1297.88
343.893	1310.88
344.12	1288.88
344.348	1298.88
344.576	1288.88
344.804	1332.88
345.031	1295.88
345.259	1263.88
345.487	1279.88
345.714	1253.88
345.942	1298.88
346.17	1318.88
346.397	1290.88
346.625	1299.88
346.853	1224.88
347.08	1247.88
347.308	1235.88
347.535	1287.88
347.763	1228.88
347.99	1212.88
348.218	1235.88
348.445	1235.88
348.673	1212.88
348.9	1211.88
349.128	1246.88
349.355	1318.88
349.583	1244.88
349.81	1255.88
350.037	1215.88
350.265	1193.88
350.492	1184.88
350.72	1181.88
350.947	1242.88
351.174	1274.88
351.402	1295.88
351.629	1284.88
351.856	1249.88
352.083	1220.88
352.311	1245.88
352.538	1296.88
352.765	1265.88
352.992	1210.88
353.22	1198.88
353.447	1195.88
353.674	1192.88
353.901	1194.88
354.128	1183.88
354.355	1156.88
354.583	1164.88
354.81	1207.88
355.037	1215.88
355.264	1205.88
355.491	1216.88
355.718	1178.88
355.945	1224.88
356.172	1196.88
356.399	1223.88
356.626	1241.88
356.853	1263.88
357.08	1228.88
357.307	1206.88
357.534	1208.88
357.761	1228.88
357.988	1231.88
358.215	1193.88
358.441	1184.88
358.668	1204.88
358.895	1220.88
359.122	1170.88
359.349	1209.88
359.576	1196.88
359.802	1217.88
360.029	1187.88
360.256	1213.88
360.483	1186.88
360.709	1185.88
360.936	1231.88
361.163	1232.88
361.39	1233.88
361.616	1248.88
361.843	1248.88
362.07	1280.88
362.296	1298.88
362.523	1195.88
362.749	1226.88
362.976	1209.88
363.203	1219.88
363.429	1199.88
363.656	1207.88
363.882	1209.88
364.109	1225.88
364.335	1205.88
364.562	1217.88
364.788	1210.88
365.015	1202.88
365.241	1176.88
365.468	1225.88
365.694	1194.88
365.92	1211.88
366.147	1201.88
366.373	1218.88
366.599	1195.88
366.826	1255.88
367.052	1181.88
367.278	1231.88
367.505	1208.88
367.731	1234.88
367.957	1226.88
368.184	1236.88
368.41	1226.88
368.636	1240.88
368.862	1242.88
369.089	1246.88
369.315	1262.88
369.541	1273.88
369.767	1239.88
369.993	1220.88
370.219	1230.88
370.445	1236.88
370.672	1211.88
370.898	1233.88
371.124	1229.88
371.35	1259.88
371.576	1273.88
371.802	1260.88
372.028	1244.88
372.254	1268.88
372.48	1270.88
372.706	1263.88
372.932	1278.88
373.158	1274.88
373.384	1279.88
373.61	1259.88
373.835	1269.88
374.061	1255.88
374.287	1272.88
374.513	1255.88
374.739	1256.88
374.965	1274.88
375.191	1254.88
375.416	1262.88
375.642	1253.88
375.868	1234.88
376.094	1240.88
376.319	1268.88
376.545	1234.88
376.771	1224.88
376.997	1240.88
377.222	1256.88
377.448	1202.88
377.674	1227.88
377.899	1249.88
378.125	1241.88
378.35	1243.88
378.576	1246.88
378.802	1222.88
379.027	1249.88
379.253	1217.88
379.478	1212.88
379.704	1203.88
379.929	1240.88
380.155	1206.88
380.38	1235.88
380.606	1195.88
380.831	1200.88
381.057	1240.88
381.282	1218.88
381.507	1195.88
381.733	1231.88
381.958	1236.88
382.184	1259.88
382.409	1248.88
382.634	1237.88
382.86	1264.88
383.085	1262.88
383.31	1242.88
383.535	1254.88
383.761	1257.88
383.986	1258.88
384.211	1278.88
384.436	1249.88
384.662	1278.88
384.887	1285.88
385.112	1286.88
385.337	1305.88
385.562	1284.88
385.787	1262.88
386.013	1336.88
386.238	1316.88
386.463	1304.88
386.688	1298.88
386.913	1308.88
387.138	1272.88
387.363	1315.88
387.588	1313.88
387.813	1316.88
388.038	1312.88
388.263	1288.88
388.488	1281.88
388.713	1319.88
388.938	1310.88
389.163	1333.88
389.387	1348.88
389.612	1316.88
389.837	1303.88
390.062	1306.88
390.287	1318.88
390.512	1348.88
390.736	1312.88
390.961	1339.88
391.186	1334.88
391.411	1360.88
391.636	1351.88
391.86	1351.88
392.085	1359.88
392.31	1336.88
392.534	1332.88
392.759	1350.88
392.984	1317.88
393.208	1348.88
393.433	1372.88
393.658	1379.88
393.882	1325.88
394.107	1356.88
394.331	1322.88
394.556	1352.88
394.78	1328.88
395.005	1323.88
395.229	1306.88
395.454	1336.88
395.678	1387.88
395.903	1377.88
396.127	1384.88
396.352	1334.88
396.576	1344.88
396.801	1366.88
397.025	1399.88
397.249	1394.88
397.474	1385.88
397.698	1380.88
397.922	1443.88
398.147	1378.88
398.371	1406.88
398.595	1436.88
398.82	1432.88
399.044	1471.88
399.268	1460.88
399.492	1518.88
399.717	1526.88
399.941	1550.88
400.165	1532.88
400.389	1509.88
400.613	1493.88
400.837	1487.88
401.062	1490.88
401.286	1473.88
401.51	1465.88
401.734	1464.88
401.958	1459.88
402.182	1451.88
402.406	1450.88
402.63	1432.88
402.854	1458.88
403.078	1445.88
403.302	1486.88
403.526	1474.88
403.75	1468.88
403.974	1479.88
404.198	1475.88
404.422	1462.88
404.645	1459.88
404.869	1495.88
405.093	1460.88
405.317	1456.88
405.541	1476.88
405.765	1520.88
405.988	1496.88
406.212	1531.88
406.436	1498.88
406.66	1528.88
406.883	1498.88
407.107	1530.88
407.331	1556.88
407.555	1591.88
407.778	1525.88
408.002	1591.88
408.226	1610.88
408.449	1564.88
408.673	1560.88
408.896	1566.88
409.12	1545.88
409.344	1567.88
409.567	1533.88
409.791	1516.88
410.014	1496.88
410.238	1503.88
410.461	1528.88
410.685	1503.88
410.908	1525.88
411.132	1514.88
411.355	1486.88
411.578	1508.88
411.802	1488.88
412.025	1499.88
412.249	1514.88
412.472	1491.88
412.695	1457.88
412.919	1486.88
413.142	1488.88
413.365	1489.88
413.589	1494.88
413.812	1445.88
414.035	1392.88
414.258	1493.88
414.482	1471.88
414.705	1473.88
414.928	1426.88
415.151	1460.88
415.374	1454.88
415.597	1402.88
415.821	1403.88
416.044	1422.88
416.267	1422.88
416.49	1432.88
416.713	1415.88
416.936	1392.88
417.159	1434.88
417.382	1417.88
417.605	1370.88
417.828	1404.88
418.051	1393.88
418.274	1416.88
418.497	1395.88
418.72	1372.88
418.943	1398.88
419.166	1452.88
419.389	1523.88
419.611	1498.88
419.834	1442.88
420.057	1458.88
420.28	1392.88
420.503	1431.88
420.726	1392.88
420.948	1407.88
421.171	1392.88
421.394	1395.88
421.617	1399.88
421.839	1420.88
422.062	1401.88
422.285	1355.88
422.507	1367.88
422.73	1419.88
422.953	1394.88
423.175	1399.88
423.398	1390.88
423.621	1374.88
423.843	1434.88
424.066	1404.88
424.288	1410.88
424.511	1425.88
424.733	1439.88
424.956	1418.88
425.178	1415.88
425.401	1424.88
425.623	1408.88
425.846	1386.88
426.068	1410.88
426.291	1379.88
426.513	1400.88
426.735	1383.88
426.958	1406.88
427.18	1412.88
427.402	1386.88
427.625	1387.88
427.847	1369.88
428.069	1369.88
428.292	1386.88
428.514	1365.88
428.736	1406.88
428.958	1418.88
429.181	1388.88
429.403	1400.88
429.625	1364.88
429.847	1349.88
430.069	1375.88
430.292	1401.88
430.514	1351.88
430.736	1394.88
430.958	1391.88
431.18	1402.88
431.402	1371.88
431.624	1362.88
431.846	1388.88
432.068	1350.88
432.29	1402.88
432.512	1382.88
432.734	1410.88
432.956	1390.88
433.178	1406.88
433.4	1448.88
433.622	1433.88
433.844	1445.88
434.066	1430.88
434.287	1426.88
434.509	1380.88
434.731	1420.88
434.953	1444.88
435.175	1440.88
435.397	1479.88
435.618	1436.88
435.84	1396.88
436.062	1393.88
436.284	1431.88
436.505	1413.88
436.727	1391.88
436.949	1436.88
437.17	1424.88
437.392	1411.88
437.614	1381.88
437.835	1340.88
438.057	1410.88
438.278	1374.88
438.5	1366.88
438.721	1376.88
438.943	1383.88
439.165	1345.88
439.386	1387.88
439.608	1396.88
439.829	1380.88
440.05	1377.88
440.272	1393.88
440.493	1410.88
440.715	1456.88
440.936	1405.88
441.158	1370.88
441.379	1390.88
441.6	1439.88
441.822	1428.88
442.043	1441.88
442.264	1415.88
442.486	1439.88
442.707	1424.88
442.928	1385.88
443.149	1435.88
443.371	1452.88
443.592	1503.88
443.813	1490.88
444.034	1398.88
444.255	1430.88
444.476	1507.88
444.698	1493.88
444.919	1544.88
445.14	1568.88
445.361	1521.88
445.582	1454.88
445.803	1412.88
446.024	1397.88
446.245	1416.88
446.466	1393.88
446.687	1358.88
446.908	1385.88
447.129	1333.88
447.35	1363.88
447.571	1342.88
447.792	1319.88
448.013	1341.88
448.234	1311.88
448.455	1332.88
448.675	1303.88
448.896	1299.88
449.117	1305.88
449.338	1289.88
449.559	1257.88
449.779	1317.88
450	1278.88
450.221	1289.88
450.442	1297.88
450.662	1284.88
450.883	1326.88
451.104	1340.88
451.324	1290.88
451.545	1342.88
451.766	1257.88
451.986	1257.88
452.207	1287.88
452.428	1262.88
452.648	1281.88
452.869	1244.88
453.089	1290.88
453.31	1300.88
453.53	1294.88
453.751	1274.88
453.971	1280.88
454.192	1299.88
454.412	1292.88
454.633	1293.88
454.853	1298.88
455.073	1267.88
455.294	1296.88
455.514	1286.88
455.734	1309.88
455.955	1339.88
456.175	1283.88
456.395	1272.88
456.616	1264.88
456.836	1241.88
457.056	1270.88
457.276	1258.88
457.497	1293.88
457.717	1305.88
457.937	1304.88
458.157	1265.88
458.377	1292.88
458.598	1300.88
458.818	1292.88
459.038	1282.88
459.258	1339.88
459.478	1401.88
459.698	1510.88
459.918	1468.88
460.138	1445.88
460.358	1439.88
460.578	1442.88
460.798	1492.88
461.018	1490.88
461.238	1439.88
461.458	1425.88
461.678	1422.88
461.898	1428.88
462.118	1417.88
462.338	1478.88
462.558	1502.88
462.777	1527.88
462.997	1560.88
463.217	1546.88
463.437	1600.88
463.657	1602.88
463.876	1520.88
464.096	1539.88
464.316	1522.88
464.536	1509.88
464.755	1498.88
464.975	1410.88
465.195	1431.88
465.414	1423.88
465.634	1416.88
465.854	1403.88
466.073	1379.88
466.293	1376.88
466.512	1357.88
466.732	1350.88
466.951	1372.88
467.171	1358.88
467.391	1361.88
467.61	1350.88
467.829	1337.88
468.049	1392.88
468.268	1305.88
468.488	1346.88
468.707	1363.88
468.927	1371.88
469.146	1383.88
469.365	1402.88
469.585	1376.88
469.804	1350.88
470.023	1334.88
470.243	1353.88
470.462	1359.88
470.681	1340.88
470.901	1358.88
471.12	1334.88
471.339	1369.88
471.558	1388.88
471.777	1400.88
471.997	1396.88
472.216	1355.88
472.435	1341.88
472.654	1327.88
472.873	1320.88
473.092	1404.88
473.311	1376.88
473.53	1397.88
473.749	1394.88
473.968	1355.88
474.187	1352.88
474.406	1357.88
474.625	1390.88
474.844	1404.88
475.063	1432.88
475.282	1422.88
475.501	1439.88
475.72	1425.88
475.939	1394.88
476.158	1418.88
476.377	1446.88
476.596	1416.88
476.814	1476.88
477.033	1467.88
477.252	1506.88
477.471	1474.88
477.69	1523.88
477.908	1526.88
478.127	1543.88
478.346	1550.88
478.564	1552.88
478.783	1570.88
479.002	1658.88
479.22	1645.88
479.439	1635.88
479.658	1582.88
479.876	1582.88
480.095	1559.88
480.313	1598.88
480.532	1615.88
480.751	1602.88
480.969	1641.88
481.188	1593.88
481.406	1624.88
481.624	1612.88
481.843	1629.88
482.061	1622.88
482.28	1616.88
482.498	1588.88
482.717	1612.88
482.935	1658.88
483.153	1674.88
483.372	1685.88
483.59	1760.88
483.808	1660.88
484.027	1651.88
484.245	1656.88
484.463	1624.88
484.681	1689.88
484.9	1654.88
485.118	1711.88
485.336	1654.88
485.554	1658.88
485.772	1707.88
485.99	1684.88
486.209	1692.88
486.427	1653.88
486.645	1677.88
486.863	1672.88
487.081	1701.88
487.299	1673.88
487.517	1642.88
487.735	1720.88
487.953	1714.88
488.171	1714.88
488.389	1702.88
488.607	1678.88
488.825	1705.88
489.043	1648.88
489.261	1666.88
489.479	1688.88
489.696	1699.88
489.914	1703.88
490.132	1699.88
490.35	1721.88
490.568	1694.88
490.786	1710.88
491.003	1697.88
