Data from Ni(NO3)2@0.125M.TitratingCurve.Agarose3%dH2O.NegLispCup.LampEnergy10.LIBS07252019_HRD10591_18-11-35-568.txt Node
Date: Thu Jul 25 18:11:35 EDT 2019
User: cochatt
Spectrometer: HR+D1059
Trigger mode: 1
Integration Time (sec): 1.000000E-1
Scans to average: 1
Electric dark correction enabled: true
Nonlinearity correction enabled: false
Boxcar width: 0
XAxis mode: Wavelengths
Number of Pixels in Spectrum: 2048
>>>>>Begin Spectral Data<<<<<
223.165	-13.44
223.4	-13.44
223.635	-13.44
223.869	-13.44
224.104	-30.44
224.338	-21.44
224.573	-32.44
224.808	-18.44
225.042	3.56
225.277	-16.44
225.511	8.56
225.746	17.56
225.98	9.56
226.215	5.56
226.449	21.56
226.683	20.56
226.918	29.56
227.152	29.56
227.387	32.56
227.621	29.56
227.856	35.56
228.09	52.56
228.324	47.56
228.559	61.56
228.793	57.56
229.027	76.56
229.262	89.56
229.496	87.56
229.73	100.56
229.964	101.56
230.199	94.56
230.433	96.56
230.667	105.56
230.901	114.56
231.136	111.56
231.37	90.56
231.604	118.56
231.838	108.56
232.072	108.56
232.306	101.56
232.541	114.56
232.775	113.56
233.009	119.56
233.243	110.56
233.477	115.56
233.711	108.56
233.945	121.56
234.179	103.56
234.413	85.56
234.647	93.56
234.881	128.56
235.115	124.56
235.349	118.56
235.583	121.56
235.817	122.56
236.051	114.56
236.285	108.56
236.519	120.56
236.753	135.56
236.987	105.56
237.221	126.56
237.455	128.56
237.689	121.56
237.922	126.56
238.156	120.56
238.39	104.56
238.624	118.56
238.858	132.56
239.091	121.56
239.325	134.56
239.559	117.56
239.793	114.56
240.027	151.56
240.26	128.56
240.494	119.56
240.728	116.56
240.961	115.56
241.195	119.56
241.429	131.56
241.662	133.56
241.896	132.56
242.13	119.56
242.363	133.56
242.597	124.56
242.83	130.56
243.064	151.56
243.298	131.56
243.531	144.56
243.765	138.56
243.998	133.56
244.232	129.56
244.465	127.56
244.699	142.56
244.932	142.56
245.166	145.56
245.399	136.56
245.633	162.56
245.866	158.56
246.099	139.56
246.333	164.56
246.566	150.56
246.8	160.56
247.033	154.56
247.266	147.56
247.5	139.56
247.733	165.56
247.966	164.56
248.2	156.56
248.433	160.56
248.666	170.56
248.899	168.56
249.133	161.56
249.366	165.56
249.599	158.56
249.832	174.56
250.066	161.56
250.299	161.56
250.532	165.56
250.765	170.56
250.998	150.56
251.231	170.56
251.465	172.56
251.698	172.56
251.931	182.56
252.164	172.56
252.397	176.56
252.63	186.56
252.863	187.56
253.096	177.56
253.329	173.56
253.562	175.56
253.795	184.56
254.028	181.56
254.261	177.56
254.494	197.56
254.727	188.56
254.96	188.56
255.193	195.56
255.426	189.56
255.659	181.56
255.892	185.56
256.124	201.56
256.357	187.56
256.59	185.56
256.823	183.56
257.056	181.56
257.289	190.56
257.521	189.56
257.754	192.56
257.987	200.56
258.22	202.56
258.452	190.56
258.685	207.56
258.918	202.56
259.151	204.56
259.383	214.56
259.616	197.56
259.849	211.56
260.081	197.56
260.314	215.56
260.547	201.56
260.779	215.56
261.012	209.56
261.244	198.56
261.477	210.56
261.71	230.56
261.942	208.56
262.175	221.56
262.407	220.56
262.64	200.56
262.872	226.56
263.105	216.56
263.337	207.56
263.57	198.56
263.802	221.56
264.035	199.56
264.267	233.56
264.499	231.56
264.732	229.56
264.964	220.56
265.197	212.56
265.429	215.56
265.661	213.56
265.894	230.56
266.126	218.56
266.358	236.56
266.591	231.56
266.823	234.56
267.055	228.56
267.287	226.56
267.52	227.56
267.752	228.56
267.984	245.56
268.216	241.56
268.448	240.56
268.681	264.56
268.913	229.56
269.145	236.56
269.377	231.56
269.609	250.56
269.841	221.56
270.073	242.56
270.306	225.56
270.538	231.56
270.77	245.56
271.002	245.56
271.234	255.56
271.466	245.56
271.698	244.56
271.93	254.56
272.162	247.56
272.394	238.56
272.626	233.56
272.858	262.56
273.09	262.56
273.322	262.56
273.553	256.56
273.785	247.56
274.017	240.56
274.249	260.56
274.481	244.56
274.713	238.56
274.945	248.56
275.176	259.56
275.408	265.56
275.64	266.56
275.872	265.56
276.104	265.56
276.335	252.56
276.567	264.56
276.799	266.56
277.031	244.56
277.262	263.56
277.494	256.56
277.726	270.56
277.957	265.56
278.189	269.56
278.421	278.56
278.652	276.56
278.884	272.56
279.115	266.56
279.347	270.56
279.579	266.56
279.81	271.56
280.042	279.56
280.273	274.56
280.505	272.56
280.736	301.56
280.968	295.56
281.199	292.56
281.431	282.56
281.662	283.56
281.894	300.56
282.125	293.56
282.356	290.56
282.588	288.56
282.819	276.56
283.051	291.56
283.282	294.56
283.513	300.56
283.745	320.56
283.976	291.56
284.207	296.56
284.439	304.56
284.67	304.56
284.901	311.56
285.132	303.56
285.364	305.56
285.595	300.56
285.826	307.56
286.057	311.56
286.288	312.56
286.52	317.56
286.751	308.56
286.982	304.56
287.213	328.56
287.444	318.56
287.675	330.56
287.906	316.56
288.138	329.56
288.369	310.56
288.6	301.56
288.831	314.56
289.062	329.56
289.293	325.56
289.524	341.56
289.755	318.56
289.986	330.56
290.217	322.56
290.448	321.56
290.679	322.56
290.91	313.56
291.141	325.56
291.371	322.56
291.602	337.56
291.833	326.56
292.064	348.56
292.295	309.56
292.526	321.56
292.757	334.56
292.987	325.56
293.218	332.56
293.449	321.56
293.68	333.56
293.91	321.56
294.141	326.56
294.372	337.56
294.603	333.56
294.833	342.56
295.064	353.56
295.295	330.56
295.525	333.56
295.756	327.56
295.987	341.56
296.217	351.56
296.448	344.56
296.679	339.56
296.909	342.56
297.14	342.56
297.37	359.56
297.601	351.56
297.831	351.56
298.062	353.56
298.292	338.56
298.523	355.56
298.753	354.56
298.984	366.56
299.214	356.56
299.445	364.56
299.675	359.56
299.905	353.56
300.136	341.56
300.366	354.56
300.597	365.56
300.827	357.56
301.057	382.56
301.288	391.56
301.518	382.56
301.748	365.56
301.979	370.56
302.209	373.56
302.439	356.56
302.669	359.56
302.9	391.56
303.13	363.56
303.36	367.56
303.59	357.56
303.82	366.56
304.051	377.56
304.281	386.56
304.511	368.56
304.741	378.56
304.971	359.56
305.201	340.56
305.431	358.56
305.661	358.56
305.891	349.56
306.121	373.56
306.352	361.56
306.582	330.56
306.812	361.56
307.042	349.56
307.272	348.56
307.502	344.56
307.731	366.56
307.961	344.56
308.191	368.56
308.421	372.56
308.651	368.56
308.881	361.56
309.111	354.56
309.341	345.56
309.571	343.56
309.8	354.56
310.03	389.56
310.26	364.56
310.49	358.56
310.72	356.56
310.949	336.56
311.179	360.56
311.409	366.56
311.639	384.56
311.868	373.56
312.098	382.56
312.328	386.56
312.557	395.56
312.787	381.56
313.017	386.56
313.246	393.56
313.476	382.56
313.706	389.56
313.935	377.56
314.165	409.56
314.394	385.56
314.624	416.56
314.853	386.56
315.083	381.56
315.312	396.56
315.542	367.56
315.771	369.56
316.001	376.56
316.23	378.56
316.46	366.56
316.689	377.56
316.919	376.56
317.148	376.56
317.377	375.56
317.607	367.56
317.836	369.56
318.065	381.56
318.295	361.56
318.524	368.56
318.753	372.56
318.983	357.56
319.212	365.56
319.441	376.56
319.67	381.56
319.9	364.56
320.129	370.56
320.358	393.56
320.587	384.56
320.816	385.56
321.046	370.56
321.275	380.56
321.504	381.56
321.733	388.56
321.962	386.56
322.191	394.56
322.42	377.56
322.649	388.56
322.878	367.56
323.108	380.56
323.337	400.56
323.566	393.56
323.795	405.56
324.024	388.56
324.253	390.56
324.482	401.56
324.71	386.56
324.939	393.56
325.168	408.56
325.397	396.56
325.626	408.56
325.855	396.56
326.084	428.56
326.313	423.56
326.542	416.56
326.77	445.56
326.999	432.56
327.228	430.56
327.457	412.56
327.686	405.56
327.914	423.56
328.143	411.56
328.372	413.56
328.6	402.56
328.829	400.56
329.058	416.56
329.287	397.56
329.515	417.56
329.744	421.56
329.972	441.56
330.201	410.56
330.43	422.56
330.658	395.56
330.887	412.56
331.115	444.56
331.344	446.56
331.572	438.56
331.801	451.56
332.03	476.56
332.258	479.56
332.486	477.56
332.715	496.56
332.943	509.56
333.172	536.56
333.4	568.56
333.629	579.56
333.857	581.56
334.085	565.56
334.314	542.56
334.542	529.56
334.771	552.56
334.999	514.56
335.227	525.56
335.455	557.56
335.684	514.56
335.912	499.56
336.14	514.56
336.369	487.56
336.597	514.56
336.825	510.56
337.053	503.56
337.281	499.56
337.51	497.56
337.738	486.56
337.966	477.56
338.194	466.56
338.422	440.56
338.65	461.56
338.878	446.56
339.106	453.56
339.334	446.56
339.562	435.56
339.79	422.56
340.018	442.56
340.246	424.56
340.474	446.56
340.702	425.56
340.93	440.56
341.158	431.56
341.386	434.56
341.614	413.56
341.842	427.56
342.07	439.56
342.298	425.56
342.526	438.56
342.754	424.56
342.981	426.56
343.209	462.56
343.437	494.56
343.665	506.56
343.893	541.56
344.12	542.56
344.348	508.56
344.576	494.56
344.804	469.56
345.031	474.56
345.259	455.56
345.487	448.56
345.714	430.56
345.942	436.56
346.17	462.56
346.397	423.56
346.625	444.56
346.853	419.56
347.08	418.56
347.308	432.56
347.535	439.56
347.763	437.56
347.99	435.56
348.218	421.56
348.445	419.56
348.673	430.56
348.9	437.56
349.128	439.56
349.355	428.56
349.583	432.56
349.81	413.56
350.037	419.56
350.265	424.56
350.492	409.56
350.72	396.56
350.947	419.56
351.174	424.56
351.402	422.56
351.629	410.56
351.856	414.56
352.083	405.56
352.311	404.56
352.538	419.56
352.765	422.56
352.992	403.56
353.22	410.56
353.447	429.56
353.674	421.56
353.901	409.56
354.128	394.56
354.355	412.56
354.583	404.56
354.81	390.56
355.037	397.56
355.264	415.56
355.491	404.56
355.718	428.56
355.945	408.56
356.172	407.56
356.399	429.56
356.626	425.56
356.853	411.56
357.08	397.56
357.307	387.56
357.534	412.56
357.761	400.56
357.988	420.56
358.215	401.56
358.441	395.56
358.668	415.56
358.895	411.56
359.122	394.56
359.349	409.56
359.576	411.56
359.802	425.56
360.029	413.56
360.256	416.56
360.483	399.56
360.709	407.56
360.936	424.56
361.163	409.56
361.39	416.56
361.616	399.56
361.843	405.56
362.07	412.56
362.296	425.56
362.523	420.56
362.749	428.56
362.976	412.56
363.203	433.56
363.429	380.56
363.656	390.56
363.882	401.56
364.109	406.56
364.335	389.56
364.562	397.56
364.788	394.56
365.015	410.56
365.241	407.56
365.468	401.56
365.694	391.56
365.92	409.56
366.147	399.56
366.373	406.56
366.599	403.56
366.826	410.56
367.052	391.56
367.278	413.56
367.505	423.56
367.731	429.56
367.957	404.56
368.184	424.56
368.41	403.56
368.636	412.56
368.862	415.56
369.089	437.56
369.315	413.56
369.541	412.56
369.767	424.56
369.993	419.56
370.219	421.56
370.445	433.56
370.672	438.56
370.898	428.56
371.124	410.56
371.35	448.56
371.576	430.56
371.802	436.56
372.028	456.56
372.254	454.56
372.48	446.56
372.706	448.56
372.932	447.56
373.158	458.56
373.384	440.56
373.61	437.56
373.835	457.56
374.061	453.56
374.287	447.56
374.513	469.56
374.739	473.56
374.965	478.56
375.191	515.56
375.416	489.56
375.642	490.56
375.868	466.56
376.094	480.56
376.319	445.56
376.545	464.56
376.771	442.56
376.997	440.56
377.222	437.56
377.448	439.56
377.674	440.56
377.899	438.56
378.125	436.56
378.35	447.56
378.576	445.56
378.802	433.56
379.027	436.56
379.253	449.56
379.478	445.56
379.704	449.56
379.929	421.56
380.155	423.56
380.38	442.56
380.606	457.56
380.831	444.56
381.057	442.56
381.282	439.56
381.507	467.56
381.733	454.56
381.958	452.56
382.184	456.56
382.409	473.56
382.634	473.56
382.86	468.56
383.085	455.56
383.31	488.56
383.535	493.56
383.761	486.56
383.986	503.56
384.211	518.56
384.436	510.56
384.662	518.56
384.887	557.56
385.112	527.56
385.337	534.56
385.562	550.56
385.787	522.56
386.013	544.56
386.238	537.56
386.463	540.56
386.688	551.56
386.913	517.56
387.138	527.56
387.363	517.56
387.588	515.56
387.813	512.56
388.038	521.56
388.263	525.56
388.488	538.56
388.713	549.56
388.938	523.56
389.163	511.56
389.387	520.56
389.612	522.56
389.837	518.56
390.062	515.56
390.287	522.56
390.512	510.56
390.736	517.56
390.961	508.56
391.186	533.56
391.411	552.56
391.636	577.56
391.86	616.56
392.085	629.56
392.31	597.56
392.534	585.56
392.759	586.56
392.984	568.56
393.208	575.56
393.433	570.56
393.658	563.56
393.882	575.56
394.107	570.56
394.331	549.56
394.556	558.56
394.78	575.56
395.005	562.56
395.229	577.56
395.454	573.56
395.678	604.56
395.903	589.56
396.127	578.56
396.352	547.56
396.576	546.56
396.801	551.56
397.025	556.56
397.249	577.56
397.474	586.56
397.698	605.56
397.922	577.56
398.147	556.56
398.371	599.56
398.595	609.56
398.82	629.56
399.044	704.56
399.268	780.56
399.492	914.56
399.717	1038.56
399.941	994.56
400.165	900.56
400.389	784.56
400.613	735.56
400.837	691.56
401.062	664.56
401.286	649.56
401.51	639.56
401.734	671.56
401.958	667.56
402.182	666.56
402.406	696.56
402.63	692.56
402.854	732.56
403.078	724.56
403.302	768.56
403.526	766.56
403.75	785.56
403.974	825.56
404.198	816.56
404.422	784.56
404.645	804.56
404.869	754.56
405.093	766.56
405.317	728.56
405.541	730.56
405.765	735.56
405.988	732.56
406.212	740.56
406.436	749.56
406.66	719.56
406.883	751.56
407.107	815.56
407.331	848.56
407.555	890.56
407.778	878.56
408.002	826.56
408.226	825.56
408.449	771.56
408.673	760.56
408.896	775.56
409.12	779.56
409.344	770.56
409.567	746.56
409.791	766.56
410.014	780.56
410.238	760.56
410.461	768.56
410.685	741.56
410.908	710.56
411.132	712.56
411.355	675.56
411.578	692.56
411.802	667.56
412.025	664.56
412.249	728.56
412.472	700.56
412.695	660.56
412.919	668.56
413.142	650.56
413.365	670.56
413.589	670.56
413.812	669.56
414.035	659.56
414.258	684.56
414.482	682.56
414.705	687.56
414.928	683.56
415.151	662.56
415.374	657.56
415.597	660.56
415.821	653.56
416.044	678.56
416.267	641.56
416.49	645.56
416.713	631.56
416.936	651.56
417.159	663.56
417.382	645.56
417.605	665.56
417.828	660.56
418.051	670.56
418.274	675.56
418.497	642.56
418.72	680.56
418.943	688.56
419.166	734.56
419.389	764.56
419.611	719.56
419.834	711.56
420.057	698.56
420.28	694.56
420.503	673.56
420.726	647.56
420.948	663.56
421.171	664.56
421.394	647.56
421.617	651.56
421.839	656.56
422.062	672.56
422.285	685.56
422.507	688.56
422.73	678.56
422.953	705.56
423.175	708.56
423.398	723.56
423.621	714.56
423.843	735.56
424.066	720.56
424.288	734.56
424.511	711.56
424.733	718.56
424.956	700.56
425.178	684.56
425.401	691.56
425.623	681.56
425.846	671.56
426.068	620.56
426.291	618.56
426.513	636.56
426.735	638.56
426.958	621.56
427.18	624.56
427.402	625.56
427.625	610.56
427.847	601.56
428.069	610.56
428.292	598.56
428.514	596.56
428.736	592.56
428.958	604.56
429.181	602.56
429.403	584.56
429.625	582.56
429.847	586.56
430.069	592.56
430.292	582.56
430.514	584.56
430.736	574.56
430.958	560.56
431.18	573.56
431.402	586.56
431.624	577.56
431.846	593.56
432.068	597.56
432.29	609.56
432.512	586.56
432.734	598.56
432.956	586.56
433.178	597.56
433.4	590.56
433.622	592.56
433.844	612.56
434.066	615.56
434.287	623.56
434.509	645.56
434.731	661.56
434.953	673.56
435.175	686.56
435.397	660.56
435.618	626.56
435.84	643.56
436.062	602.56
436.284	594.56
436.505	597.56
436.727	609.56
436.949	614.56
437.17	597.56
437.392	603.56
437.614	586.56
437.835	574.56
438.057	581.56
438.278	583.56
438.5	574.56
438.721	584.56
438.943	605.56
439.165	573.56
439.386	603.56
439.608	607.56
439.829	588.56
440.05	594.56
440.272	609.56
440.493	633.56
440.715	631.56
440.936	640.56
441.158	634.56
441.379	669.56
441.6	679.56
441.822	697.56
442.043	683.56
442.264	676.56
442.486	668.56
442.707	674.56
442.928	646.56
443.149	671.56
443.371	679.56
443.592	692.56
443.813	652.56
444.034	681.56
444.255	690.56
444.476	727.56
444.698	785.56
444.919	855.56
445.14	926.56
445.361	800.56
445.582	696.56
445.803	678.56
446.024	612.56
446.245	636.56
446.466	632.56
446.687	591.56
446.908	603.56
447.129	601.56
447.35	605.56
447.571	591.56
447.792	585.56
448.013	573.56
448.234	568.56
448.455	573.56
448.675	572.56
448.896	594.56
449.117	563.56
449.338	563.56
449.559	537.56
449.779	553.56
450	555.56
450.221	573.56
450.442	565.56
450.662	566.56
450.883	570.56
451.104	580.56
451.324	590.56
451.545	568.56
451.766	596.56
451.986	583.56
452.207	589.56
452.428	557.56
452.648	549.56
452.869	566.56
453.089	534.56
453.31	578.56
453.53	578.56
453.751	544.56
453.971	544.56
454.192	521.56
454.412	517.56
454.633	522.56
454.853	538.56
455.073	531.56
455.294	550.56
455.514	540.56
455.734	514.56
455.955	517.56
456.175	544.56
456.395	516.56
456.616	539.56
456.836	524.56
457.056	524.56
457.276	510.56
457.497	528.56
457.717	522.56
457.937	521.56
458.157	534.56
458.377	530.56
458.598	545.56
458.818	558.56
459.038	589.56
459.258	588.56
459.478	609.56
459.698	636.56
459.918	648.56
460.138	669.56
460.358	718.56
460.578	702.56
460.798	719.56
461.018	733.56
461.238	740.56
461.458	709.56
461.678	711.56
461.898	726.56
462.118	728.56
462.338	775.56
462.558	776.56
462.777	809.56
462.997	885.56
463.217	986.56
463.437	1006.56
463.657	880.56
463.876	865.56
464.096	837.56
464.316	854.56
464.536	871.56
464.755	825.56
464.975	776.56
465.195	724.56
465.414	699.56
465.634	666.56
465.854	615.56
466.073	626.56
466.293	595.56
466.512	618.56
466.732	593.56
466.951	599.56
467.171	585.56
467.391	599.56
467.61	575.56
467.829	595.56
468.049	567.56
468.268	537.56
468.488	570.56
468.707	551.56
468.927	565.56
469.146	571.56
469.365	551.56
469.585	564.56
469.804	595.56
470.023	596.56
470.243	612.56
470.462	612.56
470.681	625.56
470.901	600.56
471.12	609.56
471.339	579.56
471.558	594.56
471.777	551.56
471.997	573.56
472.216	552.56
472.435	563.56
472.654	545.56
472.873	564.56
473.092	548.56
473.311	565.56
473.53	542.56
473.749	557.56
473.968	538.56
474.187	530.56
474.406	536.56
474.625	538.56
474.844	560.56
475.063	527.56
475.282	533.56
475.501	563.56
475.72	552.56
475.939	546.56
476.158	554.56
476.377	541.56
476.596	565.56
476.814	583.56
477.033	573.56
477.252	557.56
477.471	593.56
477.69	620.56
477.908	654.56
478.127	637.56
478.346	668.56
478.564	674.56
478.783	668.56
479.002	691.56
479.22	671.56
479.439	671.56
479.658	670.56
479.876	663.56
480.095	666.56
480.313	725.56
480.532	731.56
480.751	736.56
480.969	694.56
481.188	656.56
481.406	648.56
481.624	621.56
481.843	595.56
482.061	603.56
482.28	605.56
482.498	593.56
482.717	582.56
482.935	607.56
483.153	624.56
483.372	615.56
483.59	617.56
483.808	623.56
484.027	606.56
484.245	623.56
484.463	626.56
484.681	621.56
484.9	647.56
485.118	635.56
485.336	616.56
485.554	629.56
485.772	675.56
485.99	658.56
486.209	652.56
486.427	674.56
486.645	638.56
486.863	686.56
487.081	666.56
487.299	629.56
487.517	631.56
487.735	653.56
487.953	656.56
488.171	642.56
488.389	642.56
488.607	600.56
488.825	632.56
489.043	642.56
489.261	644.56
489.479	624.56
489.696	633.56
489.914	631.56
490.132	657.56
490.35	617.56
490.568	618.56
490.786	651.56
491.003	644.56
491.221	637.56
491.439	669.56
491.657	641.56
491.874	670.56
492.092	656.56
492.31	640.56
492.527	656.56
492.745	690.56
492.963	695.56
493.18	642.56
493.398	645.56
493.615	671.56
493.833	670.56
494.05	694.56
494.268	689.56
494.485	687.56
494.703	669.56
494.92	677.56
495.138	681.56
495.355	664.56
495.573	670.56
495.79	665.56
496.008	677.56
496.225	690.56
496.442	697.56
496.66	701.56
496.877	690.56
497.094	711.56
497.312	748.56
497.529	752.56
497.746	767.56
497.963	778.56
498.181	802.56
498.398	833.56
498.615	876.56
498.832	940.56
499.049	1013.56
499.267	1127.56
499.484	1240.56
499.701	1342.56
499.918	1557.56
500.135	1775.56
500.352	2084.56
500.569	2200.56
500.786	2177.56
501.003	1968.56
501.22	1716.56
501.437	1508.56
