Data from Ni(NO3)2@0.25M.TitratingCurve.Agarose3%dH2O.NegLispCup.LampEnergy10.LIBS07252019_HRD10591_18-03-18-566.txt Node
Date: Thu Jul 25 18:03:18 EDT 2019
User: cochatt
Spectrometer: HR+D1059
Trigger mode: 1
Integration Time (sec): 1.000000E-1
Scans to average: 1
Electric dark correction enabled: true
Nonlinearity correction enabled: false
Boxcar width: 0
XAxis mode: Wavelengths
Number of Pixels in Spectrum: 2048
>>>>>Begin Spectral Data<<<<<
223.165	-16
223.4	-16
223.635	-16
223.869	-12
224.104	-26
224.338	-13
224.573	-11
224.808	-14
225.042	-24
225.277	-19
225.511	-1
225.746	13
225.98	9
226.215	5
226.449	28
226.683	16
226.918	27
227.152	38
227.387	29
227.621	36
227.856	31
228.09	56
228.324	62
228.559	49
228.793	52
229.027	79
229.262	75
229.496	69
229.73	84
229.964	77
230.199	95
230.433	90
230.667	90
230.901	94
231.136	80
231.37	83
231.604	109
231.838	103
232.072	97
232.306	98
232.541	106
232.775	94
233.009	111
233.243	94
233.477	91
233.711	94
233.945	93
234.179	106
234.413	108
234.647	94
234.881	94
235.115	109
235.349	104
235.583	92
235.817	87
236.051	89
236.285	99
236.519	92
236.753	93
236.987	99
237.221	97
237.455	105
237.689	86
237.922	111
238.156	93
238.39	92
238.624	102
238.858	94
239.091	88
239.325	97
239.559	93
239.793	100
240.027	91
240.26	98
240.494	95
240.728	87
240.961	97
241.195	88
241.429	102
241.662	88
241.896	110
242.13	113
242.363	109
242.597	92
242.83	101
243.064	100
243.298	92
243.531	100
243.765	79
243.998	82
244.232	104
244.465	103
244.699	89
244.932	94
245.166	119
245.399	112
245.633	101
245.866	113
246.099	113
246.333	114
246.566	133
246.8	126
247.033	108
247.266	118
247.5	115
247.733	130
247.966	135
248.2	110
248.433	137
248.666	121
248.899	141
249.133	132
249.366	135
249.599	126
249.832	143
250.066	149
250.299	147
250.532	160
250.765	169
250.998	173
251.231	178
251.465	179
251.698	182
251.931	183
252.164	168
252.397	180
252.63	186
252.863	177
253.096	190
253.329	197
253.562	200
253.795	196
254.028	207
254.261	212
254.494	211
254.727	217
254.96	230
255.193	231
255.426	227
255.659	230
255.892	241
256.124	239
256.357	236
256.59	231
256.823	227
257.056	248
257.289	257
257.521	257
257.754	249
257.987	246
258.22	269
258.452	271
258.685	281
258.918	281
259.151	291
259.383	266
259.616	263
259.849	291
260.081	292
260.314	288
260.547	282
260.779	287
261.012	266
261.244	284
261.477	296
261.71	287
261.942	293
262.175	292
262.407	302
262.64	295
262.872	298
263.105	286
263.337	308
263.57	300
263.802	302
264.035	310
264.267	314
264.499	311
264.732	313
264.964	299
265.197	311
265.429	309
265.661	299
265.894	314
266.126	326
266.358	313
266.591	314
266.823	321
267.055	328
267.287	305
267.52	315
267.752	324
267.984	312
268.216	327
268.448	337
268.681	342
268.913	325
269.145	327
269.377	329
269.609	323
269.841	329
270.073	325
270.306	323
270.538	313
270.77	308
271.002	323
271.234	331
271.466	317
271.698	324
271.93	323
272.162	317
272.394	342
272.626	332
272.858	333
273.09	336
273.322	333
273.553	330
273.785	339
274.017	324
274.249	335
274.481	338
274.713	325
274.945	338
275.176	333
275.408	331
275.64	325
275.872	334
276.104	344
276.335	344
276.567	327
276.799	320
277.031	327
277.262	321
277.494	350
277.726	321
277.957	345
278.189	326
278.421	342
278.652	327
278.884	328
279.115	336
279.347	329
279.579	315
279.81	319
280.042	312
280.273	329
280.505	301
280.736	332
280.968	323
281.199	318
281.431	318
281.662	333
281.894	322
282.125	328
282.356	326
282.588	328
282.819	329
283.051	322
283.282	309
283.513	313
283.745	313
283.976	335
284.207	324
284.439	327
284.67	325
284.901	322
285.132	331
285.364	326
285.595	323
285.826	309
286.057	338
286.288	329
286.52	312
286.751	334
286.982	326
287.213	322
287.444	323
287.675	309
287.906	318
288.138	318
288.369	318
288.6	343
288.831	323
289.062	309
289.293	293
289.524	317
289.755	335
289.986	309
290.217	307
290.448	312
290.679	311
290.91	313
291.141	307
291.371	303
291.602	293
291.833	302
292.064	305
292.295	298
292.526	313
292.757	309
292.987	317
293.218	292
293.449	302
293.68	305
293.91	309
294.141	297
294.372	303
294.603	302
294.833	325
295.064	312
295.295	309
295.525	317
295.756	300
295.987	304
296.217	312
296.448	310
296.679	314
296.909	323
297.14	306
297.37	314
297.601	315
297.831	300
298.062	312
298.292	311
298.523	305
298.753	329
298.984	314
299.214	317
299.445	317
299.675	298
299.905	310
300.136	325
300.366	325
300.597	334
300.827	314
301.057	316
301.288	334
301.518	340
301.748	317
301.979	323
302.209	299
302.439	335
302.669	334
302.9	329
303.13	335
303.36	353
303.59	351
303.82	354
304.051	343
304.281	346
304.511	357
304.741	353
304.971	347
305.201	361
305.431	365
305.661	330
305.891	333
306.121	355
306.352	349
306.582	345
306.812	338
307.042	348
307.272	375
307.502	365
307.731	363
307.961	385
308.191	372
308.421	360
308.651	361
308.881	370
309.111	376
309.341	358
309.571	349
309.8	380
310.03	364
310.26	395
310.49	389
310.72	379
310.949	397
311.179	392
311.409	398
311.639	380
311.868	405
312.098	408
312.328	421
312.557	412
312.787	411
313.017	420
313.246	442
313.476	453
313.706	437
313.935	452
314.165	458
314.394	420
314.624	451
314.853	449
315.083	451
315.312	473
315.542	478
315.771	466
316.001	474
316.23	475
316.46	482
316.689	463
316.919	527
317.148	502
317.377	520
317.607	479
317.836	518
318.065	527
318.295	525
318.524	506
318.753	543
318.983	522
319.212	500
319.441	547
319.67	562
319.9	563
320.129	568
320.358	553
320.587	577
320.816	592
321.046	591
321.275	590
321.504	603
321.733	603
321.962	606
322.191	617
322.42	616
322.649	627
322.878	636
323.108	641
323.337	642
323.566	629
323.795	655
324.024	689
324.253	667
324.482	681
324.71	667
324.939	673
325.168	679
325.397	697
325.626	724
325.855	728
326.084	737
326.313	698
326.542	731
326.77	762
326.999	707
327.228	746
327.457	768
327.686	754
327.914	761
328.143	776
328.372	781
328.6	774
328.829	769
329.058	777
329.287	783
329.515	787
329.744	790
329.972	774
330.201	807
330.43	791
330.658	831
330.887	833
331.115	819
331.344	824
331.572	831
331.801	855
332.03	845
332.258	838
332.486	851
332.715	868
332.943	895
333.172	877
333.4	872
333.629	902
333.857	903
334.085	888
334.314	902
334.542	898
334.771	886
334.999	917
335.227	921
335.455	915
335.684	935
335.912	928
336.14	936
336.369	937
336.597	939
336.825	957
337.053	963
337.281	930
337.51	955
337.738	923
337.966	922
338.194	929
338.422	926
338.65	907
338.878	919
339.106	945
339.334	947
339.562	935
339.79	903
340.018	949
340.246	887
340.474	934
340.702	910
340.93	952
341.158	915
341.386	939
341.614	925
341.842	946
342.07	946
342.298	957
342.526	938
342.754	917
342.981	908
343.209	940
343.437	954
343.665	964
343.893	967
344.12	936
344.348	959
344.576	942
344.804	960
345.031	933
345.259	953
345.487	958
345.714	927
345.942	949
346.17	963
346.397	921
346.625	930
346.853	925
347.08	914
347.308	941
347.535	958
347.763	937
347.99	935
348.218	923
348.445	909
348.673	904
348.9	910
349.128	924
349.355	914
349.583	927
349.81	895
350.037	883
350.265	888
350.492	899
350.72	902
350.947	881
351.174	919
351.402	914
351.629	909
351.856	908
352.083	888
352.311	917
352.538	894
352.765	924
352.992	896
353.22	881
353.447	898
353.674	893
353.901	903
354.128	902
354.355	907
354.583	877
354.81	877
355.037	903
355.264	891
355.491	897
355.718	883
355.945	877
356.172	877
356.399	890
356.626	895
356.853	911
357.08	922
357.307	872
357.534	861
357.761	903
357.988	873
358.215	893
358.441	856
358.668	867
358.895	862
359.122	873
359.349	874
359.576	855
359.802	860
360.029	848
360.256	865
360.483	845
360.709	873
360.936	875
361.163	860
361.39	857
361.616	886
361.843	883
362.07	890
362.296	867
362.523	831
362.749	847
362.976	867
363.203	886
363.429	850
363.656	878
363.882	895
364.109	869
364.335	836
364.562	854
364.788	833
365.015	845
365.241	844
365.468	852
365.694	846
365.92	862
366.147	846
366.373	864
366.599	873
366.826	871
367.052	861
367.278	860
367.505	868
367.731	859
367.957	823
368.184	860
368.41	838
368.636	880
368.862	829
369.089	870
369.315	847
369.541	865
369.767	869
369.993	868
370.219	842
370.445	877
370.672	843
370.898	844
371.124	857
371.35	861
371.576	841
371.802	821
372.028	853
372.254	818
372.48	826
372.706	832
372.932	830
373.158	842
373.384	826
373.61	796
373.835	819
374.061	828
374.287	847
374.513	829
374.739	844
374.965	833
375.191	814
375.416	845
375.642	833
375.868	833
376.094	833
376.319	803
376.545	796
376.771	805
376.997	757
377.222	793
377.448	792
377.674	791
377.899	796
378.125	805
378.35	803
378.576	781
378.802	769
379.027	772
379.253	779
379.478	793
379.704	766
379.929	764
380.155	749
380.38	784
380.606	769
380.831	784
381.057	773
381.282	768
381.507	760
381.733	759
381.958	754
382.184	783
382.409	770
382.634	766
382.86	777
383.085	780
383.31	791
383.535	781
383.761	773
383.986	755
384.211	789
384.436	775
384.662	812
384.887	808
385.112	805
385.337	788
385.562	784
385.787	782
386.013	822
386.238	820
386.463	822
386.688	804
386.913	818
387.138	799
387.363	798
387.588	816
387.813	793
388.038	803
388.263	792
388.488	811
388.713	806
388.938	820
389.163	787
389.387	799
389.612	777
389.837	777
390.062	782
390.287	817
390.512	798
390.736	796
390.961	788
391.186	781
391.411	823
391.636	809
391.86	797
392.085	784
392.31	827
392.534	806
392.759	803
392.984	817
393.208	815
393.433	822
393.658	789
393.882	821
394.107	792
394.331	812
394.556	764
394.78	807
395.005	819
395.229	813
395.454	820
395.678	825
395.903	837
396.127	807
396.352	837
396.576	811
396.801	798
397.025	830
397.249	829
397.474	864
397.698	830
397.922	839
398.147	839
398.371	856
398.595	865
398.82	873
399.044	894
399.268	897
399.492	943
399.717	972
399.941	938
400.165	955
400.389	899
400.613	908
400.837	878
401.062	897
401.286	907
401.51	901
401.734	878
401.958	922
402.182	901
402.406	863
402.63	905
402.854	891
403.078	899
403.302	888
403.526	904
403.75	936
403.974	927
404.198	922
404.422	935
404.645	908
404.869	906
405.093	951
405.317	933
405.541	955
405.765	980
405.988	953
406.212	944
406.436	972
406.66	970
406.883	956
407.107	948
407.331	973
407.555	1019
407.778	982
408.002	1011
408.226	1010
408.449	1010
408.673	987
408.896	979
409.12	982
409.344	981
409.567	980
409.791	951
410.014	974
410.238	988
410.461	1014
410.685	999
410.908	990
411.132	974
411.355	970
411.578	999
411.802	983
412.025	1004
412.249	970
412.472	978
412.695	942
412.919	941
413.142	985
413.365	980
413.589	983
413.812	981
414.035	966
414.258	959
414.482	945
414.705	973
414.928	960
415.151	974
415.374	938
415.597	957
415.821	980
416.044	989
416.267	986
416.49	984
416.713	956
416.936	993
417.159	954
417.382	958
417.605	951
417.828	947
418.051	985
418.274	948
418.497	957
418.72	959
418.943	962
419.166	1004
419.389	1095
419.611	1055
419.834	1050
420.057	1015
420.28	1001
420.503	926
420.726	964
420.948	960
421.171	964
421.394	979
421.617	971
421.839	1003
422.062	967
422.285	976
422.507	1001
422.73	994
422.953	974
423.175	995
423.398	1001
423.621	1005
423.843	1014
424.066	1024
424.288	1009
424.511	983
424.733	998
424.956	1010
425.178	1004
425.401	996
425.623	1026
425.846	1027
426.068	999
426.291	1006
426.513	1022
426.735	1020
426.958	1035
427.18	1010
427.402	1022
427.625	1019
427.847	1015
428.069	1039
428.292	1065
428.514	1019
428.736	996
428.958	1048
429.181	1034
429.403	1047
429.625	1033
429.847	1023
430.069	1029
430.292	1028
430.514	1044
430.736	1036
430.958	1047
431.18	1045
431.402	1054
431.624	1013
431.846	1037
432.068	1010
432.29	1021
432.512	1033
432.734	1052
432.956	1042
433.178	1073
433.4	1029
433.622	1057
433.844	1066
434.066	1058
434.287	1012
434.509	1043
434.731	1003
434.953	1038
435.175	1039
435.397	1077
435.618	1036
435.84	1043
436.062	1065
436.284	1040
436.505	1071
436.727	1047
436.949	1037
437.17	1063
437.392	1062
437.614	1058
437.835	1018
438.057	1019
438.278	1036
438.5	1027
438.721	1035
438.943	1044
439.165	997
439.386	1053
439.608	1058
439.829	1063
440.05	1062
440.272	1053
440.493	1063
440.715	1069
440.936	1060
441.158	1073
441.379	1066
441.6	1088
441.822	1061
442.043	1103
442.264	1093
442.486	1059
442.707	1053
442.928	1090
443.149	1093
443.371	1057
443.592	1113
443.813	1083
444.034	1065
444.255	1099
444.476	1077
444.698	1097
444.919	1101
445.14	1181
445.361	1113
445.582	1085
445.803	1059
446.024	1032
446.245	1045
446.466	1054
446.687	1035
446.908	1062
447.129	1025
447.35	1035
447.571	1040
447.792	1020
448.013	1025
448.234	1014
448.455	994
448.675	986
448.896	1037
449.117	982
449.338	1021
449.559	985
449.779	981
450	972
450.221	1015
450.442	977
450.662	957
450.883	1016
451.104	990
451.324	1010
451.545	993
451.766	977
451.986	963
452.207	955
452.428	938
452.648	997
452.869	958
453.089	975
453.31	962
453.53	969
453.751	993
453.971	923
454.192	967
454.412	964
454.633	938
454.853	983
455.073	963
455.294	957
455.514	969
455.734	946
455.955	953
456.175	934
456.395	945
456.616	933
456.836	969
457.056	945
457.276	933
457.497	991
457.717	956
457.937	947
458.157	957
458.377	935
458.598	957
458.818	969
459.038	963
459.258	976
459.478	990
459.698	1035
459.918	1033
460.138	1046
460.358	1084
460.578	1025
460.798	1055
461.018	1060
461.238	1050
461.458	1057
461.678	1042
461.898	1068
462.118	1060
462.338	1062
462.558	1103
462.777	1114
462.997	1113
463.217	1159
463.437	1147
463.657	1099
463.876	1109
464.096	1161
464.316	1116
464.536	1103
464.755	1106
464.975	1138
465.195	1121
465.414	1045
465.634	1057
465.854	1030
466.073	1051
466.293	1035
466.512	1064
466.732	1053
466.951	1059
467.171	1027
467.391	1019
467.61	1037
467.829	1042
468.049	1043
468.268	1007
468.488	1039
468.707	1056
468.927	1017
469.146	1030
469.365	1053
469.585	1059
469.804	1029
470.023	1038
470.243	1039
470.462	1022
470.681	1079
470.901	1075
471.12	1037
471.339	1050
471.558	1047
471.777	1068
471.997	1079
472.216	1058
472.435	1043
472.654	1043
472.873	1014
473.092	1057
473.311	1051
473.53	1087
473.749	1073
473.968	1041
474.187	1057
474.406	1059
474.625	1078
474.844	1077
475.063	1093
475.282	1078
475.501	1122
475.72	1076
475.939	1100
476.158	1148
476.377	1127
476.596	1119
476.814	1146
477.033	1111
477.252	1126
477.471	1149
477.69	1186
477.908	1193
478.127	1185
478.346	1171
478.564	1217
478.783	1205
479.002	1235
479.22	1218
479.439	1193
479.658	1240
479.876	1246
480.095	1246
480.313	1245
480.532	1238
480.751	1228
480.969	1213
481.188	1239
481.406	1227
481.624	1198
481.843	1204
482.061	1210
482.28	1228
482.498	1293
482.717	1250
482.935	1261
483.153	1273
483.372	1305
483.59	1269
483.808	1291
484.027	1305
484.245	1324
484.463	1274
484.681	1292
484.9	1295
485.118	1285
485.336	1302
485.554	1273
485.772	1285
485.99	1275
486.209	1317
486.427	1286
486.645	1308
486.863	1306
487.081	1330
487.299	1311
487.517	1323
487.735	1325
487.953	1338
488.171	1319
488.389	1355
488.607	1324
488.825	1301
489.043	1315
489.261	1284
489.479	1323
489.696	1321
489.914	1326
490.132	1345
490.35	1324
490.568	1359
490.786	1373
491.003	1362
491.221	1370
491.439	1380
491.657	1383
491.874	1377
492.092	1428
492.31	1429
492.527	1428
492.745	1401
492.963	1406
493.18	1398
493.398	1373
493.615	1419
493.833	1397
494.05	1404
494.268	1417
494.485	1395
494.703	1391
494.92	1409
495.138	1386
495.355	1370
495.573	1382
495.79	1413
496.008	1435
496.225	1457
496.442	1476
496.66	1467
496.877	1430
497.094	1443
497.312	1485
497.529	1461
497.746	1506
497.963	1511
498.181	1485
498.398	1521
498.615	1510
498.832	1584
499.049	1563
499.267	1615
499.484	1624
499.701	1685
499.918	1737
500.135	1769
500.352	1799
500.569	1813
500.786	1802
501.003	1853
501.22	1779
501.437	1709
501.654	1656
501.871	1674
502.088	1637
502.305	1595
502.522	1556
502.739	1564
502.956	1523
503.172	1499
503.389	1480
503.606	1483
503.823	1459
504.04	1460
504.256	1437
504.473	1439
504.69	1435
504.907	1426
505.123	1405
505.34	1371
505.557	1335
505.773	1362
505.99	1358
506.207	1329
506.423	1317
506.64	1349
506.856	1288
507.073	1287
507.289	1305
507.506	1289
507.722	1272
507.939	1278
508.155	1256
508.372	1255
508.588	1222
508.805	1234
509.021	1249
509.238	1237
509.454	1202
509.67	1227
509.887	1208
510.103	1201
510.319	1205
510.536	1206
510.752	1177
510.968	1206
511.184	1189
511.401	1194
511.617	1211
511.833	1189
512.049	1194
512.265	1178
512.481	1205
512.698	1175
512.914	1189
513.13	1201
513.346	1223
513.562	1193
513.778	1168
513.994	1171
514.21	1177
514.426	1175
514.642	1206
514.858	1210
515.074	1223
515.29	1192
515.506	1170
515.721	1181
515.937	1203
516.153	1203
516.369	1183
516.585	1156
516.801	1191
517.016	1213
517.232	1213
517.448	1215
517.664	1207
517.879	1211
518.095	1199
518.311	1176
518.527	1238
518.742	1235
518.958	1187
519.173	1180
519.389	1195
519.605	1161
519.82	1162
520.036	1186
520.251	1165
520.467	1159
520.682	1159
520.898	1178
521.113	1127
521.329	1140
521.544	1117
521.76	1126
521.975	1121
522.19	1125
522.406	1093
522.621	1106
522.836	1124
523.052	1109
523.267	1080
523.482	1108
523.698	1091
523.913	1112
524.128	1084
524.343	1090
524.559	1101
524.774	1116
524.989	1091
525.204	1084
525.419	1070
525.634	1104
525.849	1090
526.064	1068
526.28	1063
526.495	1062
526.71	1106
526.925	1066
527.14	1067
527.355	1065
527.57	1044
527.785	1057
527.999	1066
528.214	1051
528.429	1065
528.644	1087
528.859	1095
529.074	1064
529.289	1086
529.503	1075
529.718	1056
529.933	1073
530.148	1040
530.363	1036
530.577	1047
530.792	1033
531.007	1036
531.221	1045
531.436	1025
531.651	1010
531.865	1011
532.08	1014
532.295	1012
532.509	1006
532.724	1013
532.938	1055
533.153	1044
533.367	1036
533.582	1002
533.796	1044
534.011	1021
534.225	1027
534.44	988
534.654	986
534.868	1031
535.083	1015
535.297	1001
535.511	999
535.726	1027
535.94	994
536.154	993
536.369	989
536.583	971
536.797	977
537.011	981
537.225	974
537.44	955
537.654	978
537.868	974
538.082	955
538.296	951
538.51	1011
538.724	970
538.938	1006
539.153	953
539.367	954
539.581	983
539.795	951
540.009	931
540.222	933
540.436	940
540.65	954
540.864	932
541.078	953
541.292	971
541.506	978
541.72	945
541.934	965
542.147	1001
542.361	962
542.575	957
542.789	947
543.002	943
543.216	919
543.43	909
543.644	913
543.857	941
544.071	979
544.285	936
544.498	894
544.712	927
544.925	943
545.139	971
545.352	944
545.566	947
545.779	923
545.993	907
546.206	920
546.42	948
546.633	937
546.847	930
547.06	923
547.274	937
547.487	929
547.7	936
547.914	915
548.127	929
548.34	926
548.554	907
548.767	891
548.98	888
549.193	890
549.407	925
549.62	904
549.833	916
550.046	924
550.259	896
550.473	911
550.686	900
550.899	898
551.112	910
551.325	891
551.538	888
551.751	866
551.964	880
552.177	893
552.39	894
552.603	896
552.816	896
553.029	894
553.242	894
553.455	865
553.667	899
553.88	903
554.093	861
554.306	885
554.519	866
554.732	869
554.944	855
555.157	869
555.37	856
555.583	841
555.795	840
556.008	850
