Data from Ni(NO3)2Standard.Agarose3%.GreenCap.LampEnergy5.5.E.O_HRD10591_14-41-25-188.txt Node
Date: Mon Jul 22 14:41:25 EDT 2019
User: cochatt
Spectrometer: HR+D1059
Trigger mode: 1
Integration Time (sec): 1.000000E-1
Scans to average: 1
Electric dark correction enabled: true
Nonlinearity correction enabled: false
Boxcar width: 0
XAxis mode: Wavelengths
Number of Pixels in Spectrum: 2048
>>>>>Begin Spectral Data<<<<<
223.165	-11.12
223.4	-11.12
223.635	-11.12
223.869	-15.12
224.104	-15.12
224.338	-24.12
224.573	-10.12
224.808	-9.12
225.042	-15.12
225.277	-0.12
225.511	-2.12
225.746	2.88
225.98	6.88
226.215	19.88
226.449	5.88
226.683	17.88
226.918	17.88
227.152	30.88
227.387	29.88
227.621	32.88
227.856	40.88
228.09	35.88
228.324	57.88
228.559	35.88
228.793	50.88
229.027	45.88
229.262	56.88
229.496	58.88
229.73	62.88
229.964	53.88
230.199	73.88
230.433	55.88
230.667	85.88
230.901	69.88
231.136	80.88
231.37	70.88
231.604	93.88
231.838	62.88
232.072	79.88
232.306	81.88
232.541	78.88
232.775	79.88
233.009	94.88
233.243	85.88
233.477	86.88
233.711	86.88
233.945	79.88
234.179	92.88
234.413	79.88
234.647	91.88
234.881	87.88
235.115	79.88
235.349	88.88
235.583	70.88
235.817	79.88
236.051	80.88
236.285	79.88
236.519	68.88
236.753	63.88
236.987	65.88
237.221	66.88
237.455	64.88
237.689	69.88
237.922	79.88
238.156	73.88
238.39	74.88
238.624	69.88
238.858	72.88
239.091	69.88
239.325	63.88
239.559	84.88
239.793	83.88
240.027	73.88
240.26	93.88
240.494	82.88
240.728	58.88
240.961	80.88
241.195	80.88
241.429	67.88
241.662	75.88
241.896	67.88
242.13	64.88
242.363	81.88
242.597	75.88
242.83	75.88
243.064	78.88
243.298	66.88
243.531	73.88
243.765	82.88
243.998	72.88
244.232	70.88
244.465	81.88
244.699	80.88
244.932	67.88
245.166	81.88
245.399	69.88
245.633	75.88
245.866	78.88
246.099	87.88
246.333	78.88
246.566	81.88
246.8	77.88
247.033	65.88
247.266	78.88
247.5	83.88
247.733	83.88
247.966	78.88
248.2	71.88
248.433	74.88
248.666	79.88
248.899	78.88
249.133	74.88
249.366	86.88
249.599	75.88
249.832	74.88
250.066	82.88
250.299	65.88
250.532	65.88
250.765	82.88
250.998	74.88
251.231	83.88
251.465	71.88
251.698	86.88
251.931	79.88
252.164	71.88
252.397	78.88
252.63	65.88
252.863	77.88
253.096	73.88
253.329	69.88
253.562	74.88
253.795	87.88
254.028	67.88
254.261	85.88
254.494	78.88
254.727	76.88
254.96	68.88
255.193	80.88
255.426	75.88
255.659	82.88
255.892	89.88
256.124	85.88
256.357	83.88
256.59	84.88
256.823	80.88
257.056	84.88
257.289	72.88
257.521	86.88
257.754	73.88
257.987	63.88
258.22	77.88
258.452	73.88
258.685	67.88
258.918	78.88
259.151	71.88
259.383	74.88
259.616	86.88
259.849	84.88
260.081	71.88
260.314	78.88
260.547	65.88
260.779	75.88
261.012	67.88
261.244	76.88
261.477	80.88
261.71	71.88
261.942	71.88
262.175	90.88
262.407	78.88
262.64	96.88
262.872	88.88
263.105	83.88
263.337	94.88
263.57	95.88
263.802	78.88
264.035	88.88
264.267	77.88
264.499	80.88
264.732	80.88
264.964	73.88
265.197	68.88
265.429	80.88
265.661	87.88
265.894	63.88
266.126	94.88
266.358	83.88
266.591	74.88
266.823	76.88
267.055	87.88
267.287	81.88
267.52	86.88
267.752	80.88
267.984	80.88
268.216	86.88
268.448	91.88
268.681	78.88
268.913	80.88
269.145	75.88
269.377	79.88
269.609	85.88
269.841	76.88
270.073	92.88
270.306	86.88
270.538	93.88
270.77	82.88
271.002	89.88
271.234	87.88
271.466	92.88
271.698	78.88
271.93	83.88
272.162	70.88
272.394	91.88
272.626	81.88
272.858	77.88
273.09	89.88
273.322	99.88
273.553	96.88
273.785	75.88
274.017	81.88
274.249	86.88
274.481	79.88
274.713	79.88
274.945	81.88
275.176	77.88
275.408	73.88
275.64	74.88
275.872	82.88
276.104	85.88
276.335	79.88
276.567	85.88
276.799	83.88
277.031	77.88
277.262	73.88
277.494	72.88
277.726	79.88
277.957	84.88
278.189	78.88
278.421	76.88
278.652	71.88
278.884	81.88
279.115	85.88
279.347	82.88
279.579	86.88
279.81	72.88
280.042	93.88
280.273	90.88
280.505	83.88
280.736	73.88
280.968	73.88
281.199	80.88
281.431	87.88
281.662	75.88
281.894	98.88
282.125	80.88
282.356	83.88
282.588	97.88
282.819	82.88
283.051	83.88
283.282	82.88
283.513	87.88
283.745	82.88
283.976	68.88
284.207	73.88
284.439	100.88
284.67	74.88
284.901	70.88
285.132	83.88
285.364	94.88
285.595	73.88
285.826	84.88
286.057	84.88
286.288	93.88
286.52	82.88
286.751	73.88
286.982	78.88
287.213	82.88
287.444	96.88
287.675	88.88
287.906	93.88
288.138	86.88
288.369	89.88
288.6	96.88
288.831	75.88
289.062	89.88
289.293	93.88
289.524	91.88
289.755	88.88
289.986	95.88
290.217	99.88
290.448	74.88
290.679	82.88
290.91	79.88
291.141	69.88
291.371	87.88
291.602	71.88
291.833	60.88
292.064	87.88
292.295	81.88
292.526	74.88
292.757	94.88
292.987	97.88
293.218	82.88
293.449	94.88
293.68	83.88
293.91	89.88
294.141	73.88
294.372	73.88
294.603	82.88
294.833	82.88
295.064	69.88
295.295	88.88
295.525	79.88
295.756	80.88
295.987	77.88
296.217	76.88
296.448	87.88
296.679	81.88
296.909	85.88
297.14	85.88
297.37	76.88
297.601	73.88
297.831	80.88
298.062	66.88
298.292	80.88
298.523	83.88
298.753	79.88
298.984	91.88
299.214	75.88
299.445	90.88
299.675	89.88
299.905	81.88
300.136	94.88
300.366	81.88
300.597	82.88
300.827	90.88
301.057	86.88
301.288	101.88
301.518	78.88
301.748	98.88
301.979	85.88
302.209	90.88
302.439	81.88
302.669	88.88
302.9	74.88
303.13	97.88
303.36	90.88
303.59	86.88
303.82	89.88
304.051	84.88
304.281	86.88
304.511	84.88
304.741	83.88
304.971	82.88
305.201	85.88
305.431	78.88
305.661	85.88
305.891	87.88
306.121	70.88
306.352	88.88
306.582	95.88
306.812	75.88
307.042	82.88
307.272	77.88
307.502	78.88
307.731	71.88
307.961	87.88
308.191	75.88
308.421	77.88
308.651	81.88
308.881	75.88
309.111	80.88
309.341	82.88
309.571	88.88
309.8	79.88
310.03	95.88
310.26	79.88
310.49	85.88
310.72	93.88
310.949	82.88
311.179	79.88
311.409	103.88
311.639	81.88
311.868	82.88
312.098	82.88
312.328	77.88
312.557	81.88
312.787	82.88
313.017	91.88
313.246	71.88
313.476	87.88
313.706	86.88
313.935	88.88
314.165	83.88
314.394	80.88
314.624	98.88
314.853	98.88
315.083	87.88
315.312	75.88
315.542	87.88
315.771	79.88
316.001	83.88
316.23	84.88
316.46	91.88
316.689	85.88
316.919	70.88
317.148	90.88
317.377	99.88
317.607	86.88
317.836	76.88
318.065	94.88
318.295	87.88
318.524	88.88
318.753	92.88
318.983	71.88
319.212	84.88
319.441	81.88
319.67	94.88
319.9	87.88
320.129	73.88
320.358	81.88
320.587	98.88
320.816	83.88
321.046	71.88
321.275	78.88
321.504	80.88
321.733	92.88
321.962	82.88
322.191	90.88
322.42	68.88
322.649	89.88
322.878	91.88
323.108	74.88
323.337	82.88
323.566	81.88
323.795	83.88
324.024	93.88
324.253	97.88
324.482	75.88
324.71	79.88
324.939	77.88
325.168	83.88
325.397	90.88
325.626	81.88
325.855	87.88
326.084	93.88
326.313	81.88
326.542	89.88
326.77	85.88
326.999	89.88
327.228	90.88
327.457	90.88
327.686	81.88
327.914	81.88
328.143	89.88
328.372	81.88
328.6	77.88
328.829	81.88
329.058	85.88
329.287	75.88
329.515	87.88
329.744	82.88
329.972	81.88
330.201	96.88
330.43	97.88
330.658	91.88
330.887	73.88
331.115	70.88
331.344	72.88
331.572	85.88
331.801	81.88
332.03	82.88
332.258	75.88
332.486	86.88
332.715	85.88
332.943	91.88
333.172	85.88
333.4	76.88
333.629	82.88
333.857	72.88
334.085	91.88
334.314	87.88
334.542	77.88
334.771	80.88
334.999	99.88
335.227	89.88
335.455	82.88
335.684	78.88
335.912	75.88
336.14	70.88
336.369	84.88
336.597	88.88
336.825	86.88
337.053	92.88
337.281	87.88
337.51	66.88
337.738	110.88
337.966	83.88
338.194	83.88
338.422	86.88
338.65	93.88
338.878	98.88
339.106	79.88
339.334	79.88
339.562	88.88
339.79	89.88
340.018	87.88
340.246	73.88
340.474	72.88
340.702	82.88
340.93	87.88
341.158	97.88
341.386	77.88
341.614	93.88
341.842	78.88
342.07	69.88
342.298	78.88
342.526	85.88
342.754	95.88
342.981	86.88
343.209	86.88
343.437	94.88
343.665	81.88
343.893	77.88
344.12	88.88
344.348	80.88
344.576	81.88
344.804	86.88
345.031	74.88
345.259	74.88
345.487	84.88
345.714	81.88
345.942	87.88
346.17	83.88
346.397	77.88
346.625	94.88
346.853	91.88
347.08	68.88
347.308	86.88
347.535	79.88
347.763	82.88
347.99	91.88
348.218	92.88
348.445	79.88
348.673	85.88
348.9	92.88
349.128	94.88
349.355	85.88
349.583	82.88
349.81	77.88
350.037	100.88
350.265	89.88
350.492	85.88
350.72	80.88
350.947	87.88
351.174	76.88
351.402	82.88
351.629	75.88
351.856	83.88
352.083	68.88
352.311	80.88
352.538	86.88
352.765	89.88
352.992	99.88
353.22	89.88
353.447	78.88
353.674	85.88
353.901	82.88
354.128	87.88
354.355	78.88
354.583	83.88
354.81	79.88
355.037	95.88
355.264	74.88
355.491	75.88
355.718	91.88
355.945	83.88
356.172	84.88
356.399	87.88
356.626	95.88
356.853	77.88
357.08	84.88
357.307	80.88
357.534	74.88
357.761	86.88
357.988	92.88
358.215	77.88
358.441	90.88
358.668	78.88
358.895	89.88
359.122	101.88
359.349	73.88
359.576	73.88
359.802	87.88
360.029	74.88
360.256	71.88
360.483	69.88
360.709	74.88
360.936	85.88
361.163	95.88
361.39	94.88
361.616	78.88
361.843	72.88
362.07	82.88
362.296	69.88
362.523	75.88
362.749	87.88
362.976	81.88
363.203	102.88
363.429	92.88
363.656	95.88
363.882	75.88
364.109	79.88
364.335	85.88
364.562	80.88
364.788	95.88
365.015	80.88
365.241	83.88
365.468	82.88
365.694	91.88
365.92	88.88
366.147	74.88
366.373	83.88
366.599	86.88
366.826	75.88
367.052	86.88
367.278	82.88
367.505	84.88
367.731	71.88
367.957	89.88
368.184	87.88
368.41	80.88
368.636	85.88
368.862	83.88
369.089	82.88
369.315	85.88
369.541	84.88
369.767	72.88
369.993	68.88
370.219	88.88
370.445	81.88
370.672	90.88
370.898	92.88
371.124	82.88
371.35	90.88
371.576	79.88
371.802	72.88
372.028	72.88
372.254	72.88
372.48	86.88
372.706	79.88
372.932	85.88
373.158	80.88
373.384	73.88
373.61	90.88
373.835	83.88
374.061	91.88
374.287	85.88
374.513	81.88
374.739	84.88
374.965	97.88
375.191	87.88
375.416	80.88
375.642	87.88
375.868	86.88
376.094	78.88
376.319	90.88
376.545	86.88
376.771	87.88
376.997	85.88
377.222	82.88
377.448	84.88
377.674	75.88
377.899	85.88
378.125	81.88
378.35	92.88
378.576	73.88
378.802	74.88
379.027	73.88
379.253	85.88
379.478	81.88
379.704	88.88
379.929	61.88
380.155	71.88
380.38	79.88
380.606	88.88
380.831	79.88
381.057	78.88
381.282	72.88
381.507	83.88
381.733	88.88
381.958	68.88
382.184	74.88
382.409	95.88
382.634	80.88
382.86	85.88
383.085	96.88
383.31	86.88
383.535	91.88
383.761	83.88
383.986	89.88
384.211	94.88
384.436	85.88
384.662	69.88
384.887	86.88
385.112	72.88
385.337	93.88
385.562	79.88
385.787	90.88
386.013	87.88
386.238	85.88
386.463	85.88
386.688	84.88
386.913	79.88
387.138	79.88
387.363	79.88
387.588	78.88
387.813	97.88
388.038	79.88
388.263	89.88
388.488	66.88
388.713	77.88
388.938	73.88
389.163	86.88
389.387	85.88
389.612	78.88
389.837	87.88
390.062	82.88
390.287	83.88
390.512	87.88
390.736	84.88
390.961	75.88
391.186	81.88
391.411	85.88
391.636	72.88
391.86	86.88
392.085	86.88
392.31	70.88
392.534	78.88
392.759	82.88
392.984	74.88
393.208	83.88
393.433	93.88
393.658	88.88
393.882	86.88
394.107	85.88
394.331	85.88
394.556	82.88
394.78	72.88
395.005	75.88
395.229	84.88
395.454	90.88
395.678	78.88
395.903	66.88
396.127	83.88
396.352	79.88
396.576	90.88
396.801	84.88
397.025	80.88
397.249	69.88
397.474	87.88
397.698	87.88
397.922	89.88
398.147	83.88
398.371	96.88
398.595	89.88
398.82	65.88
399.044	86.88
399.268	77.88
399.492	87.88
399.717	83.88
399.941	82.88
400.165	90.88
400.389	76.88
400.613	86.88
400.837	93.88
401.062	84.88
401.286	93.88
401.51	96.88
401.734	74.88
401.958	93.88
402.182	83.88
402.406	85.88
402.63	79.88
402.854	86.88
403.078	83.88
403.302	83.88
403.526	76.88
403.75	83.88
403.974	89.88
404.198	89.88
404.422	77.88
404.645	90.88
404.869	86.88
405.093	83.88
405.317	79.88
405.541	81.88
405.765	64.88
405.988	74.88
406.212	80.88
406.436	84.88
406.66	91.88
406.883	79.88
407.107	76.88
407.331	79.88
407.555	71.88
407.778	67.88
408.002	78.88
408.226	82.88
408.449	70.88
408.673	76.88
408.896	74.88
409.12	73.88
409.344	82.88
409.567	94.88
409.791	85.88
410.014	91.88
410.238	61.88
410.461	71.88
410.685	89.88
410.908	80.88
411.132	78.88
411.355	90.88
411.578	87.88
411.802	70.88
412.025	88.88
412.249	85.88
412.472	78.88
412.695	65.88
412.919	79.88
413.142	97.88
413.365	82.88
413.589	90.88
413.812	88.88
414.035	86.88
414.258	88.88
414.482	68.88
414.705	70.88
414.928	73.88
415.151	81.88
415.374	99.88
415.597	66.88
415.821	74.88
416.044	78.88
416.267	73.88
416.49	80.88
416.713	77.88
416.936	80.88
417.159	79.88
417.382	73.88
417.605	83.88
417.828	82.88
418.051	78.88
418.274	80.88
418.497	82.88
418.72	90.88
418.943	80.88
419.166	86.88
419.389	87.88
419.611	85.88
419.834	75.88
420.057	77.88
420.28	74.88
420.503	73.88
420.726	81.88
420.948	70.88
421.171	89.88
421.394	88.88
421.617	79.88
421.839	78.88
422.062	82.88
422.285	82.88
422.507	74.88
422.73	85.88
422.953	84.88
423.175	74.88
423.398	73.88
423.621	77.88
423.843	72.88
424.066	93.88
424.288	96.88
424.511	86.88
424.733	74.88
424.956	80.88
425.178	73.88
425.401	66.88
425.623	79.88
425.846	64.88
426.068	72.88
426.291	82.88
426.513	83.88
426.735	88.88
426.958	99.88
427.18	67.88
427.402	90.88
427.625	87.88
427.847	76.88
428.069	86.88
428.292	101.88
428.514	70.88
428.736	79.88
428.958	79.88
429.181	82.88
429.403	73.88
429.625	73.88
429.847	75.88
430.069	80.88
430.292	75.88
430.514	81.88
430.736	81.88
430.958	69.88
431.18	70.88
431.402	85.88
431.624	74.88
431.846	71.88
432.068	73.88
432.29	78.88
432.512	89.88
432.734	78.88
432.956	84.88
433.178	78.88
433.4	85.88
433.622	75.88
433.844	78.88
434.066	70.88
434.287	90.88
434.509	83.88
434.731	83.88
434.953	75.88
435.175	75.88
435.397	82.88
435.618	80.88
435.84	74.88
436.062	83.88
436.284	86.88
436.505	83.88
436.727	85.88
436.949	91.88
437.17	82.88
437.392	72.88
437.614	72.88
437.835	70.88
438.057	83.88
438.278	81.88
438.5	74.88
438.721	94.88
438.943	93.88
439.165	79.88
439.386	72.88
439.608	92.88
439.829	69.88
440.05	80.88
440.272	87.88
440.493	101.88
440.715	83.88
440.936	81.88
441.158	86.88
441.379	94.88
441.6	96.88
441.822	89.88
442.043	89.88
442.264	87.88
442.486	67.88
442.707	84.88
442.928	88.88
443.149	91.88
443.371	81.88
443.592	90.88
443.813	75.88
444.034	76.88
444.255	70.88
444.476	85.88
444.698	90.88
444.919	81.88
445.14	198.88
445.361	141.88
445.582	86.88
445.803	84.88
446.024	70.88
446.245	90.88
446.466	87.88
446.687	76.88
446.908	77.88
447.129	88.88
447.35	83.88
447.571	81.88
447.792	78.88
448.013	81.88
448.234	93.88
448.455	98.88
448.675	79.88
448.896	91.88
449.117	82.88
449.338	85.88
449.559	79.88
449.779	84.88
450	94.88
450.221	87.88
450.442	84.88
450.662	89.88
450.883	87.88
451.104	86.88
451.324	71.88
451.545	61.88
451.766	81.88
451.986	81.88
452.207	78.88
452.428	75.88
452.648	102.88
452.869	81.88
453.089	91.88
453.31	78.88
453.53	79.88
453.751	80.88
453.971	88.88
454.192	82.88
454.412	78.88
454.633	79.88
454.853	86.88
455.073	91.88
455.294	81.88
455.514	83.88
455.734	91.88
455.955	80.88
456.175	81.88
456.395	74.88
456.616	78.88
456.836	77.88
457.056	73.88
457.276	65.88
457.497	78.88
457.717	88.88
457.937	89.88
458.157	83.88
458.377	82.88
458.598	83.88
458.818	79.88
459.038	84.88
459.258	70.88
459.478	83.88
459.698	62.88
459.918	87.88
460.138	83.88
460.358	94.88
460.578	88.88
460.798	76.88
461.018	78.88
461.238	82.88
461.458	74.88
461.678	81.88
461.898	80.88
462.118	94.88
462.338	79.88
462.558	89.88
462.777	83.88
462.997	72.88
463.217	79.88
463.437	81.88
463.657	78.88
463.876	97.88
464.096	83.88
464.316	88.88
464.536	84.88
464.755	82.88
464.975	87.88
465.195	80.88
465.414	74.88
465.634	89.88
465.854	88.88
466.073	80.88
466.293	84.88
466.512	93.88
466.732	84.88
466.951	73.88
467.171	75.88
467.391	84.88
467.61	82.88
467.829	95.88
468.049	98.88
468.268	82.88
468.488	82.88
468.707	86.88
468.927	85.88
469.146	97.88
469.365	79.88
469.585	61.88
469.804	84.88
470.023	85.88
470.243	74.88
470.462	93.88
470.681	74.88
470.901	83.88
471.12	103.88
471.339	74.88
471.558	91.88
471.777	77.88
471.997	99.88
472.216	102.88
472.435	88.88
472.654	72.88
472.873	87.88
473.092	82.88
473.311	85.88
473.53	84.88
473.749	86.88
473.968	74.88
474.187	82.88
474.406	77.88
474.625	87.88
474.844	88.88
475.063	93.88
475.282	79.88
475.501	81.88
475.72	84.88
475.939	91.88
476.158	82.88
476.377	97.88
476.596	77.88
476.814	85.88
477.033	87.88
477.252	72.88
477.471	87.88
477.69	95.88
477.908	74.88
478.127	86.88
478.346	91.88
478.564	87.88
478.783	71.88
479.002	86.88
479.22	94.88
479.439	85.88
479.658	71.88
479.876	93.88
480.095	81.88
480.313	83.88
480.532	63.88
480.751	87.88
480.969	81.88
481.188	82.88
481.406	104.88
481.624	95.88
481.843	89.88
482.061	93.88
482.28	81.88
482.498	90.88
482.717	78.88
482.935	77.88
483.153	81.88
483.372	82.88
483.59	96.88
483.808	89.88
484.027	92.88
484.245	90.88
484.463	78.88
484.681	89.88
484.9	100.88
485.118	96.88
485.336	90.88
485.554	94.88
485.772	78.88
485.99	73.88
486.209	80.88
486.427	92.88
486.645	96.88
486.863	94.88
487.081	70.88
487.299	88.88
487.517	90.88
487.735	99.88
487.953	92.88
488.171	76.88
488.389	101.88
488.607	98.88
488.825	94.88
489.043	98.88
489.261	92.88
489.479	92.88
489.696	102.88
489.914	80.88
490.132	74.88
490.35	84.88
490.568	109.88
490.786	97.88
491.003	77.88
491.221	84.88
491.439	94.88
491.657	85.88
491.874	90.88
492.092	96.88
492.31	96.88
492.527	93.88
492.745	100.88
492.963	93.88
493.18	80.88
493.398	93.88
493.615	87.88
493.833	96.88
494.05	88.88
494.268	97.88
494.485	84.88
494.703	87.88
494.92	99.88
495.138	92.88
495.355	91.88
495.573	92.88
495.79	102.88
496.008	85.88
496.225	103.88
496.442	104.88
496.66	93.88
496.877	96.88
497.094	99.88
497.312	91.88
497.529	99.88
497.746	95.88
497.963	87.88
498.181	90.88
498.398	86.88
498.615	98.88
498.832	113.88
499.049	93.88
499.267	104.88
499.484	103.88
499.701	97.88
499.918	103.88
500.135	103.88
500.352	107.88
500.569	117.88
500.786	117.88
501.003	129.88
501.22	111.88
501.437	97.88
501.654	86.88
501.871	77.88
502.088	106.88
502.305	90.88
502.522	95.88
502.739	85.88
502.956	97.88
503.172	97.88
503.389	88.88
503.606	89.88
503.823	86.88
504.04	98.88
504.256	85.88
504.473	91.88
504.69	102.88
504.907	97.88
505.123	98.88
505.34	88.88
505.557	77.88
505.773	85.88
505.99	76.88
506.207	78.88
506.423	75.88
506.64	79.88
506.856	82.88
507.073	98.88
507.289	94.88
507.506	87.88
507.722	82.88
507.939	90.88
508.155	73.88
508.372	95.88
508.588	95.88
508.805	88.88
509.021	88.88
509.238	94.88
509.454	77.88
509.67	77.88
509.887	77.88
510.103	83.88
510.319	74.88
510.536	91.88
510.752	79.88
510.968	78.88
511.184	88.88
511.401	86.88
511.617	93.88
511.833	81.88
512.049	94.88
512.265	84.88
512.481	84.88
512.698	90.88
512.914	79.88
513.13	74.88
513.346	88.88
513.562	92.88
513.778	79.88
513.994	81.88
514.21	81.88
514.426	96.88
514.642	83.88
514.858	84.88
515.074	85.88
515.29	84.88
515.506	97.88
515.721	87.88
515.937	90.88
516.153	86.88
516.369	86.88
516.585	93.88
516.801	84.88
517.016	78.88
517.232	88.88
517.448	106.88
517.664	90.88
517.879	90.88
518.095	106.88
518.311	86.88
518.527	75.88
518.742	99.88
518.958	96.88
