Data from Ni(NO3)2@0.5M.TitratingCurve.Agarose3%dH2O.NegLispCup.LampEnergy10.LIBS07252019_HRD10591_17-59-48-564.txt Node
Date: Thu Jul 25 17:59:48 EDT 2019
User: cochatt
Spectrometer: HR+D1059
Trigger mode: 1
Integration Time (sec): 1.000000E-1
Scans to average: 1
Electric dark correction enabled: true
Nonlinearity correction enabled: false
Boxcar width: 0
XAxis mode: Wavelengths
Number of Pixels in Spectrum: 2048
>>>>>Begin Spectral Data<<<<<
223.165	-9.5
223.4	-9.5
223.635	-9.5
223.869	-9.5
224.104	-17.5
224.338	-17.5
224.573	1.5
224.808	-19.5
225.042	-7.5
225.277	1.5
225.511	2.5
225.746	7.5
225.98	4.5
226.215	8.5
226.449	8.5
226.683	10.5
226.918	9.5
227.152	26.5
227.387	25.5
227.621	41.5
227.856	47.5
228.09	65.5
228.324	55.5
228.559	66.5
228.793	63.5
229.027	78.5
229.262	88.5
229.496	91.5
229.73	90.5
229.964	95.5
230.199	107.5
230.433	100.5
230.667	112.5
230.901	99.5
231.136	103.5
231.37	107.5
231.604	94.5
231.838	104.5
232.072	115.5
232.306	108.5
232.541	99.5
232.775	106.5
233.009	106.5
233.243	108.5
233.477	96.5
233.711	111.5
233.945	107.5
234.179	109.5
234.413	108.5
234.647	104.5
234.881	92.5
235.115	93.5
235.349	100.5
235.583	102.5
235.817	95.5
236.051	99.5
236.285	88.5
236.519	103.5
236.753	105.5
236.987	105.5
237.221	103.5
237.455	102.5
237.689	113.5
237.922	103.5
238.156	90.5
238.39	90.5
238.624	101.5
238.858	109.5
239.091	104.5
239.325	113.5
239.559	118.5
239.793	95.5
240.027	107.5
240.26	108.5
240.494	99.5
240.728	106.5
240.961	112.5
241.195	119.5
241.429	99.5
241.662	117.5
241.896	120.5
242.13	119.5
242.363	110.5
242.597	112.5
242.83	104.5
243.064	105.5
243.298	105.5
243.531	118.5
243.765	118.5
243.998	123.5
244.232	121.5
244.465	112.5
244.699	122.5
244.932	121.5
245.166	114.5
245.399	128.5
245.633	126.5
245.866	129.5
246.099	118.5
246.333	116.5
246.566	117.5
246.8	119.5
247.033	118.5
247.266	122.5
247.5	124.5
247.733	118.5
247.966	126.5
248.2	123.5
248.433	119.5
248.666	129.5
248.899	136.5
249.133	121.5
249.366	144.5
249.599	118.5
249.832	137.5
250.066	130.5
250.299	122.5
250.532	137.5
250.765	135.5
250.998	117.5
251.231	134.5
251.465	127.5
251.698	129.5
251.931	125.5
252.164	138.5
252.397	139.5
252.63	124.5
252.863	129.5
253.096	128.5
253.329	151.5
253.562	134.5
253.795	147.5
254.028	119.5
254.261	127.5
254.494	135.5
254.727	139.5
254.96	144.5
255.193	156.5
255.426	139.5
255.659	138.5
255.892	153.5
256.124	137.5
256.357	133.5
256.59	136.5
256.823	137.5
257.056	153.5
257.289	138.5
257.521	142.5
257.754	154.5
257.987	153.5
258.22	155.5
258.452	139.5
258.685	143.5
258.918	143.5
259.151	146.5
259.383	151.5
259.616	139.5
259.849	159.5
260.081	165.5
260.314	144.5
260.547	147.5
260.779	167.5
261.012	159.5
261.244	155.5
261.477	164.5
261.71	163.5
261.942	146.5
262.175	162.5
262.407	146.5
262.64	154.5
262.872	144.5
263.105	157.5
263.337	156.5
263.57	163.5
263.802	163.5
264.035	165.5
264.267	163.5
264.499	158.5
264.732	161.5
264.964	164.5
265.197	163.5
265.429	150.5
265.661	170.5
265.894	165.5
266.126	158.5
266.358	165.5
266.591	179.5
266.823	157.5
267.055	173.5
267.287	155.5
267.52	164.5
267.752	169.5
267.984	173.5
268.216	153.5
268.448	160.5
268.681	148.5
268.913	171.5
269.145	171.5
269.377	172.5
269.609	179.5
269.841	192.5
270.073	163.5
270.306	175.5
270.538	149.5
270.77	189.5
271.002	163.5
271.234	175.5
271.466	171.5
271.698	173.5
271.93	176.5
272.162	183.5
272.394	172.5
272.626	175.5
272.858	171.5
273.09	188.5
273.322	169.5
273.553	184.5
273.785	188.5
274.017	175.5
274.249	173.5
274.481	168.5
274.713	180.5
274.945	180.5
275.176	174.5
275.408	192.5
275.64	201.5
275.872	185.5
276.104	188.5
276.335	166.5
276.567	170.5
276.799	194.5
277.031	183.5
277.262	189.5
277.494	185.5
277.726	184.5
277.957	196.5
278.189	193.5
278.421	204.5
278.652	185.5
278.884	183.5
279.115	206.5
279.347	186.5
279.579	192.5
279.81	193.5
280.042	197.5
280.273	188.5
280.505	206.5
280.736	185.5
280.968	192.5
281.199	198.5
281.431	202.5
281.662	198.5
281.894	221.5
282.125	203.5
282.356	203.5
282.588	206.5
282.819	196.5
283.051	212.5
283.282	206.5
283.513	192.5
283.745	200.5
283.976	219.5
284.207	207.5
284.439	189.5
284.67	193.5
284.901	192.5
285.132	192.5
285.364	217.5
285.595	200.5
285.826	188.5
286.057	197.5
286.288	197.5
286.52	218.5
286.751	208.5
286.982	203.5
287.213	208.5
287.444	211.5
287.675	203.5
287.906	219.5
288.138	205.5
288.369	227.5
288.6	216.5
288.831	214.5
289.062	212.5
289.293	209.5
289.524	216.5
289.755	192.5
289.986	217.5
290.217	217.5
290.448	197.5
290.679	217.5
290.91	220.5
291.141	213.5
291.371	217.5
291.602	209.5
291.833	216.5
292.064	208.5
292.295	205.5
292.526	220.5
292.757	218.5
292.987	224.5
293.218	197.5
293.449	220.5
293.68	228.5
293.91	208.5
294.141	221.5
294.372	205.5
294.603	223.5
294.833	219.5
295.064	211.5
295.295	227.5
295.525	221.5
295.756	229.5
295.987	228.5
296.217	220.5
296.448	207.5
296.679	227.5
296.909	215.5
297.14	214.5
297.37	230.5
297.601	234.5
297.831	225.5
298.062	213.5
298.292	215.5
298.523	222.5
298.753	222.5
298.984	232.5
299.214	235.5
299.445	236.5
299.675	227.5
299.905	229.5
300.136	238.5
300.366	241.5
300.597	247.5
300.827	247.5
301.057	243.5
301.288	241.5
301.518	250.5
301.748	227.5
301.979	226.5
302.209	244.5
302.439	234.5
302.669	240.5
302.9	220.5
303.13	236.5
303.36	235.5
303.59	242.5
303.82	239.5
304.051	247.5
304.281	262.5
304.511	232.5
304.741	250.5
304.971	249.5
305.201	247.5
305.431	262.5
305.661	256.5
305.891	236.5
306.121	238.5
306.352	254.5
306.582	247.5
306.812	236.5
307.042	250.5
307.272	236.5
307.502	231.5
307.731	237.5
307.961	245.5
308.191	238.5
308.421	234.5
308.651	251.5
308.881	242.5
309.111	248.5
309.341	252.5
309.571	232.5
309.8	262.5
310.03	262.5
310.26	255.5
310.49	241.5
310.72	253.5
310.949	243.5
311.179	258.5
311.409	259.5
311.639	260.5
311.868	259.5
312.098	239.5
312.328	256.5
312.557	269.5
312.787	264.5
313.017	256.5
313.246	277.5
313.476	257.5
313.706	262.5
313.935	249.5
314.165	252.5
314.394	265.5
314.624	248.5
314.853	277.5
315.083	248.5
315.312	252.5
315.542	266.5
315.771	271.5
316.001	246.5
316.23	277.5
316.46	274.5
316.689	265.5
316.919	267.5
317.148	255.5
317.377	264.5
317.607	269.5
317.836	273.5
318.065	274.5
318.295	257.5
318.524	259.5
318.753	263.5
318.983	274.5
319.212	264.5
319.441	259.5
319.67	256.5
319.9	264.5
320.129	274.5
320.358	256.5
320.587	260.5
320.816	261.5
321.046	276.5
321.275	277.5
321.504	280.5
321.733	283.5
321.962	262.5
322.191	274.5
322.42	274.5
322.649	263.5
322.878	285.5
323.108	266.5
323.337	299.5
323.566	265.5
323.795	280.5
324.024	289.5
324.253	276.5
324.482	278.5
324.71	293.5
324.939	288.5
325.168	280.5
325.397	278.5
325.626	283.5
325.855	292.5
326.084	303.5
326.313	287.5
326.542	273.5
326.77	293.5
326.999	291.5
327.228	273.5
327.457	293.5
327.686	309.5
327.914	306.5
328.143	309.5
328.372	286.5
328.6	296.5
328.829	293.5
329.058	299.5
329.287	299.5
329.515	285.5
329.744	288.5
329.972	303.5
330.201	292.5
330.43	290.5
330.658	298.5
330.887	294.5
331.115	321.5
331.344	309.5
331.572	297.5
331.801	304.5
332.03	320.5
332.258	305.5
332.486	299.5
332.715	302.5
332.943	321.5
333.172	316.5
333.4	324.5
333.629	327.5
333.857	337.5
334.085	338.5
334.314	329.5
334.542	345.5
334.771	338.5
334.999	334.5
335.227	336.5
335.455	333.5
335.684	326.5
335.912	341.5
336.14	346.5
336.369	318.5
336.597	331.5
336.825	337.5
337.053	347.5
337.281	353.5
337.51	334.5
337.738	336.5
337.966	319.5
338.194	352.5
338.422	339.5
338.65	324.5
338.878	325.5
339.106	320.5
339.334	317.5
339.562	317.5
339.79	314.5
340.018	315.5
340.246	292.5
340.474	309.5
340.702	307.5
340.93	310.5
341.158	319.5
341.386	324.5
341.614	322.5
341.842	328.5
342.07	313.5
342.298	317.5
342.526	334.5
342.754	317.5
342.981	320.5
343.209	317.5
343.437	338.5
343.665	343.5
343.893	334.5
344.12	335.5
344.348	327.5
344.576	340.5
344.804	331.5
345.031	323.5
345.259	332.5
345.487	323.5
345.714	301.5
345.942	325.5
346.17	337.5
346.397	327.5
346.625	306.5
346.853	302.5
347.08	319.5
347.308	314.5
347.535	315.5
347.763	300.5
347.99	322.5
348.218	295.5
348.445	302.5
348.673	297.5
348.9	302.5
349.128	321.5
349.355	323.5
349.583	308.5
349.81	307.5
350.037	310.5
350.265	307.5
350.492	308.5
350.72	302.5
350.947	315.5
351.174	309.5
351.402	308.5
351.629	332.5
351.856	326.5
352.083	316.5
352.311	305.5
352.538	332.5
352.765	312.5
352.992	301.5
353.22	309.5
353.447	304.5
353.674	303.5
353.901	308.5
354.128	307.5
354.355	296.5
354.583	309.5
354.81	300.5
355.037	301.5
355.264	284.5
355.491	296.5
355.718	298.5
355.945	285.5
356.172	304.5
356.399	304.5
356.626	318.5
356.853	308.5
357.08	285.5
357.307	292.5
357.534	300.5
357.761	295.5
357.988	295.5
358.215	295.5
358.441	310.5
358.668	281.5
358.895	287.5
359.122	314.5
359.349	311.5
359.576	300.5
359.802	296.5
360.029	323.5
360.256	318.5
360.483	311.5
360.709	303.5
360.936	299.5
361.163	302.5
361.39	304.5
361.616	316.5
361.843	311.5
362.07	320.5
362.296	318.5
362.523	309.5
362.749	309.5
362.976	291.5
363.203	310.5
363.429	295.5
363.656	315.5
363.882	291.5
364.109	304.5
364.335	301.5
364.562	284.5
364.788	304.5
365.015	299.5
365.241	304.5
365.468	296.5
365.694	300.5
365.92	292.5
366.147	318.5
366.373	291.5
366.599	272.5
366.826	312.5
367.052	302.5
367.278	310.5
367.505	307.5
367.731	313.5
367.957	314.5
368.184	312.5
368.41	310.5
368.636	291.5
368.862	295.5
369.089	317.5
369.315	312.5
369.541	314.5
369.767	310.5
369.993	296.5
370.219	312.5
370.445	323.5
370.672	317.5
370.898	340.5
371.124	335.5
371.35	319.5
371.576	320.5
371.802	331.5
372.028	319.5
372.254	313.5
372.48	314.5
372.706	321.5
372.932	332.5
373.158	332.5
373.384	317.5
373.61	308.5
373.835	319.5
374.061	316.5
374.287	317.5
374.513	330.5
374.739	337.5
374.965	348.5
375.191	344.5
375.416	352.5
375.642	335.5
375.868	329.5
376.094	319.5
376.319	313.5
376.545	343.5
376.771	312.5
376.997	328.5
377.222	300.5
377.448	316.5
377.674	310.5
377.899	327.5
378.125	324.5
378.35	333.5
378.576	338.5
378.802	326.5
379.027	321.5
379.253	320.5
379.478	313.5
379.704	295.5
379.929	327.5
380.155	323.5
380.38	331.5
380.606	325.5
380.831	333.5
381.057	337.5
381.282	314.5
381.507	313.5
381.733	344.5
381.958	328.5
382.184	317.5
382.409	348.5
382.634	330.5
382.86	325.5
383.085	315.5
383.31	327.5
383.535	340.5
383.761	346.5
383.986	349.5
384.211	327.5
384.436	336.5
384.662	355.5
384.887	329.5
385.112	346.5
385.337	352.5
385.562	348.5
385.787	349.5
386.013	373.5
386.238	353.5
386.463	351.5
386.688	340.5
386.913	344.5
387.138	368.5
387.363	358.5
387.588	366.5
387.813	359.5
388.038	373.5
388.263	355.5
388.488	358.5
388.713	361.5
388.938	352.5
389.163	365.5
389.387	357.5
389.612	357.5
389.837	368.5
390.062	360.5
390.287	367.5
390.512	337.5
390.736	359.5
390.961	363.5
391.186	375.5
391.411	356.5
391.636	379.5
391.86	371.5
392.085	366.5
392.31	373.5
392.534	369.5
392.759	365.5
392.984	378.5
393.208	352.5
393.433	357.5
393.658	376.5
393.882	364.5
394.107	371.5
394.331	376.5
394.556	365.5
394.78	376.5
395.005	377.5
395.229	379.5
395.454	399.5
395.678	403.5
395.903	398.5
396.127	388.5
396.352	374.5
396.576	376.5
396.801	376.5
397.025	386.5
397.249	387.5
397.474	387.5
397.698	400.5
397.922	410.5
398.147	383.5
398.371	397.5
398.595	415.5
398.82	425.5
399.044	430.5
399.268	456.5
399.492	473.5
399.717	464.5
399.941	480.5
400.165	482.5
400.389	462.5
400.613	432.5
400.837	414.5
401.062	425.5
401.286	423.5
401.51	426.5
401.734	420.5
401.958	414.5
402.182	390.5
402.406	424.5
402.63	419.5
402.854	407.5
403.078	425.5
403.302	404.5
403.526	421.5
403.75	427.5
403.974	421.5
404.198	419.5
404.422	415.5
404.645	415.5
404.869	439.5
405.093	429.5
405.317	417.5
405.541	439.5
405.765	442.5
405.988	423.5
406.212	436.5
406.436	441.5
406.66	460.5
406.883	450.5
407.107	451.5
407.331	475.5
407.555	458.5
407.778	478.5
408.002	474.5
408.226	463.5
408.449	473.5
408.673	463.5
408.896	441.5
409.12	442.5
409.344	446.5
409.567	461.5
409.791	448.5
410.014	452.5
410.238	441.5
410.461	447.5
410.685	425.5
410.908	447.5
411.132	427.5
411.355	439.5
411.578	429.5
411.802	413.5
412.025	437.5
412.249	444.5
412.472	432.5
412.695	420.5
412.919	454.5
413.142	430.5
413.365	430.5
413.589	440.5
413.812	415.5
414.035	412.5
414.258	429.5
414.482	439.5
414.705	411.5
414.928	433.5
415.151	418.5
415.374	423.5
415.597	427.5
415.821	402.5
416.044	405.5
416.267	419.5
416.49	417.5
416.713	403.5
416.936	393.5
417.159	424.5
417.382	418.5
417.605	414.5
417.828	423.5
418.051	401.5
418.274	402.5
418.497	399.5
418.72	407.5
418.943	434.5
419.166	408.5
419.389	443.5
419.611	449.5
419.834	439.5
420.057	425.5
420.28	409.5
420.503	421.5
420.726	420.5
420.948	411.5
421.171	406.5
421.394	407.5
421.617	383.5
421.839	398.5
422.062	397.5
422.285	398.5
422.507	410.5
422.73	397.5
422.953	397.5
423.175	398.5
423.398	420.5
423.621	398.5
423.843	405.5
424.066	399.5
424.288	409.5
424.511	407.5
424.733	411.5
424.956	418.5
425.178	426.5
425.401	416.5
425.623	405.5
425.846	397.5
426.068	403.5
426.291	389.5
426.513	408.5
426.735	400.5
426.958	380.5
427.18	391.5
427.402	415.5
427.625	399.5
427.847	386.5
428.069	370.5
428.292	404.5
428.514	401.5
428.736	388.5
428.958	389.5
429.181	392.5
429.403	398.5
429.625	398.5
429.847	395.5
430.069	394.5
430.292	403.5
430.514	389.5
430.736	409.5
430.958	380.5
431.18	395.5
431.402	391.5
431.624	417.5
431.846	387.5
432.068	387.5
432.29	380.5
432.512	395.5
432.734	393.5
432.956	395.5
433.178	409.5
433.4	399.5
433.622	419.5
433.844	402.5
434.066	411.5
434.287	385.5
434.509	385.5
434.731	415.5
434.953	419.5
435.175	401.5
435.397	412.5
435.618	406.5
435.84	408.5
436.062	410.5
436.284	393.5
436.505	405.5
436.727	397.5
436.949	387.5
437.17	405.5
437.392	397.5
437.614	401.5
437.835	373.5
438.057	384.5
438.278	357.5
438.5	381.5
438.721	384.5
438.943	393.5
439.165	411.5
439.386	419.5
439.608	400.5
439.829	392.5
440.05	392.5
440.272	399.5
440.493	402.5
440.715	423.5
440.936	401.5
441.158	396.5
441.379	424.5
441.6	413.5
441.822	432.5
442.043	405.5
442.264	402.5
442.486	413.5
442.707	416.5
442.928	434.5
443.149	420.5
443.371	424.5
443.592	435.5
443.813	449.5
444.034	432.5
444.255	435.5
444.476	435.5
444.698	417.5
444.919	442.5
445.14	559.5
445.361	488.5
445.582	442.5
445.803	414.5
446.024	420.5
446.245	411.5
446.466	399.5
446.687	416.5
446.908	425.5
447.129	388.5
447.35	403.5
447.571	402.5
447.792	383.5
448.013	374.5
448.234	370.5
448.455	377.5
448.675	376.5
448.896	398.5
449.117	364.5
449.338	385.5
449.559	373.5
449.779	364.5
450	377.5
450.221	373.5
450.442	375.5
450.662	373.5
450.883	368.5
451.104	395.5
451.324	391.5
451.545	379.5
451.766	376.5
451.986	361.5
452.207	385.5
452.428	369.5
452.648	373.5
452.869	366.5
453.089	363.5
453.31	368.5
453.53	357.5
453.751	340.5
453.971	366.5
454.192	351.5
454.412	359.5
454.633	372.5
454.853	345.5
455.073	358.5
455.294	350.5
455.514	341.5
455.734	361.5
455.955	360.5
456.175	358.5
456.395	364.5
456.616	359.5
456.836	355.5
457.056	356.5
457.276	354.5
457.497	359.5
457.717	367.5
457.937	377.5
458.157	373.5
458.377	369.5
458.598	386.5
458.818	366.5
459.038	356.5
459.258	390.5
459.478	373.5
459.698	402.5
459.918	401.5
460.138	414.5
460.358	423.5
460.578	410.5
460.798	433.5
461.018	443.5
461.238	439.5
461.458	441.5
461.678	416.5
461.898	423.5
462.118	422.5
462.338	464.5
462.558	448.5
462.777	460.5
462.997	478.5
463.217	469.5
463.437	504.5
463.657	477.5
463.876	476.5
464.096	461.5
464.316	468.5
464.536	463.5
464.755	445.5
464.975	437.5
465.195	432.5
465.414	430.5
465.634	425.5
465.854	391.5
466.073	415.5
466.293	390.5
466.512	401.5
466.732	387.5
466.951	407.5
467.171	405.5
467.391	389.5
467.61	391.5
467.829	387.5
468.049	365.5
468.268	376.5
468.488	371.5
468.707	385.5
468.927	383.5
469.146	367.5
469.365	396.5
469.585	394.5
469.804	386.5
470.023	384.5
470.243	375.5
470.462	390.5
470.681	393.5
470.901	406.5
471.12	403.5
471.339	406.5
471.558	364.5
471.777	389.5
471.997	405.5
472.216	364.5
472.435	399.5
472.654	380.5
472.873	360.5
473.092	361.5
473.311	379.5
473.53	372.5
473.749	391.5
473.968	379.5
474.187	375.5
474.406	374.5
474.625	395.5
474.844	395.5
475.063	383.5
475.282	406.5
475.501	392.5
475.72	384.5
475.939	390.5
476.158	396.5
476.377	411.5
476.596	387.5
476.814	391.5
477.033	384.5
477.252	410.5
477.471	389.5
477.69	416.5
477.908	447.5
478.127	429.5
478.346	441.5
478.564	452.5
478.783	426.5
479.002	442.5
479.22	458.5
479.439	453.5
479.658	441.5
479.876	451.5
480.095	450.5
480.313	453.5
480.532	460.5
480.751	461.5
480.969	441.5
481.188	415.5
481.406	420.5
481.624	441.5
481.843	411.5
482.061	445.5
482.28	448.5
482.498	432.5
482.717	426.5
482.935	421.5
483.153	444.5
483.372	460.5
483.59	468.5
483.808	446.5
484.027	445.5
484.245	452.5
484.463	464.5
484.681	457.5
484.9	460.5
485.118	438.5
485.336	453.5
485.554	460.5
485.772	436.5
485.99	444.5
486.209	459.5
486.427	457.5
486.645	453.5
486.863	447.5
487.081	461.5
487.299	437.5
487.517	451.5
487.735	432.5
487.953	462.5
488.171	466.5
488.389	489.5
488.607	474.5
488.825	445.5
489.043	467.5
489.261	439.5
489.479	452.5
489.696	453.5
489.914	452.5
490.132	449.5
490.35	453.5
490.568	443.5
490.786	458.5
491.003	448.5
491.221	440.5
491.439	460.5
491.657	464.5
491.874	465.5
492.092	474.5
492.31	496.5
492.527	471.5
492.745	473.5
492.963	499.5
493.18	457.5
493.398	456.5
493.615	456.5
493.833	478.5
494.05	449.5
494.268	476.5
494.485	467.5
494.703	479.5
494.92	496.5
495.138	472.5
495.355	476.5
495.573	474.5
495.79	479.5
496.008	472.5
496.225	474.5
496.442	490.5
496.66	507.5
496.877	527.5
497.094	503.5
497.312	509.5
497.529	515.5
497.746	521.5
497.963	513.5
498.181	563.5
498.398	533.5
498.615	569.5
498.832	580.5
499.049	582.5
499.267	581.5
499.484	623.5
499.701	663.5
499.918	695.5
500.135	740.5
500.352	763.5
500.569	774.5
500.786	800.5
501.003	779.5
501.22	739.5
501.437	719.5
501.654	674.5
501.871	642.5
502.088	614.5
502.305	598.5
502.522	560.5
502.739	542.5
502.956	558.5
503.172	533.5
503.389	535.5
503.606	499.5
503.823	499.5
504.04	491.5
504.256	494.5
504.473	458.5
504.69	482.5
504.907	474.5
505.123	468.5
505.34	460.5
505.557	482.5
505.773	441.5
505.99	444.5
506.207	452.5
506.423	446.5
506.64	414.5
506.856	420.5
507.073	410.5
507.289	422.5
507.506	389.5
507.722	407.5
507.939	403.5
508.155	393.5
508.372	385.5
508.588	406.5
508.805	381.5
509.021	403.5
509.238	400.5
509.454	371.5
509.67	382.5
509.887	390.5
510.103	380.5
510.319	363.5
510.536	372.5
510.752	377.5
510.968	392.5
511.184	360.5
511.401	389.5
511.617	376.5
511.833	375.5
512.049	381.5
512.265	364.5
512.481	379.5
512.698	381.5
512.914	387.5
513.13	380.5
513.346	373.5
513.562	366.5
513.778	381.5
513.994	371.5
514.21	389.5
514.426	376.5
514.642	382.5
514.858	361.5
515.074	395.5
515.29	384.5
515.506	387.5
515.721	387.5
515.937	398.5
516.153	383.5
516.369	402.5
516.585	399.5
516.801	411.5
517.016	400.5
517.232	419.5
517.448	407.5
517.664	424.5
517.879	430.5
518.095	410.5
518.311	413.5
518.527	423.5
518.742	407.5
518.958	399.5
519.173	400.5
519.389	398.5
519.605	383.5
519.82	407.5
