Data from Ni(NO3)2@0.125M.TitratingCurve.Agarose3%dH2O.NegLispCup.LampEnergy10.LIBS07252019_HRD10591_18-10-33-568.txt Node
Date: Thu Jul 25 18:10:33 EDT 2019
User: cochatt
Spectrometer: HR+D1059
Trigger mode: 1
Integration Time (sec): 1.000000E-1
Scans to average: 1
Electric dark correction enabled: true
Nonlinearity correction enabled: false
Boxcar width: 0
XAxis mode: Wavelengths
Number of Pixels in Spectrum: 2048
>>>>>Begin Spectral Data<<<<<
223.165	-6.94
223.4	-6.94
223.635	-6.94
223.869	-14.94
224.104	-28.94
224.338	-14.94
224.573	-26.94
224.808	-5.94
225.042	-8.94
225.277	-1.94
225.511	-4.94
225.746	4.06
225.98	-3.94
226.215	3.06
226.449	27.06
226.683	26.06
226.918	21.06
227.152	37.06
227.387	42.06
227.621	28.06
227.856	30.06
228.09	59.06
228.324	53.06
228.559	55.06
228.793	84.06
229.027	121.06
229.262	119.06
229.496	130.06
229.73	135.06
229.964	133.06
230.199	138.06
230.433	137.06
230.667	131.06
230.901	150.06
231.136	145.06
231.37	149.06
231.604	143.06
231.838	146.06
232.072	167.06
232.306	158.06
232.541	152.06
232.775	160.06
233.009	163.06
233.243	165.06
233.477	167.06
233.711	170.06
233.945	156.06
234.179	182.06
234.413	173.06
234.647	174.06
234.881	165.06
235.115	161.06
235.349	173.06
235.583	171.06
235.817	185.06
236.051	173.06
236.285	165.06
236.519	171.06
236.753	182.06
236.987	191.06
237.221	181.06
237.455	179.06
237.689	179.06
237.922	190.06
238.156	184.06
238.39	188.06
238.624	202.06
238.858	190.06
239.091	191.06
239.325	200.06
239.559	205.06
239.793	197.06
240.027	189.06
240.26	203.06
240.494	207.06
240.728	204.06
240.961	197.06
241.195	203.06
241.429	208.06
241.662	223.06
241.896	220.06
242.13	232.06
242.363	223.06
242.597	227.06
242.83	241.06
243.064	219.06
243.298	221.06
243.531	231.06
243.765	240.06
243.998	237.06
244.232	234.06
244.465	237.06
244.699	255.06
244.932	265.06
245.166	258.06
245.399	236.06
245.633	241.06
245.866	251.06
246.099	255.06
246.333	269.06
246.566	255.06
246.8	248.06
247.033	272.06
247.266	269.06
247.5	257.06
247.733	265.06
247.966	286.06
248.2	271.06
248.433	285.06
248.666	271.06
248.899	279.06
249.133	283.06
249.366	290.06
249.599	290.06
249.832	285.06
250.066	305.06
250.299	279.06
250.532	287.06
250.765	301.06
250.998	278.06
251.231	309.06
251.465	311.06
251.698	318.06
251.931	306.06
252.164	310.06
252.397	295.06
252.63	330.06
252.863	321.06
253.096	323.06
253.329	314.06
253.562	329.06
253.795	337.06
254.028	330.06
254.261	333.06
254.494	329.06
254.727	328.06
254.96	345.06
255.193	337.06
255.426	344.06
255.659	341.06
255.892	340.06
256.124	346.06
256.357	363.06
256.59	346.06
256.823	345.06
257.056	362.06
257.289	349.06
257.521	359.06
257.754	347.06
257.987	353.06
258.22	357.06
258.452	346.06
258.685	373.06
258.918	345.06
259.151	365.06
259.383	369.06
259.616	355.06
259.849	375.06
260.081	375.06
260.314	373.06
260.547	378.06
260.779	383.06
261.012	405.06
261.244	377.06
261.477	400.06
261.71	392.06
261.942	388.06
262.175	399.06
262.407	398.06
262.64	396.06
262.872	391.06
263.105	408.06
263.337	417.06
263.57	399.06
263.802	412.06
264.035	408.06
264.267	406.06
264.499	419.06
264.732	402.06
264.964	389.06
265.197	415.06
265.429	420.06
265.661	399.06
265.894	417.06
266.126	445.06
266.358	410.06
266.591	424.06
266.823	422.06
267.055	426.06
267.287	442.06
267.52	428.06
267.752	437.06
267.984	449.06
268.216	449.06
268.448	453.06
268.681	441.06
268.913	477.06
269.145	445.06
269.377	458.06
269.609	464.06
269.841	439.06
270.073	440.06
270.306	447.06
270.538	469.06
270.77	447.06
271.002	461.06
271.234	453.06
271.466	481.06
271.698	471.06
271.93	474.06
272.162	485.06
272.394	469.06
272.626	467.06
272.858	474.06
273.09	483.06
273.322	486.06
273.553	467.06
273.785	467.06
274.017	483.06
274.249	498.06
274.481	505.06
274.713	494.06
274.945	508.06
275.176	521.06
275.408	496.06
275.64	500.06
275.872	502.06
276.104	521.06
276.335	508.06
276.567	511.06
276.799	503.06
277.031	519.06
277.262	518.06
277.494	529.06
277.726	511.06
277.957	537.06
278.189	549.06
278.421	533.06
278.652	502.06
278.884	532.06
279.115	541.06
279.347	539.06
279.579	543.06
279.81	538.06
280.042	551.06
280.273	539.06
280.505	562.06
280.736	563.06
280.968	533.06
281.199	549.06
281.431	570.06
281.662	561.06
281.894	561.06
282.125	589.06
282.356	591.06
282.588	563.06
282.819	586.06
283.051	567.06
283.282	558.06
283.513	575.06
283.745	585.06
283.976	591.06
284.207	571.06
284.439	602.06
284.67	612.06
284.901	589.06
285.132	588.06
285.364	587.06
285.595	609.06
285.826	597.06
286.057	602.06
286.288	584.06
286.52	637.06
286.751	629.06
286.982	622.06
287.213	618.06
287.444	617.06
287.675	624.06
287.906	640.06
288.138	621.06
288.369	611.06
288.6	636.06
288.831	629.06
289.062	627.06
289.293	628.06
289.524	636.06
289.755	630.06
289.986	639.06
290.217	643.06
290.448	635.06
290.679	651.06
290.91	627.06
291.141	643.06
291.371	642.06
291.602	644.06
291.833	656.06
292.064	655.06
292.295	648.06
292.526	661.06
292.757	651.06
292.987	653.06
293.218	642.06
293.449	661.06
293.68	662.06
293.91	659.06
294.141	647.06
294.372	636.06
294.603	659.06
294.833	641.06
295.064	641.06
295.295	660.06
295.525	639.06
295.756	652.06
295.987	665.06
296.217	659.06
296.448	675.06
296.679	674.06
296.909	666.06
297.14	704.06
297.37	681.06
297.601	693.06
297.831	682.06
298.062	687.06
298.292	698.06
298.523	695.06
298.753	678.06
298.984	711.06
299.214	695.06
299.445	699.06
299.675	701.06
299.905	700.06
300.136	695.06
300.366	699.06
300.597	714.06
300.827	707.06
301.057	737.06
301.288	741.06
301.518	749.06
301.748	771.06
301.979	736.06
302.209	741.06
302.439	736.06
302.669	741.06
302.9	727.06
303.13	731.06
303.36	713.06
303.59	709.06
303.82	724.06
304.051	733.06
304.281	739.06
304.511	718.06
304.741	737.06
304.971	738.06
305.201	729.06
305.431	712.06
305.661	723.06
305.891	720.06
306.121	719.06
306.352	699.06
306.582	727.06
306.812	718.06
307.042	749.06
307.272	746.06
307.502	726.06
307.731	705.06
307.961	703.06
308.191	706.06
308.421	702.06
308.651	716.06
308.881	726.06
309.111	715.06
309.341	712.06
309.571	717.06
309.8	732.06
310.03	723.06
310.26	714.06
310.49	706.06
310.72	717.06
310.949	714.06
311.179	742.06
311.409	716.06
311.639	748.06
311.868	713.06
312.098	740.06
312.328	739.06
312.557	758.06
312.787	742.06
313.017	771.06
313.246	762.06
313.476	746.06
313.706	791.06
313.935	775.06
314.165	803.06
314.394	777.06
314.624	763.06
314.853	763.06
315.083	766.06
315.312	758.06
315.542	760.06
315.771	768.06
316.001	791.06
316.23	764.06
316.46	758.06
316.689	755.06
316.919	774.06
317.148	764.06
317.377	755.06
317.607	771.06
317.836	779.06
318.065	756.06
318.295	758.06
318.524	775.06
318.753	754.06
318.983	751.06
319.212	778.06
319.441	770.06
319.67	773.06
319.9	760.06
320.129	765.06
320.358	737.06
320.587	789.06
320.816	764.06
321.046	792.06
321.275	776.06
321.504	755.06
321.733	775.06
321.962	782.06
322.191	776.06
322.42	767.06
322.649	812.06
322.878	781.06
323.108	774.06
323.337	799.06
323.566	785.06
323.795	830.06
324.024	787.06
324.253	789.06
324.482	804.06
324.71	787.06
324.939	800.06
325.168	818.06
325.397	827.06
325.626	821.06
325.855	814.06
326.084	837.06
326.313	867.06
326.542	844.06
326.77	881.06
326.999	879.06
327.228	843.06
327.457	841.06
327.686	854.06
327.914	841.06
328.143	849.06
328.372	881.06
328.6	851.06
328.829	849.06
329.058	846.06
329.287	849.06
329.515	866.06
329.744	869.06
329.972	858.06
330.201	881.06
330.43	889.06
330.658	870.06
330.887	914.06
331.115	886.06
331.344	893.06
331.572	905.06
331.801	938.06
332.03	938.06
332.258	1004.06
332.486	1001.06
332.715	1053.06
332.943	1074.06
333.172	1149.06
333.4	1165.06
333.629	1178.06
333.857	1230.06
334.085	1171.06
334.314	1165.06
334.542	1115.06
334.771	1135.06
334.999	1082.06
335.227	1086.06
335.455	1063.06
335.684	1059.06
335.912	1075.06
336.14	1020.06
336.369	1025.06
336.597	1045.06
336.825	1047.06
337.053	1024.06
337.281	1018.06
337.51	991.06
337.738	979.06
337.966	962.06
338.194	948.06
338.422	971.06
338.65	934.06
338.878	923.06
339.106	943.06
339.334	927.06
339.562	937.06
339.79	923.06
340.018	908.06
340.246	876.06
340.474	894.06
340.702	919.06
340.93	933.06
341.158	925.06
341.386	915.06
341.614	876.06
341.842	901.06
342.07	896.06
342.298	895.06
342.526	899.06
342.754	901.06
342.981	927.06
343.209	911.06
343.437	970.06
343.665	1061.06
343.893	1145.06
344.12	1150.06
344.348	1087.06
344.576	1012.06
344.804	952.06
345.031	938.06
345.259	916.06
345.487	914.06
345.714	891.06
345.942	900.06
346.17	906.06
346.397	881.06
346.625	851.06
346.853	867.06
347.08	862.06
347.308	876.06
347.535	887.06
347.763	897.06
347.99	887.06
348.218	867.06
348.445	878.06
348.673	860.06
348.9	846.06
349.128	863.06
349.355	878.06
349.583	836.06
349.81	859.06
350.037	867.06
350.265	860.06
350.492	860.06
350.72	861.06
350.947	869.06
351.174	855.06
351.402	841.06
351.629	835.06
351.856	835.06
352.083	819.06
352.311	843.06
352.538	833.06
352.765	854.06
352.992	824.06
353.22	819.06
353.447	830.06
353.674	836.06
353.901	843.06
354.128	858.06
354.355	843.06
354.583	846.06
354.81	857.06
355.037	859.06
355.264	868.06
355.491	839.06
355.718	838.06
355.945	831.06
356.172	827.06
356.399	856.06
356.626	868.06
356.853	848.06
357.08	815.06
357.307	848.06
357.534	844.06
357.761	846.06
357.988	849.06
358.215	830.06
358.441	840.06
358.668	834.06
358.895	802.06
359.122	823.06
359.349	831.06
359.576	843.06
359.802	838.06
360.029	843.06
360.256	865.06
360.483	835.06
360.709	833.06
360.936	849.06
361.163	832.06
361.39	853.06
361.616	845.06
361.843	875.06
362.07	862.06
362.296	820.06
362.523	838.06
362.749	868.06
362.976	844.06
363.203	838.06
363.429	849.06
363.656	827.06
363.882	835.06
364.109	856.06
364.335	822.06
364.562	823.06
364.788	814.06
365.015	853.06
365.241	873.06
365.468	847.06
365.694	847.06
365.92	828.06
366.147	824.06
366.373	829.06
366.599	846.06
366.826	809.06
367.052	840.06
367.278	836.06
367.505	847.06
367.731	833.06
367.957	835.06
368.184	859.06
368.41	857.06
368.636	870.06
368.862	853.06
369.089	876.06
369.315	838.06
369.541	882.06
369.767	861.06
369.993	873.06
370.219	843.06
370.445	878.06
370.672	885.06
370.898	899.06
371.124	904.06
371.35	907.06
371.576	909.06
371.802	898.06
372.028	908.06
372.254	914.06
372.48	914.06
372.706	937.06
372.932	944.06
373.158	965.06
373.384	917.06
373.61	891.06
373.835	898.06
374.061	915.06
374.287	945.06
374.513	948.06
374.739	958.06
374.965	996.06
375.191	995.06
375.416	1027.06
375.642	1001.06
375.868	997.06
376.094	957.06
376.319	946.06
376.545	915.06
376.771	925.06
376.997	947.06
377.222	899.06
377.448	919.06
377.674	905.06
377.899	926.06
378.125	907.06
378.35	892.06
378.576	875.06
378.802	891.06
379.027	933.06
379.253	883.06
379.478	859.06
379.704	885.06
379.929	896.06
380.155	878.06
380.38	917.06
380.606	929.06
380.831	907.06
381.057	916.06
381.282	919.06
381.507	893.06
381.733	948.06
381.958	907.06
382.184	916.06
382.409	947.06
382.634	968.06
382.86	942.06
383.085	951.06
383.31	976.06
383.535	1054.06
383.761	1051.06
383.986	1025.06
384.211	1054.06
384.436	1087.06
384.662	1097.06
384.887	1098.06
385.112	1094.06
385.337	1141.06
385.562	1131.06
385.787	1100.06
386.013	1128.06
386.238	1073.06
386.463	1090.06
386.688	1115.06
386.913	1094.06
387.138	1085.06
387.363	1089.06
387.588	1081.06
387.813	1081.06
388.038	1122.06
388.263	1124.06
388.488	1100.06
388.713	1109.06
388.938	1079.06
389.163	1048.06
389.387	1060.06
389.612	1085.06
389.837	1085.06
390.062	1082.06
390.287	1116.06
390.512	1107.06
390.736	1091.06
390.961	1131.06
391.186	1127.06
391.411	1154.06
391.636	1209.06
391.86	1216.06
392.085	1270.06
392.31	1237.06
392.534	1198.06
392.759	1190.06
392.984	1169.06
393.208	1155.06
393.433	1177.06
393.658	1178.06
393.882	1158.06
394.107	1191.06
394.331	1194.06
394.556	1199.06
394.78	1172.06
395.005	1209.06
395.229	1190.06
395.454	1234.06
395.678	1247.06
395.903	1269.06
396.127	1223.06
396.352	1167.06
396.576	1125.06
396.801	1130.06
397.025	1185.06
397.249	1207.06
397.474	1229.06
397.698	1212.06
397.922	1238.06
398.147	1213.06
398.371	1243.06
398.595	1329.06
398.82	1360.06
399.044	1505.06
399.268	1661.06
399.492	1933.06
399.717	2260.06
399.941	2173.06
400.165	1881.06
400.389	1691.06
400.613	1549.06
400.837	1445.06
401.062	1406.06
401.286	1408.06
401.51	1396.06
401.734	1331.06
401.958	1386.06
402.182	1397.06
402.406	1437.06
402.63	1462.06
402.854	1498.06
403.078	1528.06
403.302	1554.06
403.526	1573.06
403.75	1630.06
403.974	1653.06
404.198	1654.06
404.422	1660.06
404.645	1636.06
404.869	1592.06
405.093	1590.06
405.317	1562.06
405.541	1577.06
405.765	1509.06
405.988	1537.06
406.212	1528.06
406.436	1529.06
406.66	1515.06
406.883	1589.06
407.107	1717.06
407.331	1786.06
407.555	1825.06
407.778	1821.06
408.002	1773.06
408.226	1715.06
408.449	1656.06
408.673	1601.06
408.896	1613.06
409.12	1583.06
409.344	1563.06
409.567	1552.06
409.791	1590.06
410.014	1584.06
410.238	1579.06
410.461	1565.06
410.685	1564.06
410.908	1514.06
411.132	1495.06
411.355	1429.06
411.578	1446.06
411.802	1436.06
412.025	1420.06
412.249	1478.06
412.472	1467.06
412.695	1393.06
412.919	1405.06
413.142	1418.06
413.365	1384.06
413.589	1417.06
413.812	1354.06
414.035	1343.06
414.258	1382.06
414.482	1430.06
414.705	1433.06
414.928	1394.06
415.151	1414.06
415.374	1410.06
415.597	1384.06
415.821	1407.06
416.044	1341.06
416.267	1353.06
416.49	1346.06
416.713	1321.06
416.936	1356.06
417.159	1376.06
417.382	1369.06
417.605	1344.06
417.828	1369.06
418.051	1396.06
418.274	1367.06
418.497	1380.06
418.72	1412.06
418.943	1436.06
419.166	1482.06
419.389	1591.06
419.611	1551.06
419.834	1506.06
420.057	1450.06
420.28	1384.06
420.503	1359.06
420.726	1313.06
420.948	1369.06
421.171	1359.06
421.394	1388.06
421.617	1397.06
421.839	1397.06
422.062	1413.06
422.285	1369.06
422.507	1446.06
422.73	1417.06
422.953	1437.06
423.175	1461.06
423.398	1454.06
423.621	1449.06
423.843	1470.06
424.066	1488.06
424.288	1470.06
424.511	1471.06
424.733	1441.06
424.956	1398.06
425.178	1397.06
425.401	1394.06
425.623	1368.06
425.846	1297.06
426.068	1325.06
426.291	1289.06
426.513	1298.06
426.735	1278.06
426.958	1289.06
427.18	1229.06
427.402	1238.06
427.625	1249.06
427.847	1253.06
428.069	1225.06
428.292	1213.06
428.514	1208.06
428.736	1185.06
428.958	1226.06
429.181	1187.06
429.403	1180.06
429.625	1168.06
429.847	1192.06
430.069	1198.06
430.292	1152.06
430.514	1172.06
430.736	1187.06
430.958	1132.06
431.18	1174.06
431.402	1172.06
431.624	1189.06
431.846	1230.06
432.068	1223.06
432.29	1266.06
432.512	1199.06
432.734	1211.06
432.956	1193.06
433.178	1196.06
433.4	1216.06
433.622	1185.06
433.844	1266.06
434.066	1205.06
434.287	1248.06
434.509	1246.06
434.731	1322.06
434.953	1355.06
435.175	1369.06
435.397	1381.06
435.618	1324.06
435.84	1235.06
436.062	1215.06
436.284	1232.06
436.505	1209.06
436.727	1226.06
436.949	1241.06
437.17	1194.06
437.392	1196.06
437.614	1159.06
437.835	1145.06
438.057	1195.06
438.278	1189.06
438.5	1160.06
438.721	1131.06
438.943	1163.06
439.165	1176.06
439.386	1127.06
439.608	1191.06
439.829	1175.06
440.05	1209.06
440.272	1218.06
440.493	1237.06
440.715	1251.06
440.936	1241.06
441.158	1247.06
441.379	1322.06
441.6	1403.06
441.822	1389.06
442.043	1406.06
442.264	1336.06
442.486	1317.06
442.707	1354.06
442.928	1359.06
443.149	1383.06
443.371	1366.06
443.592	1365.06
443.813	1396.06
444.034	1388.06
444.255	1443.06
444.476	1497.06
444.698	1618.06
444.919	1711.06
445.14	1719.06
445.361	1535.06
445.582	1400.06
445.803	1321.06
446.024	1277.06
446.245	1292.06
446.466	1222.06
446.687	1185.06
446.908	1237.06
447.129	1171.06
447.35	1204.06
447.571	1163.06
447.792	1125.06
448.013	1133.06
448.234	1135.06
448.455	1116.06
448.675	1098.06
448.896	1103.06
449.117	1096.06
449.338	1091.06
449.559	1117.06
449.779	1066.06
450	1094.06
450.221	1112.06
450.442	1096.06
450.662	1101.06
450.883	1140.06
451.104	1152.06
451.324	1141.06
451.545	1111.06
451.766	1124.06
451.986	1105.06
452.207	1109.06
452.428	1093.06
452.648	1085.06
452.869	1113.06
453.089	1057.06
453.31	1095.06
453.53	1071.06
453.751	1082.06
453.971	1045.06
454.192	1064.06
454.412	1032.06
454.633	1038.06
454.853	1074.06
455.073	1054.06
455.294	1033.06
455.514	1029.06
455.734	1004.06
455.955	1001.06
456.175	1031.06
456.395	1016.06
456.616	1030.06
456.836	1010.06
457.056	1038.06
457.276	1009.06
457.497	1051.06
457.717	1006.06
457.937	1070.06
458.157	1049.06
458.377	1047.06
458.598	1094.06
458.818	1116.06
459.038	1140.06
459.258	1173.06
459.478	1203.06
459.698	1250.06
459.918	1290.06
460.138	1333.06
460.358	1427.06
460.578	1467.06
460.798	1461.06
461.018	1459.06
461.238	1461.06
461.458	1422.06
461.678	1413.06
461.898	1429.06
462.118	1458.06
462.338	1556.06
462.558	1624.06
462.777	1634.06
462.997	1785.06
463.217	1966.06
463.437	1977.06
463.657	1788.06
463.876	1664.06
464.096	1687.06
464.316	1725.06
464.536	1713.06
464.755	1696.06
464.975	1561.06
465.195	1510.06
465.414	1419.06
465.634	1320.06
465.854	1249.06
466.073	1259.06
466.293	1207.06
466.512	1180.06
466.732	1191.06
466.951	1156.06
467.171	1166.06
467.391	1176.06
467.61	1165.06
467.829	1153.06
468.049	1137.06
468.268	1100.06
468.488	1107.06
468.707	1083.06
468.927	1089.06
469.146	1116.06
469.365	1109.06
469.585	1092.06
469.804	1163.06
470.023	1196.06
470.243	1173.06
470.462	1185.06
470.681	1206.06
470.901	1212.06
471.12	1141.06
471.339	1179.06
471.558	1157.06
471.777	1128.06
471.997	1091.06
472.216	1094.06
472.435	1128.06
472.654	1110.06
472.873	1061.06
473.092	1066.06
473.311	1051.06
473.53	1046.06
473.749	1058.06
473.968	1059.06
474.187	1066.06
474.406	1042.06
474.625	1087.06
474.844	1079.06
475.063	1069.06
475.282	1071.06
475.501	1102.06
475.72	1115.06
475.939	1111.06
476.158	1133.06
476.377	1123.06
476.596	1120.06
476.814	1128.06
477.033	1138.06
477.252	1148.06
477.471	1157.06
477.69	1199.06
477.908	1261.06
478.127	1284.06
478.346	1306.06
478.564	1299.06
478.783	1342.06
479.002	1375.06
479.22	1373.06
479.439	1367.06
479.658	1344.06
479.876	1302.06
480.095	1356.06
480.313	1417.06
480.532	1493.06
480.751	1468.06
480.969	1393.06
481.188	1359.06
481.406	1303.06
481.624	1248.06
481.843	1217.06
482.061	1225.06
482.28	1209.06
482.498	1227.06
482.717	1213.06
482.935	1195.06
483.153	1242.06
483.372	1198.06
483.59	1210.06
483.808	1206.06
484.027	1235.06
484.245	1228.06
484.463	1247.06
484.681	1278.06
484.9	1243.06
485.118	1283.06
485.336	1274.06
485.554	1312.06
485.772	1312.06
485.99	1338.06
486.209	1302.06
486.427	1282.06
486.645	1307.06
486.863	1305.06
487.081	1269.06
487.299	1299.06
487.517	1299.06
487.735	1271.06
487.953	1266.06
488.171	1265.06
488.389	1254.06
488.607	1249.06
488.825	1267.06
489.043	1268.06
489.261	1288.06
489.479	1258.06
489.696	1294.06
489.914	1274.06
490.132	1307.06
490.35	1260.06
490.568	1275.06
490.786	1301.06
491.003	1302.06
491.221	1283.06
491.439	1292.06
491.657	1297.06
491.874	1255.06
492.092	1316.06
492.31	1287.06
492.527	1305.06
492.745	1326.06
492.963	1329.06
493.18	1323.06
493.398	1343.06
493.615	1354.06
493.833	1342.06
494.05	1324.06
494.268	1332.06
