Data from Ni(NO3)2@0.125M.TitratingCurve.Agarose3%dH2O.NegLispCup.LampEnergy10.LIBS07252019_HRD10591_18-08-47-567.txt Node
Date: Thu Jul 25 18:08:47 EDT 2019
User: cochatt
Spectrometer: HR+D1059
Trigger mode: 1
Integration Time (sec): 1.000000E-1
Scans to average: 1
Electric dark correction enabled: true
Nonlinearity correction enabled: false
Boxcar width: 0
XAxis mode: Wavelengths
Number of Pixels in Spectrum: 2048
>>>>>Begin Spectral Data<<<<<
223.165	-21.38
223.4	-21.38
223.635	-21.38
223.869	-26.38
224.104	-9.38
224.338	-17.38
224.573	-9.38
224.808	-6.38
225.042	-8.38
225.277	-1.38
225.511	4.62
225.746	8.62
225.98	4.62
226.215	12.62
226.449	18.62
226.683	14.62
226.918	10.62
227.152	25.62
227.387	38.62
227.621	37.62
227.856	57.62
228.09	55.62
228.324	49.62
228.559	59.62
228.793	77.62
229.027	107.62
229.262	99.62
229.496	120.62
229.73	131.62
229.964	120.62
230.199	121.62
230.433	127.62
230.667	129.62
230.901	127.62
231.136	120.62
231.37	125.62
231.604	120.62
231.838	141.62
232.072	135.62
232.306	127.62
232.541	137.62
232.775	145.62
233.009	141.62
233.243	151.62
233.477	153.62
233.711	151.62
233.945	145.62
234.179	153.62
234.413	138.62
234.647	155.62
234.881	151.62
235.115	132.62
235.349	125.62
235.583	139.62
235.817	147.62
236.051	148.62
236.285	143.62
236.519	153.62
236.753	153.62
236.987	154.62
237.221	155.62
237.455	143.62
237.689	152.62
237.922	130.62
238.156	163.62
238.39	167.62
238.624	152.62
238.858	151.62
239.091	169.62
239.325	168.62
239.559	159.62
239.793	162.62
240.027	166.62
240.26	170.62
240.494	175.62
240.728	164.62
240.961	154.62
241.195	173.62
241.429	178.62
241.662	174.62
241.896	180.62
242.13	172.62
242.363	180.62
242.597	183.62
242.83	198.62
243.064	179.62
243.298	179.62
243.531	181.62
243.765	179.62
243.998	203.62
244.232	197.62
244.465	204.62
244.699	190.62
244.932	206.62
245.166	212.62
245.399	201.62
245.633	188.62
245.866	203.62
246.099	211.62
246.333	206.62
246.566	207.62
246.8	211.62
247.033	210.62
247.266	217.62
247.5	210.62
247.733	224.62
247.966	230.62
248.2	225.62
248.433	232.62
248.666	213.62
248.899	213.62
249.133	222.62
249.366	217.62
249.599	234.62
249.832	230.62
250.066	237.62
250.299	225.62
250.532	238.62
250.765	246.62
250.998	246.62
251.231	258.62
251.465	253.62
251.698	259.62
251.931	263.62
252.164	266.62
252.397	250.62
252.63	270.62
252.863	287.62
253.096	259.62
253.329	277.62
253.562	262.62
253.795	264.62
254.028	282.62
254.261	268.62
254.494	283.62
254.727	277.62
254.96	281.62
255.193	272.62
255.426	276.62
255.659	272.62
255.892	264.62
256.124	299.62
256.357	279.62
256.59	278.62
256.823	281.62
257.056	281.62
257.289	283.62
257.521	305.62
257.754	299.62
257.987	303.62
258.22	297.62
258.452	279.62
258.685	286.62
258.918	308.62
259.151	312.62
259.383	326.62
259.616	303.62
259.849	298.62
260.081	297.62
260.314	319.62
260.547	295.62
260.779	315.62
261.012	326.62
261.244	310.62
261.477	327.62
261.71	314.62
261.942	322.62
262.175	329.62
262.407	313.62
262.64	312.62
262.872	319.62
263.105	313.62
263.337	327.62
263.57	318.62
263.802	328.62
264.035	369.62
264.267	329.62
264.499	333.62
264.732	324.62
264.964	332.62
265.197	346.62
265.429	333.62
265.661	349.62
265.894	361.62
266.126	349.62
266.358	346.62
266.591	345.62
266.823	358.62
267.055	366.62
267.287	348.62
267.52	339.62
267.752	364.62
267.984	358.62
268.216	360.62
268.448	380.62
268.681	343.62
268.913	375.62
269.145	350.62
269.377	373.62
269.609	359.62
269.841	365.62
270.073	349.62
270.306	375.62
270.538	381.62
270.77	367.62
271.002	375.62
271.234	377.62
271.466	369.62
271.698	379.62
271.93	381.62
272.162	380.62
272.394	394.62
272.626	366.62
272.858	358.62
273.09	381.62
273.322	379.62
273.553	391.62
273.785	385.62
274.017	384.62
274.249	383.62
274.481	397.62
274.713	383.62
274.945	388.62
275.176	398.62
275.408	393.62
275.64	382.62
275.872	398.62
276.104	413.62
276.335	411.62
276.567	419.62
276.799	417.62
277.031	394.62
277.262	403.62
277.494	417.62
277.726	416.62
277.957	397.62
278.189	389.62
278.421	402.62
278.652	411.62
278.884	435.62
279.115	421.62
279.347	420.62
279.579	411.62
279.81	413.62
280.042	414.62
280.273	405.62
280.505	428.62
280.736	425.62
280.968	423.62
281.199	445.62
281.431	443.62
281.662	442.62
281.894	433.62
282.125	432.62
282.356	436.62
282.588	463.62
282.819	452.62
283.051	432.62
283.282	454.62
283.513	469.62
283.745	465.62
283.976	461.62
284.207	447.62
284.439	448.62
284.67	465.62
284.901	453.62
285.132	465.62
285.364	469.62
285.595	467.62
285.826	468.62
286.057	471.62
286.288	456.62
286.52	473.62
286.751	463.62
286.982	463.62
287.213	475.62
287.444	483.62
287.675	482.62
287.906	488.62
288.138	493.62
288.369	475.62
288.6	489.62
288.831	470.62
289.062	493.62
289.293	486.62
289.524	506.62
289.755	495.62
289.986	475.62
290.217	509.62
290.448	487.62
290.679	469.62
290.91	483.62
291.141	482.62
291.371	503.62
291.602	503.62
291.833	506.62
292.064	507.62
292.295	493.62
292.526	493.62
292.757	490.62
292.987	502.62
293.218	479.62
293.449	486.62
293.68	495.62
293.91	503.62
294.141	516.62
294.372	494.62
294.603	533.62
294.833	505.62
295.064	501.62
295.295	510.62
295.525	502.62
295.756	513.62
295.987	529.62
296.217	497.62
296.448	491.62
296.679	534.62
296.909	529.62
297.14	528.62
297.37	554.62
297.601	544.62
297.831	548.62
298.062	537.62
298.292	556.62
298.523	585.62
298.753	577.62
298.984	557.62
299.214	542.62
299.445	553.62
299.675	534.62
299.905	543.62
300.136	562.62
300.366	555.62
300.597	544.62
300.827	549.62
301.057	545.62
301.288	562.62
301.518	555.62
301.748	581.62
301.979	555.62
302.209	584.62
302.439	576.62
302.669	577.62
302.9	541.62
303.13	553.62
303.36	571.62
303.59	550.62
303.82	538.62
304.051	563.62
304.281	559.62
304.511	558.62
304.741	561.62
304.971	563.62
305.201	548.62
305.431	561.62
305.661	558.62
305.891	557.62
306.121	539.62
306.352	563.62
306.582	559.62
306.812	550.62
307.042	540.62
307.272	542.62
307.502	523.62
307.731	539.62
307.961	523.62
308.191	551.62
308.421	563.62
308.651	576.62
308.881	534.62
309.111	546.62
309.341	550.62
309.571	544.62
309.8	548.62
310.03	552.62
310.26	558.62
310.49	550.62
310.72	544.62
310.949	546.62
311.179	562.62
311.409	550.62
311.639	578.62
311.868	564.62
312.098	579.62
312.328	558.62
312.557	565.62
312.787	569.62
313.017	581.62
313.246	593.62
313.476	590.62
313.706	588.62
313.935	580.62
314.165	593.62
314.394	596.62
314.624	598.62
314.853	591.62
315.083	594.62
315.312	608.62
315.542	606.62
315.771	584.62
316.001	583.62
316.23	576.62
316.46	590.62
316.689	568.62
316.919	575.62
317.148	582.62
317.377	584.62
317.607	588.62
317.836	586.62
318.065	578.62
318.295	570.62
318.524	600.62
318.753	595.62
318.983	585.62
319.212	579.62
319.441	580.62
319.67	587.62
319.9	558.62
320.129	586.62
320.358	573.62
320.587	554.62
320.816	591.62
321.046	590.62
321.275	588.62
321.504	617.62
321.733	615.62
321.962	589.62
322.191	590.62
322.42	583.62
322.649	604.62
322.878	613.62
323.108	597.62
323.337	604.62
323.566	612.62
323.795	599.62
324.024	638.62
324.253	625.62
324.482	621.62
324.71	587.62
324.939	636.62
325.168	626.62
325.397	630.62
325.626	653.62
325.855	631.62
326.084	649.62
326.313	653.62
326.542	673.62
326.77	679.62
326.999	637.62
327.228	663.62
327.457	674.62
327.686	652.62
327.914	660.62
328.143	660.62
328.372	651.62
328.6	649.62
328.829	657.62
329.058	681.62
329.287	681.62
329.515	661.62
329.744	680.62
329.972	685.62
330.201	696.62
330.43	663.62
330.658	676.62
330.887	676.62
331.115	678.62
331.344	701.62
331.572	700.62
331.801	715.62
332.03	711.62
332.258	760.62
332.486	763.62
332.715	793.62
332.943	854.62
333.172	892.62
333.4	887.62
333.629	922.62
333.857	910.62
334.085	929.62
334.314	881.62
334.542	890.62
334.771	864.62
334.999	839.62
335.227	795.62
335.455	813.62
335.684	812.62
335.912	828.62
336.14	809.62
336.369	827.62
336.597	810.62
336.825	820.62
337.053	819.62
337.281	796.62
337.51	769.62
337.738	782.62
337.966	766.62
338.194	739.62
338.422	729.62
338.65	743.62
338.878	736.62
339.106	732.62
339.334	749.62
339.562	713.62
339.79	679.62
340.018	693.62
340.246	689.62
340.474	700.62
340.702	721.62
340.93	695.62
341.158	725.62
341.386	713.62
341.614	722.62
341.842	707.62
342.07	699.62
342.298	703.62
342.526	686.62
342.754	689.62
342.981	705.62
343.209	730.62
343.437	739.62
343.665	766.62
343.893	851.62
344.12	895.62
344.348	829.62
344.576	793.62
344.804	758.62
345.031	763.62
345.259	734.62
345.487	701.62
345.714	703.62
345.942	677.62
346.17	710.62
346.397	670.62
346.625	681.62
346.853	709.62
347.08	703.62
347.308	693.62
347.535	697.62
347.763	694.62
347.99	698.62
348.218	717.62
348.445	711.62
348.673	699.62
348.9	711.62
349.128	690.62
349.355	668.62
349.583	659.62
349.81	651.62
350.037	657.62
350.265	675.62
350.492	667.62
350.72	663.62
350.947	637.62
351.174	646.62
351.402	662.62
351.629	640.62
351.856	677.62
352.083	667.62
352.311	631.62
352.538	665.62
352.765	655.62
352.992	645.62
353.22	656.62
353.447	629.62
353.674	679.62
353.901	664.62
354.128	654.62
354.355	669.62
354.583	651.62
354.81	655.62
355.037	669.62
355.264	662.62
355.491	661.62
355.718	669.62
355.945	659.62
356.172	673.62
356.399	642.62
356.626	657.62
356.853	677.62
357.08	637.62
357.307	648.62
357.534	645.62
357.761	650.62
357.988	655.62
358.215	660.62
358.441	639.62
358.668	633.62
358.895	639.62
359.122	647.62
359.349	662.62
359.576	652.62
359.802	664.62
360.029	646.62
360.256	686.62
360.483	654.62
360.709	652.62
360.936	656.62
361.163	675.62
361.39	644.62
361.616	643.62
361.843	649.62
362.07	671.62
362.296	631.62
362.523	649.62
362.749	649.62
362.976	659.62
363.203	655.62
363.429	643.62
363.656	648.62
363.882	648.62
364.109	658.62
364.335	643.62
364.562	621.62
364.788	619.62
365.015	639.62
365.241	624.62
365.468	634.62
365.694	643.62
365.92	667.62
366.147	630.62
366.373	641.62
366.599	642.62
366.826	641.62
367.052	639.62
367.278	645.62
367.505	654.62
367.731	666.62
367.957	652.62
368.184	660.62
368.41	648.62
368.636	639.62
368.862	673.62
369.089	678.62
369.315	656.62
369.541	679.62
369.767	669.62
369.993	667.62
370.219	668.62
370.445	660.62
370.672	703.62
370.898	690.62
371.124	710.62
371.35	725.62
371.576	699.62
371.802	707.62
372.028	704.62
372.254	697.62
372.48	694.62
372.706	724.62
372.932	742.62
373.158	747.62
373.384	736.62
373.61	723.62
373.835	695.62
374.061	718.62
374.287	735.62
374.513	719.62
374.739	761.62
374.965	769.62
375.191	775.62
375.416	794.62
375.642	767.62
375.868	781.62
376.094	739.62
376.319	694.62
376.545	711.62
376.771	710.62
376.997	694.62
377.222	691.62
377.448	694.62
377.674	697.62
377.899	701.62
378.125	694.62
378.35	671.62
378.576	671.62
378.802	695.62
379.027	699.62
379.253	697.62
379.478	663.62
379.704	705.62
379.929	695.62
380.155	707.62
380.38	682.62
380.606	667.62
380.831	679.62
381.057	694.62
381.282	701.62
381.507	692.62
381.733	706.62
381.958	677.62
382.184	703.62
382.409	737.62
382.634	737.62
382.86	742.62
383.085	765.62
383.31	737.62
383.535	754.62
383.761	775.62
383.986	779.62
384.211	820.62
384.436	837.62
384.662	822.62
384.887	806.62
385.112	836.62
385.337	853.62
385.562	808.62
385.787	810.62
386.013	842.62
386.238	831.62
386.463	866.62
386.688	869.62
386.913	801.62
387.138	818.62
387.363	831.62
387.588	796.62
387.813	823.62
388.038	793.62
388.263	845.62
388.488	833.62
388.713	802.62
388.938	809.62
389.163	833.62
389.387	813.62
389.612	807.62
389.837	798.62
390.062	797.62
390.287	788.62
390.512	814.62
390.736	828.62
390.961	836.62
391.186	826.62
391.411	855.62
391.636	890.62
391.86	885.62
392.085	932.62
392.31	965.62
392.534	910.62
392.759	883.62
392.984	901.62
393.208	904.62
393.433	882.62
393.658	908.62
393.882	869.62
394.107	883.62
394.331	887.62
394.556	892.62
394.78	893.62
395.005	898.62
395.229	918.62
395.454	954.62
395.678	955.62
395.903	949.62
396.127	918.62
396.352	893.62
396.576	858.62
396.801	889.62
397.025	847.62
397.249	884.62
397.474	933.62
397.698	911.62
397.922	924.62
398.147	910.62
398.371	943.62
398.595	970.62
398.82	1023.62
399.044	1081.62
399.268	1161.62
399.492	1388.62
399.717	1601.62
399.941	1607.62
400.165	1400.62
400.389	1220.62
400.613	1142.62
400.837	1074.62
401.062	1069.62
401.286	1045.62
401.51	1040.62
401.734	1016.62
401.958	1050.62
402.182	1054.62
402.406	1079.62
402.63	1087.62
402.854	1103.62
403.078	1142.62
403.302	1155.62
403.526	1180.62
403.75	1181.62
403.974	1199.62
404.198	1226.62
404.422	1221.62
404.645	1247.62
404.869	1195.62
405.093	1210.62
405.317	1148.62
405.541	1153.62
405.765	1134.62
405.988	1133.62
406.212	1148.62
406.436	1124.62
406.66	1160.62
406.883	1169.62
407.107	1273.62
407.331	1323.62
407.555	1371.62
407.778	1395.62
408.002	1307.62
408.226	1289.62
408.449	1255.62
408.673	1186.62
408.896	1181.62
409.12	1164.62
409.344	1206.62
409.567	1152.62
409.791	1176.62
410.014	1210.62
410.238	1205.62
410.461	1191.62
410.685	1160.62
410.908	1148.62
411.132	1131.62
411.355	1084.62
411.578	1081.62
411.802	1074.62
412.025	1088.62
412.249	1111.62
412.472	1114.62
412.695	1050.62
412.919	1043.62
413.142	1037.62
413.365	1046.62
413.589	1059.62
413.812	1013.62
414.035	1021.62
414.258	1055.62
414.482	1044.62
414.705	1029.62
414.928	1065.62
415.151	1069.62
415.374	1059.62
415.597	1081.62
415.821	1044.62
416.044	1020.62
416.267	1041.62
416.49	1009.62
416.713	1018.62
416.936	1063.62
417.159	1049.62
417.382	1046.62
417.605	1029.62
417.828	1027.62
418.051	1042.62
418.274	1059.62
418.497	1059.62
418.72	1078.62
418.943	1105.62
419.166	1119.62
419.389	1199.62
419.611	1192.62
419.834	1169.62
420.057	1119.62
420.28	1069.62
420.503	1019.62
420.726	1044.62
420.948	1053.62
421.171	1040.62
421.394	1060.62
421.617	1064.62
421.839	1052.62
422.062	1045.62
422.285	1033.62
422.507	1073.62
422.73	1054.62
422.953	1077.62
423.175	1130.62
423.398	1150.62
423.621	1115.62
423.843	1175.62
424.066	1161.62
424.288	1140.62
424.511	1146.62
424.733	1121.62
424.956	1090.62
425.178	1079.62
425.401	1092.62
425.623	1072.62
425.846	1023.62
426.068	1008.62
426.291	995.62
426.513	1016.62
426.735	991.62
426.958	1015.62
427.18	955.62
427.402	970.62
427.625	979.62
427.847	967.62
428.069	939.62
428.292	1005.62
428.514	940.62
428.736	926.62
428.958	949.62
429.181	925.62
429.403	937.62
429.625	920.62
429.847	949.62
430.069	943.62
430.292	936.62
430.514	925.62
430.736	926.62
430.958	910.62
431.18	955.62
431.402	929.62
431.624	940.62
431.846	948.62
432.068	935.62
432.29	965.62
432.512	953.62
432.734	921.62
432.956	939.62
433.178	957.62
433.4	947.62
433.622	987.62
433.844	984.62
434.066	1001.62
434.287	969.62
434.509	977.62
434.731	1057.62
434.953	1069.62
435.175	1101.62
435.397	1055.62
435.618	1006.62
435.84	964.62
436.062	988.62
436.284	941.62
436.505	971.62
436.727	983.62
436.949	968.62
437.17	967.62
437.392	937.62
437.614	931.62
437.835	936.62
438.057	893.62
438.278	920.62
438.5	923.62
438.721	917.62
438.943	942.62
439.165	945.62
439.386	933.62
439.608	971.62
439.829	939.62
440.05	957.62
440.272	956.62
440.493	980.62
440.715	1006.62
440.936	991.62
441.158	1002.62
441.379	1046.62
441.6	1079.62
441.822	1090.62
442.043	1116.62
442.264	1068.62
442.486	1073.62
442.707	1079.62
442.928	1076.62
443.149	1074.62
443.371	1060.62
443.592	1075.62
443.813	1081.62
444.034	1101.62
444.255	1122.62
444.476	1181.62
444.698	1235.62
444.919	1325.62
445.14	1420.62
445.361	1225.62
445.582	1110.62
445.803	1069.62
446.024	1047.62
446.245	1017.62
446.466	987.62
446.687	988.62
446.908	987.62
447.129	966.62
447.35	921.62
447.571	918.62
447.792	914.62
448.013	919.62
448.234	915.62
448.455	894.62
448.675	882.62
448.896	914.62
449.117	895.62
449.338	889.62
449.559	885.62
449.779	870.62
450	891.62
450.221	886.62
450.442	885.62
450.662	885.62
450.883	894.62
451.104	917.62
451.324	921.62
451.545	895.62
451.766	903.62
451.986	887.62
452.207	903.62
452.428	897.62
452.648	890.62
452.869	885.62
453.089	866.62
453.31	877.62
453.53	852.62
453.751	858.62
453.971	863.62
454.192	873.62
454.412	839.62
454.633	845.62
454.853	842.62
455.073	837.62
455.294	854.62
455.514	836.62
455.734	826.62
455.955	806.62
456.175	804.62
456.395	810.62
456.616	814.62
456.836	818.62
457.056	824.62
457.276	818.62
457.497	832.62
457.717	827.62
457.937	841.62
458.157	851.62
458.377	859.62
458.598	876.62
458.818	889.62
459.038	893.62
459.258	949.62
459.478	956.62
459.698	996.62
459.918	1009.62
460.138	1037.62
460.358	1127.62
460.578	1155.62
460.798	1146.62
461.018	1121.62
461.238	1110.62
461.458	1110.62
461.678	1114.62
461.898	1139.62
462.118	1128.62
462.338	1230.62
462.558	1234.62
462.777	1287.62
462.997	1396.62
463.217	1541.62
463.437	1622.62
463.657	1426.62
463.876	1335.62
464.096	1371.62
464.316	1339.62
464.536	1370.62
464.755	1330.62
464.975	1240.62
465.195	1164.62
465.414	1122.62
465.634	1026.62
465.854	1006.62
466.073	996.62
466.293	969.62
466.512	970.62
466.732	901.62
466.951	911.62
467.171	921.62
467.391	931.62
467.61	909.62
467.829	910.62
468.049	922.62
468.268	910.62
468.488	888.62
468.707	882.62
468.927	874.62
469.146	894.62
469.365	900.62
469.585	911.62
469.804	933.62
470.023	953.62
470.243	939.62
470.462	952.62
470.681	954.62
470.901	933.62
471.12	953.62
471.339	950.62
471.558	923.62
471.777	901.62
471.997	928.62
472.216	921.62
472.435	865.62
472.654	879.62
472.873	866.62
473.092	863.62
473.311	874.62
473.53	875.62
473.749	872.62
473.968	862.62
474.187	868.62
474.406	873.62
474.625	852.62
474.844	866.62
475.063	863.62
475.282	858.62
475.501	862.62
475.72	884.62
475.939	887.62
476.158	888.62
476.377	883.62
476.596	901.62
476.814	893.62
477.033	909.62
477.252	939.62
477.471	950.62
477.69	986.62
477.908	989.62
478.127	1035.62
478.346	1051.62
478.564	1068.62
478.783	1058.62
479.002	1082.62
479.22	1083.62
479.439	1079.62
479.658	1107.62
479.876	1086.62
480.095	1081.62
480.313	1178.62
480.532	1160.62
480.751	1158.62
480.969	1154.62
481.188	1068.62
481.406	1035.62
481.624	1012.62
481.843	1003.62
482.061	978.62
482.28	974.62
482.498	991.62
482.717	974.62
482.935	1002.62
483.153	988.62
483.372	990.62
483.59	987.62
483.808	1000.62
484.027	975.62
484.245	984.62
484.463	1000.62
484.681	1029.62
484.9	1012.62
485.118	995.62
485.336	1005.62
485.554	1045.62
485.772	1013.62
485.99	1047.62
486.209	1038.62
486.427	1083.62
486.645	1060.62
486.863	1058.62
487.081	1029.62
487.299	1025.62
487.517	1047.62
487.735	1030.62
487.953	1040.62
488.171	1005.62
488.389	1023.62
488.607	1036.62
488.825	1032.62
489.043	1015.62
489.261	1034.62
489.479	1019.62
489.696	1023.62
489.914	1024.62
490.132	1053.62
490.35	1065.62
490.568	1041.62
490.786	1044.62
491.003	1092.62
491.221	1061.62
491.439	1065.62
491.657	1071.62
491.874	1059.62
492.092	1085.62
492.31	1057.62
492.527	1079.62
492.745	1073.62
492.963	1099.62
493.18	1116.62
493.398	1094.62
493.615	1082.62
493.833	1098.62
494.05	1114.62
494.268	1080.62
494.485	1082.62
494.703	1118.62
494.92	1087.62
495.138	1099.62
495.355	1108.62
495.573	1107.62
495.79	1129.62
496.008	1121.62
496.225	1143.62
496.442	1133.62
496.66	1145.62
496.877	1166.62
497.094	1165.62
497.312	1227.62
497.529	1217.62
497.746	1252.62
497.963	1231.62
