Data from Ni(NO3)2Standard.Agarose3%.GreenCap.LampEnergy5.5.E.O_HRD10591_14-40-21-189.txt Node
Date: Mon Jul 22 14:40:21 EDT 2019
User: cochatt
Spectrometer: HR+D1059
Trigger mode: 1
Integration Time (sec): 1.000000E-1
Scans to average: 1
Electric dark correction enabled: true
Nonlinearity correction enabled: false
Boxcar width: 0
XAxis mode: Wavelengths
Number of Pixels in Spectrum: 2048
>>>>>Begin Spectral Data<<<<<
223.165	-21.12
223.4	-21.12
223.635	-21.12
223.869	-21.12
224.104	-26.12
224.338	-6.12
224.573	-0.12
224.808	-20.12
225.042	-9.12
225.277	-1.12
225.511	0.88
225.746	-5.12
225.98	-3.12
226.215	18.88
226.449	14.88
226.683	20.88
226.918	26.88
227.152	30.88
227.387	33.88
227.621	50.88
227.856	34.88
228.09	48.88
228.324	44.88
228.559	61.88
228.793	62.88
229.027	68.88
229.262	57.88
229.496	67.88
229.73	78.88
229.964	70.88
230.199	79.88
230.433	92.88
230.667	84.88
230.901	78.88
231.136	90.88
231.37	77.88
231.604	79.88
231.838	84.88
232.072	82.88
232.306	87.88
232.541	98.88
232.775	93.88
233.009	93.88
233.243	89.88
233.477	92.88
233.711	94.88
233.945	84.88
234.179	70.88
234.413	72.88
234.647	73.88
234.881	74.88
235.115	74.88
235.349	82.88
235.583	89.88
235.817	66.88
236.051	72.88
236.285	84.88
236.519	81.88
236.753	62.88
236.987	82.88
237.221	74.88
237.455	77.88
237.689	87.88
237.922	81.88
238.156	82.88
238.39	84.88
238.624	75.88
238.858	83.88
239.091	85.88
239.325	85.88
239.559	76.88
239.793	78.88
240.027	80.88
240.26	81.88
240.494	67.88
240.728	65.88
240.961	72.88
241.195	84.88
241.429	69.88
241.662	81.88
241.896	82.88
242.13	82.88
242.363	84.88
242.597	85.88
242.83	81.88
243.064	90.88
243.298	87.88
243.531	79.88
243.765	77.88
243.998	78.88
244.232	74.88
244.465	74.88
244.699	75.88
244.932	85.88
245.166	87.88
245.399	82.88
245.633	76.88
245.866	81.88
246.099	85.88
246.333	94.88
246.566	74.88
246.8	69.88
247.033	81.88
247.266	85.88
247.5	78.88
247.733	66.88
247.966	76.88
248.2	84.88
248.433	63.88
248.666	64.88
248.899	77.88
249.133	76.88
249.366	104.88
249.599	84.88
249.832	74.88
250.066	81.88
250.299	83.88
250.532	80.88
250.765	93.88
250.998	62.88
251.231	85.88
251.465	79.88
251.698	87.88
251.931	75.88
252.164	79.88
252.397	90.88
252.63	73.88
252.863	79.88
253.096	78.88
253.329	78.88
253.562	87.88
253.795	81.88
254.028	87.88
254.261	87.88
254.494	90.88
254.727	91.88
254.96	78.88
255.193	84.88
255.426	95.88
255.659	94.88
255.892	85.88
256.124	72.88
256.357	83.88
256.59	77.88
256.823	73.88
257.056	90.88
257.289	86.88
257.521	85.88
257.754	88.88
257.987	82.88
258.22	89.88
258.452	85.88
258.685	84.88
258.918	79.88
259.151	93.88
259.383	86.88
259.616	83.88
259.849	72.88
260.081	90.88
260.314	88.88
260.547	79.88
260.779	91.88
261.012	89.88
261.244	78.88
261.477	73.88
261.71	87.88
261.942	90.88
262.175	82.88
262.407	79.88
262.64	74.88
262.872	68.88
263.105	63.88
263.337	71.88
263.57	89.88
263.802	75.88
264.035	89.88
264.267	88.88
264.499	78.88
264.732	78.88
264.964	77.88
265.197	85.88
265.429	89.88
265.661	68.88
265.894	69.88
266.126	83.88
266.358	91.88
266.591	77.88
266.823	79.88
267.055	82.88
267.287	73.88
267.52	81.88
267.752	83.88
267.984	76.88
268.216	90.88
268.448	65.88
268.681	92.88
268.913	86.88
269.145	85.88
269.377	76.88
269.609	86.88
269.841	77.88
270.073	86.88
270.306	79.88
270.538	86.88
270.77	83.88
271.002	80.88
271.234	91.88
271.466	69.88
271.698	78.88
271.93	75.88
272.162	79.88
272.394	91.88
272.626	85.88
272.858	76.88
273.09	75.88
273.322	85.88
273.553	85.88
273.785	76.88
274.017	78.88
274.249	92.88
274.481	87.88
274.713	92.88
274.945	83.88
275.176	88.88
275.408	90.88
275.64	74.88
275.872	84.88
276.104	71.88
276.335	83.88
276.567	70.88
276.799	90.88
277.031	79.88
277.262	81.88
277.494	86.88
277.726	99.88
277.957	85.88
278.189	85.88
278.421	86.88
278.652	93.88
278.884	88.88
279.115	86.88
279.347	93.88
279.579	83.88
279.81	86.88
280.042	88.88
280.273	91.88
280.505	78.88
280.736	59.88
280.968	102.88
281.199	82.88
281.431	86.88
281.662	86.88
281.894	90.88
282.125	85.88
282.356	88.88
282.588	78.88
282.819	100.88
283.051	94.88
283.282	67.88
283.513	84.88
283.745	68.88
283.976	82.88
284.207	79.88
284.439	87.88
284.67	97.88
284.901	86.88
285.132	78.88
285.364	87.88
285.595	82.88
285.826	86.88
286.057	99.88
286.288	78.88
286.52	87.88
286.751	80.88
286.982	87.88
287.213	77.88
287.444	86.88
287.675	93.88
287.906	87.88
288.138	85.88
288.369	84.88
288.6	87.88
288.831	91.88
289.062	86.88
289.293	84.88
289.524	82.88
289.755	72.88
289.986	76.88
290.217	102.88
290.448	90.88
290.679	100.88
290.91	91.88
291.141	82.88
291.371	87.88
291.602	90.88
291.833	80.88
292.064	87.88
292.295	88.88
292.526	86.88
292.757	98.88
292.987	83.88
293.218	90.88
293.449	80.88
293.68	86.88
293.91	86.88
294.141	84.88
294.372	85.88
294.603	84.88
294.833	86.88
295.064	87.88
295.295	87.88
295.525	78.88
295.756	77.88
295.987	89.88
296.217	95.88
296.448	77.88
296.679	95.88
296.909	92.88
297.14	82.88
297.37	91.88
297.601	101.88
297.831	89.88
298.062	80.88
298.292	87.88
298.523	73.88
298.753	90.88
298.984	81.88
299.214	80.88
299.445	90.88
299.675	86.88
299.905	77.88
300.136	89.88
300.366	79.88
300.597	93.88
300.827	90.88
301.057	92.88
301.288	91.88
301.518	71.88
301.748	84.88
301.979	74.88
302.209	87.88
302.439	103.88
302.669	88.88
302.9	92.88
303.13	94.88
303.36	109.88
303.59	79.88
303.82	90.88
304.051	86.88
304.281	89.88
304.511	95.88
304.741	99.88
304.971	77.88
305.201	90.88
305.431	94.88
305.661	85.88
305.891	87.88
306.121	95.88
306.352	84.88
306.582	91.88
306.812	84.88
307.042	87.88
307.272	78.88
307.502	102.88
307.731	85.88
307.961	83.88
308.191	95.88
308.421	94.88
308.651	96.88
308.881	79.88
309.111	82.88
309.341	81.88
309.571	73.88
309.8	100.88
310.03	76.88
310.26	74.88
310.49	83.88
310.72	84.88
310.949	97.88
311.179	95.88
311.409	88.88
311.639	68.88
311.868	79.88
312.098	80.88
312.328	93.88
312.557	95.88
312.787	72.88
313.017	91.88
313.246	91.88
313.476	81.88
313.706	89.88
313.935	91.88
314.165	93.88
314.394	90.88
314.624	90.88
314.853	91.88
315.083	91.88
315.312	62.88
315.542	76.88
315.771	69.88
316.001	76.88
316.23	83.88
316.46	81.88
316.689	88.88
316.919	79.88
317.148	95.88
317.377	93.88
317.607	85.88
317.836	89.88
318.065	89.88
318.295	80.88
318.524	74.88
318.753	83.88
318.983	85.88
319.212	95.88
319.441	89.88
319.67	87.88
319.9	78.88
320.129	91.88
320.358	89.88
320.587	94.88
320.816	95.88
321.046	88.88
321.275	89.88
321.504	86.88
321.733	75.88
321.962	94.88
322.191	83.88
322.42	82.88
322.649	81.88
322.878	83.88
323.108	85.88
323.337	80.88
323.566	89.88
323.795	80.88
324.024	73.88
324.253	86.88
324.482	100.88
324.71	95.88
324.939	82.88
325.168	87.88
325.397	81.88
325.626	90.88
325.855	86.88
326.084	83.88
326.313	77.88
326.542	90.88
326.77	84.88
326.999	77.88
327.228	86.88
327.457	91.88
327.686	94.88
327.914	76.88
328.143	83.88
328.372	85.88
328.6	80.88
328.829	92.88
329.058	92.88
329.287	84.88
329.515	98.88
329.744	78.88
329.972	90.88
330.201	91.88
330.43	90.88
330.658	69.88
330.887	77.88
331.115	86.88
331.344	87.88
331.572	83.88
331.801	90.88
332.03	102.88
332.258	81.88
332.486	91.88
332.715	86.88
332.943	97.88
333.172	81.88
333.4	91.88
333.629	86.88
333.857	92.88
334.085	83.88
334.314	84.88
334.542	72.88
334.771	96.88
334.999	74.88
335.227	76.88
335.455	96.88
335.684	83.88
335.912	99.88
336.14	84.88
336.369	90.88
336.597	87.88
336.825	87.88
337.053	90.88
337.281	84.88
337.51	75.88
337.738	93.88
337.966	87.88
338.194	86.88
338.422	78.88
338.65	76.88
338.878	88.88
339.106	85.88
339.334	95.88
339.562	98.88
339.79	84.88
340.018	103.88
340.246	90.88
340.474	84.88
340.702	82.88
340.93	103.88
341.158	102.88
341.386	87.88
341.614	88.88
341.842	95.88
342.07	78.88
342.298	82.88
342.526	84.88
342.754	71.88
342.981	77.88
343.209	77.88
343.437	94.88
343.665	72.88
343.893	77.88
344.12	93.88
344.348	93.88
344.576	86.88
344.804	80.88
345.031	81.88
345.259	93.88
345.487	75.88
345.714	84.88
345.942	77.88
346.17	82.88
346.397	86.88
346.625	92.88
346.853	89.88
347.08	76.88
347.308	95.88
347.535	92.88
347.763	79.88
347.99	80.88
348.218	85.88
348.445	90.88
348.673	79.88
348.9	78.88
349.128	96.88
349.355	89.88
349.583	85.88
349.81	89.88
350.037	78.88
350.265	87.88
350.492	78.88
350.72	85.88
350.947	83.88
351.174	91.88
351.402	98.88
351.629	87.88
351.856	87.88
352.083	79.88
352.311	84.88
352.538	94.88
352.765	75.88
352.992	85.88
353.22	108.88
353.447	101.88
353.674	86.88
353.901	92.88
354.128	80.88
354.355	83.88
354.583	83.88
354.81	75.88
355.037	87.88
355.264	72.88
355.491	77.88
355.718	73.88
355.945	92.88
356.172	100.88
356.399	91.88
356.626	96.88
356.853	85.88
357.08	87.88
357.307	86.88
357.534	84.88
357.761	91.88
357.988	88.88
358.215	84.88
358.441	82.88
358.668	86.88
358.895	84.88
359.122	95.88
359.349	91.88
359.576	87.88
359.802	72.88
360.029	90.88
360.256	99.88
360.483	86.88
360.709	92.88
360.936	95.88
361.163	105.88
361.39	79.88
361.616	90.88
361.843	76.88
362.07	80.88
362.296	93.88
362.523	86.88
362.749	86.88
362.976	78.88
363.203	98.88
363.429	84.88
363.656	85.88
363.882	76.88
364.109	80.88
364.335	79.88
364.562	82.88
364.788	78.88
365.015	93.88
365.241	80.88
365.468	83.88
365.694	90.88
365.92	72.88
366.147	82.88
366.373	74.88
366.599	80.88
366.826	94.88
367.052	81.88
367.278	90.88
367.505	88.88
367.731	84.88
367.957	88.88
368.184	68.88
368.41	87.88
368.636	81.88
368.862	100.88
369.089	88.88
369.315	85.88
369.541	85.88
369.767	75.88
369.993	91.88
370.219	92.88
370.445	82.88
370.672	85.88
370.898	94.88
371.124	75.88
371.35	88.88
371.576	90.88
371.802	87.88
372.028	79.88
372.254	106.88
372.48	78.88
372.706	77.88
372.932	95.88
373.158	87.88
373.384	97.88
373.61	88.88
373.835	92.88
374.061	91.88
374.287	87.88
374.513	78.88
374.739	94.88
374.965	97.88
375.191	86.88
375.416	85.88
375.642	83.88
375.868	84.88
376.094	82.88
376.319	77.88
376.545	93.88
376.771	84.88
376.997	88.88
377.222	81.88
377.448	81.88
377.674	85.88
377.899	90.88
378.125	81.88
378.35	87.88
378.576	80.88
378.802	69.88
379.027	93.88
379.253	83.88
379.478	95.88
379.704	96.88
379.929	99.88
380.155	82.88
380.38	103.88
380.606	97.88
380.831	85.88
381.057	99.88
381.282	90.88
381.507	66.88
381.733	80.88
381.958	84.88
382.184	92.88
382.409	100.88
382.634	80.88
382.86	85.88
383.085	100.88
383.31	78.88
383.535	74.88
383.761	82.88
383.986	80.88
384.211	89.88
384.436	91.88
384.662	85.88
384.887	76.88
385.112	93.88
385.337	87.88
385.562	90.88
385.787	81.88
386.013	103.88
386.238	92.88
386.463	76.88
386.688	94.88
386.913	80.88
387.138	88.88
387.363	85.88
387.588	88.88
387.813	91.88
388.038	89.88
388.263	73.88
388.488	85.88
388.713	86.88
388.938	80.88
389.163	83.88
389.387	83.88
389.612	85.88
389.837	91.88
390.062	88.88
390.287	83.88
390.512	68.88
390.736	81.88
390.961	78.88
391.186	84.88
391.411	103.88
391.636	93.88
391.86	80.88
392.085	104.88
392.31	82.88
392.534	79.88
392.759	85.88
392.984	83.88
393.208	90.88
393.433	90.88
393.658	74.88
393.882	82.88
394.107	81.88
394.331	81.88
394.556	86.88
394.78	68.88
395.005	86.88
395.229	77.88
395.454	92.88
395.678	85.88
395.903	88.88
396.127	91.88
396.352	76.88
396.576	89.88
396.801	92.88
397.025	79.88
397.249	98.88
397.474	91.88
397.698	99.88
397.922	88.88
398.147	80.88
398.371	109.88
398.595	86.88
398.82	91.88
399.044	87.88
399.268	89.88
399.492	98.88
399.717	83.88
399.941	82.88
400.165	107.88
400.389	93.88
400.613	74.88
400.837	90.88
401.062	87.88
401.286	91.88
401.51	95.88
401.734	83.88
401.958	84.88
402.182	74.88
402.406	95.88
402.63	78.88
402.854	97.88
403.078	70.88
403.302	89.88
403.526	85.88
403.75	90.88
403.974	101.88
404.198	91.88
404.422	94.88
404.645	81.88
404.869	91.88
405.093	90.88
405.317	87.88
405.541	77.88
405.765	87.88
405.988	89.88
406.212	84.88
406.436	92.88
406.66	78.88
406.883	76.88
407.107	82.88
407.331	81.88
407.555	90.88
407.778	96.88
408.002	97.88
408.226	90.88
408.449	88.88
408.673	90.88
408.896	91.88
409.12	72.88
409.344	74.88
409.567	86.88
409.791	99.88
410.014	79.88
410.238	83.88
410.461	86.88
410.685	84.88
410.908	91.88
411.132	89.88
411.355	83.88
411.578	90.88
411.802	89.88
412.025	84.88
412.249	83.88
412.472	106.88
412.695	74.88
412.919	84.88
413.142	94.88
413.365	86.88
413.589	83.88
413.812	81.88
414.035	82.88
414.258	86.88
414.482	77.88
414.705	86.88
414.928	87.88
415.151	85.88
415.374	93.88
415.597	83.88
415.821	102.88
416.044	77.88
416.267	80.88
416.49	92.88
416.713	81.88
416.936	87.88
417.159	91.88
417.382	95.88
417.605	96.88
417.828	91.88
418.051	87.88
418.274	94.88
418.497	94.88
418.72	82.88
418.943	94.88
419.166	84.88
419.389	92.88
419.611	84.88
419.834	88.88
420.057	83.88
420.28	80.88
420.503	90.88
420.726	88.88
420.948	77.88
421.171	87.88
421.394	92.88
421.617	71.88
421.839	95.88
422.062	96.88
422.285	85.88
422.507	84.88
422.73	91.88
422.953	84.88
423.175	105.88
423.398	101.88
423.621	79.88
423.843	88.88
424.066	85.88
424.288	85.88
424.511	92.88
424.733	91.88
424.956	72.88
425.178	80.88
425.401	89.88
425.623	98.88
425.846	86.88
426.068	83.88
426.291	75.88
426.513	86.88
426.735	88.88
426.958	84.88
427.18	82.88
427.402	85.88
427.625	81.88
427.847	84.88
428.069	79.88
428.292	87.88
428.514	86.88
428.736	85.88
428.958	62.88
429.181	88.88
429.403	86.88
429.625	84.88
429.847	85.88
430.069	92.88
430.292	87.88
430.514	80.88
430.736	87.88
430.958	87.88
431.18	102.88
431.402	91.88
431.624	87.88
431.846	83.88
432.068	88.88
432.29	74.88
432.512	84.88
432.734	91.88
432.956	78.88
433.178	85.88
433.4	103.88
433.622	94.88
433.844	87.88
434.066	81.88
434.287	87.88
434.509	89.88
434.731	102.88
434.953	78.88
435.175	85.88
435.397	90.88
435.618	92.88
435.84	95.88
436.062	91.88
436.284	85.88
436.505	80.88
436.727	87.88
436.949	75.88
437.17	85.88
437.392	80.88
437.614	87.88
437.835	93.88
438.057	84.88
438.278	85.88
438.5	82.88
438.721	103.88
438.943	92.88
439.165	83.88
439.386	83.88
439.608	85.88
439.829	91.88
440.05	69.88
440.272	92.88
440.493	80.88
440.715	88.88
440.936	78.88
441.158	88.88
441.379	80.88
441.6	83.88
441.822	90.88
442.043	78.88
442.264	77.88
442.486	91.88
442.707	91.88
442.928	76.88
443.149	91.88
443.371	90.88
443.592	94.88
443.813	92.88
444.034	87.88
444.255	90.88
444.476	84.88
444.698	87.88
444.919	94.88
445.14	229.88
445.361	142.88
445.582	78.88
445.803	78.88
446.024	80.88
446.245	95.88
446.466	77.88
446.687	82.88
446.908	86.88
447.129	96.88
447.35	96.88
447.571	84.88
447.792	79.88
448.013	102.88
448.234	87.88
448.455	94.88
448.675	85.88
448.896	98.88
449.117	98.88
449.338	80.88
449.559	84.88
449.779	83.88
450	87.88
450.221	59.88
450.442	91.88
450.662	74.88
450.883	94.88
451.104	89.88
451.324	83.88
451.545	82.88
451.766	97.88
451.986	83.88
452.207	87.88
452.428	92.88
452.648	91.88
452.869	75.88
453.089	78.88
453.31	80.88
453.53	80.88
453.751	78.88
453.971	93.88
454.192	76.88
454.412	86.88
454.633	89.88
454.853	87.88
455.073	81.88
455.294	83.88
455.514	73.88
455.734	90.88
455.955	92.88
456.175	90.88
456.395	98.88
456.616	91.88
456.836	91.88
457.056	80.88
457.276	87.88
457.497	105.88
457.717	81.88
457.937	89.88
458.157	88.88
458.377	96.88
458.598	86.88
458.818	90.88
459.038	88.88
459.258	85.88
459.478	89.88
459.698	99.88
459.918	104.88
460.138	77.88
460.358	83.88
460.578	100.88
460.798	78.88
461.018	95.88
461.238	100.88
461.458	95.88
461.678	93.88
461.898	91.88
462.118	91.88
462.338	94.88
462.558	88.88
462.777	92.88
462.997	92.88
463.217	83.88
463.437	89.88
463.657	92.88
463.876	89.88
464.096	92.88
464.316	79.88
464.536	97.88
464.755	90.88
464.975	84.88
465.195	92.88
465.414	94.88
465.634	73.88
465.854	92.88
466.073	80.88
466.293	88.88
466.512	81.88
466.732	95.88
466.951	97.88
467.171	94.88
467.391	72.88
467.61	91.88
467.829	69.88
468.049	87.88
468.268	98.88
468.488	86.88
468.707	91.88
468.927	95.88
469.146	101.88
469.365	101.88
469.585	103.88
469.804	85.88
470.023	90.88
470.243	96.88
470.462	94.88
470.681	91.88
470.901	92.88
471.12	77.88
471.339	73.88
471.558	89.88
471.777	95.88
471.997	90.88
472.216	91.88
472.435	86.88
472.654	89.88
472.873	97.88
473.092	83.88
473.311	89.88
473.53	90.88
473.749	78.88
473.968	91.88
474.187	87.88
474.406	91.88
474.625	92.88
474.844	97.88
475.063	92.88
475.282	88.88
475.501	88.88
475.72	96.88
475.939	99.88
476.158	96.88
476.377	97.88
476.596	93.88
476.814	82.88
477.033	94.88
477.252	95.88
477.471	94.88
477.69	99.88
477.908	87.88
478.127	98.88
478.346	95.88
478.564	97.88
478.783	110.88
479.002	104.88
479.22	96.88
479.439	114.88
479.658	92.88
479.876	94.88
480.095	92.88
480.313	102.88
480.532	85.88
480.751	92.88
480.969	97.88
481.188	83.88
481.406	96.88
481.624	102.88
481.843	97.88
482.061	85.88
482.28	103.88
482.498	101.88
482.717	86.88
482.935	92.88
483.153	116.88
483.372	92.88
483.59	95.88
483.808	99.88
484.027	101.88
484.245	94.88
484.463	83.88
484.681	93.88
484.9	83.88
485.118	100.88
485.336	100.88
485.554	88.88
485.772	79.88
485.99	99.88
486.209	101.88
486.427	95.88
486.645	96.88
486.863	97.88
487.081	107.88
487.299	85.88
487.517	93.88
487.735	88.88
487.953	93.88
488.171	89.88
488.389	89.88
488.607	79.88
488.825	84.88
489.043	89.88
489.261	94.88
489.479	115.88
489.696	95.88
489.914	98.88
490.132	85.88
490.35	94.88
490.568	102.88
490.786	102.88
491.003	99.88
491.221	99.88
491.439	82.88
491.657	89.88
491.874	113.88
492.092	97.88
492.31	102.88
492.527	122.88
492.745	102.88
492.963	108.88
493.18	94.88
493.398	91.88
493.615	78.88
493.833	95.88
494.05	100.88
494.268	82.88
494.485	99.88
494.703	96.88
494.92	101.88
495.138	98.88
495.355	81.88
495.573	104.88
495.79	85.88
496.008	113.88
496.225	108.88
496.442	105.88
496.66	95.88
496.877	106.88
497.094	102.88
497.312	110.88
497.529	92.88
497.746	93.88
497.963	86.88
498.181	115.88
498.398	99.88
498.615	113.88
498.832	110.88
499.049	100.88
499.267	104.88
499.484	107.88
499.701	111.88
499.918	106.88
500.135	115.88
500.352	120.88
500.569	93.88
500.786	110.88
501.003	118.88
501.22	113.88
501.437	108.88
501.654	90.88
501.871	99.88
502.088	114.88
502.305	101.88
502.522	96.88
502.739	110.88
502.956	101.88
503.172	92.88
503.389	89.88
503.606	106.88
503.823	88.88
504.04	102.88
504.256	98.88
504.473	94.88
504.69	110.88
504.907	92.88
505.123	82.88
505.34	98.88
505.557	96.88
505.773	103.88
505.99	99.88
506.207	98.88
506.423	99.88
506.64	104.88
506.856	94.88
507.073	106.88
507.289	103.88
507.506	98.88
507.722	100.88
507.939	99.88
508.155	91.88
508.372	99.88
508.588	103.88
508.805	95.88
509.021	99.88
509.238	100.88
509.454	96.88
509.67	94.88
509.887	89.88
510.103	92.88
510.319	98.88
510.536	93.88
510.752	99.88
510.968	79.88
511.184	89.88
511.401	94.88
511.617	88.88
511.833	95.88
512.049	87.88
512.265	87.88
512.481	85.88
512.698	83.88
512.914	88.88
513.13	95.88
513.346	94.88
513.562	84.88
513.778	88.88
513.994	94.88
514.21	89.88
514.426	90.88
514.642	111.88
514.858	100.88
515.074	102.88
515.29	108.88
515.506	84.88
515.721	111.88
515.937	102.88
516.153	83.88
516.369	85.88
516.585	92.88
516.801	98.88
517.016	87.88
517.232	85.88
517.448	77.88
517.664	87.88
517.879	96.88
