Data from Ni(NO3)2@0.125M.TitratingCurve.Agarose3%dH2O.NegLispCup.LampEnergy10.LIBS07252019_HRD10591_18-10-55-568.txt Node
Date: Thu Jul 25 18:10:55 EDT 2019
User: cochatt
Spectrometer: HR+D1059
Trigger mode: 1
Integration Time (sec): 1.000000E-1
Scans to average: 1
Electric dark correction enabled: true
Nonlinearity correction enabled: false
Boxcar width: 0
XAxis mode: Wavelengths
Number of Pixels in Spectrum: 2048
>>>>>Begin Spectral Data<<<<<
223.165	-12.88
223.4	-12.88
223.635	-12.88
223.869	-27.88
224.104	-11.88
224.338	-19.88
224.573	-5.88
224.808	-20.88
225.042	-10.88
225.277	7.12
225.511	8.12
225.746	-9.88
225.98	6.12
226.215	5.12
226.449	16.12
226.683	23.12
226.918	23.12
227.152	31.12
227.387	32.12
227.621	47.12
227.856	40.12
228.09	48.12
228.324	39.12
228.559	51.12
228.793	60.12
229.027	76.12
229.262	92.12
229.496	89.12
229.73	92.12
229.964	89.12
230.199	112.12
230.433	102.12
230.667	100.12
230.901	113.12
231.136	93.12
231.37	104.12
231.604	103.12
231.838	98.12
232.072	111.12
232.306	125.12
232.541	109.12
232.775	111.12
233.009	119.12
233.243	103.12
233.477	116.12
233.711	113.12
233.945	115.12
234.179	119.12
234.413	122.12
234.647	108.12
234.881	118.12
235.115	113.12
235.349	105.12
235.583	117.12
235.817	106.12
236.051	101.12
236.285	113.12
236.519	117.12
236.753	110.12
236.987	117.12
237.221	123.12
237.455	102.12
237.689	113.12
237.922	136.12
238.156	118.12
238.39	128.12
238.624	119.12
238.858	113.12
239.091	113.12
239.325	126.12
239.559	129.12
239.793	110.12
240.027	131.12
240.26	140.12
240.494	133.12
240.728	132.12
240.961	136.12
241.195	142.12
241.429	136.12
241.662	124.12
241.896	126.12
242.13	131.12
242.363	129.12
242.597	131.12
242.83	135.12
243.064	124.12
243.298	139.12
243.531	125.12
243.765	143.12
243.998	135.12
244.232	153.12
244.465	135.12
244.699	131.12
244.932	143.12
245.166	145.12
245.399	144.12
245.633	135.12
245.866	148.12
246.099	143.12
246.333	151.12
246.566	152.12
246.8	141.12
247.033	144.12
247.266	139.12
247.5	125.12
247.733	140.12
247.966	148.12
248.2	147.12
248.433	164.12
248.666	171.12
248.899	152.12
249.133	147.12
249.366	173.12
249.599	150.12
249.832	162.12
250.066	160.12
250.299	163.12
250.532	159.12
250.765	162.12
250.998	167.12
251.231	177.12
251.465	163.12
251.698	166.12
251.931	169.12
252.164	189.12
252.397	176.12
252.63	167.12
252.863	173.12
253.096	167.12
253.329	174.12
253.562	181.12
253.795	171.12
254.028	175.12
254.261	195.12
254.494	179.12
254.727	176.12
254.96	177.12
255.193	171.12
255.426	183.12
255.659	156.12
255.892	202.12
256.124	177.12
256.357	176.12
256.59	194.12
256.823	198.12
257.056	190.12
257.289	199.12
257.521	186.12
257.754	192.12
257.987	175.12
258.22	191.12
258.452	201.12
258.685	191.12
258.918	183.12
259.151	173.12
259.383	208.12
259.616	192.12
259.849	185.12
260.081	200.12
260.314	204.12
260.547	206.12
260.779	208.12
261.012	203.12
261.244	186.12
261.477	205.12
261.71	197.12
261.942	201.12
262.175	194.12
262.407	213.12
262.64	202.12
262.872	189.12
263.105	215.12
263.337	197.12
263.57	201.12
263.802	205.12
264.035	212.12
264.267	200.12
264.499	211.12
264.732	215.12
264.964	218.12
265.197	211.12
265.429	207.12
265.661	205.12
265.894	210.12
266.126	217.12
266.358	205.12
266.591	226.12
266.823	222.12
267.055	209.12
267.287	233.12
267.52	227.12
267.752	224.12
267.984	211.12
268.216	196.12
268.448	227.12
268.681	209.12
268.913	230.12
269.145	224.12
269.377	222.12
269.609	211.12
269.841	216.12
270.073	220.12
270.306	206.12
270.538	215.12
270.77	221.12
271.002	223.12
271.234	217.12
271.466	220.12
271.698	222.12
271.93	219.12
272.162	228.12
272.394	243.12
272.626	236.12
272.858	236.12
273.09	225.12
273.322	226.12
273.553	213.12
273.785	230.12
274.017	232.12
274.249	241.12
274.481	250.12
274.713	231.12
274.945	231.12
275.176	233.12
275.408	235.12
275.64	258.12
275.872	249.12
276.104	259.12
276.335	246.12
276.567	234.12
276.799	239.12
277.031	238.12
277.262	247.12
277.494	261.12
277.726	240.12
277.957	238.12
278.189	244.12
278.421	239.12
278.652	255.12
278.884	268.12
279.115	267.12
279.347	266.12
279.579	273.12
279.81	254.12
280.042	257.12
280.273	262.12
280.505	255.12
280.736	265.12
280.968	286.12
281.199	270.12
281.431	272.12
281.662	267.12
281.894	250.12
282.125	273.12
282.356	280.12
282.588	261.12
282.819	259.12
283.051	266.12
283.282	299.12
283.513	286.12
283.745	299.12
283.976	274.12
284.207	266.12
284.439	269.12
284.67	276.12
284.901	291.12
285.132	268.12
285.364	281.12
285.595	284.12
285.826	284.12
286.057	295.12
286.288	289.12
286.52	292.12
286.751	277.12
286.982	286.12
287.213	294.12
287.444	284.12
287.675	291.12
287.906	315.12
288.138	290.12
288.369	297.12
288.6	279.12
288.831	307.12
289.062	291.12
289.293	287.12
289.524	275.12
289.755	295.12
289.986	277.12
290.217	291.12
290.448	288.12
290.679	317.12
290.91	296.12
291.141	275.12
291.371	307.12
291.602	300.12
291.833	301.12
292.064	311.12
292.295	291.12
292.526	296.12
292.757	287.12
292.987	293.12
293.218	299.12
293.449	316.12
293.68	299.12
293.91	290.12
294.141	300.12
294.372	300.12
294.603	296.12
294.833	295.12
295.064	308.12
295.295	311.12
295.525	287.12
295.756	304.12
295.987	308.12
296.217	321.12
296.448	313.12
296.679	318.12
296.909	328.12
297.14	319.12
297.37	333.12
297.601	334.12
297.831	314.12
298.062	317.12
298.292	340.12
298.523	350.12
298.753	330.12
298.984	333.12
299.214	306.12
299.445	324.12
299.675	312.12
299.905	317.12
300.136	331.12
300.366	320.12
300.597	331.12
300.827	352.12
301.057	335.12
301.288	332.12
301.518	336.12
301.748	347.12
301.979	336.12
302.209	340.12
302.439	341.12
302.669	334.12
302.9	327.12
303.13	327.12
303.36	321.12
303.59	321.12
303.82	329.12
304.051	321.12
304.281	337.12
304.511	329.12
304.741	314.12
304.971	317.12
305.201	339.12
305.431	323.12
305.661	327.12
305.891	322.12
306.121	318.12
306.352	329.12
306.582	347.12
306.812	331.12
307.042	334.12
307.272	317.12
307.502	328.12
307.731	329.12
307.961	340.12
308.191	311.12
308.421	315.12
308.651	346.12
308.881	334.12
309.111	313.12
309.341	326.12
309.571	336.12
309.8	337.12
310.03	334.12
310.26	339.12
310.49	321.12
310.72	325.12
310.949	330.12
311.179	337.12
311.409	304.12
311.639	326.12
311.868	342.12
312.098	340.12
312.328	315.12
312.557	339.12
312.787	361.12
313.017	343.12
313.246	343.12
313.476	355.12
313.706	344.12
313.935	362.12
314.165	377.12
314.394	338.12
314.624	336.12
314.853	356.12
315.083	350.12
315.312	373.12
315.542	344.12
315.771	358.12
316.001	329.12
316.23	341.12
316.46	336.12
316.689	329.12
316.919	348.12
317.148	356.12
317.377	349.12
317.607	344.12
317.836	346.12
318.065	341.12
318.295	340.12
318.524	341.12
318.753	349.12
318.983	342.12
319.212	335.12
319.441	341.12
319.67	352.12
319.9	336.12
320.129	351.12
320.358	328.12
320.587	359.12
320.816	337.12
321.046	334.12
321.275	340.12
321.504	335.12
321.733	341.12
321.962	360.12
322.191	333.12
322.42	347.12
322.649	343.12
322.878	356.12
323.108	331.12
323.337	336.12
323.566	343.12
323.795	364.12
324.024	369.12
324.253	342.12
324.482	348.12
324.71	371.12
324.939	354.12
325.168	352.12
325.397	366.12
325.626	369.12
325.855	367.12
326.084	368.12
326.313	386.12
326.542	375.12
326.77	370.12
326.999	359.12
327.228	365.12
327.457	384.12
327.686	382.12
327.914	368.12
328.143	389.12
328.372	385.12
328.6	379.12
328.829	367.12
329.058	381.12
329.287	397.12
329.515	392.12
329.744	400.12
329.972	379.12
330.201	385.12
330.43	397.12
330.658	397.12
330.887	393.12
331.115	414.12
331.344	401.12
331.572	410.12
331.801	392.12
332.03	401.12
332.258	421.12
332.486	431.12
332.715	454.12
332.943	477.12
333.172	489.12
333.4	505.12
333.629	522.12
333.857	531.12
334.085	507.12
334.314	506.12
334.542	477.12
334.771	470.12
334.999	468.12
335.227	468.12
335.455	456.12
335.684	476.12
335.912	469.12
336.14	469.12
336.369	457.12
336.597	438.12
336.825	448.12
337.053	477.12
337.281	454.12
337.51	443.12
337.738	437.12
337.966	423.12
338.194	428.12
338.422	425.12
338.65	435.12
338.878	401.12
339.106	398.12
339.334	413.12
339.562	402.12
339.79	389.12
340.018	406.12
340.246	395.12
340.474	402.12
340.702	383.12
340.93	383.12
341.158	400.12
341.386	401.12
341.614	389.12
341.842	383.12
342.07	393.12
342.298	398.12
342.526	389.12
342.754	398.12
342.981	399.12
343.209	395.12
343.437	432.12
343.665	451.12
343.893	467.12
344.12	492.12
344.348	469.12
344.576	439.12
344.804	434.12
345.031	407.12
345.259	433.12
345.487	386.12
345.714	407.12
345.942	377.12
346.17	380.12
346.397	381.12
346.625	407.12
346.853	395.12
347.08	406.12
347.308	391.12
347.535	399.12
347.763	405.12
347.99	409.12
348.218	413.12
348.445	409.12
348.673	394.12
348.9	408.12
349.128	390.12
349.355	376.12
349.583	392.12
349.81	400.12
350.037	385.12
350.265	379.12
350.492	377.12
350.72	384.12
350.947	375.12
351.174	376.12
351.402	390.12
351.629	372.12
351.856	370.12
352.083	384.12
352.311	379.12
352.538	366.12
352.765	385.12
352.992	393.12
353.22	377.12
353.447	383.12
353.674	378.12
353.901	359.12
354.128	380.12
354.355	363.12
354.583	371.12
354.81	375.12
355.037	400.12
355.264	389.12
355.491	374.12
355.718	371.12
355.945	350.12
356.172	365.12
356.399	379.12
356.626	365.12
356.853	394.12
357.08	367.12
357.307	379.12
357.534	391.12
357.761	388.12
357.988	381.12
358.215	381.12
358.441	374.12
358.668	377.12
358.895	395.12
359.122	389.12
359.349	389.12
359.576	382.12
359.802	351.12
360.029	365.12
360.256	388.12
360.483	383.12
360.709	383.12
360.936	364.12
361.163	379.12
361.39	368.12
361.616	356.12
361.843	377.12
362.07	360.12
362.296	366.12
362.523	375.12
362.749	381.12
362.976	392.12
363.203	380.12
363.429	371.12
363.656	362.12
363.882	375.12
364.109	387.12
364.335	374.12
364.562	365.12
364.788	377.12
365.015	383.12
365.241	359.12
365.468	371.12
365.694	375.12
365.92	374.12
366.147	372.12
366.373	371.12
366.599	378.12
366.826	386.12
367.052	361.12
367.278	381.12
367.505	387.12
367.731	391.12
367.957	381.12
368.184	404.12
368.41	397.12
368.636	395.12
368.862	395.12
369.089	390.12
369.315	373.12
369.541	393.12
369.767	397.12
369.993	380.12
370.219	379.12
370.445	416.12
370.672	409.12
370.898	415.12
371.124	404.12
371.35	414.12
371.576	421.12
371.802	412.12
372.028	396.12
372.254	398.12
372.48	419.12
372.706	422.12
372.932	424.12
373.158	415.12
373.384	420.12
373.61	424.12
373.835	424.12
374.061	425.12
374.287	406.12
374.513	431.12
374.739	423.12
374.965	453.12
375.191	458.12
375.416	443.12
375.642	445.12
375.868	443.12
376.094	433.12
376.319	416.12
376.545	413.12
376.771	391.12
376.997	423.12
377.222	425.12
377.448	408.12
377.674	415.12
377.899	391.12
378.125	396.12
378.35	382.12
378.576	400.12
378.802	384.12
379.027	389.12
379.253	412.12
379.478	402.12
379.704	389.12
379.929	394.12
380.155	386.12
380.38	393.12
380.606	408.12
380.831	420.12
381.057	411.12
381.282	397.12
381.507	394.12
381.733	417.12
381.958	415.12
382.184	405.12
382.409	408.12
382.634	401.12
382.86	435.12
383.085	428.12
383.31	426.12
383.535	454.12
383.761	443.12
383.986	448.12
384.211	452.12
384.436	478.12
384.662	488.12
384.887	486.12
385.112	491.12
385.337	483.12
385.562	477.12
385.787	477.12
386.013	472.12
386.238	484.12
386.463	478.12
386.688	471.12
386.913	466.12
387.138	478.12
387.363	469.12
387.588	451.12
387.813	485.12
388.038	453.12
388.263	471.12
388.488	490.12
388.713	466.12
388.938	463.12
389.163	466.12
389.387	471.12
389.612	453.12
389.837	463.12
390.062	466.12
390.287	454.12
390.512	457.12
390.736	449.12
390.961	469.12
391.186	488.12
391.411	513.12
391.636	501.12
391.86	505.12
392.085	537.12
392.31	508.12
392.534	527.12
392.759	521.12
392.984	505.12
393.208	504.12
393.433	483.12
393.658	502.12
393.882	499.12
394.107	507.12
394.331	506.12
394.556	514.12
394.78	490.12
395.005	518.12
395.229	486.12
395.454	515.12
395.678	499.12
395.903	525.12
396.127	519.12
396.352	509.12
396.576	491.12
396.801	478.12
397.025	492.12
397.249	500.12
397.474	511.12
397.698	520.12
397.922	529.12
398.147	513.12
398.371	524.12
398.595	549.12
398.82	580.12
399.044	621.12
399.268	670.12
399.492	768.12
399.717	880.12
399.941	855.12
400.165	759.12
400.389	680.12
400.613	634.12
400.837	615.12
401.062	581.12
401.286	597.12
401.51	577.12
401.734	571.12
401.958	576.12
402.182	592.12
402.406	597.12
402.63	605.12
402.854	640.12
403.078	631.12
403.302	639.12
403.526	671.12
403.75	685.12
403.974	699.12
404.198	688.12
404.422	680.12
404.645	667.12
404.869	667.12
405.093	663.12
405.317	656.12
405.541	661.12
405.765	679.12
405.988	628.12
406.212	659.12
406.436	635.12
406.66	652.12
406.883	642.12
407.107	717.12
407.331	766.12
407.555	763.12
407.778	745.12
408.002	732.12
408.226	677.12
408.449	684.12
408.673	678.12
408.896	650.12
409.12	654.12
409.344	668.12
409.567	697.12
409.791	694.12
410.014	680.12
410.238	671.12
410.461	682.12
410.685	674.12
410.908	661.12
411.132	651.12
411.355	636.12
411.578	631.12
411.802	635.12
412.025	610.12
412.249	637.12
412.472	624.12
412.695	581.12
412.919	605.12
413.142	593.12
413.365	580.12
413.589	607.12
413.812	587.12
414.035	584.12
414.258	577.12
414.482	566.12
414.705	606.12
414.928	609.12
415.151	594.12
415.374	583.12
415.597	585.12
415.821	583.12
416.044	572.12
416.267	599.12
416.49	597.12
416.713	592.12
416.936	581.12
417.159	596.12
417.382	583.12
417.605	612.12
417.828	578.12
418.051	594.12
418.274	596.12
418.497	590.12
418.72	612.12
418.943	611.12
419.166	657.12
419.389	667.12
419.611	675.12
419.834	640.12
420.057	614.12
420.28	595.12
420.503	565.12
420.726	572.12
420.948	585.12
421.171	600.12
421.394	585.12
421.617	560.12
421.839	599.12
422.062	613.12
422.285	588.12
422.507	604.12
422.73	620.12
422.953	595.12
423.175	607.12
423.398	620.12
423.621	636.12
423.843	640.12
424.066	643.12
424.288	640.12
424.511	640.12
424.733	613.12
424.956	612.12
425.178	606.12
425.401	600.12
425.623	606.12
425.846	574.12
426.068	589.12
426.291	566.12
426.513	553.12
426.735	568.12
426.958	547.12
427.18	549.12
427.402	542.12
427.625	544.12
427.847	551.12
428.069	546.12
428.292	549.12
428.514	517.12
428.736	527.12
428.958	540.12
429.181	518.12
429.403	517.12
429.625	516.12
429.847	539.12
430.069	520.12
430.292	532.12
430.514	520.12
430.736	515.12
430.958	512.12
431.18	522.12
431.402	525.12
431.624	520.12
431.846	553.12
432.068	541.12
432.29	533.12
432.512	520.12
432.734	550.12
432.956	543.12
433.178	538.12
433.4	534.12
433.622	555.12
433.844	546.12
434.066	537.12
434.287	548.12
434.509	562.12
434.731	579.12
434.953	602.12
435.175	610.12
435.397	627.12
435.618	580.12
435.84	552.12
436.062	544.12
436.284	545.12
436.505	538.12
436.727	550.12
436.949	576.12
437.17	545.12
437.392	519.12
437.614	543.12
437.835	527.12
438.057	513.12
438.278	525.12
438.5	536.12
438.721	532.12
438.943	527.12
439.165	529.12
439.386	536.12
439.608	551.12
439.829	537.12
440.05	540.12
440.272	549.12
440.493	556.12
440.715	571.12
440.936	587.12
441.158	575.12
441.379	602.12
441.6	636.12
441.822	639.12
442.043	624.12
442.264	605.12
442.486	607.12
442.707	611.12
442.928	588.12
443.149	615.12
443.371	584.12
443.592	604.12
443.813	608.12
444.034	608.12
444.255	636.12
444.476	649.12
444.698	700.12
444.919	749.12
445.14	811.12
445.361	703.12
445.582	640.12
445.803	615.12
446.024	587.12
446.245	583.12
446.466	599.12
446.687	543.12
446.908	549.12
447.129	560.12
447.35	569.12
447.571	555.12
447.792	500.12
448.013	523.12
448.234	509.12
448.455	533.12
448.675	489.12
448.896	506.12
449.117	535.12
449.338	510.12
449.559	499.12
449.779	505.12
450	509.12
450.221	497.12
450.442	516.12
450.662	510.12
450.883	508.12
451.104	495.12
451.324	551.12
451.545	534.12
451.766	520.12
451.986	535.12
452.207	532.12
452.428	521.12
452.648	517.12
452.869	501.12
453.089	515.12
453.31	503.12
453.53	491.12
453.751	504.12
453.971	507.12
454.192	484.12
454.412	482.12
454.633	488.12
454.853	484.12
455.073	485.12
455.294	485.12
455.514	476.12
455.734	458.12
455.955	479.12
456.175	448.12
456.395	490.12
456.616	479.12
456.836	494.12
457.056	490.12
457.276	454.12
457.497	476.12
457.717	485.12
457.937	457.12
458.157	470.12
458.377	478.12
458.598	499.12
458.818	496.12
459.038	502.12
459.258	537.12
459.478	540.12
459.698	571.12
459.918	580.12
460.138	601.12
460.358	663.12
460.578	649.12
460.798	631.12
461.018	660.12
461.238	632.12
461.458	641.12
461.678	646.12
461.898	639.12
462.118	641.12
462.338	669.12
462.558	677.12
462.777	698.12
462.997	793.12
463.217	879.12
463.437	876.12
463.657	784.12
463.876	759.12
464.096	740.12
464.316	742.12
464.536	742.12
464.755	718.12
464.975	669.12
465.195	678.12
465.414	627.12
465.634	594.12
465.854	582.12
466.073	556.12
466.293	544.12
466.512	513.12
466.732	536.12
466.951	517.12
467.171	512.12
467.391	537.12
467.61	530.12
467.829	540.12
468.049	499.12
468.268	507.12
468.488	512.12
468.707	493.12
468.927	539.12
469.146	533.12
469.365	514.12
469.585	512.12
469.804	538.12
470.023	532.12
470.243	541.12
470.462	525.12
470.681	569.12
470.901	552.12
471.12	543.12
471.339	527.12
471.558	515.12
471.777	517.12
471.997	518.12
472.216	503.12
472.435	504.12
472.654	494.12
472.873	512.12
473.092	492.12
473.311	490.12
473.53	493.12
473.749	475.12
473.968	486.12
474.187	480.12
474.406	470.12
474.625	491.12
474.844	505.12
475.063	501.12
475.282	508.12
475.501	505.12
475.72	519.12
475.939	515.12
476.158	504.12
476.377	517.12
476.596	468.12
476.814	490.12
477.033	527.12
477.252	531.12
477.471	559.12
477.69	552.12
477.908	570.12
478.127	587.12
478.346	587.12
478.564	575.12
478.783	581.12
479.002	623.12
479.22	593.12
479.439	577.12
479.658	591.12
479.876	603.12
480.095	612.12
480.313	635.12
480.532	645.12
480.751	668.12
480.969	625.12
481.188	580.12
481.406	579.12
481.624	559.12
481.843	567.12
482.061	548.12
482.28	546.12
482.498	548.12
482.717	555.12
482.935	556.12
483.153	571.12
483.372	567.12
483.59	560.12
483.808	584.12
484.027	561.12
484.245	567.12
484.463	547.12
484.681	571.12
484.9	571.12
485.118	583.12
485.336	558.12
485.554	562.12
485.772	579.12
485.99	580.12
486.209	591.12
486.427	602.12
486.645	606.12
486.863	589.12
487.081	623.12
487.299	596.12
487.517	600.12
487.735	572.12
487.953	582.12
488.171	623.12
488.389	592.12
488.607	569.12
488.825	573.12
489.043	575.12
489.261	581.12
489.479	553.12
489.696	588.12
489.914	589.12
490.132	582.12
490.35	588.12
490.568	575.12
490.786	615.12
491.003	608.12
491.221	601.12
491.439	589.12
491.657	609.12
491.874	603.12
492.092	618.12
492.31	603.12
492.527	606.12
492.745	604.12
492.963	603.12
493.18	608.12
493.398	612.12
493.615	633.12
493.833	602.12
494.05	587.12
494.268	608.12
494.485	640.12
494.703	622.12
494.92	610.12
495.138	621.12
495.355	623.12
495.573	608.12
495.79	593.12
496.008	619.12
496.225	615.12
496.442	599.12
496.66	642.12
496.877	635.12
497.094	652.12
497.312	659.12
497.529	688.12
497.746	680.12
497.963	712.12
498.181	733.12
498.398	742.12
498.615	796.12
498.832	887.12
499.049	910.12
499.267	976.12
499.484	1062.12
499.701	1183.12
499.918	1338.12
500.135	1521.12
500.352	1771.12
500.569	1868.12
500.786	1863.12
501.003	1700.12
501.22	1458.12
501.437	1349.12
