Data from Ni(NO3)2@0.5M.TitratingCurve.Agarose3%dH2O.NegLispCup.LampEnergy10.LIBS07252019_HRD10591_18-00-23-564.txt Node
Date: Thu Jul 25 18:00:23 EDT 2019
User: cochatt
Spectrometer: HR+D1059
Trigger mode: 1
Integration Time (sec): 1.000000E-1
Scans to average: 1
Electric dark correction enabled: true
Nonlinearity correction enabled: false
Boxcar width: 0
XAxis mode: Wavelengths
Number of Pixels in Spectrum: 2048
>>>>>Begin Spectral Data<<<<<
223.165	-8.25
223.4	-8.25
223.635	-8.25
223.869	-29.25
224.104	-15.25
224.338	-19.25
224.573	-16.25
224.808	-7.25
225.042	-2.25
225.277	7.75
225.511	-11.25
225.746	8.75
225.98	-5.25
226.215	20.75
226.449	14.75
226.683	12.75
226.918	12.75
227.152	36.75
227.387	33.75
227.621	32.75
227.856	34.75
228.09	45.75
228.324	67.75
228.559	46.75
228.793	51.75
229.027	97.75
229.262	121.75
229.496	135.75
229.73	118.75
229.964	135.75
230.199	160.75
230.433	154.75
230.667	154.75
230.901	151.75
231.136	138.75
231.37	148.75
231.604	150.75
231.838	148.75
232.072	170.75
232.306	159.75
232.541	150.75
232.775	138.75
233.009	143.75
233.243	152.75
233.477	152.75
233.711	142.75
233.945	159.75
234.179	144.75
234.413	140.75
234.647	150.75
234.881	168.75
235.115	160.75
235.349	146.75
235.583	144.75
235.817	147.75
236.051	140.75
236.285	146.75
236.519	168.75
236.753	158.75
236.987	152.75
237.221	157.75
237.455	159.75
237.689	169.75
237.922	174.75
238.156	158.75
238.39	154.75
238.624	160.75
238.858	152.75
239.091	180.75
239.325	168.75
239.559	184.75
239.793	184.75
240.027	181.75
240.26	180.75
240.494	167.75
240.728	182.75
240.961	165.75
241.195	182.75
241.429	169.75
241.662	184.75
241.896	196.75
242.13	199.75
242.363	168.75
242.597	188.75
242.83	188.75
243.064	176.75
243.298	199.75
243.531	192.75
243.765	215.75
243.998	199.75
244.232	191.75
244.465	196.75
244.699	204.75
244.932	211.75
245.166	213.75
245.399	206.75
245.633	214.75
245.866	219.75
246.099	218.75
246.333	211.75
246.566	231.75
246.8	203.75
247.033	221.75
247.266	222.75
247.5	224.75
247.733	226.75
247.966	216.75
248.2	243.75
248.433	226.75
248.666	243.75
248.899	227.75
249.133	226.75
249.366	250.75
249.599	235.75
249.832	230.75
250.066	240.75
250.299	239.75
250.532	254.75
250.765	241.75
250.998	235.75
251.231	266.75
251.465	261.75
251.698	259.75
251.931	251.75
252.164	262.75
252.397	264.75
252.63	265.75
252.863	270.75
253.096	272.75
253.329	271.75
253.562	250.75
253.795	258.75
254.028	256.75
254.261	279.75
254.494	279.75
254.727	267.75
254.96	264.75
255.193	281.75
255.426	282.75
255.659	267.75
255.892	283.75
256.124	295.75
256.357	303.75
256.59	299.75
256.823	286.75
257.056	289.75
257.289	316.75
257.521	299.75
257.754	279.75
257.987	291.75
258.22	297.75
258.452	294.75
258.685	295.75
258.918	292.75
259.151	310.75
259.383	314.75
259.616	306.75
259.849	339.75
260.081	324.75
260.314	323.75
260.547	314.75
260.779	312.75
261.012	334.75
261.244	329.75
261.477	337.75
261.71	337.75
261.942	318.75
262.175	313.75
262.407	327.75
262.64	325.75
262.872	321.75
263.105	337.75
263.337	342.75
263.57	340.75
263.802	351.75
264.035	335.75
264.267	369.75
264.499	354.75
264.732	332.75
264.964	354.75
265.197	352.75
265.429	357.75
265.661	372.75
265.894	361.75
266.126	346.75
266.358	359.75
266.591	324.75
266.823	372.75
267.055	356.75
267.287	374.75
267.52	347.75
267.752	364.75
267.984	370.75
268.216	358.75
268.448	382.75
268.681	392.75
268.913	368.75
269.145	379.75
269.377	374.75
269.609	375.75
269.841	390.75
270.073	366.75
270.306	372.75
270.538	356.75
270.77	378.75
271.002	384.75
271.234	392.75
271.466	393.75
271.698	383.75
271.93	398.75
272.162	397.75
272.394	391.75
272.626	395.75
272.858	396.75
273.09	404.75
273.322	390.75
273.553	395.75
273.785	404.75
274.017	420.75
274.249	420.75
274.481	396.75
274.713	411.75
274.945	421.75
275.176	412.75
275.408	410.75
275.64	418.75
275.872	400.75
276.104	401.75
276.335	416.75
276.567	414.75
276.799	432.75
277.031	432.75
277.262	450.75
277.494	435.75
277.726	431.75
277.957	416.75
278.189	461.75
278.421	458.75
278.652	442.75
278.884	451.75
279.115	461.75
279.347	427.75
279.579	452.75
279.81	426.75
280.042	460.75
280.273	440.75
280.505	432.75
280.736	433.75
280.968	448.75
281.199	460.75
281.431	462.75
281.662	463.75
281.894	481.75
282.125	461.75
282.356	464.75
282.588	477.75
282.819	480.75
283.051	477.75
283.282	436.75
283.513	469.75
283.745	474.75
283.976	458.75
284.207	487.75
284.439	465.75
284.67	491.75
284.901	479.75
285.132	479.75
285.364	479.75
285.595	478.75
285.826	476.75
286.057	484.75
286.288	481.75
286.52	492.75
286.751	500.75
286.982	530.75
287.213	484.75
287.444	525.75
287.675	501.75
287.906	498.75
288.138	502.75
288.369	498.75
288.6	498.75
288.831	500.75
289.062	495.75
289.293	520.75
289.524	507.75
289.755	515.75
289.986	504.75
290.217	500.75
290.448	499.75
290.679	514.75
290.91	510.75
291.141	519.75
291.371	534.75
291.602	549.75
291.833	533.75
292.064	528.75
292.295	508.75
292.526	502.75
292.757	511.75
292.987	515.75
293.218	522.75
293.449	502.75
293.68	524.75
293.91	507.75
294.141	516.75
294.372	528.75
294.603	534.75
294.833	543.75
295.064	520.75
295.295	523.75
295.525	519.75
295.756	525.75
295.987	524.75
296.217	551.75
296.448	553.75
296.679	544.75
296.909	517.75
297.14	548.75
297.37	560.75
297.601	537.75
297.831	546.75
298.062	559.75
298.292	550.75
298.523	563.75
298.753	572.75
298.984	576.75
299.214	590.75
299.445	574.75
299.675	568.75
299.905	565.75
300.136	568.75
300.366	558.75
300.597	569.75
300.827	571.75
301.057	564.75
301.288	568.75
301.518	590.75
301.748	600.75
301.979	586.75
302.209	590.75
302.439	599.75
302.669	586.75
302.9	596.75
303.13	589.75
303.36	623.75
303.59	603.75
303.82	618.75
304.051	596.75
304.281	614.75
304.511	579.75
304.741	582.75
304.971	600.75
305.201	611.75
305.431	630.75
305.661	621.75
305.891	600.75
306.121	585.75
306.352	600.75
306.582	602.75
306.812	580.75
307.042	614.75
307.272	587.75
307.502	596.75
307.731	582.75
307.961	584.75
308.191	572.75
308.421	580.75
308.651	600.75
308.881	614.75
309.111	593.75
309.341	595.75
309.571	612.75
309.8	598.75
310.03	583.75
310.26	625.75
310.49	642.75
310.72	607.75
310.949	606.75
311.179	605.75
311.409	606.75
311.639	622.75
311.868	600.75
312.098	602.75
312.328	619.75
312.557	619.75
312.787	615.75
313.017	631.75
313.246	646.75
313.476	647.75
313.706	640.75
313.935	634.75
314.165	617.75
314.394	642.75
314.624	614.75
314.853	611.75
315.083	642.75
315.312	640.75
315.542	652.75
315.771	626.75
316.001	651.75
316.23	650.75
316.46	628.75
316.689	661.75
316.919	646.75
317.148	633.75
317.377	664.75
317.607	652.75
317.836	624.75
318.065	652.75
318.295	658.75
318.524	638.75
318.753	648.75
318.983	638.75
319.212	623.75
319.441	638.75
319.67	634.75
319.9	667.75
320.129	682.75
320.358	656.75
320.587	659.75
320.816	672.75
321.046	651.75
321.275	654.75
321.504	659.75
321.733	660.75
321.962	665.75
322.191	678.75
322.42	668.75
322.649	666.75
322.878	687.75
323.108	679.75
323.337	695.75
323.566	668.75
323.795	683.75
324.024	678.75
324.253	678.75
324.482	687.75
324.71	672.75
324.939	693.75
325.168	712.75
325.397	712.75
325.626	677.75
325.855	706.75
326.084	721.75
326.313	719.75
326.542	730.75
326.77	736.75
326.999	705.75
327.228	704.75
327.457	706.75
327.686	716.75
327.914	717.75
328.143	724.75
328.372	728.75
328.6	716.75
328.829	725.75
329.058	721.75
329.287	710.75
329.515	715.75
329.744	733.75
329.972	743.75
330.201	741.75
330.43	744.75
330.658	729.75
330.887	729.75
331.115	729.75
331.344	775.75
331.572	758.75
331.801	763.75
332.03	808.75
332.258	788.75
332.486	775.75
332.715	792.75
332.943	812.75
333.172	830.75
333.4	846.75
333.629	842.75
333.857	889.75
334.085	902.75
334.314	891.75
334.542	893.75
334.771	888.75
334.999	886.75
335.227	883.75
335.455	878.75
335.684	868.75
335.912	860.75
336.14	871.75
336.369	850.75
336.597	841.75
336.825	841.75
337.053	836.75
337.281	832.75
337.51	848.75
337.738	832.75
337.966	830.75
338.194	847.75
338.422	820.75
338.65	810.75
338.878	784.75
339.106	804.75
339.334	815.75
339.562	809.75
339.79	768.75
340.018	770.75
340.246	756.75
340.474	759.75
340.702	779.75
340.93	764.75
341.158	789.75
341.386	787.75
341.614	803.75
341.842	798.75
342.07	784.75
342.298	753.75
342.526	797.75
342.754	756.75
342.981	770.75
343.209	778.75
343.437	804.75
343.665	816.75
343.893	884.75
344.12	863.75
344.348	852.75
344.576	850.75
344.804	842.75
345.031	794.75
345.259	797.75
345.487	772.75
345.714	773.75
345.942	778.75
346.17	793.75
346.397	777.75
346.625	767.75
346.853	715.75
347.08	737.75
347.308	727.75
347.535	746.75
347.763	770.75
347.99	736.75
348.218	743.75
348.445	766.75
348.673	737.75
348.9	734.75
349.128	731.75
349.355	761.75
349.583	770.75
349.81	710.75
350.037	725.75
350.265	736.75
350.492	750.75
350.72	714.75
350.947	699.75
351.174	744.75
351.402	747.75
351.629	757.75
351.856	733.75
352.083	732.75
352.311	726.75
352.538	736.75
352.765	739.75
352.992	728.75
353.22	722.75
353.447	693.75
353.674	697.75
353.901	704.75
354.128	704.75
354.355	727.75
354.583	712.75
354.81	718.75
355.037	724.75
355.264	714.75
355.491	714.75
355.718	714.75
355.945	709.75
356.172	706.75
356.399	707.75
356.626	733.75
356.853	740.75
357.08	721.75
357.307	756.75
357.534	720.75
357.761	747.75
357.988	746.75
358.215	718.75
358.441	739.75
358.668	737.75
358.895	703.75
359.122	720.75
359.349	678.75
359.576	726.75
359.802	736.75
360.029	723.75
360.256	728.75
360.483	708.75
360.709	743.75
360.936	732.75
361.163	718.75
361.39	732.75
361.616	739.75
361.843	738.75
362.07	761.75
362.296	750.75
362.523	737.75
362.749	742.75
362.976	740.75
363.203	720.75
363.429	710.75
363.656	702.75
363.882	717.75
364.109	719.75
364.335	743.75
364.562	724.75
364.788	708.75
365.015	726.75
365.241	711.75
365.468	730.75
365.694	741.75
365.92	739.75
366.147	716.75
366.373	725.75
366.599	716.75
366.826	728.75
367.052	737.75
367.278	726.75
367.505	734.75
367.731	727.75
367.957	724.75
368.184	754.75
368.41	762.75
368.636	756.75
368.862	746.75
369.089	741.75
369.315	728.75
369.541	756.75
369.767	743.75
369.993	766.75
370.219	743.75
370.445	778.75
370.672	759.75
370.898	760.75
371.124	795.75
371.35	778.75
371.576	780.75
371.802	789.75
372.028	788.75
372.254	790.75
372.48	808.75
372.706	828.75
372.932	809.75
373.158	786.75
373.384	784.75
373.61	802.75
373.835	791.75
374.061	810.75
374.287	794.75
374.513	816.75
374.739	847.75
374.965	829.75
375.191	831.75
375.416	827.75
375.642	818.75
375.868	793.75
376.094	814.75
376.319	800.75
376.545	796.75
376.771	795.75
376.997	773.75
377.222	779.75
377.448	763.75
377.674	764.75
377.899	777.75
378.125	781.75
378.35	757.75
378.576	776.75
378.802	747.75
379.027	774.75
379.253	786.75
379.478	737.75
379.704	784.75
379.929	796.75
380.155	770.75
380.38	779.75
380.606	779.75
380.831	779.75
381.057	773.75
381.282	774.75
381.507	790.75
381.733	791.75
381.958	793.75
382.184	794.75
382.409	804.75
382.634	826.75
382.86	790.75
383.085	814.75
383.31	826.75
383.535	832.75
383.761	827.75
383.986	817.75
384.211	859.75
384.436	823.75
384.662	858.75
384.887	873.75
385.112	874.75
385.337	901.75
385.562	896.75
385.787	906.75
386.013	940.75
386.238	884.75
386.463	916.75
386.688	909.75
386.913	900.75
387.138	917.75
387.363	902.75
387.588	892.75
387.813	907.75
388.038	896.75
388.263	894.75
388.488	905.75
388.713	897.75
388.938	905.75
389.163	894.75
389.387	886.75
389.612	883.75
389.837	903.75
390.062	892.75
390.287	898.75
390.512	912.75
390.736	929.75
390.961	926.75
391.186	935.75
391.411	922.75
391.636	948.75
391.86	970.75
392.085	987.75
392.31	976.75
392.534	952.75
392.759	978.75
392.984	929.75
393.208	949.75
393.433	958.75
393.658	962.75
393.882	971.75
394.107	934.75
394.331	942.75
394.556	935.75
394.78	944.75
395.005	965.75
395.229	963.75
395.454	988.75
395.678	1012.75
395.903	978.75
396.127	967.75
396.352	996.75
396.576	967.75
396.801	990.75
397.025	974.75
397.249	996.75
397.474	1002.75
397.698	1024.75
397.922	1046.75
398.147	1012.75
398.371	1042.75
398.595	1076.75
398.82	1096.75
399.044	1150.75
399.268	1204.75
399.492	1287.75
399.717	1374.75
399.941	1398.75
400.165	1337.75
400.389	1292.75
400.613	1211.75
400.837	1198.75
401.062	1141.75
401.286	1164.75
401.51	1112.75
401.734	1105.75
401.958	1112.75
402.182	1137.75
402.406	1082.75
402.63	1121.75
402.854	1128.75
403.078	1100.75
403.302	1160.75
403.526	1136.75
403.75	1145.75
403.974	1173.75
404.198	1135.75
404.422	1176.75
404.645	1178.75
404.869	1155.75
405.093	1159.75
405.317	1170.75
405.541	1158.75
405.765	1165.75
405.988	1195.75
406.212	1208.75
406.436	1215.75
406.66	1230.75
406.883	1212.75
407.107	1261.75
407.331	1299.75
407.555	1324.75
407.778	1308.75
408.002	1301.75
408.226	1284.75
408.449	1300.75
408.673	1262.75
408.896	1238.75
409.12	1209.75
409.344	1252.75
409.567	1204.75
409.791	1202.75
410.014	1220.75
410.238	1179.75
410.461	1168.75
410.685	1170.75
410.908	1224.75
411.132	1180.75
411.355	1146.75
411.578	1170.75
411.802	1135.75
412.025	1150.75
412.249	1192.75
412.472	1168.75
412.695	1152.75
412.919	1125.75
413.142	1132.75
413.365	1111.75
413.589	1137.75
413.812	1111.75
414.035	1110.75
414.258	1125.75
414.482	1095.75
414.705	1121.75
414.928	1113.75
415.151	1096.75
415.374	1110.75
415.597	1108.75
415.821	1094.75
416.044	1071.75
416.267	1070.75
416.49	1057.75
416.713	1052.75
416.936	1071.75
417.159	1065.75
417.382	1033.75
417.605	1026.75
417.828	1068.75
418.051	1067.75
418.274	1083.75
418.497	1064.75
418.72	1109.75
418.943	1080.75
419.166	1119.75
419.389	1212.75
419.611	1174.75
419.834	1127.75
420.057	1110.75
420.28	1093.75
420.503	1081.75
420.726	1055.75
420.948	1060.75
421.171	1020.75
421.394	1073.75
421.617	1080.75
421.839	1070.75
422.062	1096.75
422.285	1079.75
422.507	1061.75
422.73	1061.75
422.953	1081.75
423.175	1073.75
423.398	1086.75
423.621	1090.75
423.843	1079.75
424.066	1113.75
424.288	1098.75
424.511	1082.75
424.733	1088.75
424.956	1041.75
425.178	1078.75
425.401	1065.75
425.623	1051.75
425.846	1071.75
426.068	1044.75
426.291	1043.75
426.513	1019.75
426.735	1038.75
426.958	1035.75
427.18	1035.75
427.402	1044.75
427.625	996.75
427.847	992.75
428.069	992.75
428.292	1029.75
428.514	995.75
428.736	988.75
428.958	991.75
429.181	973.75
429.403	1026.75
429.625	1002.75
429.847	973.75
430.069	995.75
430.292	962.75
430.514	979.75
430.736	997.75
430.958	980.75
431.18	983.75
431.402	972.75
431.624	986.75
431.846	1003.75
432.068	1002.75
432.29	1013.75
432.512	1004.75
432.734	998.75
432.956	999.75
433.178	1031.75
433.4	1038.75
433.622	1024.75
433.844	1034.75
434.066	1012.75
434.287	1027.75
434.509	1050.75
434.731	1091.75
434.953	1063.75
435.175	1095.75
435.397	1081.75
435.618	1046.75
435.84	1045.75
436.062	1011.75
436.284	1024.75
436.505	1009.75
436.727	993.75
436.949	1004.75
437.17	990.75
437.392	987.75
437.614	1001.75
437.835	965.75
438.057	990.75
438.278	967.75
438.5	944.75
438.721	958.75
438.943	991.75
439.165	941.75
439.386	998.75
439.608	1008.75
439.829	999.75
440.05	980.75
440.272	1003.75
440.493	971.75
440.715	1036.75
440.936	1057.75
441.158	1018.75
441.379	1038.75
441.6	1068.75
441.822	1072.75
442.043	1066.75
442.264	1053.75
442.486	1035.75
442.707	1028.75
442.928	1039.75
443.149	1053.75
443.371	1062.75
443.592	1109.75
443.813	1089.75
444.034	1111.75
444.255	1104.75
444.476	1146.75
444.698	1163.75
444.919	1157.75
445.14	1262.75
445.361	1194.75
445.582	1110.75
445.803	1077.75
446.024	1029.75
446.245	1042.75
446.466	1040.75
446.687	994.75
446.908	1008.75
447.129	979.75
447.35	989.75
447.571	949.75
447.792	951.75
448.013	951.75
448.234	935.75
448.455	930.75
448.675	946.75
448.896	918.75
449.117	924.75
449.338	919.75
449.559	908.75
449.779	916.75
450	908.75
450.221	911.75
450.442	880.75
450.662	917.75
450.883	926.75
451.104	939.75
451.324	923.75
451.545	939.75
451.766	898.75
451.986	910.75
452.207	932.75
452.428	912.75
452.648	895.75
452.869	890.75
453.089	874.75
453.31	905.75
453.53	894.75
453.751	885.75
453.971	865.75
454.192	888.75
454.412	882.75
454.633	865.75
454.853	867.75
455.073	862.75
455.294	878.75
455.514	883.75
455.734	848.75
455.955	864.75
456.175	869.75
456.395	855.75
456.616	844.75
456.836	876.75
457.056	863.75
457.276	864.75
457.497	868.75
457.717	874.75
457.937	896.75
458.157	902.75
458.377	894.75
458.598	903.75
458.818	927.75
459.038	926.75
459.258	959.75
459.478	999.75
459.698	1031.75
459.918	1064.75
460.138	1065.75
460.358	1099.75
460.578	1066.75
460.798	1124.75
461.018	1142.75
461.238	1102.75
461.458	1098.75
461.678	1084.75
461.898	1122.75
462.118	1134.75
462.338	1178.75
462.558	1206.75
462.777	1215.75
462.997	1310.75
463.217	1313.75
463.437	1361.75
463.657	1314.75
463.876	1265.75
464.096	1250.75
464.316	1255.75
464.536	1218.75
464.755	1223.75
464.975	1185.75
465.195	1145.75
465.414	1074.75
465.634	1030.75
465.854	996.75
466.073	999.75
466.293	1006.75
466.512	959.75
466.732	948.75
466.951	955.75
467.171	972.75
467.391	943.75
467.61	969.75
467.829	954.75
468.049	952.75
468.268	944.75
468.488	919.75
468.707	922.75
468.927	918.75
469.146	932.75
469.365	962.75
469.585	950.75
469.804	970.75
470.023	964.75
470.243	936.75
470.462	963.75
470.681	977.75
470.901	965.75
471.12	974.75
471.339	967.75
471.558	946.75
471.777	960.75
471.997	945.75
472.216	942.75
472.435	967.75
472.654	933.75
472.873	898.75
473.092	924.75
473.311	906.75
473.53	894.75
473.749	898.75
473.968	913.75
474.187	920.75
474.406	913.75
474.625	904.75
474.844	920.75
475.063	926.75
475.282	960.75
475.501	952.75
475.72	946.75
475.939	952.75
476.158	951.75
476.377	968.75
476.596	936.75
476.814	969.75
477.033	987.75
477.252	973.75
477.471	994.75
477.69	1018.75
477.908	1029.75
478.127	1074.75
478.346	1065.75
478.564	1095.75
478.783	1101.75
479.002	1125.75
479.22	1136.75
479.439	1114.75
479.658	1100.75
479.876	1120.75
480.095	1120.75
480.313	1127.75
480.532	1131.75
480.751	1148.75
480.969	1118.75
481.188	1124.75
481.406	1075.75
481.624	1085.75
481.843	1056.75
482.061	1072.75
482.28	1082.75
482.498	1050.75
482.717	1079.75
482.935	1060.75
483.153	1082.75
483.372	1085.75
483.59	1103.75
483.808	1083.75
484.027	1084.75
484.245	1109.75
484.463	1076.75
484.681	1123.75
484.9	1100.75
485.118	1115.75
485.336	1087.75
485.554	1090.75
485.772	1092.75
485.99	1094.75
486.209	1136.75
486.427	1118.75
486.645	1106.75
486.863	1131.75
487.081	1154.75
487.299	1104.75
487.517	1136.75
487.735	1134.75
487.953	1138.75
488.171	1120.75
488.389	1109.75
488.607	1102.75
488.825	1102.75
489.043	1078.75
489.261	1093.75
489.479	1099.75
489.696	1099.75
489.914	1099.75
490.132	1110.75
490.35	1106.75
490.568	1105.75
490.786	1121.75
491.003	1110.75
491.221	1128.75
491.439	1137.75
491.657	1115.75
491.874	1128.75
492.092	1141.75
492.31	1138.75
492.527	1107.75
492.745	1129.75
492.963	1170.75
493.18	1160.75
493.398	1156.75
493.615	1160.75
493.833	1162.75
494.05	1129.75
494.268	1121.75
494.485	1138.75
494.703	1182.75
494.92	1178.75
495.138	1185.75
495.355	1172.75
495.573	1202.75
495.79	1166.75
496.008	1190.75
496.225	1215.75
496.442	1195.75
496.66	1232.75
496.877	1233.75
497.094	1282.75
497.312	1263.75
