Data from Ni(NO3)2@0.125M.TitratingCurve.Agarose3%dH2O.NegLispCup.LampEnergy10.LIBS07252019_HRD10591_18-11-31-568.txt Node
Date: Thu Jul 25 18:11:31 EDT 2019
User: cochatt
Spectrometer: HR+D1059
Trigger mode: 1
Integration Time (sec): 1.000000E-1
Scans to average: 1
Electric dark correction enabled: true
Nonlinearity correction enabled: false
Boxcar width: 0
XAxis mode: Wavelengths
Number of Pixels in Spectrum: 2048
>>>>>Begin Spectral Data<<<<<
223.165	-16.75
223.4	-16.75
223.635	-16.75
223.869	-4.75
224.104	-19.75
224.338	-21.75
224.573	-12.75
224.808	-18.75
225.042	-8.75
225.277	-2.75
225.511	-3.75
225.746	3.25
225.98	4.25
226.215	13.25
226.449	19.25
226.683	23.25
226.918	23.25
227.152	23.25
227.387	37.25
227.621	41.25
227.856	48.25
228.09	53.25
228.324	47.25
228.559	63.25
228.793	76.25
229.027	128.25
229.262	124.25
229.496	135.25
229.73	148.25
229.964	150.25
230.199	160.25
230.433	150.25
230.667	156.25
230.901	154.25
231.136	148.25
231.37	157.25
231.604	149.25
231.838	163.25
232.072	170.25
232.306	174.25
232.541	168.25
232.775	160.25
233.009	176.25
233.243	166.25
233.477	170.25
233.711	170.25
233.945	166.25
234.179	178.25
234.413	187.25
234.647	172.25
234.881	179.25
235.115	183.25
235.349	167.25
235.583	180.25
235.817	174.25
236.051	187.25
236.285	175.25
236.519	177.25
236.753	177.25
236.987	184.25
237.221	197.25
237.455	196.25
237.689	181.25
237.922	189.25
238.156	191.25
238.39	181.25
238.624	202.25
238.858	202.25
239.091	202.25
239.325	193.25
239.559	208.25
239.793	202.25
240.027	209.25
240.26	217.25
240.494	208.25
240.728	203.25
240.961	222.25
241.195	217.25
241.429	229.25
241.662	216.25
241.896	219.25
242.13	231.25
242.363	225.25
242.597	237.25
242.83	240.25
243.064	233.25
243.298	237.25
243.531	238.25
243.765	253.25
243.998	255.25
244.232	243.25
244.465	270.25
244.699	248.25
244.932	263.25
245.166	252.25
245.399	251.25
245.633	262.25
245.866	257.25
246.099	263.25
246.333	257.25
246.566	262.25
246.8	267.25
247.033	256.25
247.266	262.25
247.5	283.25
247.733	278.25
247.966	288.25
248.2	278.25
248.433	298.25
248.666	282.25
248.899	285.25
249.133	295.25
249.366	289.25
249.599	301.25
249.832	297.25
250.066	295.25
250.299	314.25
250.532	313.25
250.765	310.25
250.998	304.25
251.231	304.25
251.465	324.25
251.698	304.25
251.931	326.25
252.164	327.25
252.397	344.25
252.63	343.25
252.863	332.25
253.096	342.25
253.329	339.25
253.562	345.25
253.795	348.25
254.028	339.25
254.261	317.25
254.494	352.25
254.727	335.25
254.96	364.25
255.193	345.25
255.426	333.25
255.659	358.25
255.892	374.25
256.124	359.25
256.357	349.25
256.59	353.25
256.823	338.25
257.056	348.25
257.289	354.25
257.521	372.25
257.754	371.25
257.987	362.25
258.22	375.25
258.452	365.25
258.685	366.25
258.918	382.25
259.151	381.25
259.383	382.25
259.616	365.25
259.849	375.25
260.081	391.25
260.314	382.25
260.547	391.25
260.779	383.25
261.012	376.25
261.244	378.25
261.477	389.25
261.71	392.25
261.942	408.25
262.175	407.25
262.407	402.25
262.64	388.25
262.872	383.25
263.105	416.25
263.337	419.25
263.57	407.25
263.802	432.25
264.035	415.25
264.267	436.25
264.499	414.25
264.732	438.25
264.964	414.25
265.197	426.25
265.429	440.25
265.661	439.25
265.894	437.25
266.126	425.25
266.358	444.25
266.591	445.25
266.823	455.25
267.055	429.25
267.287	470.25
267.52	439.25
267.752	444.25
267.984	434.25
268.216	439.25
268.448	473.25
268.681	474.25
268.913	452.25
269.145	462.25
269.377	471.25
269.609	462.25
269.841	443.25
270.073	439.25
270.306	470.25
270.538	472.25
270.77	473.25
271.002	463.25
271.234	484.25
271.466	471.25
271.698	465.25
271.93	483.25
272.162	483.25
272.394	476.25
272.626	504.25
272.858	487.25
273.09	492.25
273.322	487.25
273.553	504.25
273.785	487.25
274.017	502.25
274.249	515.25
274.481	496.25
274.713	494.25
274.945	506.25
275.176	513.25
275.408	515.25
275.64	489.25
275.872	519.25
276.104	525.25
276.335	521.25
276.567	537.25
276.799	534.25
277.031	537.25
277.262	521.25
277.494	534.25
277.726	528.25
277.957	523.25
278.189	535.25
278.421	517.25
278.652	547.25
278.884	550.25
279.115	541.25
279.347	545.25
279.579	559.25
279.81	553.25
280.042	533.25
280.273	563.25
280.505	564.25
280.736	548.25
280.968	577.25
281.199	572.25
281.431	572.25
281.662	577.25
281.894	586.25
282.125	581.25
282.356	571.25
282.588	561.25
282.819	571.25
283.051	607.25
283.282	595.25
283.513	594.25
283.745	590.25
283.976	600.25
284.207	594.25
284.439	600.25
284.67	599.25
284.901	599.25
285.132	589.25
285.364	618.25
285.595	599.25
285.826	622.25
286.057	611.25
286.288	607.25
286.52	632.25
286.751	636.25
286.982	630.25
287.213	632.25
287.444	652.25
287.675	635.25
287.906	673.25
288.138	617.25
288.369	639.25
288.6	643.25
288.831	671.25
289.062	640.25
289.293	630.25
289.524	642.25
289.755	639.25
289.986	615.25
290.217	649.25
290.448	639.25
290.679	637.25
290.91	661.25
291.141	661.25
291.371	655.25
291.602	670.25
291.833	663.25
292.064	652.25
292.295	665.25
292.526	658.25
292.757	638.25
292.987	636.25
293.218	638.25
293.449	656.25
293.68	663.25
293.91	659.25
294.141	677.25
294.372	679.25
294.603	658.25
294.833	671.25
295.064	678.25
295.295	680.25
295.525	657.25
295.756	652.25
295.987	651.25
296.217	686.25
296.448	698.25
296.679	700.25
296.909	698.25
297.14	672.25
297.37	688.25
297.601	711.25
297.831	703.25
298.062	692.25
298.292	725.25
298.523	737.25
298.753	725.25
298.984	728.25
299.214	711.25
299.445	710.25
299.675	720.25
299.905	724.25
300.136	708.25
300.366	721.25
300.597	712.25
300.827	758.25
301.057	783.25
301.288	788.25
301.518	761.25
301.748	753.25
301.979	780.25
302.209	738.25
302.439	769.25
302.669	729.25
302.9	723.25
303.13	725.25
303.36	748.25
303.59	716.25
303.82	752.25
304.051	740.25
304.281	727.25
304.511	733.25
304.741	747.25
304.971	725.25
305.201	759.25
305.431	745.25
305.661	755.25
305.891	741.25
306.121	738.25
306.352	754.25
306.582	723.25
306.812	719.25
307.042	709.25
307.272	732.25
307.502	724.25
307.731	716.25
307.961	730.25
308.191	739.25
308.421	714.25
308.651	718.25
308.881	719.25
309.111	745.25
309.341	717.25
309.571	728.25
309.8	721.25
310.03	747.25
310.26	742.25
310.49	746.25
310.72	762.25
310.949	727.25
311.179	744.25
311.409	765.25
311.639	771.25
311.868	745.25
312.098	734.25
312.328	771.25
312.557	767.25
312.787	756.25
313.017	753.25
313.246	751.25
313.476	772.25
313.706	810.25
313.935	779.25
314.165	788.25
314.394	799.25
314.624	783.25
314.853	777.25
315.083	798.25
315.312	778.25
315.542	770.25
315.771	790.25
316.001	761.25
316.23	788.25
316.46	769.25
316.689	793.25
316.919	795.25
317.148	781.25
317.377	767.25
317.607	789.25
317.836	780.25
318.065	774.25
318.295	778.25
318.524	779.25
318.753	759.25
318.983	777.25
319.212	791.25
319.441	761.25
319.67	786.25
319.9	771.25
320.129	796.25
320.358	765.25
320.587	789.25
320.816	783.25
321.046	799.25
321.275	803.25
321.504	791.25
321.733	766.25
321.962	798.25
322.191	799.25
322.42	758.25
322.649	796.25
322.878	786.25
323.108	804.25
323.337	797.25
323.566	799.25
323.795	834.25
324.024	819.25
324.253	791.25
324.482	811.25
324.71	792.25
324.939	828.25
325.168	831.25
325.397	815.25
325.626	844.25
325.855	853.25
326.084	839.25
326.313	860.25
326.542	875.25
326.77	892.25
326.999	855.25
327.228	879.25
327.457	863.25
327.686	853.25
327.914	863.25
328.143	851.25
328.372	883.25
328.6	857.25
328.829	886.25
329.058	889.25
329.287	871.25
329.515	883.25
329.744	871.25
329.972	881.25
330.201	885.25
330.43	887.25
330.658	889.25
330.887	912.25
331.115	929.25
331.344	890.25
331.572	899.25
331.801	930.25
332.03	958.25
332.258	996.25
332.486	1018.25
332.715	1038.25
332.943	1113.25
333.172	1132.25
333.4	1190.25
333.629	1204.25
333.857	1207.25
334.085	1186.25
334.314	1157.25
334.542	1140.25
334.771	1088.25
334.999	1130.25
335.227	1110.25
335.455	1089.25
335.684	1080.25
335.912	1073.25
336.14	1039.25
336.369	1051.25
336.597	1081.25
336.825	1056.25
337.053	1033.25
337.281	1017.25
337.51	996.25
337.738	1000.25
337.966	972.25
338.194	945.25
338.422	944.25
338.65	938.25
338.878	962.25
339.106	946.25
339.334	926.25
339.562	896.25
339.79	899.25
340.018	923.25
340.246	922.25
340.474	890.25
340.702	907.25
340.93	883.25
341.158	914.25
341.386	901.25
341.614	927.25
341.842	901.25
342.07	894.25
342.298	880.25
342.526	898.25
342.754	905.25
342.981	932.25
343.209	916.25
343.437	970.25
343.665	1030.25
343.893	1083.25
344.12	1179.25
344.348	1055.25
344.576	1035.25
344.804	974.25
345.031	949.25
345.259	941.25
345.487	915.25
345.714	900.25
345.942	869.25
346.17	901.25
346.397	867.25
346.625	901.25
346.853	878.25
347.08	868.25
347.308	887.25
347.535	881.25
347.763	890.25
347.99	867.25
348.218	910.25
348.445	897.25
348.673	879.25
348.9	849.25
349.128	850.25
349.355	859.25
349.583	881.25
349.81	855.25
350.037	833.25
350.265	838.25
350.492	852.25
350.72	840.25
350.947	835.25
351.174	833.25
351.402	852.25
351.629	836.25
351.856	859.25
352.083	844.25
352.311	839.25
352.538	819.25
352.765	837.25
352.992	844.25
353.22	840.25
353.447	855.25
353.674	835.25
353.901	835.25
354.128	817.25
354.355	843.25
354.583	871.25
354.81	833.25
355.037	848.25
355.264	841.25
355.491	846.25
355.718	848.25
355.945	847.25
356.172	829.25
356.399	861.25
356.626	846.25
356.853	832.25
357.08	841.25
357.307	831.25
357.534	869.25
357.761	823.25
357.988	839.25
358.215	832.25
358.441	859.25
358.668	833.25
358.895	833.25
359.122	846.25
359.349	845.25
359.576	837.25
359.802	850.25
360.029	849.25
360.256	842.25
360.483	856.25
360.709	889.25
360.936	840.25
361.163	839.25
361.39	835.25
361.616	817.25
361.843	829.25
362.07	861.25
362.296	849.25
362.523	830.25
362.749	816.25
362.976	826.25
363.203	830.25
363.429	832.25
363.656	845.25
363.882	828.25
364.109	815.25
364.335	822.25
364.562	798.25
364.788	842.25
365.015	833.25
365.241	838.25
365.468	812.25
365.694	845.25
365.92	841.25
366.147	821.25
366.373	849.25
366.599	843.25
366.826	846.25
367.052	839.25
367.278	856.25
367.505	869.25
367.731	844.25
367.957	845.25
368.184	833.25
368.41	860.25
368.636	836.25
368.862	843.25
369.089	872.25
369.315	857.25
369.541	839.25
369.767	842.25
369.993	879.25
370.219	881.25
370.445	888.25
370.672	903.25
370.898	891.25
371.124	913.25
371.35	898.25
371.576	951.25
371.802	897.25
372.028	906.25
372.254	923.25
372.48	942.25
372.706	951.25
372.932	963.25
373.158	953.25
373.384	904.25
373.61	918.25
373.835	910.25
374.061	928.25
374.287	911.25
374.513	940.25
374.739	979.25
374.965	1008.25
375.191	984.25
375.416	1004.25
375.642	968.25
375.868	949.25
376.094	949.25
376.319	900.25
376.545	940.25
376.771	936.25
376.997	936.25
377.222	909.25
377.448	907.25
377.674	886.25
377.899	903.25
378.125	899.25
378.35	917.25
378.576	890.25
378.802	885.25
379.027	892.25
379.253	914.25
379.478	889.25
379.704	909.25
379.929	879.25
380.155	877.25
380.38	892.25
380.606	939.25
380.831	911.25
381.057	937.25
381.282	904.25
381.507	934.25
381.733	936.25
381.958	928.25
382.184	956.25
382.409	968.25
382.634	950.25
382.86	987.25
383.085	981.25
383.31	985.25
383.535	1000.25
383.761	1015.25
383.986	1035.25
384.211	1070.25
384.436	1094.25
384.662	1097.25
384.887	1131.25
385.112	1131.25
385.337	1129.25
385.562	1116.25
385.787	1091.25
386.013	1102.25
386.238	1132.25
386.463	1119.25
386.688	1116.25
386.913	1118.25
387.138	1106.25
387.363	1095.25
387.588	1095.25
387.813	1110.25
388.038	1080.25
388.263	1126.25
388.488	1117.25
388.713	1118.25
388.938	1071.25
389.163	1056.25
389.387	1088.25
389.612	1055.25
389.837	1064.25
390.062	1069.25
390.287	1078.25
390.512	1086.25
390.736	1082.25
390.961	1147.25
391.186	1129.25
391.411	1124.25
391.636	1186.25
391.86	1231.25
392.085	1271.25
392.31	1231.25
392.534	1191.25
392.759	1186.25
392.984	1151.25
393.208	1144.25
393.433	1106.25
393.658	1156.25
393.882	1196.25
394.107	1185.25
394.331	1200.25
394.556	1195.25
394.78	1179.25
395.005	1188.25
395.229	1168.25
395.454	1221.25
395.678	1262.25
395.903	1244.25
396.127	1242.25
396.352	1212.25
396.576	1161.25
396.801	1167.25
397.025	1185.25
397.249	1226.25
397.474	1227.25
397.698	1233.25
397.922	1207.25
398.147	1204.25
398.371	1282.25
398.595	1287.25
398.82	1376.25
399.044	1455.25
399.268	1677.25
399.492	1895.25
399.717	2187.25
399.941	2195.25
400.165	1892.25
400.389	1662.25
400.613	1537.25
400.837	1469.25
401.062	1396.25
401.286	1385.25
401.51	1379.25
401.734	1400.25
401.958	1388.25
402.182	1425.25
402.406	1426.25
402.63	1451.25
402.854	1480.25
403.078	1486.25
403.302	1556.25
403.526	1577.25
403.75	1630.25
403.974	1691.25
404.198	1639.25
404.422	1647.25
404.645	1665.25
404.869	1592.25
405.093	1535.25
405.317	1560.25
405.541	1569.25
405.765	1512.25
405.988	1545.25
406.212	1514.25
406.436	1515.25
406.66	1563.25
406.883	1565.25
407.107	1699.25
407.331	1801.25
407.555	1801.25
407.778	1820.25
408.002	1773.25
408.226	1709.25
408.449	1684.25
408.673	1612.25
408.896	1552.25
409.12	1581.25
409.344	1593.25
409.567	1580.25
409.791	1590.25
410.014	1581.25
410.238	1575.25
410.461	1555.25
410.685	1526.25
410.908	1519.25
411.132	1504.25
411.355	1488.25
411.578	1434.25
411.802	1431.25
412.025	1440.25
412.249	1467.25
412.472	1446.25
412.695	1405.25
412.919	1404.25
413.142	1406.25
413.365	1395.25
413.589	1402.25
413.812	1385.25
414.035	1355.25
414.258	1367.25
414.482	1398.25
414.705	1416.25
414.928	1417.25
415.151	1398.25
415.374	1415.25
415.597	1402.25
415.821	1338.25
416.044	1331.25
416.267	1352.25
416.49	1341.25
416.713	1375.25
416.936	1379.25
417.159	1378.25
417.382	1326.25
417.605	1320.25
417.828	1358.25
418.051	1390.25
418.274	1376.25
418.497	1379.25
418.72	1399.25
418.943	1418.25
419.166	1486.25
419.389	1589.25
419.611	1578.25
419.834	1485.25
420.057	1413.25
420.28	1389.25
420.503	1363.25
420.726	1340.25
420.948	1350.25
421.171	1378.25
421.394	1385.25
421.617	1372.25
421.839	1381.25
422.062	1393.25
422.285	1360.25
422.507	1439.25
422.73	1429.25
422.953	1408.25
423.175	1439.25
423.398	1482.25
423.621	1480.25
423.843	1462.25
424.066	1487.25
424.288	1504.25
424.511	1481.25
424.733	1434.25
424.956	1392.25
425.178	1405.25
425.401	1359.25
425.623	1406.25
425.846	1311.25
426.068	1304.25
426.291	1302.25
426.513	1269.25
426.735	1295.25
426.958	1260.25
427.18	1223.25
427.402	1249.25
427.625	1232.25
427.847	1203.25
428.069	1194.25
428.292	1223.25
428.514	1198.25
428.736	1148.25
428.958	1230.25
429.181	1198.25
429.403	1165.25
429.625	1155.25
429.847	1173.25
430.069	1150.25
430.292	1175.25
430.514	1134.25
430.736	1175.25
430.958	1164.25
431.18	1186.25
431.402	1185.25
431.624	1186.25
431.846	1235.25
432.068	1229.25
432.29	1235.25
432.512	1191.25
432.734	1197.25
432.956	1178.25
433.178	1229.25
433.4	1235.25
433.622	1200.25
433.844	1253.25
434.066	1243.25
434.287	1255.25
434.509	1301.25
434.731	1353.25
434.953	1378.25
435.175	1393.25
435.397	1387.25
435.618	1296.25
435.84	1260.25
436.062	1240.25
436.284	1222.25
436.505	1210.25
436.727	1187.25
436.949	1200.25
437.17	1229.25
437.392	1217.25
437.614	1232.25
437.835	1153.25
438.057	1173.25
438.278	1141.25
438.5	1144.25
438.721	1165.25
438.943	1191.25
439.165	1163.25
439.386	1199.25
439.608	1234.25
439.829	1183.25
440.05	1187.25
440.272	1224.25
440.493	1209.25
440.715	1250.25
440.936	1276.25
441.158	1297.25
441.379	1320.25
441.6	1374.25
441.822	1402.25
442.043	1388.25
442.264	1365.25
442.486	1317.25
442.707	1341.25
442.928	1335.25
443.149	1355.25
443.371	1345.25
443.592	1377.25
443.813	1383.25
444.034	1405.25
444.255	1432.25
444.476	1495.25
444.698	1564.25
444.919	1639.25
445.14	1701.25
445.361	1545.25
445.582	1409.25
445.803	1348.25
446.024	1285.25
446.245	1260.25
446.466	1270.25
446.687	1200.25
446.908	1228.25
447.129	1206.25
447.35	1160.25
447.571	1171.25
447.792	1159.25
448.013	1145.25
448.234	1104.25
448.455	1128.25
448.675	1100.25
448.896	1121.25
449.117	1071.25
449.338	1084.25
449.559	1109.25
449.779	1102.25
450	1094.25
450.221	1093.25
450.442	1103.25
450.662	1138.25
450.883	1121.25
451.104	1121.25
451.324	1118.25
451.545	1160.25
451.766	1120.25
451.986	1111.25
452.207	1125.25
452.428	1084.25
452.648	1101.25
452.869	1102.25
453.089	1069.25
453.31	1100.25
453.53	1070.25
453.751	1096.25
453.971	1049.25
454.192	1059.25
454.412	1055.25
454.633	1055.25
454.853	1067.25
455.073	1014.25
455.294	1037.25
455.514	1023.25
455.734	1063.25
455.955	1030.25
456.175	1037.25
456.395	1039.25
456.616	986.25
456.836	1005.25
457.056	1004.25
457.276	1024.25
457.497	1040.25
457.717	1034.25
457.937	1028.25
458.157	1063.25
458.377	1032.25
458.598	1107.25
458.818	1121.25
459.038	1123.25
459.258	1157.25
459.478	1239.25
459.698	1279.25
459.918	1289.25
460.138	1365.25
460.358	1436.25
460.578	1464.25
460.798	1459.25
461.018	1425.25
461.238	1439.25
461.458	1429.25
461.678	1431.25
461.898	1434.25
462.118	1460.25
462.338	1563.25
462.558	1565.25
462.777	1613.25
462.997	1790.25
463.217	2011.25
463.437	1951.25
463.657	1791.25
463.876	1685.25
464.096	1703.25
464.316	1654.25
464.536	1716.25
464.755	1593.25
464.975	1580.25
465.195	1473.25
465.414	1410.25
465.634	1308.25
465.854	1258.25
466.073	1221.25
466.293	1185.25
466.512	1189.25
466.732	1178.25
466.951	1169.25
467.171	1166.25
467.391	1167.25
467.61	1171.25
467.829	1151.25
468.049	1154.25
468.268	1132.25
468.488	1085.25
468.707	1107.25
468.927	1094.25
469.146	1123.25
469.365	1124.25
469.585	1123.25
469.804	1141.25
470.023	1141.25
470.243	1195.25
470.462	1221.25
470.681	1218.25
470.901	1228.25
471.12	1187.25
471.339	1190.25
471.558	1098.25
471.777	1112.25
471.997	1134.25
472.216	1128.25
472.435	1112.25
472.654	1075.25
472.873	1089.25
473.092	1051.25
473.311	1067.25
473.53	1108.25
473.749	1064.25
473.968	1064.25
474.187	1078.25
474.406	1071.25
474.625	1080.25
474.844	1031.25
475.063	1097.25
475.282	1087.25
475.501	1084.25
475.72	1108.25
475.939	1105.25
476.158	1131.25
476.377	1112.25
476.596	1122.25
476.814	1136.25
477.033	1120.25
477.252	1150.25
477.471	1189.25
477.69	1205.25
477.908	1203.25
478.127	1270.25
478.346	1291.25
478.564	1322.25
478.783	1364.25
479.002	1403.25
479.22	1365.25
479.439	1375.25
479.658	1372.25
479.876	1360.25
480.095	1347.25
480.313	1493.25
480.532	1485.25
480.751	1504.25
480.969	1428.25
481.188	1325.25
481.406	1353.25
481.624	1281.25
481.843	1245.25
482.061	1279.25
482.28	1240.25
482.498	1227.25
482.717	1225.25
482.935	1259.25
483.153	1235.25
483.372	1232.25
483.59	1267.25
483.808	1203.25
484.027	1255.25
484.245	1233.25
484.463	1268.25
484.681	1285.25
484.9	1304.25
485.118	1279.25
485.336	1323.25
485.554	1315.25
485.772	1310.25
485.99	1333.25
486.209	1349.25
486.427	1349.25
486.645	1343.25
486.863	1325.25
487.081	1293.25
487.299	1320.25
487.517	1303.25
487.735	1319.25
487.953	1345.25
488.171	1342.25
488.389	1350.25
488.607	1314.25
488.825	1275.25
489.043	1262.25
489.261	1259.25
489.479	1280.25
489.696	1297.25
489.914	1309.25
490.132	1307.25
490.35	1302.25
490.568	1312.25
490.786	1321.25
491.003	1317.25
491.221	1294.25
491.439	1297.25
491.657	1289.25
491.874	1292.25
492.092	1296.25
492.31	1312.25
492.527	1294.25
492.745	1346.25
492.963	1304.25
493.18	1309.25
493.398	1332.25
493.615	1318.25
493.833	1383.25
494.05	1351.25
494.268	1382.25
