Data from Ni(NO3)2Standard.Agarose3%.GreenCap.LampEnergy5.5.E.O_HRD10591_14-40-20-188.txt Node
Date: Mon Jul 22 14:40:20 EDT 2019
User: cochatt
Spectrometer: HR+D1059
Trigger mode: 1
Integration Time (sec): 1.000000E-1
Scans to average: 1
Electric dark correction enabled: true
Nonlinearity correction enabled: false
Boxcar width: 0
XAxis mode: Wavelengths
Number of Pixels in Spectrum: 2048
>>>>>Begin Spectral Data<<<<<
223.165	-22.56
223.4	-22.56
223.635	-22.56
223.869	-18.56
224.104	-15.56
224.338	-20.56
224.573	-22.56
224.808	-24.56
225.042	-0.56
225.277	-1.56
225.511	-2.56
225.746	3.44
225.98	7.44
226.215	18.44
226.449	29.44
226.683	19.44
226.918	22.44
227.152	28.44
227.387	46.44
227.621	22.44
227.856	36.44
228.09	55.44
228.324	57.44
228.559	44.44
228.793	71.44
229.027	70.44
229.262	62.44
229.496	68.44
229.73	71.44
229.964	72.44
230.199	69.44
230.433	68.44
230.667	73.44
230.901	83.44
231.136	75.44
231.37	80.44
231.604	81.44
231.838	84.44
232.072	73.44
232.306	63.44
232.541	76.44
232.775	85.44
233.009	69.44
233.243	80.44
233.477	70.44
233.711	90.44
233.945	88.44
234.179	84.44
234.413	79.44
234.647	79.44
234.881	96.44
235.115	100.44
235.349	79.44
235.583	83.44
235.817	81.44
236.051	83.44
236.285	90.44
236.519	77.44
236.753	87.44
236.987	77.44
237.221	68.44
237.455	79.44
237.689	85.44
237.922	83.44
238.156	77.44
238.39	77.44
238.624	82.44
238.858	70.44
239.091	80.44
239.325	82.44
239.559	69.44
239.793	92.44
240.027	80.44
240.26	82.44
240.494	74.44
240.728	72.44
240.961	65.44
241.195	77.44
241.429	63.44
241.662	86.44
241.896	77.44
242.13	75.44
242.363	78.44
242.597	76.44
242.83	95.44
243.064	72.44
243.298	75.44
243.531	84.44
243.765	79.44
243.998	82.44
244.232	72.44
244.465	83.44
244.699	90.44
244.932	80.44
245.166	68.44
245.399	81.44
245.633	70.44
245.866	80.44
246.099	71.44
246.333	69.44
246.566	79.44
246.8	82.44
247.033	72.44
247.266	77.44
247.5	73.44
247.733	74.44
247.966	88.44
248.2	65.44
248.433	86.44
248.666	79.44
248.899	76.44
249.133	75.44
249.366	85.44
249.599	82.44
249.832	76.44
250.066	75.44
250.299	77.44
250.532	73.44
250.765	87.44
250.998	77.44
251.231	78.44
251.465	72.44
251.698	76.44
251.931	79.44
252.164	87.44
252.397	81.44
252.63	89.44
252.863	77.44
253.096	75.44
253.329	71.44
253.562	77.44
253.795	70.44
254.028	80.44
254.261	87.44
254.494	83.44
254.727	81.44
254.96	86.44
255.193	75.44
255.426	89.44
255.659	72.44
255.892	82.44
256.124	75.44
256.357	85.44
256.59	84.44
256.823	78.44
257.056	86.44
257.289	91.44
257.521	68.44
257.754	88.44
257.987	75.44
258.22	95.44
258.452	69.44
258.685	79.44
258.918	69.44
259.151	79.44
259.383	78.44
259.616	70.44
259.849	74.44
260.081	87.44
260.314	73.44
260.547	87.44
260.779	94.44
261.012	82.44
261.244	94.44
261.477	88.44
261.71	87.44
261.942	67.44
262.175	63.44
262.407	89.44
262.64	88.44
262.872	79.44
263.105	78.44
263.337	75.44
263.57	93.44
263.802	73.44
264.035	69.44
264.267	74.44
264.499	76.44
264.732	78.44
264.964	75.44
265.197	80.44
265.429	77.44
265.661	76.44
265.894	69.44
266.126	90.44
266.358	94.44
266.591	77.44
266.823	71.44
267.055	95.44
267.287	86.44
267.52	85.44
267.752	84.44
267.984	90.44
268.216	78.44
268.448	85.44
268.681	84.44
268.913	82.44
269.145	81.44
269.377	89.44
269.609	79.44
269.841	83.44
270.073	77.44
270.306	71.44
270.538	76.44
270.77	89.44
271.002	80.44
271.234	75.44
271.466	95.44
271.698	87.44
271.93	91.44
272.162	93.44
272.394	88.44
272.626	92.44
272.858	88.44
273.09	80.44
273.322	91.44
273.553	108.44
273.785	85.44
274.017	81.44
274.249	71.44
274.481	86.44
274.713	83.44
274.945	88.44
275.176	86.44
275.408	91.44
275.64	72.44
275.872	97.44
276.104	78.44
276.335	86.44
276.567	72.44
276.799	85.44
277.031	88.44
277.262	88.44
277.494	95.44
277.726	93.44
277.957	82.44
278.189	74.44
278.421	84.44
278.652	91.44
278.884	86.44
279.115	91.44
279.347	84.44
279.579	77.44
279.81	82.44
280.042	93.44
280.273	87.44
280.505	91.44
280.736	84.44
280.968	81.44
281.199	74.44
281.431	79.44
281.662	82.44
281.894	89.44
282.125	84.44
282.356	96.44
282.588	97.44
282.819	84.44
283.051	84.44
283.282	87.44
283.513	93.44
283.745	93.44
283.976	103.44
284.207	89.44
284.439	87.44
284.67	87.44
284.901	83.44
285.132	93.44
285.364	101.44
285.595	84.44
285.826	84.44
286.057	103.44
286.288	95.44
286.52	77.44
286.751	81.44
286.982	78.44
287.213	98.44
287.444	82.44
287.675	86.44
287.906	96.44
288.138	95.44
288.369	80.44
288.6	70.44
288.831	83.44
289.062	78.44
289.293	91.44
289.524	87.44
289.755	84.44
289.986	83.44
290.217	79.44
290.448	82.44
290.679	90.44
290.91	95.44
291.141	87.44
291.371	82.44
291.602	90.44
291.833	79.44
292.064	88.44
292.295	78.44
292.526	95.44
292.757	66.44
292.987	80.44
293.218	75.44
293.449	82.44
293.68	87.44
293.91	75.44
294.141	103.44
294.372	83.44
294.603	90.44
294.833	88.44
295.064	90.44
295.295	105.44
295.525	89.44
295.756	101.44
295.987	85.44
296.217	88.44
296.448	90.44
296.679	79.44
296.909	93.44
297.14	81.44
297.37	79.44
297.601	96.44
297.831	94.44
298.062	95.44
298.292	75.44
298.523	83.44
298.753	76.44
298.984	85.44
299.214	83.44
299.445	86.44
299.675	87.44
299.905	82.44
300.136	87.44
300.366	74.44
300.597	78.44
300.827	85.44
301.057	72.44
301.288	85.44
301.518	89.44
301.748	95.44
301.979	86.44
302.209	84.44
302.439	72.44
302.669	83.44
302.9	81.44
303.13	76.44
303.36	90.44
303.59	94.44
303.82	92.44
304.051	95.44
304.281	84.44
304.511	87.44
304.741	87.44
304.971	74.44
305.201	87.44
305.431	81.44
305.661	76.44
305.891	90.44
306.121	74.44
306.352	84.44
306.582	81.44
306.812	82.44
307.042	75.44
307.272	88.44
307.502	89.44
307.731	77.44
307.961	68.44
308.191	81.44
308.421	73.44
308.651	80.44
308.881	90.44
309.111	75.44
309.341	85.44
309.571	83.44
309.8	85.44
310.03	85.44
310.26	85.44
310.49	79.44
310.72	87.44
310.949	82.44
311.179	77.44
311.409	97.44
311.639	87.44
311.868	73.44
312.098	84.44
312.328	88.44
312.557	90.44
312.787	86.44
313.017	83.44
313.246	82.44
313.476	82.44
313.706	95.44
313.935	83.44
314.165	96.44
314.394	93.44
314.624	92.44
314.853	90.44
315.083	90.44
315.312	74.44
315.542	76.44
315.771	94.44
316.001	95.44
316.23	91.44
316.46	80.44
316.689	79.44
316.919	77.44
317.148	85.44
317.377	86.44
317.607	83.44
317.836	87.44
318.065	112.44
318.295	80.44
318.524	95.44
318.753	82.44
318.983	94.44
319.212	83.44
319.441	87.44
319.67	86.44
319.9	90.44
320.129	89.44
320.358	83.44
320.587	87.44
320.816	92.44
321.046	88.44
321.275	89.44
321.504	98.44
321.733	85.44
321.962	90.44
322.191	86.44
322.42	81.44
322.649	77.44
322.878	84.44
323.108	91.44
323.337	83.44
323.566	88.44
323.795	94.44
324.024	93.44
324.253	80.44
324.482	97.44
324.71	86.44
324.939	83.44
325.168	102.44
325.397	87.44
325.626	82.44
325.855	109.44
326.084	95.44
326.313	93.44
326.542	95.44
326.77	81.44
326.999	86.44
327.228	96.44
327.457	85.44
327.686	89.44
327.914	79.44
328.143	86.44
328.372	86.44
328.6	92.44
328.829	77.44
329.058	95.44
329.287	86.44
329.515	98.44
329.744	85.44
329.972	81.44
330.201	85.44
330.43	87.44
330.658	90.44
330.887	69.44
331.115	85.44
331.344	79.44
331.572	75.44
331.801	83.44
332.03	87.44
332.258	95.44
332.486	82.44
332.715	89.44
332.943	91.44
333.172	95.44
333.4	87.44
333.629	97.44
333.857	97.44
334.085	79.44
334.314	83.44
334.542	85.44
334.771	90.44
334.999	90.44
335.227	91.44
335.455	79.44
335.684	85.44
335.912	95.44
336.14	89.44
336.369	91.44
336.597	88.44
336.825	85.44
337.053	71.44
337.281	82.44
337.51	91.44
337.738	88.44
337.966	78.44
338.194	79.44
338.422	80.44
338.65	95.44
338.878	93.44
339.106	76.44
339.334	86.44
339.562	108.44
339.79	86.44
340.018	78.44
340.246	87.44
340.474	96.44
340.702	98.44
340.93	94.44
341.158	98.44
341.386	100.44
341.614	86.44
341.842	76.44
342.07	78.44
342.298	83.44
342.526	78.44
342.754	83.44
342.981	92.44
343.209	95.44
343.437	81.44
343.665	82.44
343.893	88.44
344.12	76.44
344.348	105.44
344.576	88.44
344.804	100.44
345.031	82.44
345.259	90.44
345.487	72.44
345.714	78.44
345.942	82.44
346.17	86.44
346.397	84.44
346.625	95.44
346.853	84.44
347.08	93.44
347.308	85.44
347.535	91.44
347.763	88.44
347.99	94.44
348.218	86.44
348.445	87.44
348.673	89.44
348.9	85.44
349.128	88.44
349.355	95.44
349.583	83.44
349.81	76.44
350.037	86.44
350.265	89.44
350.492	87.44
350.72	82.44
350.947	78.44
351.174	92.44
351.402	75.44
351.629	90.44
351.856	86.44
352.083	92.44
352.311	92.44
352.538	90.44
352.765	85.44
352.992	81.44
353.22	85.44
353.447	80.44
353.674	74.44
353.901	89.44
354.128	77.44
354.355	75.44
354.583	87.44
354.81	91.44
355.037	77.44
355.264	82.44
355.491	95.44
355.718	83.44
355.945	100.44
356.172	90.44
356.399	87.44
356.626	98.44
356.853	77.44
357.08	82.44
357.307	89.44
357.534	77.44
357.761	77.44
357.988	83.44
358.215	86.44
358.441	98.44
358.668	96.44
358.895	79.44
359.122	65.44
359.349	97.44
359.576	86.44
359.802	94.44
360.029	90.44
360.256	83.44
360.483	76.44
360.709	88.44
360.936	99.44
361.163	94.44
361.39	84.44
361.616	91.44
361.843	87.44
362.07	86.44
362.296	80.44
362.523	85.44
362.749	92.44
362.976	82.44
363.203	84.44
363.429	85.44
363.656	88.44
363.882	86.44
364.109	100.44
364.335	74.44
364.562	84.44
364.788	85.44
365.015	92.44
365.241	89.44
365.468	80.44
365.694	83.44
365.92	73.44
366.147	84.44
366.373	81.44
366.599	84.44
366.826	87.44
367.052	90.44
367.278	77.44
367.505	76.44
367.731	87.44
367.957	85.44
368.184	93.44
368.41	84.44
368.636	88.44
368.862	92.44
369.089	78.44
369.315	77.44
369.541	97.44
369.767	88.44
369.993	84.44
370.219	73.44
370.445	87.44
370.672	85.44
370.898	93.44
371.124	99.44
371.35	96.44
371.576	101.44
371.802	81.44
372.028	86.44
372.254	82.44
372.48	77.44
372.706	81.44
372.932	70.44
373.158	73.44
373.384	79.44
373.61	96.44
373.835	91.44
374.061	82.44
374.287	77.44
374.513	86.44
374.739	77.44
374.965	75.44
375.191	89.44
375.416	79.44
375.642	75.44
375.868	89.44
376.094	76.44
376.319	93.44
376.545	73.44
376.771	90.44
376.997	71.44
377.222	82.44
377.448	91.44
377.674	107.44
377.899	84.44
378.125	68.44
378.35	83.44
378.576	81.44
378.802	88.44
379.027	84.44
379.253	93.44
379.478	88.44
379.704	88.44
379.929	91.44
380.155	90.44
380.38	90.44
380.606	80.44
380.831	78.44
381.057	70.44
381.282	83.44
381.507	73.44
381.733	86.44
381.958	94.44
382.184	89.44
382.409	89.44
382.634	78.44
382.86	81.44
383.085	92.44
383.31	101.44
383.535	97.44
383.761	81.44
383.986	90.44
384.211	83.44
384.436	74.44
384.662	85.44
384.887	75.44
385.112	81.44
385.337	93.44
385.562	78.44
385.787	90.44
386.013	101.44
386.238	77.44
386.463	85.44
386.688	87.44
386.913	87.44
387.138	100.44
387.363	82.44
387.588	83.44
387.813	86.44
388.038	95.44
388.263	76.44
388.488	94.44
388.713	74.44
388.938	77.44
389.163	74.44
389.387	78.44
389.612	96.44
389.837	78.44
390.062	91.44
390.287	88.44
390.512	95.44
390.736	95.44
390.961	92.44
391.186	87.44
391.411	82.44
391.636	85.44
391.86	59.44
392.085	89.44
392.31	87.44
392.534	90.44
392.759	88.44
392.984	96.44
393.208	79.44
393.433	85.44
393.658	91.44
393.882	86.44
394.107	98.44
394.331	85.44
394.556	81.44
394.78	86.44
395.005	86.44
395.229	72.44
395.454	82.44
395.678	79.44
395.903	68.44
396.127	100.44
396.352	86.44
396.576	77.44
396.801	77.44
397.025	78.44
397.249	82.44
397.474	82.44
397.698	106.44
397.922	74.44
398.147	98.44
398.371	73.44
398.595	78.44
398.82	77.44
399.044	84.44
399.268	92.44
399.492	91.44
399.717	85.44
399.941	79.44
400.165	96.44
400.389	73.44
400.613	89.44
400.837	97.44
401.062	102.44
401.286	95.44
401.51	93.44
401.734	72.44
401.958	83.44
402.182	85.44
402.406	92.44
402.63	83.44
402.854	78.44
403.078	80.44
403.302	89.44
403.526	78.44
403.75	83.44
403.974	87.44
404.198	82.44
404.422	96.44
404.645	105.44
404.869	78.44
405.093	80.44
405.317	86.44
405.541	85.44
405.765	91.44
405.988	83.44
406.212	74.44
406.436	89.44
406.66	85.44
406.883	81.44
407.107	83.44
407.331	79.44
407.555	84.44
407.778	83.44
408.002	82.44
408.226	101.44
408.449	89.44
408.673	78.44
408.896	98.44
409.12	88.44
409.344	98.44
409.567	94.44
409.791	83.44
410.014	79.44
410.238	76.44
410.461	75.44
410.685	79.44
410.908	66.44
411.132	90.44
411.355	87.44
411.578	101.44
411.802	79.44
412.025	84.44
412.249	84.44
412.472	82.44
412.695	109.44
412.919	81.44
413.142	99.44
413.365	105.44
413.589	96.44
413.812	77.44
414.035	93.44
414.258	98.44
414.482	87.44
414.705	84.44
414.928	80.44
415.151	95.44
415.374	92.44
415.597	83.44
415.821	86.44
416.044	89.44
416.267	75.44
416.49	76.44
416.713	82.44
416.936	88.44
417.159	94.44
417.382	93.44
417.605	86.44
417.828	74.44
418.051	85.44
418.274	100.44
418.497	83.44
418.72	73.44
418.943	92.44
419.166	93.44
419.389	102.44
419.611	77.44
419.834	100.44
420.057	85.44
420.28	80.44
420.503	81.44
420.726	86.44
420.948	82.44
421.171	83.44
421.394	83.44
421.617	91.44
421.839	85.44
422.062	84.44
422.285	86.44
422.507	92.44
422.73	93.44
422.953	67.44
423.175	101.44
423.398	88.44
423.621	89.44
423.843	88.44
424.066	79.44
424.288	89.44
424.511	93.44
424.733	79.44
424.956	93.44
425.178	81.44
425.401	83.44
425.623	98.44
425.846	76.44
426.068	82.44
426.291	90.44
426.513	93.44
426.735	90.44
426.958	113.44
427.18	93.44
427.402	103.44
427.625	91.44
427.847	82.44
428.069	75.44
428.292	83.44
428.514	90.44
428.736	90.44
428.958	78.44
429.181	85.44
429.403	93.44
429.625	74.44
429.847	75.44
430.069	89.44
430.292	102.44
430.514	76.44
430.736	94.44
430.958	73.44
431.18	96.44
431.402	89.44
431.624	91.44
431.846	88.44
432.068	82.44
432.29	77.44
432.512	90.44
432.734	113.44
432.956	90.44
433.178	84.44
433.4	74.44
433.622	84.44
433.844	82.44
434.066	85.44
434.287	88.44
434.509	96.44
434.731	89.44
434.953	83.44
435.175	78.44
435.397	81.44
435.618	76.44
435.84	93.44
436.062	86.44
436.284	91.44
436.505	86.44
436.727	86.44
436.949	77.44
437.17	100.44
437.392	92.44
437.614	73.44
437.835	86.44
438.057	87.44
438.278	71.44
438.5	69.44
438.721	82.44
438.943	77.44
439.165	74.44
439.386	87.44
439.608	77.44
439.829	84.44
440.05	89.44
440.272	97.44
440.493	83.44
440.715	86.44
440.936	89.44
441.158	88.44
441.379	80.44
441.6	93.44
441.822	85.44
442.043	96.44
442.264	95.44
442.486	89.44
442.707	88.44
442.928	86.44
443.149	87.44
443.371	92.44
443.592	82.44
443.813	82.44
444.034	83.44
444.255	94.44
444.476	91.44
444.698	90.44
444.919	78.44
445.14	207.44
445.361	147.44
445.582	75.44
445.803	80.44
446.024	81.44
446.245	93.44
446.466	111.44
446.687	92.44
446.908	77.44
447.129	87.44
447.35	100.44
447.571	96.44
447.792	92.44
448.013	93.44
448.234	85.44
448.455	89.44
448.675	88.44
448.896	79.44
449.117	85.44
449.338	89.44
449.559	82.44
449.779	77.44
450	84.44
450.221	71.44
450.442	79.44
450.662	99.44
450.883	89.44
451.104	76.44
451.324	78.44
451.545	78.44
451.766	85.44
451.986	91.44
452.207	78.44
452.428	92.44
452.648	87.44
452.869	111.44
453.089	82.44
453.31	82.44
453.53	75.44
453.751	74.44
453.971	77.44
454.192	96.44
454.412	80.44
454.633	85.44
454.853	82.44
455.073	81.44
455.294	77.44
455.514	92.44
455.734	77.44
455.955	91.44
456.175	68.44
456.395	73.44
456.616	85.44
456.836	83.44
457.056	98.44
457.276	88.44
457.497	89.44
457.717	88.44
457.937	84.44
458.157	84.44
458.377	87.44
458.598	68.44
458.818	83.44
459.038	80.44
459.258	81.44
459.478	82.44
459.698	95.44
459.918	84.44
460.138	77.44
460.358	71.44
460.578	85.44
460.798	103.44
461.018	78.44
461.238	91.44
461.458	89.44
461.678	89.44
461.898	89.44
462.118	85.44
462.338	82.44
462.558	85.44
462.777	92.44
462.997	70.44
463.217	91.44
463.437	81.44
463.657	92.44
463.876	86.44
464.096	89.44
464.316	95.44
464.536	90.44
464.755	104.44
464.975	91.44
465.195	96.44
465.414	97.44
465.634	105.44
465.854	90.44
466.073	80.44
466.293	75.44
466.512	97.44
466.732	85.44
466.951	75.44
467.171	88.44
467.391	85.44
467.61	88.44
467.829	93.44
468.049	93.44
468.268	84.44
468.488	96.44
468.707	89.44
468.927	89.44
469.146	101.44
469.365	100.44
469.585	82.44
469.804	92.44
470.023	98.44
470.243	86.44
470.462	82.44
470.681	80.44
470.901	94.44
471.12	89.44
471.339	86.44
471.558	86.44
471.777	89.44
471.997	92.44
472.216	95.44
472.435	90.44
472.654	80.44
472.873	91.44
473.092	93.44
473.311	89.44
473.53	72.44
473.749	93.44
473.968	89.44
474.187	99.44
474.406	89.44
474.625	92.44
474.844	81.44
475.063	83.44
475.282	86.44
475.501	86.44
475.72	95.44
475.939	96.44
476.158	79.44
476.377	93.44
476.596	88.44
476.814	92.44
477.033	96.44
477.252	95.44
477.471	81.44
477.69	90.44
477.908	92.44
478.127	90.44
478.346	91.44
478.564	84.44
478.783	94.44
479.002	92.44
479.22	95.44
479.439	93.44
479.658	100.44
479.876	91.44
480.095	95.44
480.313	78.44
480.532	84.44
480.751	87.44
480.969	95.44
481.188	92.44
481.406	81.44
481.624	91.44
481.843	98.44
482.061	96.44
482.28	82.44
482.498	86.44
482.717	90.44
482.935	92.44
483.153	97.44
483.372	92.44
483.59	95.44
483.808	92.44
484.027	90.44
484.245	100.44
484.463	106.44
484.681	95.44
484.9	100.44
485.118	97.44
485.336	95.44
485.554	71.44
485.772	95.44
485.99	100.44
486.209	89.44
486.427	100.44
486.645	92.44
486.863	98.44
487.081	100.44
487.299	94.44
487.517	82.44
487.735	94.44
487.953	82.44
488.171	95.44
488.389	116.44
488.607	87.44
488.825	97.44
489.043	104.44
489.261	100.44
489.479	93.44
489.696	90.44
489.914	87.44
490.132	99.44
490.35	108.44
490.568	91.44
490.786	90.44
491.003	95.44
491.221	86.44
491.439	77.44
491.657	104.44
491.874	104.44
492.092	87.44
492.31	87.44
492.527	95.44
492.745	97.44
492.963	102.44
493.18	104.44
493.398	94.44
493.615	90.44
493.833	87.44
494.05	87.44
494.268	93.44
494.485	102.44
494.703	95.44
494.92	89.44
495.138	98.44
495.355	103.44
495.573	109.44
495.79	85.44
496.008	88.44
496.225	115.44
496.442	95.44
496.66	93.44
496.877	95.44
497.094	82.44
497.312	85.44
497.529	101.44
497.746	105.44
497.963	100.44
498.181	93.44
498.398	77.44
498.615	103.44
498.832	101.44
499.049	105.44
499.267	103.44
499.484	98.44
499.701	110.44
499.918	103.44
500.135	112.44
500.352	129.44
500.569	102.44
500.786	118.44
501.003	117.44
501.22	110.44
501.437	93.44
501.654	107.44
501.871	114.44
502.088	88.44
502.305	88.44
502.522	98.44
502.739	106.44
502.956	107.44
503.172	94.44
503.389	103.44
503.606	80.44
503.823	95.44
504.04	97.44
504.256	82.44
504.473	85.44
504.69	86.44
504.907	92.44
505.123	88.44
505.34	83.44
505.557	97.44
505.773	92.44
505.99	94.44
506.207	93.44
506.423	85.44
506.64	100.44
506.856	104.44
507.073	99.44
507.289	102.44
507.506	106.44
507.722	91.44
507.939	89.44
508.155	94.44
508.372	100.44
508.588	98.44
508.805	99.44
509.021	91.44
509.238	96.44
509.454	86.44
509.67	94.44
509.887	91.44
510.103	85.44
510.319	94.44
510.536	86.44
510.752	95.44
510.968	99.44
511.184	90.44
511.401	100.44
511.617	97.44
511.833	92.44
512.049	93.44
512.265	90.44
512.481	99.44
512.698	116.44
512.914	92.44
513.13	107.44
513.346	78.44
513.562	82.44
513.778	90.44
513.994	86.44
514.21	81.44
514.426	84.44
514.642	104.44
514.858	84.44
515.074	98.44
515.29	100.44
515.506	90.44
515.721	95.44
515.937	89.44
516.153	103.44
516.369	90.44
516.585	100.44
516.801	79.44
517.016	86.44
517.232	95.44
517.448	92.44
517.664	93.44
517.879	98.44
518.095	89.44
