Data from Ni(NO3)2@0.0625M.TitratingCurve.Agarose3%dH2O.NegLispCup.LampEnergy10.LIBS07252019_HRD10591_18-15-22-569.txt Node
Date: Thu Jul 25 18:15:22 EDT 2019
User: cochatt
Spectrometer: HR+D1059
Trigger mode: 1
Integration Time (sec): 1.000000E-1
Scans to average: 1
Electric dark correction enabled: true
Nonlinearity correction enabled: false
Boxcar width: 0
XAxis mode: Wavelengths
Number of Pixels in Spectrum: 2048
>>>>>Begin Spectral Data<<<<<
223.165	-25.44
223.4	-25.44
223.635	-25.44
223.869	-9.44
224.104	-21.44
224.338	-16.44
224.573	-7.44
224.808	-15.44
225.042	0.56
225.277	-10.44
225.511	-14.44
225.746	1.56
225.98	12.56
226.215	18.56
226.449	12.56
226.683	16.56
226.918	32.56
227.152	25.56
227.387	48.56
227.621	36.56
227.856	56.56
228.09	64.56
228.324	41.56
228.559	56.56
228.793	75.56
229.027	103.56
229.262	114.56
229.496	116.56
229.73	112.56
229.964	135.56
230.199	131.56
230.433	125.56
230.667	107.56
230.901	133.56
231.136	126.56
231.37	134.56
231.604	132.56
231.838	135.56
232.072	129.56
232.306	149.56
232.541	139.56
232.775	148.56
233.009	151.56
233.243	152.56
233.477	142.56
233.711	159.56
233.945	142.56
234.179	143.56
234.413	145.56
234.647	148.56
234.881	137.56
235.115	148.56
235.349	156.56
235.583	155.56
235.817	161.56
236.051	151.56
236.285	151.56
236.519	176.56
236.753	162.56
236.987	167.56
237.221	176.56
237.455	158.56
237.689	167.56
237.922	180.56
238.156	158.56
238.39	157.56
238.624	168.56
238.858	166.56
239.091	178.56
239.325	167.56
239.559	168.56
239.793	175.56
240.027	173.56
240.26	166.56
240.494	180.56
240.728	183.56
240.961	197.56
241.195	188.56
241.429	188.56
241.662	174.56
241.896	184.56
242.13	181.56
242.363	187.56
242.597	195.56
242.83	201.56
243.064	197.56
243.298	216.56
243.531	197.56
243.765	198.56
243.998	206.56
244.232	200.56
244.465	209.56
244.699	219.56
244.932	208.56
245.166	235.56
245.399	198.56
245.633	219.56
245.866	229.56
246.099	212.56
246.333	222.56
246.566	236.56
246.8	227.56
247.033	226.56
247.266	236.56
247.5	218.56
247.733	222.56
247.966	233.56
248.2	233.56
248.433	235.56
248.666	222.56
248.899	253.56
249.133	245.56
249.366	232.56
249.599	234.56
249.832	245.56
250.066	243.56
250.299	261.56
250.532	248.56
250.765	258.56
250.998	264.56
251.231	241.56
251.465	242.56
251.698	262.56
251.931	266.56
252.164	265.56
252.397	248.56
252.63	263.56
252.863	274.56
253.096	264.56
253.329	268.56
253.562	263.56
253.795	268.56
254.028	263.56
254.261	264.56
254.494	272.56
254.727	274.56
254.96	282.56
255.193	286.56
255.426	288.56
255.659	284.56
255.892	278.56
256.124	269.56
256.357	294.56
256.59	288.56
256.823	293.56
257.056	308.56
257.289	285.56
257.521	286.56
257.754	289.56
257.987	307.56
258.22	293.56
258.452	294.56
258.685	312.56
258.918	300.56
259.151	297.56
259.383	305.56
259.616	299.56
259.849	318.56
260.081	316.56
260.314	300.56
260.547	301.56
260.779	313.56
261.012	309.56
261.244	323.56
261.477	322.56
261.71	318.56
261.942	325.56
262.175	318.56
262.407	320.56
262.64	321.56
262.872	321.56
263.105	325.56
263.337	332.56
263.57	341.56
263.802	335.56
264.035	348.56
264.267	347.56
264.499	321.56
264.732	358.56
264.964	345.56
265.197	338.56
265.429	356.56
265.661	349.56
265.894	345.56
266.126	355.56
266.358	357.56
266.591	362.56
266.823	385.56
267.055	348.56
267.287	368.56
267.52	352.56
267.752	349.56
267.984	368.56
268.216	364.56
268.448	370.56
268.681	363.56
268.913	366.56
269.145	362.56
269.377	372.56
269.609	376.56
269.841	379.56
270.073	372.56
270.306	382.56
270.538	368.56
270.77	362.56
271.002	380.56
271.234	371.56
271.466	382.56
271.698	352.56
271.93	378.56
272.162	373.56
272.394	378.56
272.626	388.56
272.858	394.56
273.09	387.56
273.322	406.56
273.553	394.56
273.785	394.56
274.017	384.56
274.249	376.56
274.481	369.56
274.713	393.56
274.945	411.56
275.176	380.56
275.408	404.56
275.64	391.56
275.872	419.56
276.104	434.56
276.335	406.56
276.567	420.56
276.799	398.56
277.031	409.56
277.262	404.56
277.494	428.56
277.726	409.56
277.957	423.56
278.189	434.56
278.421	423.56
278.652	417.56
278.884	462.56
279.115	429.56
279.347	440.56
279.579	444.56
279.81	439.56
280.042	445.56
280.273	446.56
280.505	417.56
280.736	449.56
280.968	452.56
281.199	462.56
281.431	453.56
281.662	452.56
281.894	444.56
282.125	459.56
282.356	459.56
282.588	461.56
282.819	454.56
283.051	464.56
283.282	476.56
283.513	453.56
283.745	487.56
283.976	468.56
284.207	463.56
284.439	470.56
284.67	474.56
284.901	476.56
285.132	486.56
285.364	489.56
285.595	490.56
285.826	467.56
286.057	482.56
286.288	480.56
286.52	479.56
286.751	468.56
286.982	488.56
287.213	490.56
287.444	468.56
287.675	509.56
287.906	507.56
288.138	497.56
288.369	504.56
288.6	524.56
288.831	480.56
289.062	526.56
289.293	540.56
289.524	525.56
289.755	509.56
289.986	521.56
290.217	503.56
290.448	520.56
290.679	497.56
290.91	507.56
291.141	514.56
291.371	536.56
291.602	537.56
291.833	516.56
292.064	528.56
292.295	527.56
292.526	488.56
292.757	526.56
292.987	525.56
293.218	527.56
293.449	532.56
293.68	510.56
293.91	513.56
294.141	553.56
294.372	526.56
294.603	516.56
294.833	535.56
295.064	530.56
295.295	528.56
295.525	523.56
295.756	542.56
295.987	524.56
296.217	541.56
296.448	538.56
296.679	544.56
296.909	568.56
297.14	549.56
297.37	572.56
297.601	574.56
297.831	587.56
298.062	574.56
298.292	565.56
298.523	598.56
298.753	598.56
298.984	570.56
299.214	560.56
299.445	557.56
299.675	581.56
299.905	584.56
300.136	572.56
300.366	556.56
300.597	587.56
300.827	592.56
301.057	580.56
301.288	589.56
301.518	597.56
301.748	613.56
301.979	617.56
302.209	596.56
302.439	605.56
302.669	593.56
302.9	593.56
303.13	598.56
303.36	598.56
303.59	595.56
303.82	592.56
304.051	583.56
304.281	575.56
304.511	582.56
304.741	562.56
304.971	584.56
305.201	587.56
305.431	574.56
305.661	574.56
305.891	566.56
306.121	570.56
306.352	601.56
306.582	571.56
306.812	556.56
307.042	579.56
307.272	568.56
307.502	564.56
307.731	562.56
307.961	579.56
308.191	572.56
308.421	580.56
308.651	557.56
308.881	544.56
309.111	568.56
309.341	549.56
309.571	541.56
309.8	553.56
310.03	564.56
310.26	578.56
310.49	561.56
310.72	560.56
310.949	588.56
311.179	570.56
311.409	567.56
311.639	592.56
311.868	589.56
312.098	576.56
312.328	609.56
312.557	593.56
312.787	600.56
313.017	596.56
313.246	606.56
313.476	607.56
313.706	614.56
313.935	618.56
314.165	630.56
314.394	632.56
314.624	612.56
314.853	611.56
315.083	591.56
315.312	589.56
315.542	599.56
315.771	616.56
316.001	617.56
316.23	584.56
316.46	597.56
316.689	623.56
316.919	582.56
317.148	600.56
317.377	607.56
317.607	606.56
317.836	603.56
318.065	577.56
318.295	588.56
318.524	585.56
318.753	582.56
318.983	591.56
319.212	573.56
319.441	592.56
319.67	590.56
319.9	593.56
320.129	581.56
320.358	604.56
320.587	590.56
320.816	593.56
321.046	591.56
321.275	587.56
321.504	588.56
321.733	608.56
321.962	613.56
322.191	601.56
322.42	613.56
322.649	588.56
322.878	606.56
323.108	625.56
323.337	608.56
323.566	602.56
323.795	606.56
324.024	613.56
324.253	612.56
324.482	612.56
324.71	600.56
324.939	602.56
325.168	632.56
325.397	636.56
325.626	633.56
325.855	624.56
326.084	666.56
326.313	646.56
326.542	650.56
326.77	684.56
326.999	674.56
327.228	626.56
327.457	637.56
327.686	638.56
327.914	656.56
328.143	671.56
328.372	650.56
328.6	645.56
328.829	647.56
329.058	678.56
329.287	638.56
329.515	654.56
329.744	644.56
329.972	662.56
330.201	668.56
330.43	681.56
330.658	645.56
330.887	690.56
331.115	670.56
331.344	701.56
331.572	711.56
331.801	687.56
332.03	739.56
332.258	742.56
332.486	769.56
332.715	795.56
332.943	823.56
333.172	862.56
333.4	890.56
333.629	923.56
333.857	929.56
334.085	910.56
334.314	864.56
334.542	873.56
334.771	853.56
334.999	805.56
335.227	827.56
335.455	811.56
335.684	806.56
335.912	785.56
336.14	788.56
336.369	812.56
336.597	802.56
336.825	798.56
337.053	798.56
337.281	793.56
337.51	747.56
337.738	735.56
337.966	724.56
338.194	738.56
338.422	720.56
338.65	712.56
338.878	705.56
339.106	704.56
339.334	712.56
339.562	695.56
339.79	704.56
340.018	655.56
340.246	692.56
340.474	680.56
340.702	692.56
340.93	693.56
341.158	696.56
341.386	682.56
341.614	670.56
341.842	684.56
342.07	666.56
342.298	663.56
342.526	665.56
342.754	664.56
342.981	696.56
343.209	683.56
343.437	744.56
343.665	774.56
343.893	868.56
344.12	883.56
344.348	831.56
344.576	776.56
344.804	731.56
345.031	714.56
345.259	703.56
345.487	730.56
345.714	686.56
345.942	674.56
346.17	683.56
346.397	681.56
346.625	645.56
346.853	688.56
347.08	660.56
347.308	670.56
347.535	678.56
347.763	686.56
347.99	683.56
348.218	681.56
348.445	654.56
348.673	664.56
348.9	683.56
349.128	684.56
349.355	644.56
349.583	658.56
349.81	654.56
350.037	662.56
350.265	640.56
350.492	638.56
350.72	642.56
350.947	651.56
351.174	623.56
351.402	645.56
351.629	647.56
351.856	626.56
352.083	640.56
352.311	642.56
352.538	637.56
352.765	636.56
352.992	636.56
353.22	628.56
353.447	622.56
353.674	644.56
353.901	629.56
354.128	639.56
354.355	628.56
354.583	637.56
354.81	639.56
355.037	671.56
355.264	628.56
355.491	624.56
355.718	653.56
355.945	648.56
356.172	658.56
356.399	658.56
356.626	654.56
356.853	656.56
357.08	654.56
357.307	645.56
357.534	636.56
357.761	624.56
357.988	634.56
358.215	628.56
358.441	648.56
358.668	638.56
358.895	639.56
359.122	642.56
359.349	634.56
359.576	635.56
359.802	634.56
360.029	642.56
360.256	640.56
360.483	650.56
360.709	650.56
360.936	644.56
361.163	649.56
361.39	617.56
361.616	636.56
361.843	634.56
362.07	653.56
362.296	637.56
362.523	624.56
362.749	645.56
362.976	630.56
363.203	662.56
363.429	638.56
363.656	628.56
363.882	619.56
364.109	639.56
364.335	648.56
364.562	653.56
364.788	619.56
365.015	635.56
365.241	652.56
365.468	609.56
365.694	635.56
365.92	634.56
366.147	645.56
366.373	629.56
366.599	649.56
366.826	653.56
367.052	619.56
367.278	656.56
367.505	645.56
367.731	634.56
367.957	650.56
368.184	646.56
368.41	652.56
368.636	652.56
368.862	665.56
369.089	671.56
369.315	670.56
369.541	643.56
369.767	674.56
369.993	642.56
370.219	654.56
370.445	679.56
370.672	682.56
370.898	702.56
371.124	717.56
371.35	721.56
371.576	716.56
371.802	718.56
372.028	699.56
372.254	693.56
372.48	722.56
372.706	710.56
372.932	727.56
373.158	732.56
373.384	709.56
373.61	702.56
373.835	703.56
374.061	692.56
374.287	693.56
374.513	716.56
374.739	742.56
374.965	753.56
375.191	784.56
375.416	772.56
375.642	793.56
375.868	780.56
376.094	741.56
376.319	717.56
376.545	720.56
376.771	724.56
376.997	715.56
377.222	692.56
377.448	698.56
377.674	694.56
377.899	705.56
378.125	691.56
378.35	677.56
378.576	680.56
378.802	692.56
379.027	702.56
379.253	693.56
379.478	689.56
379.704	698.56
379.929	696.56
380.155	693.56
380.38	676.56
380.606	680.56
380.831	713.56
381.057	682.56
381.282	693.56
381.507	694.56
381.733	706.56
381.958	700.56
382.184	714.56
382.409	711.56
382.634	739.56
382.86	746.56
383.085	756.56
383.31	773.56
383.535	779.56
383.761	783.56
383.986	801.56
384.211	828.56
384.436	866.56
384.662	847.56
384.887	890.56
385.112	824.56
385.337	864.56
385.562	843.56
385.787	842.56
386.013	882.56
386.238	873.56
386.463	872.56
386.688	867.56
386.913	825.56
387.138	814.56
387.363	852.56
387.588	805.56
387.813	821.56
388.038	804.56
388.263	845.56
388.488	842.56
388.713	825.56
388.938	832.56
389.163	806.56
389.387	828.56
389.612	825.56
389.837	833.56
390.062	817.56
390.287	838.56
390.512	838.56
390.736	851.56
390.961	859.56
391.186	865.56
391.411	892.56
391.636	905.56
391.86	936.56
392.085	972.56
392.31	978.56
392.534	930.56
392.759	907.56
392.984	896.56
393.208	924.56
393.433	916.56
393.658	895.56
393.882	901.56
394.107	907.56
394.331	912.56
394.556	906.56
394.78	899.56
395.005	957.56
395.229	903.56
395.454	955.56
395.678	930.56
395.903	937.56
396.127	931.56
396.352	896.56
396.576	881.56
396.801	865.56
397.025	903.56
397.249	908.56
397.474	956.56
397.698	952.56
397.922	941.56
398.147	933.56
398.371	946.56
398.595	960.56
398.82	1045.56
399.044	1112.56
399.268	1236.56
399.492	1489.56
399.717	1702.56
399.941	1703.56
400.165	1443.56
400.389	1281.56
400.613	1185.56
400.837	1114.56
401.062	1068.56
401.286	1031.56
401.51	1050.56
401.734	1084.56
401.958	1063.56
402.182	1062.56
402.406	1088.56
402.63	1127.56
402.854	1141.56
403.078	1163.56
403.302	1209.56
403.526	1222.56
403.75	1232.56
403.974	1257.56
404.198	1285.56
404.422	1270.56
404.645	1257.56
404.869	1242.56
405.093	1268.56
405.317	1189.56
405.541	1210.56
405.765	1196.56
405.988	1183.56
406.212	1170.56
406.436	1177.56
406.66	1216.56
406.883	1236.56
407.107	1330.56
407.331	1375.56
407.555	1406.56
407.778	1368.56
408.002	1375.56
408.226	1284.56
408.449	1278.56
408.673	1237.56
408.896	1236.56
409.12	1201.56
409.344	1228.56
409.567	1228.56
409.791	1249.56
410.014	1243.56
410.238	1221.56
410.461	1227.56
410.685	1207.56
410.908	1170.56
411.132	1154.56
411.355	1125.56
411.578	1123.56
411.802	1107.56
412.025	1128.56
412.249	1133.56
412.472	1121.56
412.695	1105.56
412.919	1062.56
413.142	1038.56
413.365	1054.56
413.589	1078.56
413.812	1052.56
414.035	1038.56
414.258	1046.56
414.482	1062.56
414.705	1104.56
414.928	1093.56
415.151	1084.56
415.374	1092.56
415.597	1073.56
415.821	1030.56
416.044	1027.56
416.267	1010.56
416.49	1013.56
416.713	1034.56
416.936	1056.56
417.159	1033.56
417.382	1062.56
417.605	1022.56
417.828	1058.56
418.051	1079.56
418.274	1079.56
418.497	1072.56
418.72	1100.56
418.943	1089.56
419.166	1167.56
419.389	1226.56
419.611	1230.56
419.834	1123.56
420.057	1124.56
420.28	1097.56
420.503	1036.56
420.726	1020.56
420.948	1044.56
421.171	1067.56
421.394	1048.56
421.617	1065.56
421.839	1087.56
422.062	1074.56
422.285	1057.56
422.507	1082.56
422.73	1089.56
422.953	1110.56
423.175	1129.56
423.398	1127.56
423.621	1146.56
423.843	1131.56
424.066	1142.56
424.288	1158.56
424.511	1162.56
424.733	1142.56
424.956	1104.56
425.178	1102.56
425.401	1077.56
425.623	1055.56
425.846	1004.56
426.068	994.56
426.291	978.56
426.513	981.56
426.735	971.56
426.958	994.56
427.18	930.56
427.402	953.56
427.625	956.56
427.847	932.56
428.069	957.56
428.292	936.56
428.514	956.56
428.736	906.56
428.958	927.56
429.181	921.56
429.403	916.56
429.625	901.56
429.847	895.56
430.069	884.56
430.292	911.56
430.514	909.56
430.736	914.56
430.958	934.56
431.18	919.56
431.402	929.56
431.624	933.56
431.846	950.56
432.068	966.56
432.29	974.56
432.512	915.56
432.734	943.56
432.956	943.56
433.178	920.56
433.4	914.56
433.622	963.56
433.844	933.56
434.066	964.56
434.287	955.56
434.509	991.56
434.731	1033.56
434.953	1092.56
435.175	1085.56
435.397	1066.56
435.618	1026.56
435.84	985.56
436.062	952.56
436.284	940.56
436.505	965.56
436.727	981.56
436.949	954.56
437.17	932.56
437.392	911.56
437.614	921.56
437.835	923.56
438.057	946.56
438.278	888.56
438.5	886.56
438.721	932.56
438.943	911.56
439.165	913.56
439.386	938.56
439.608	948.56
439.829	930.56
440.05	957.56
440.272	923.56
440.493	946.56
440.715	989.56
440.936	986.56
441.158	956.56
441.379	990.56
441.6	1092.56
441.822	1099.56
442.043	1102.56
442.264	1069.56
442.486	1029.56
442.707	1032.56
442.928	1067.56
443.149	1040.56
443.371	1074.56
443.592	1086.56
443.813	1064.56
444.034	1080.56
444.255	1105.56
444.476	1132.56
444.698	1289.56
444.919	1311.56
445.14	1379.56
445.361	1210.56
445.582	1113.56
445.803	1056.56
446.024	1012.56
446.245	974.56
446.466	978.56
446.687	944.56
446.908	952.56
447.129	918.56
447.35	918.56
447.571	921.56
447.792	892.56
448.013	898.56
448.234	887.56
448.455	869.56
448.675	875.56
448.896	887.56
449.117	880.56
449.338	862.56
449.559	825.56
449.779	853.56
450	869.56
450.221	847.56
450.442	871.56
450.662	858.56
450.883	889.56
451.104	912.56
451.324	892.56
451.545	921.56
451.766	892.56
451.986	887.56
452.207	886.56
452.428	899.56
452.648	869.56
452.869	858.56
453.089	840.56
453.31	843.56
453.53	871.56
453.751	858.56
453.971	859.56
454.192	861.56
454.412	831.56
454.633	812.56
454.853	828.56
455.073	856.56
455.294	838.56
455.514	806.56
455.734	825.56
455.955	805.56
456.175	826.56
456.395	811.56
456.616	790.56
456.836	815.56
457.056	824.56
457.276	782.56
457.497	824.56
457.717	793.56
457.937	797.56
458.157	829.56
458.377	848.56
458.598	842.56
458.818	868.56
459.038	894.56
459.258	938.56
459.478	940.56
459.698	996.56
459.918	996.56
460.138	1046.56
460.358	1127.56
460.578	1134.56
460.798	1137.56
461.018	1144.56
461.238	1132.56
461.458	1158.56
461.678	1112.56
461.898	1140.56
462.118	1107.56
462.338	1196.56
462.558	1244.56
462.777	1283.56
462.997	1362.56
463.217	1596.56
463.437	1608.56
463.657	1447.56
463.876	1390.56
464.096	1355.56
464.316	1369.56
464.536	1342.56
464.755	1300.56
464.975	1243.56
465.195	1164.56
465.414	1137.56
465.634	1040.56
465.854	1041.56
466.073	998.56
466.293	971.56
466.512	932.56
466.732	919.56
466.951	922.56
467.171	915.56
467.391	908.56
467.61	942.56
467.829	922.56
468.049	929.56
468.268	870.56
468.488	873.56
468.707	848.56
468.927	862.56
469.146	846.56
469.365	872.56
469.585	883.56
469.804	934.56
470.023	927.56
470.243	952.56
470.462	956.56
470.681	944.56
470.901	957.56
471.12	933.56
471.339	928.56
471.558	888.56
471.777	896.56
471.997	890.56
472.216	864.56
472.435	867.56
472.654	861.56
472.873	834.56
473.092	858.56
473.311	841.56
473.53	845.56
473.749	862.56
473.968	833.56
474.187	820.56
474.406	814.56
474.625	852.56
474.844	834.56
475.063	864.56
475.282	842.56
475.501	823.56
475.72	842.56
475.939	882.56
476.158	865.56
476.377	893.56
476.596	876.56
476.814	873.56
477.033	890.56
477.252	917.56
477.471	945.56
477.69	971.56
477.908	972.56
478.127	1000.56
478.346	997.56
478.564	1038.56
478.783	1066.56
479.002	1086.56
479.22	1060.56
479.439	1052.56
479.658	1060.56
479.876	1068.56
480.095	1107.56
480.313	1143.56
480.532	1167.56
480.751	1173.56
480.969	1092.56
481.188	1051.56
481.406	1013.56
481.624	980.56
481.843	985.56
482.061	964.56
482.28	999.56
482.498	960.56
482.717	944.56
482.935	968.56
483.153	964.56
483.372	966.56
483.59	973.56
483.808	984.56
484.027	994.56
484.245	981.56
484.463	982.56
484.681	1015.56
484.9	1018.56
485.118	1026.56
485.336	1009.56
485.554	1029.56
485.772	1058.56
485.99	1040.56
486.209	1027.56
486.427	1038.56
486.645	1015.56
486.863	1041.56
487.081	1065.56
487.299	1054.56
487.517	1042.56
487.735	1017.56
487.953	1057.56
488.171	1011.56
488.389	1025.56
488.607	1009.56
488.825	971.56
489.043	1010.56
489.261	1018.56
489.479	1008.56
489.696	995.56
489.914	1025.56
490.132	1015.56
490.35	1033.56
490.568	1030.56
490.786	1008.56
491.003	997.56
491.221	1017.56
491.439	1049.56
491.657	1038.56
491.874	1016.56
492.092	996.56
492.31	1060.56
492.527	1028.56
492.745	1038.56
492.963	1052.56
493.18	1037.56
493.398	1048.56
493.615	1100.56
493.833	1038.56
494.05	1072.56
494.268	1093.56
494.485	1065.56
494.703	1083.56
494.92	1080.56
495.138	1083.56
495.355	1097.56
495.573	1084.56
495.79	1079.56
496.008	1089.56
496.225	1112.56
496.442	1125.56
496.66	1095.56
496.877	1138.56
497.094	1134.56
497.312	1165.56
497.529	1166.56
497.746	1214.56
497.963	1265.56
498.181	1334.56
