Data from Ni(NO3)2@0.5M.TitratingCurve.Agarose3%dH2O.NegLispCup.LampEnergy10.LIBS07252019_HRD10591_17-59-33-564.txt Node
Date: Thu Jul 25 17:59:33 EDT 2019
User: cochatt
Spectrometer: HR+D1059
Trigger mode: 1
Integration Time (sec): 1.000000E-1
Scans to average: 1
Electric dark correction enabled: true
Nonlinearity correction enabled: false
Boxcar width: 0
XAxis mode: Wavelengths
Number of Pixels in Spectrum: 2048
>>>>>Begin Spectral Data<<<<<
223.165	-19.81
223.4	-19.81
223.635	-19.81
223.869	-25.81
224.104	-19.81
224.338	-19.81
224.573	-6.81
224.808	-3.81
225.042	-1.81
225.277	3.19
225.511	-8.81
225.746	-1.81
225.98	-0.81
226.215	8.19
226.449	11.19
226.683	25.19
226.918	25.19
227.152	36.19
227.387	34.19
227.621	40.19
227.856	41.19
228.09	47.19
228.324	43.19
228.559	66.19
228.793	64.19
229.027	98.19
229.262	121.19
229.496	113.19
229.73	116.19
229.964	131.19
230.199	162.19
230.433	163.19
230.667	149.19
230.901	141.19
231.136	136.19
231.37	145.19
231.604	152.19
231.838	147.19
232.072	153.19
232.306	148.19
232.541	127.19
232.775	135.19
233.009	130.19
233.243	128.19
233.477	138.19
233.711	137.19
233.945	152.19
234.179	148.19
234.413	137.19
234.647	143.19
234.881	144.19
235.115	152.19
235.349	144.19
235.583	131.19
235.817	123.19
236.051	133.19
236.285	124.19
236.519	132.19
236.753	128.19
236.987	134.19
237.221	133.19
237.455	138.19
237.689	139.19
237.922	134.19
238.156	133.19
238.39	141.19
238.624	155.19
238.858	157.19
239.091	147.19
239.325	144.19
239.559	178.19
239.793	177.19
240.027	162.19
240.26	154.19
240.494	151.19
240.728	142.19
240.961	150.19
241.195	142.19
241.429	138.19
241.662	150.19
241.896	178.19
242.13	195.19
242.363	156.19
242.597	173.19
242.83	181.19
243.064	163.19
243.298	164.19
243.531	178.19
243.765	184.19
243.998	195.19
244.232	160.19
244.465	181.19
244.699	177.19
244.932	176.19
245.166	174.19
245.399	174.19
245.633	182.19
245.866	185.19
246.099	181.19
246.333	181.19
246.566	187.19
246.8	182.19
247.033	180.19
247.266	164.19
247.5	191.19
247.733	199.19
247.966	179.19
248.2	196.19
248.433	184.19
248.666	197.19
248.899	202.19
249.133	196.19
249.366	199.19
249.599	186.19
249.832	185.19
250.066	211.19
250.299	183.19
250.532	201.19
250.765	218.19
250.998	211.19
251.231	229.19
251.465	230.19
251.698	222.19
251.931	209.19
252.164	225.19
252.397	224.19
252.63	217.19
252.863	226.19
253.096	219.19
253.329	226.19
253.562	225.19
253.795	231.19
254.028	222.19
254.261	226.19
254.494	225.19
254.727	220.19
254.96	251.19
255.193	237.19
255.426	241.19
255.659	245.19
255.892	245.19
256.124	242.19
256.357	253.19
256.59	230.19
256.823	237.19
257.056	239.19
257.289	262.19
257.521	272.19
257.754	255.19
257.987	265.19
258.22	261.19
258.452	246.19
258.685	259.19
258.918	237.19
259.151	255.19
259.383	256.19
259.616	228.19
259.849	251.19
260.081	251.19
260.314	259.19
260.547	238.19
260.779	261.19
261.012	271.19
261.244	269.19
261.477	266.19
261.71	280.19
261.942	280.19
262.175	279.19
262.407	251.19
262.64	261.19
262.872	272.19
263.105	276.19
263.337	268.19
263.57	275.19
263.802	277.19
264.035	269.19
264.267	290.19
264.499	290.19
264.732	268.19
264.964	270.19
265.197	278.19
265.429	279.19
265.661	280.19
265.894	291.19
266.126	310.19
266.358	294.19
266.591	286.19
266.823	288.19
267.055	300.19
267.287	294.19
267.52	287.19
267.752	295.19
267.984	316.19
268.216	304.19
268.448	323.19
268.681	304.19
268.913	305.19
269.145	304.19
269.377	324.19
269.609	324.19
269.841	310.19
270.073	288.19
270.306	315.19
270.538	311.19
270.77	314.19
271.002	299.19
271.234	329.19
271.466	326.19
271.698	306.19
271.93	329.19
272.162	299.19
272.394	312.19
272.626	322.19
272.858	315.19
273.09	332.19
273.322	324.19
273.553	317.19
273.785	339.19
274.017	338.19
274.249	339.19
274.481	330.19
274.713	339.19
274.945	332.19
275.176	330.19
275.408	339.19
275.64	332.19
275.872	349.19
276.104	344.19
276.335	342.19
276.567	354.19
276.799	341.19
277.031	344.19
277.262	336.19
277.494	342.19
277.726	364.19
277.957	357.19
278.189	355.19
278.421	359.19
278.652	363.19
278.884	359.19
279.115	371.19
279.347	355.19
279.579	369.19
279.81	374.19
280.042	358.19
280.273	359.19
280.505	374.19
280.736	368.19
280.968	381.19
281.199	374.19
281.431	376.19
281.662	343.19
281.894	369.19
282.125	370.19
282.356	390.19
282.588	390.19
282.819	377.19
283.051	358.19
283.282	377.19
283.513	381.19
283.745	382.19
283.976	369.19
284.207	395.19
284.439	388.19
284.67	388.19
284.901	392.19
285.132	384.19
285.364	387.19
285.595	383.19
285.826	396.19
286.057	391.19
286.288	391.19
286.52	409.19
286.751	393.19
286.982	405.19
287.213	384.19
287.444	409.19
287.675	391.19
287.906	396.19
288.138	428.19
288.369	427.19
288.6	399.19
288.831	423.19
289.062	390.19
289.293	404.19
289.524	428.19
289.755	413.19
289.986	422.19
290.217	404.19
290.448	398.19
290.679	410.19
290.91	417.19
291.141	420.19
291.371	419.19
291.602	423.19
291.833	401.19
292.064	416.19
292.295	419.19
292.526	415.19
292.757	413.19
292.987	413.19
293.218	416.19
293.449	420.19
293.68	425.19
293.91	423.19
294.141	412.19
294.372	415.19
294.603	429.19
294.833	424.19
295.064	429.19
295.295	427.19
295.525	404.19
295.756	424.19
295.987	401.19
296.217	431.19
296.448	435.19
296.679	431.19
296.909	422.19
297.14	457.19
297.37	449.19
297.601	452.19
297.831	438.19
298.062	440.19
298.292	432.19
298.523	457.19
298.753	463.19
298.984	433.19
299.214	441.19
299.445	452.19
299.675	466.19
299.905	459.19
300.136	461.19
300.366	461.19
300.597	493.19
300.827	472.19
301.057	467.19
301.288	465.19
301.518	479.19
301.748	475.19
301.979	486.19
302.209	472.19
302.439	472.19
302.669	475.19
302.9	461.19
303.13	464.19
303.36	452.19
303.59	516.19
303.82	508.19
304.051	483.19
304.281	487.19
304.511	471.19
304.741	472.19
304.971	476.19
305.201	499.19
305.431	512.19
305.661	480.19
305.891	521.19
306.121	494.19
306.352	485.19
306.582	463.19
306.812	464.19
307.042	479.19
307.272	500.19
307.502	477.19
307.731	477.19
307.961	485.19
308.191	493.19
308.421	483.19
308.651	502.19
308.881	492.19
309.111	471.19
309.341	461.19
309.571	483.19
309.8	509.19
310.03	495.19
310.26	523.19
310.49	505.19
310.72	518.19
310.949	508.19
311.179	506.19
311.409	492.19
311.639	507.19
311.868	486.19
312.098	519.19
312.328	501.19
312.557	511.19
312.787	511.19
313.017	502.19
313.246	539.19
313.476	519.19
313.706	543.19
313.935	517.19
314.165	507.19
314.394	514.19
314.624	524.19
314.853	501.19
315.083	513.19
315.312	519.19
315.542	540.19
315.771	523.19
316.001	546.19
316.23	540.19
316.46	533.19
316.689	531.19
316.919	566.19
317.148	550.19
317.377	537.19
317.607	541.19
317.836	515.19
318.065	508.19
318.295	550.19
318.524	530.19
318.753	544.19
318.983	540.19
319.212	513.19
319.441	550.19
319.67	541.19
319.9	540.19
320.129	550.19
320.358	539.19
320.587	547.19
320.816	568.19
321.046	555.19
321.275	551.19
321.504	531.19
321.733	547.19
321.962	566.19
322.191	577.19
322.42	550.19
322.649	559.19
322.878	549.19
323.108	549.19
323.337	583.19
323.566	599.19
323.795	566.19
324.024	562.19
324.253	576.19
324.482	576.19
324.71	597.19
324.939	571.19
325.168	581.19
325.397	601.19
325.626	595.19
325.855	572.19
326.084	583.19
326.313	591.19
326.542	565.19
326.77	569.19
326.999	592.19
327.228	585.19
327.457	588.19
327.686	621.19
327.914	582.19
328.143	579.19
328.372	596.19
328.6	596.19
328.829	600.19
329.058	604.19
329.287	613.19
329.515	612.19
329.744	595.19
329.972	620.19
330.201	607.19
330.43	615.19
330.658	603.19
330.887	608.19
331.115	610.19
331.344	612.19
331.572	638.19
331.801	635.19
332.03	645.19
332.258	630.19
332.486	633.19
332.715	666.19
332.943	654.19
333.172	656.19
333.4	653.19
333.629	685.19
333.857	683.19
334.085	678.19
334.314	686.19
334.542	696.19
334.771	725.19
334.999	700.19
335.227	693.19
335.455	705.19
335.684	695.19
335.912	693.19
336.14	692.19
336.369	703.19
336.597	721.19
336.825	718.19
337.053	703.19
337.281	707.19
337.51	671.19
337.738	664.19
337.966	678.19
338.194	733.19
338.422	676.19
338.65	648.19
338.878	696.19
339.106	672.19
339.334	713.19
339.562	672.19
339.79	659.19
340.018	667.19
340.246	645.19
340.474	658.19
340.702	652.19
340.93	652.19
341.158	668.19
341.386	668.19
341.614	704.19
341.842	683.19
342.07	671.19
342.298	636.19
342.526	660.19
342.754	651.19
342.981	655.19
343.209	667.19
343.437	673.19
343.665	668.19
343.893	703.19
344.12	712.19
344.348	697.19
344.576	696.19
344.804	699.19
345.031	686.19
345.259	679.19
345.487	679.19
345.714	705.19
345.942	669.19
346.17	707.19
346.397	687.19
346.625	656.19
346.853	630.19
347.08	619.19
347.308	638.19
347.535	640.19
347.763	646.19
347.99	633.19
348.218	612.19
348.445	617.19
348.673	596.19
348.9	608.19
349.128	672.19
349.355	673.19
349.583	663.19
349.81	629.19
350.037	609.19
350.265	632.19
350.492	621.19
350.72	605.19
350.947	627.19
351.174	610.19
351.402	682.19
351.629	668.19
351.856	656.19
352.083	623.19
352.311	641.19
352.538	634.19
352.765	665.19
352.992	633.19
353.22	611.19
353.447	615.19
353.674	617.19
353.901	625.19
354.128	586.19
354.355	584.19
354.583	607.19
354.81	604.19
355.037	616.19
355.264	630.19
355.491	613.19
355.718	616.19
355.945	612.19
356.172	602.19
356.399	614.19
356.626	630.19
356.853	625.19
357.08	627.19
357.307	609.19
357.534	646.19
357.761	606.19
357.988	619.19
358.215	619.19
358.441	615.19
358.668	603.19
358.895	589.19
359.122	605.19
359.349	617.19
359.576	592.19
359.802	616.19
360.029	624.19
360.256	608.19
360.483	621.19
360.709	610.19
360.936	634.19
361.163	616.19
361.39	611.19
361.616	633.19
361.843	631.19
362.07	670.19
362.296	644.19
362.523	631.19
362.749	639.19
362.976	611.19
363.203	617.19
363.429	608.19
363.656	616.19
363.882	622.19
364.109	603.19
364.335	617.19
364.562	611.19
364.788	613.19
365.015	601.19
365.241	622.19
365.468	614.19
365.694	602.19
365.92	622.19
366.147	620.19
366.373	636.19
366.599	641.19
366.826	604.19
367.052	610.19
367.278	628.19
367.505	637.19
367.731	636.19
367.957	624.19
368.184	656.19
368.41	637.19
368.636	648.19
368.862	624.19
369.089	652.19
369.315	644.19
369.541	658.19
369.767	661.19
369.993	647.19
370.219	647.19
370.445	677.19
370.672	668.19
370.898	650.19
371.124	647.19
371.35	645.19
371.576	668.19
371.802	668.19
372.028	664.19
372.254	651.19
372.48	672.19
372.706	662.19
372.932	665.19
373.158	668.19
373.384	659.19
373.61	687.19
373.835	675.19
374.061	666.19
374.287	666.19
374.513	683.19
374.739	660.19
374.965	707.19
375.191	673.19
375.416	688.19
375.642	692.19
375.868	687.19
376.094	688.19
376.319	671.19
376.545	662.19
376.771	673.19
376.997	637.19
377.222	666.19
377.448	627.19
377.674	686.19
377.899	654.19
378.125	654.19
378.35	683.19
378.576	626.19
378.802	637.19
379.027	642.19
379.253	670.19
379.478	670.19
379.704	662.19
379.929	667.19
380.155	653.19
380.38	661.19
380.606	650.19
380.831	665.19
381.057	659.19
381.282	647.19
381.507	661.19
381.733	672.19
381.958	653.19
382.184	663.19
382.409	668.19
382.634	685.19
382.86	671.19
383.085	699.19
383.31	672.19
383.535	697.19
383.761	692.19
383.986	713.19
384.211	704.19
384.436	703.19
384.662	711.19
384.887	735.19
385.112	727.19
385.337	707.19
385.562	753.19
385.787	747.19
386.013	784.19
386.238	730.19
386.463	768.19
386.688	739.19
386.913	758.19
387.138	765.19
387.363	774.19
387.588	739.19
387.813	751.19
388.038	763.19
388.263	756.19
388.488	745.19
388.713	729.19
388.938	735.19
389.163	755.19
389.387	771.19
389.612	756.19
389.837	737.19
390.062	736.19
390.287	759.19
390.512	775.19
390.736	755.19
390.961	755.19
391.186	765.19
391.411	769.19
391.636	790.19
391.86	790.19
392.085	778.19
392.31	808.19
392.534	808.19
392.759	805.19
392.984	791.19
393.208	805.19
393.433	793.19
393.658	813.19
393.882	797.19
394.107	769.19
394.331	784.19
394.556	780.19
394.78	796.19
395.005	773.19
395.229	789.19
395.454	813.19
395.678	814.19
395.903	829.19
396.127	798.19
396.352	821.19
396.576	829.19
396.801	795.19
397.025	816.19
397.249	829.19
397.474	829.19
397.698	829.19
397.922	863.19
398.147	834.19
398.371	851.19
398.595	861.19
398.82	884.19
399.044	929.19
399.268	938.19
399.492	1003.19
399.717	1028.19
399.941	1056.19
400.165	1057.19
400.389	977.19
400.613	938.19
400.837	932.19
401.062	917.19
401.286	907.19
401.51	901.19
401.734	892.19
401.958	923.19
402.182	930.19
402.406	876.19
402.63	889.19
402.854	911.19
403.078	901.19
403.302	872.19
403.526	900.19
403.75	911.19
403.974	934.19
404.198	912.19
404.422	927.19
404.645	892.19
404.869	933.19
405.093	921.19
405.317	919.19
405.541	955.19
405.765	952.19
405.988	953.19
406.212	949.19
406.436	967.19
406.66	989.19
406.883	966.19
407.107	1016.19
407.331	1006.19
407.555	1047.19
407.778	1051.19
408.002	1016.19
408.226	1028.19
408.449	1007.19
408.673	992.19
408.896	981.19
409.12	991.19
409.344	990.19
409.567	966.19
409.791	973.19
410.014	964.19
410.238	936.19
410.461	956.19
410.685	932.19
410.908	937.19
411.132	956.19
411.355	925.19
411.578	905.19
411.802	948.19
412.025	936.19
412.249	927.19
412.472	928.19
412.695	915.19
412.919	916.19
413.142	904.19
413.365	897.19
413.589	916.19
413.812	916.19
414.035	903.19
414.258	897.19
414.482	906.19
414.705	887.19
414.928	888.19
415.151	909.19
415.374	876.19
415.597	897.19
415.821	888.19
416.044	871.19
416.267	852.19
416.49	881.19
416.713	855.19
416.936	877.19
417.159	850.19
417.382	857.19
417.605	846.19
417.828	877.19
418.051	873.19
418.274	870.19
418.497	850.19
418.72	881.19
418.943	861.19
419.166	911.19
419.389	963.19
419.611	950.19
419.834	913.19
420.057	893.19
420.28	861.19
420.503	901.19
420.726	842.19
420.948	848.19
421.171	870.19
421.394	850.19
421.617	851.19
421.839	856.19
422.062	893.19
422.285	856.19
422.507	865.19
422.73	855.19
422.953	850.19
423.175	865.19
423.398	870.19
423.621	852.19
423.843	867.19
424.066	857.19
424.288	880.19
424.511	871.19
424.733	847.19
424.956	861.19
425.178	836.19
425.401	850.19
425.623	875.19
425.846	837.19
426.068	847.19
426.291	848.19
426.513	845.19
426.735	825.19
426.958	840.19
427.18	813.19
427.402	819.19
427.625	837.19
427.847	821.19
428.069	803.19
428.292	819.19
428.514	827.19
428.736	836.19
428.958	849.19
429.181	819.19
429.403	803.19
429.625	809.19
429.847	816.19
430.069	797.19
430.292	815.19
430.514	835.19
430.736	809.19
430.958	831.19
431.18	836.19
431.402	821.19
431.624	792.19
431.846	795.19
432.068	829.19
432.29	860.19
432.512	845.19
432.734	851.19
432.956	845.19
433.178	882.19
433.4	870.19
433.622	853.19
433.844	897.19
434.066	861.19
434.287	868.19
434.509	854.19
434.731	863.19
434.953	871.19
435.175	864.19
435.397	913.19
435.618	856.19
435.84	834.19
436.062	847.19
436.284	842.19
436.505	839.19
436.727	825.19
436.949	844.19
437.17	833.19
437.392	845.19
437.614	829.19
437.835	804.19
438.057	817.19
438.278	787.19
438.5	807.19
438.721	815.19
438.943	800.19
439.165	772.19
439.386	781.19
439.608	815.19
439.829	831.19
440.05	824.19
440.272	831.19
440.493	872.19
440.715	824.19
440.936	823.19
441.158	855.19
441.379	872.19
441.6	905.19
441.822	844.19
442.043	864.19
442.264	854.19
442.486	847.19
442.707	837.19
442.928	869.19
443.149	864.19
443.371	905.19
443.592	925.19
443.813	929.19
444.034	887.19
444.255	887.19
444.476	912.19
444.698	933.19
444.919	925.19
445.14	1038.19
445.361	977.19
445.582	921.19
445.803	891.19
446.024	867.19
446.245	853.19
446.466	822.19
446.687	801.19
446.908	804.19
447.129	792.19
447.35	788.19
447.571	785.19
447.792	790.19
448.013	760.19
448.234	747.19
448.455	763.19
448.675	774.19
448.896	749.19
449.117	770.19
449.338	766.19
449.559	761.19
449.779	724.19
450	748.19
450.221	753.19
450.442	766.19
450.662	755.19
450.883	777.19
451.104	789.19
451.324	784.19
451.545	771.19
451.766	760.19
451.986	751.19
452.207	746.19
452.428	757.19
452.648	720.19
452.869	753.19
453.089	739.19
453.31	735.19
453.53	749.19
453.751	734.19
453.971	745.19
454.192	741.19
454.412	748.19
454.633	767.19
454.853	720.19
455.073	722.19
455.294	738.19
455.514	743.19
455.734	754.19
455.955	751.19
456.175	771.19
456.395	722.19
456.616	711.19
456.836	697.19
457.056	736.19
457.276	719.19
457.497	756.19
457.717	781.19
457.937	758.19
458.157	733.19
458.377	756.19
458.598	725.19
458.818	765.19
459.038	791.19
459.258	813.19
459.478	834.19
459.698	879.19
459.918	897.19
460.138	879.19
460.358	883.19
460.578	918.19
460.798	929.19
461.018	919.19
461.238	906.19
461.458	899.19
461.678	882.19
461.898	918.19
462.118	903.19
462.338	956.19
462.558	966.19
462.777	985.19
462.997	1031.19
463.217	1039.19
463.437	1087.19
463.657	1048.19
463.876	993.19
464.096	969.19
464.316	991.19
464.536	986.19
464.755	961.19
464.975	925.19
465.195	910.19
465.414	905.19
465.634	865.19
465.854	872.19
466.073	829.19
466.293	827.19
466.512	831.19
466.732	829.19
466.951	800.19
467.171	814.19
467.391	816.19
467.61	784.19
467.829	792.19
468.049	793.19
468.268	798.19
468.488	773.19
468.707	824.19
468.927	808.19
469.146	777.19
469.365	828.19
469.585	813.19
469.804	814.19
470.023	814.19
470.243	825.19
470.462	800.19
470.681	798.19
470.901	808.19
471.12	795.19
471.339	788.19
471.558	795.19
471.777	822.19
471.997	797.19
472.216	767.19
472.435	783.19
472.654	796.19
472.873	766.19
473.092	777.19
473.311	808.19
473.53	782.19
473.749	778.19
473.968	786.19
474.187	772.19
474.406	797.19
474.625	808.19
474.844	805.19
475.063	783.19
475.282	812.19
475.501	807.19
475.72	815.19
475.939	823.19
476.158	836.19
476.377	820.19
476.596	819.19
476.814	838.19
477.033	823.19
477.252	834.19
477.471	845.19
477.69	883.19
477.908	885.19
478.127	898.19
478.346	883.19
478.564	904.19
478.783	923.19
479.002	966.19
479.22	984.19
479.439	960.19
479.658	932.19
479.876	922.19
480.095	958.19
480.313	954.19
480.532	977.19
480.751	949.19
480.969	944.19
481.188	937.19
481.406	926.19
481.624	922.19
481.843	939.19
482.061	950.19
482.28	944.19
482.498	945.19
482.717	921.19
482.935	951.19
483.153	927.19
483.372	988.19
483.59	996.19
483.808	945.19
484.027	930.19
484.245	941.19
484.463	949.19
484.681	982.19
484.9	965.19
485.118	973.19
485.336	918.19
485.554	945.19
485.772	958.19
485.99	939.19
486.209	962.19
486.427	937.19
486.645	987.19
486.863	951.19
487.081	1009.19
487.299	979.19
487.517	946.19
487.735	978.19
487.953	997.19
488.171	985.19
488.389	983.19
488.607	967.19
488.825	962.19
489.043	957.19
489.261	959.19
489.479	968.19
489.696	962.19
489.914	957.19
490.132	935.19
490.35	976.19
490.568	957.19
490.786	971.19
491.003	979.19
491.221	977.19
491.439	991.19
491.657	958.19
491.874	975.19
492.092	989.19
492.31	1020.19
492.527	1011.19
492.745	992.19
492.963	997.19
493.18	984.19
493.398	1007.19
493.615	979.19
493.833	991.19
494.05	996.19
494.268	1023.19
494.485	1040.19
494.703	1010.19
494.92	1010.19
495.138	1021.19
495.355	1016.19
495.573	1010.19
495.79	972.19
496.008	1010.19
496.225	1041.19
496.442	1021.19
496.66	1051.19
496.877	1060.19
497.094	1070.19
497.312	1096.19
497.529	1068.19
497.746	1112.19
497.963	1136.19
498.181	1171.19
498.398	1223.19
498.615	1219.19
498.832	1237.19
499.049	1321.19
499.267	1396.19
499.484	1447.19
499.701	1492.19
499.918	1576.19
500.135	1656.19
500.352	1707.19
500.569	1751.19
500.786	1774.19
501.003	1768.19
