Data from Ni(NO3)2@0.125M.TitratingCurve.Agarose3%dH2O.NegLispCup.LampEnergy10.LIBS07252019_HRD10591_18-08-41-567.txt Node
Date: Thu Jul 25 18:08:41 EDT 2019
User: cochatt
Spectrometer: HR+D1059
Trigger mode: 1
Integration Time (sec): 1.000000E-1
Scans to average: 1
Electric dark correction enabled: true
Nonlinearity correction enabled: false
Boxcar width: 0
XAxis mode: Wavelengths
Number of Pixels in Spectrum: 2048
>>>>>Begin Spectral Data<<<<<
223.165	-10.44
223.4	-10.44
223.635	-10.44
223.869	-20.44
224.104	-11.44
224.338	-4.44
224.573	-2.44
224.808	-11.44
225.042	-12.44
225.277	-14.44
225.511	-16.44
225.746	8.56
225.98	-0.44
226.215	13.56
226.449	16.56
226.683	20.56
226.918	22.56
227.152	22.56
227.387	27.56
227.621	36.56
227.856	46.56
228.09	35.56
228.324	46.56
228.559	53.56
228.793	79.56
229.027	113.56
229.262	118.56
229.496	125.56
229.73	134.56
229.964	138.56
230.199	130.56
230.433	144.56
230.667	151.56
230.901	146.56
231.136	151.56
231.37	154.56
231.604	166.56
231.838	173.56
232.072	172.56
232.306	176.56
232.541	160.56
232.775	174.56
233.009	171.56
233.243	171.56
233.477	165.56
233.711	169.56
233.945	162.56
234.179	151.56
234.413	169.56
234.647	165.56
234.881	160.56
235.115	173.56
235.349	175.56
235.583	171.56
235.817	170.56
236.051	178.56
236.285	178.56
236.519	184.56
236.753	172.56
236.987	183.56
237.221	192.56
237.455	176.56
237.689	167.56
237.922	181.56
238.156	168.56
238.39	202.56
238.624	192.56
238.858	206.56
239.091	197.56
239.325	209.56
239.559	200.56
239.793	193.56
240.027	202.56
240.26	203.56
240.494	202.56
240.728	203.56
240.961	222.56
241.195	222.56
241.429	232.56
241.662	214.56
241.896	232.56
242.13	225.56
242.363	222.56
242.597	227.56
242.83	224.56
243.064	219.56
243.298	226.56
243.531	248.56
243.765	240.56
243.998	224.56
244.232	233.56
244.465	238.56
244.699	257.56
244.932	271.56
245.166	245.56
245.399	262.56
245.633	262.56
245.866	260.56
246.099	247.56
246.333	263.56
246.566	266.56
246.8	268.56
247.033	268.56
247.266	268.56
247.5	268.56
247.733	283.56
247.966	290.56
248.2	280.56
248.433	284.56
248.666	277.56
248.899	280.56
249.133	277.56
249.366	298.56
249.599	302.56
249.832	298.56
250.066	294.56
250.299	284.56
250.532	294.56
250.765	292.56
250.998	304.56
251.231	301.56
251.465	330.56
251.698	313.56
251.931	319.56
252.164	337.56
252.397	330.56
252.63	323.56
252.863	342.56
253.096	343.56
253.329	350.56
253.562	337.56
253.795	333.56
254.028	329.56
254.261	349.56
254.494	327.56
254.727	348.56
254.96	351.56
255.193	359.56
255.426	341.56
255.659	350.56
255.892	353.56
256.124	360.56
256.357	350.56
256.59	355.56
256.823	376.56
257.056	354.56
257.289	362.56
257.521	363.56
257.754	359.56
257.987	361.56
258.22	384.56
258.452	380.56
258.685	372.56
258.918	381.56
259.151	378.56
259.383	367.56
259.616	385.56
259.849	396.56
260.081	405.56
260.314	389.56
260.547	404.56
260.779	396.56
261.012	417.56
261.244	402.56
261.477	415.56
261.71	396.56
261.942	419.56
262.175	402.56
262.407	381.56
262.64	410.56
262.872	408.56
263.105	406.56
263.337	403.56
263.57	404.56
263.802	414.56
264.035	414.56
264.267	418.56
264.499	432.56
264.732	428.56
264.964	444.56
265.197	442.56
265.429	430.56
265.661	440.56
265.894	445.56
266.126	434.56
266.358	441.56
266.591	429.56
266.823	460.56
267.055	449.56
267.287	435.56
267.52	451.56
267.752	461.56
267.984	464.56
268.216	471.56
268.448	458.56
268.681	450.56
268.913	450.56
269.145	467.56
269.377	463.56
269.609	463.56
269.841	487.56
270.073	498.56
270.306	470.56
270.538	460.56
270.77	447.56
271.002	446.56
271.234	460.56
271.466	483.56
271.698	479.56
271.93	476.56
272.162	470.56
272.394	501.56
272.626	476.56
272.858	477.56
273.09	491.56
273.322	502.56
273.553	498.56
273.785	492.56
274.017	500.56
274.249	508.56
274.481	505.56
274.713	523.56
274.945	504.56
275.176	521.56
275.408	536.56
275.64	506.56
275.872	511.56
276.104	502.56
276.335	512.56
276.567	511.56
276.799	527.56
277.031	505.56
277.262	524.56
277.494	530.56
277.726	539.56
277.957	536.56
278.189	543.56
278.421	530.56
278.652	545.56
278.884	525.56
279.115	530.56
279.347	526.56
279.579	522.56
279.81	550.56
280.042	562.56
280.273	576.56
280.505	570.56
280.736	571.56
280.968	558.56
281.199	543.56
281.431	567.56
281.662	568.56
281.894	573.56
282.125	555.56
282.356	582.56
282.588	568.56
282.819	580.56
283.051	587.56
283.282	596.56
283.513	575.56
283.745	595.56
283.976	585.56
284.207	612.56
284.439	586.56
284.67	598.56
284.901	600.56
285.132	612.56
285.364	600.56
285.595	600.56
285.826	604.56
286.057	613.56
286.288	606.56
286.52	618.56
286.751	612.56
286.982	610.56
287.213	622.56
287.444	615.56
287.675	642.56
287.906	602.56
288.138	618.56
288.369	630.56
288.6	650.56
288.831	631.56
289.062	642.56
289.293	646.56
289.524	636.56
289.755	627.56
289.986	640.56
290.217	641.56
290.448	662.56
290.679	642.56
290.91	627.56
291.141	654.56
291.371	638.56
291.602	622.56
291.833	615.56
292.064	644.56
292.295	659.56
292.526	636.56
292.757	634.56
292.987	648.56
293.218	649.56
293.449	638.56
293.68	632.56
293.91	632.56
294.141	643.56
294.372	656.56
294.603	668.56
294.833	673.56
295.064	648.56
295.295	655.56
295.525	663.56
295.756	657.56
295.987	670.56
296.217	693.56
296.448	683.56
296.679	670.56
296.909	668.56
297.14	679.56
297.37	690.56
297.601	698.56
297.831	705.56
298.062	692.56
298.292	724.56
298.523	759.56
298.753	696.56
298.984	685.56
299.214	693.56
299.445	695.56
299.675	707.56
299.905	726.56
300.136	697.56
300.366	692.56
300.597	700.56
300.827	753.56
301.057	726.56
301.288	714.56
301.518	749.56
301.748	744.56
301.979	758.56
302.209	752.56
302.439	735.56
302.669	718.56
302.9	722.56
303.13	724.56
303.36	718.56
303.59	737.56
303.82	708.56
304.051	721.56
304.281	729.56
304.511	717.56
304.741	720.56
304.971	726.56
305.201	720.56
305.431	733.56
305.661	685.56
305.891	719.56
306.121	716.56
306.352	732.56
306.582	729.56
306.812	693.56
307.042	699.56
307.272	728.56
307.502	707.56
307.731	718.56
307.961	751.56
308.191	703.56
308.421	718.56
308.651	703.56
308.881	698.56
309.111	743.56
309.341	700.56
309.571	723.56
309.8	703.56
310.03	709.56
310.26	729.56
310.49	731.56
310.72	733.56
310.949	727.56
311.179	732.56
311.409	718.56
311.639	736.56
311.868	734.56
312.098	754.56
312.328	731.56
312.557	764.56
312.787	753.56
313.017	758.56
313.246	758.56
313.476	769.56
313.706	761.56
313.935	754.56
314.165	782.56
314.394	782.56
314.624	784.56
314.853	784.56
315.083	758.56
315.312	750.56
315.542	785.56
315.771	759.56
316.001	748.56
316.23	746.56
316.46	749.56
316.689	771.56
316.919	757.56
317.148	726.56
317.377	760.56
317.607	752.56
317.836	742.56
318.065	760.56
318.295	782.56
318.524	748.56
318.753	776.56
318.983	745.56
319.212	758.56
319.441	760.56
319.67	736.56
319.9	774.56
320.129	760.56
320.358	756.56
320.587	747.56
320.816	762.56
321.046	790.56
321.275	770.56
321.504	767.56
321.733	762.56
321.962	746.56
322.191	802.56
322.42	770.56
322.649	801.56
322.878	789.56
323.108	778.56
323.337	802.56
323.566	795.56
323.795	778.56
324.024	784.56
324.253	778.56
324.482	796.56
324.71	796.56
324.939	817.56
325.168	813.56
325.397	808.56
325.626	829.56
325.855	826.56
326.084	827.56
326.313	859.56
326.542	869.56
326.77	870.56
326.999	861.56
327.228	853.56
327.457	844.56
327.686	841.56
327.914	864.56
328.143	871.56
328.372	836.56
328.6	890.56
328.829	880.56
329.058	864.56
329.287	856.56
329.515	898.56
329.744	856.56
329.972	863.56
330.201	871.56
330.43	863.56
330.658	899.56
330.887	894.56
331.115	897.56
331.344	898.56
331.572	918.56
331.801	942.56
332.03	981.56
332.258	960.56
332.486	1030.56
332.715	1052.56
332.943	1067.56
333.172	1145.56
333.4	1157.56
333.629	1204.56
333.857	1226.56
334.085	1180.56
334.314	1170.56
334.542	1139.56
334.771	1119.56
334.999	1091.56
335.227	1102.56
335.455	1094.56
335.684	1126.56
335.912	1095.56
336.14	1068.56
336.369	1065.56
336.597	1051.56
336.825	1050.56
337.053	1018.56
337.281	1048.56
337.51	1026.56
337.738	1026.56
337.966	1003.56
338.194	1002.56
338.422	983.56
338.65	962.56
338.878	971.56
339.106	947.56
339.334	965.56
339.562	947.56
339.79	933.56
340.018	916.56
340.246	906.56
340.474	904.56
340.702	912.56
340.93	940.56
341.158	931.56
341.386	921.56
341.614	924.56
341.842	934.56
342.07	890.56
342.298	894.56
342.526	898.56
342.754	890.56
342.981	896.56
343.209	948.56
343.437	969.56
343.665	1001.56
343.893	1123.56
344.12	1179.56
344.348	1116.56
344.576	1042.56
344.804	1048.56
345.031	948.56
345.259	940.56
345.487	922.56
345.714	930.56
345.942	923.56
346.17	916.56
346.397	911.56
346.625	899.56
346.853	904.56
347.08	891.56
347.308	908.56
347.535	913.56
347.763	901.56
347.99	913.56
348.218	930.56
348.445	908.56
348.673	915.56
348.9	873.56
349.128	908.56
349.355	883.56
349.583	911.56
349.81	887.56
350.037	894.56
350.265	863.56
350.492	857.56
350.72	877.56
350.947	874.56
351.174	854.56
351.402	894.56
351.629	869.56
351.856	861.56
352.083	863.56
352.311	859.56
352.538	854.56
352.765	879.56
352.992	848.56
353.22	837.56
353.447	854.56
353.674	863.56
353.901	872.56
354.128	837.56
354.355	852.56
354.583	817.56
354.81	842.56
355.037	837.56
355.264	862.56
355.491	868.56
355.718	843.56
355.945	852.56
356.172	870.56
356.399	848.56
356.626	857.56
356.853	907.56
357.08	874.56
357.307	871.56
357.534	851.56
357.761	858.56
357.988	834.56
358.215	839.56
358.441	859.56
358.668	834.56
358.895	838.56
359.122	851.56
359.349	878.56
359.576	843.56
359.802	859.56
360.029	838.56
360.256	870.56
360.483	854.56
360.709	854.56
360.936	874.56
361.163	878.56
361.39	867.56
361.616	856.56
361.843	868.56
362.07	887.56
362.296	847.56
362.523	842.56
362.749	846.56
362.976	842.56
363.203	817.56
363.429	851.56
363.656	844.56
363.882	858.56
364.109	839.56
364.335	845.56
364.562	820.56
364.788	813.56
365.015	868.56
365.241	824.56
365.468	844.56
365.694	834.56
365.92	818.56
366.147	834.56
366.373	834.56
366.599	823.56
366.826	847.56
367.052	842.56
367.278	839.56
367.505	848.56
367.731	856.56
367.957	827.56
368.184	864.56
368.41	859.56
368.636	847.56
368.862	846.56
369.089	847.56
369.315	848.56
369.541	867.56
369.767	863.56
369.993	880.56
370.219	878.56
370.445	884.56
370.672	896.56
370.898	900.56
371.124	903.56
371.35	880.56
371.576	928.56
371.802	940.56
372.028	896.56
372.254	921.56
372.48	908.56
372.706	929.56
372.932	961.56
373.158	952.56
373.384	931.56
373.61	911.56
373.835	924.56
374.061	904.56
374.287	924.56
374.513	920.56
374.739	941.56
374.965	994.56
375.191	1008.56
375.416	1014.56
375.642	964.56
375.868	978.56
376.094	960.56
376.319	936.56
376.545	920.56
376.771	912.56
376.997	911.56
377.222	905.56
377.448	915.56
377.674	912.56
377.899	907.56
378.125	905.56
378.35	898.56
378.576	906.56
378.802	906.56
379.027	899.56
379.253	894.56
379.478	876.56
379.704	895.56
379.929	904.56
380.155	890.56
380.38	882.56
380.606	905.56
380.831	919.56
381.057	916.56
381.282	881.56
381.507	899.56
381.733	897.56
381.958	938.56
382.184	943.56
382.409	922.56
382.634	924.56
382.86	935.56
383.085	958.56
383.31	960.56
383.535	974.56
383.761	1016.56
383.986	1019.56
384.211	1052.56
384.436	1064.56
384.662	1101.56
384.887	1085.56
385.112	1097.56
385.337	1102.56
385.562	1104.56
385.787	1084.56
386.013	1119.56
386.238	1120.56
386.463	1100.56
386.688	1099.56
386.913	1091.56
387.138	1084.56
387.363	1058.56
387.588	1071.56
387.813	1051.56
388.038	1028.56
388.263	1084.56
388.488	1095.56
388.713	1080.56
388.938	1075.56
389.163	1025.56
389.387	1039.56
389.612	1074.56
389.837	1050.56
390.062	1034.56
390.287	1057.56
390.512	1076.56
390.736	1048.56
390.961	1087.56
391.186	1097.56
391.411	1113.56
391.636	1174.56
391.86	1210.56
392.085	1244.56
392.31	1239.56
392.534	1211.56
392.759	1179.56
392.984	1168.56
393.208	1175.56
393.433	1139.56
393.658	1144.56
393.882	1133.56
394.107	1182.56
394.331	1149.56
394.556	1188.56
394.78	1156.56
395.005	1153.56
395.229	1178.56
395.454	1176.56
395.678	1248.56
395.903	1243.56
396.127	1209.56
396.352	1163.56
396.576	1116.56
396.801	1122.56
397.025	1142.56
397.249	1150.56
397.474	1193.56
397.698	1204.56
397.922	1248.56
398.147	1211.56
398.371	1232.56
398.595	1287.56
398.82	1333.56
399.044	1424.56
399.268	1583.56
399.492	1865.56
399.717	2159.56
399.941	2131.56
400.165	1870.56
400.389	1654.56
400.613	1531.56
400.837	1414.56
401.062	1369.56
401.286	1362.56
401.51	1374.56
401.734	1344.56
401.958	1382.56
402.182	1406.56
402.406	1402.56
402.63	1448.56
402.854	1438.56
403.078	1502.56
403.302	1550.56
403.526	1555.56
403.75	1621.56
403.974	1632.56
404.198	1608.56
404.422	1634.56
404.645	1604.56
404.869	1563.56
405.093	1591.56
405.317	1531.56
405.541	1522.56
405.765	1488.56
405.988	1482.56
406.212	1500.56
406.436	1494.56
406.66	1504.56
406.883	1549.56
407.107	1632.56
407.331	1709.56
407.555	1779.56
407.778	1808.56
408.002	1749.56
408.226	1681.56
408.449	1673.56
408.673	1566.56
408.896	1564.56
409.12	1567.56
409.344	1581.56
409.567	1552.56
409.791	1552.56
410.014	1559.56
410.238	1552.56
410.461	1549.56
410.685	1517.56
410.908	1478.56
411.132	1442.56
411.355	1452.56
411.578	1432.56
411.802	1430.56
412.025	1456.56
412.249	1460.56
412.472	1423.56
412.695	1368.56
412.919	1375.56
413.142	1369.56
413.365	1360.56
413.589	1391.56
413.812	1359.56
414.035	1366.56
414.258	1374.56
414.482	1364.56
414.705	1407.56
414.928	1394.56
415.151	1364.56
415.374	1386.56
415.597	1351.56
415.821	1351.56
416.044	1329.56
416.267	1343.56
416.49	1372.56
416.713	1363.56
416.936	1355.56
417.159	1362.56
417.382	1349.56
417.605	1367.56
417.828	1349.56
418.051	1347.56
418.274	1376.56
418.497	1384.56
418.72	1414.56
418.943	1387.56
419.166	1550.56
419.389	1606.56
419.611	1593.56
419.834	1500.56
420.057	1458.56
420.28	1419.56
420.503	1354.56
420.726	1350.56
420.948	1368.56
421.171	1378.56
421.394	1389.56
421.617	1374.56
421.839	1389.56
422.062	1408.56
422.285	1350.56
422.507	1433.56
422.73	1391.56
422.953	1414.56
423.175	1451.56
423.398	1465.56
423.621	1488.56
423.843	1490.56
424.066	1510.56
424.288	1472.56
424.511	1445.56
424.733	1428.56
424.956	1442.56
425.178	1374.56
425.401	1370.56
425.623	1360.56
425.846	1370.56
426.068	1347.56
426.291	1315.56
426.513	1328.56
426.735	1314.56
426.958	1278.56
427.18	1218.56
427.402	1236.56
427.625	1276.56
427.847	1218.56
428.069	1231.56
428.292	1270.56
428.514	1224.56
428.736	1223.56
428.958	1209.56
429.181	1199.56
429.403	1183.56
429.625	1224.56
429.847	1188.56
430.069	1210.56
430.292	1229.56
430.514	1167.56
430.736	1176.56
430.958	1192.56
431.18	1201.56
431.402	1222.56
431.624	1205.56
431.846	1222.56
432.068	1216.56
432.29	1273.56
432.512	1208.56
432.734	1249.56
432.956	1219.56
433.178	1261.56
433.4	1239.56
433.622	1259.56
433.844	1275.56
434.066	1241.56
434.287	1256.56
434.509	1308.56
434.731	1346.56
434.953	1422.56
435.175	1430.56
435.397	1413.56
435.618	1338.56
435.84	1296.56
436.062	1227.56
436.284	1226.56
436.505	1253.56
436.727	1243.56
436.949	1259.56
437.17	1221.56
437.392	1197.56
437.614	1190.56
437.835	1172.56
438.057	1186.56
438.278	1200.56
438.5	1164.56
438.721	1159.56
438.943	1191.56
439.165	1193.56
439.386	1202.56
439.608	1249.56
439.829	1255.56
440.05	1259.56
440.272	1258.56
440.493	1219.56
440.715	1276.56
440.936	1302.56
441.158	1323.56
441.379	1341.56
441.6	1427.56
441.822	1436.56
442.043	1458.56
442.264	1399.56
442.486	1360.56
442.707	1374.56
442.928	1366.56
443.149	1406.56
443.371	1396.56
443.592	1400.56
443.813	1423.56
444.034	1439.56
444.255	1475.56
444.476	1589.56
444.698	1635.56
444.919	1739.56
445.14	1802.56
445.361	1606.56
445.582	1488.56
445.803	1350.56
446.024	1313.56
446.245	1315.56
446.466	1299.56
446.687	1226.56
446.908	1291.56
447.129	1225.56
447.35	1194.56
447.571	1219.56
447.792	1194.56
448.013	1174.56
448.234	1180.56
448.455	1180.56
448.675	1155.56
448.896	1178.56
449.117	1128.56
449.338	1154.56
449.559	1116.56
449.779	1102.56
450	1124.56
450.221	1143.56
450.442	1144.56
450.662	1149.56
450.883	1182.56
451.104	1206.56
451.324	1202.56
451.545	1185.56
451.766	1186.56
451.986	1166.56
452.207	1167.56
452.428	1144.56
452.648	1160.56
452.869	1120.56
453.089	1106.56
453.31	1138.56
453.53	1107.56
453.751	1113.56
453.971	1126.56
454.192	1110.56
454.412	1098.56
454.633	1069.56
454.853	1122.56
455.073	1101.56
455.294	1097.56
455.514	1105.56
455.734	1074.56
455.955	1045.56
456.175	1059.56
456.395	1051.56
456.616	1075.56
456.836	1074.56
457.056	1081.56
457.276	1039.56
457.497	1060.56
457.717	1064.56
457.937	1058.56
458.157	1122.56
458.377	1106.56
458.598	1124.56
458.818	1146.56
459.038	1162.56
459.258	1199.56
459.478	1283.56
459.698	1340.56
459.918	1320.56
460.138	1364.56
460.358	1478.56
460.578	1509.56
460.798	1526.56
461.018	1512.56
461.238	1506.56
461.458	1477.56
461.678	1460.56
461.898	1476.56
462.118	1483.56
462.338	1618.56
462.558	1643.56
462.777	1692.56
462.997	1846.56
463.217	2095.56
463.437	2128.56
463.657	1897.56
463.876	1764.56
464.096	1715.56
464.316	1751.56
464.536	1783.56
464.755	1724.56
464.975	1637.56
465.195	1555.56
465.414	1456.56
465.634	1340.56
465.854	1317.56
466.073	1309.56
466.293	1288.56
466.512	1257.56
466.732	1238.56
466.951	1218.56
467.171	1236.56
467.391	1218.56
467.61	1211.56
467.829	1176.56
468.049	1188.56
468.268	1142.56
468.488	1135.56
468.707	1146.56
468.927	1192.56
469.146	1173.56
469.365	1175.56
469.585	1182.56
469.804	1199.56
470.023	1224.56
470.243	1250.56
470.462	1235.56
470.681	1247.56
470.901	1274.56
471.12	1216.56
471.339	1253.56
471.558	1169.56
471.777	1177.56
471.997	1175.56
472.216	1122.56
472.435	1132.56
472.654	1109.56
472.873	1138.56
473.092	1099.56
473.311	1095.56
473.53	1084.56
473.749	1100.56
473.968	1104.56
474.187	1128.56
474.406	1117.56
474.625	1132.56
474.844	1154.56
475.063	1160.56
475.282	1150.56
475.501	1147.56
475.72	1160.56
475.939	1156.56
476.158	1155.56
476.377	1173.56
476.596	1169.56
476.814	1187.56
477.033	1206.56
477.252	1204.56
477.471	1223.56
477.69	1250.56
477.908	1296.56
478.127	1399.56
478.346	1340.56
478.564	1381.56
478.783	1395.56
479.002	1449.56
479.22	1466.56
479.439	1442.56
479.658	1383.56
479.876	1449.56
480.095	1442.56
480.313	1468.56
480.532	1555.56
480.751	1532.56
480.969	1453.56
481.188	1407.56
481.406	1368.56
481.624	1311.56
481.843	1292.56
482.061	1321.56
482.28	1314.56
482.498	1319.56
482.717	1306.56
482.935	1306.56
483.153	1287.56
483.372	1294.56
483.59	1294.56
483.808	1296.56
484.027	1304.56
484.245	1291.56
484.463	1317.56
484.681	1320.56
484.9	1335.56
485.118	1346.56
485.336	1332.56
485.554	1355.56
485.772	1360.56
485.99	1379.56
486.209	1386.56
486.427	1366.56
486.645	1378.56
486.863	1397.56
487.081	1328.56
487.299	1378.56
487.517	1351.56
487.735	1338.56
487.953	1360.56
488.171	1381.56
488.389	1372.56
488.607	1325.56
488.825	1318.56
489.043	1347.56
489.261	1337.56
489.479	1344.56
489.696	1379.56
489.914	1351.56
490.132	1325.56
490.35	1362.56
490.568	1402.56
490.786	1371.56
491.003	1354.56
491.221	1392.56
491.439	1392.56
491.657	1390.56
491.874	1401.56
492.092	1404.56
492.31	1394.56
492.527	1452.56
492.745	1389.56
492.963	1446.56
493.18	1424.56
493.398	1407.56
493.615	1428.56
493.833	1423.56
494.05	1442.56
494.268	1469.56
