Data from Ni(NO3)2@0.125M.TitratingCurve.Agarose3%dH2O.NegLispCup.LampEnergy10.LIBS07252019_HRD10591_18-10-24-568.txt Node
Date: Thu Jul 25 18:10:24 EDT 2019
User: cochatt
Spectrometer: HR+D1059
Trigger mode: 1
Integration Time (sec): 1.000000E-1
Scans to average: 1
Electric dark correction enabled: true
Nonlinearity correction enabled: false
Boxcar width: 0
XAxis mode: Wavelengths
Number of Pixels in Spectrum: 2048
>>>>>Begin Spectral Data<<<<<
223.165	-18.31
223.4	-18.31
223.635	-18.31
223.869	-22.31
224.104	-1.31
224.338	-18.31
224.573	-24.31
224.808	1.69
225.042	-7.31
225.277	-9.31
225.511	6.69
225.746	-10.31
225.98	2.69
226.215	8.69
226.449	25.69
226.683	20.69
226.918	18.69
227.152	26.69
227.387	31.69
227.621	27.69
227.856	41.69
228.09	27.69
228.324	56.69
228.559	55.69
228.793	77.69
229.027	95.69
229.262	96.69
229.496	92.69
229.73	105.69
229.964	117.69
230.199	103.69
230.433	132.69
230.667	113.69
230.901	102.69
231.136	128.69
231.37	130.69
231.604	124.69
231.838	136.69
232.072	117.69
232.306	132.69
232.541	138.69
232.775	142.69
233.009	131.69
233.243	140.69
233.477	124.69
233.711	135.69
233.945	122.69
234.179	129.69
234.413	133.69
234.647	150.69
234.881	144.69
235.115	137.69
235.349	134.69
235.583	146.69
235.817	147.69
236.051	134.69
236.285	143.69
236.519	151.69
236.753	151.69
236.987	143.69
237.221	162.69
237.455	151.69
237.689	145.69
237.922	146.69
238.156	165.69
238.39	166.69
238.624	150.69
238.858	175.69
239.091	153.69
239.325	166.69
239.559	166.69
239.793	162.69
240.027	143.69
240.26	167.69
240.494	166.69
240.728	155.69
240.961	162.69
241.195	177.69
241.429	154.69
241.662	167.69
241.896	168.69
242.13	157.69
242.363	182.69
242.597	180.69
242.83	177.69
243.064	170.69
243.298	176.69
243.531	182.69
243.765	198.69
243.998	186.69
244.232	176.69
244.465	196.69
244.699	201.69
244.932	191.69
245.166	192.69
245.399	200.69
245.633	194.69
245.866	210.69
246.099	203.69
246.333	221.69
246.566	193.69
246.8	200.69
247.033	204.69
247.266	207.69
247.5	207.69
247.733	204.69
247.966	196.69
248.2	206.69
248.433	208.69
248.666	211.69
248.899	199.69
249.133	223.69
249.366	219.69
249.599	248.69
249.832	220.69
250.066	216.69
250.299	233.69
250.532	210.69
250.765	220.69
250.998	234.69
251.231	229.69
251.465	231.69
251.698	242.69
251.931	245.69
252.164	246.69
252.397	247.69
252.63	242.69
252.863	222.69
253.096	245.69
253.329	240.69
253.562	256.69
253.795	260.69
254.028	247.69
254.261	233.69
254.494	233.69
254.727	255.69
254.96	259.69
255.193	248.69
255.426	268.69
255.659	246.69
255.892	259.69
256.124	255.69
256.357	254.69
256.59	255.69
256.823	275.69
257.056	262.69
257.289	270.69
257.521	284.69
257.754	278.69
257.987	277.69
258.22	257.69
258.452	268.69
258.685	287.69
258.918	273.69
259.151	274.69
259.383	282.69
259.616	272.69
259.849	266.69
260.081	287.69
260.314	277.69
260.547	294.69
260.779	304.69
261.012	302.69
261.244	308.69
261.477	313.69
261.71	300.69
261.942	304.69
262.175	295.69
262.407	284.69
262.64	294.69
262.872	311.69
263.105	296.69
263.337	309.69
263.57	299.69
263.802	320.69
264.035	311.69
264.267	310.69
264.499	309.69
264.732	312.69
264.964	318.69
265.197	322.69
265.429	308.69
265.661	329.69
265.894	337.69
266.126	318.69
266.358	330.69
266.591	308.69
266.823	319.69
267.055	320.69
267.287	336.69
267.52	318.69
267.752	325.69
267.984	342.69
268.216	326.69
268.448	337.69
268.681	332.69
268.913	342.69
269.145	331.69
269.377	340.69
269.609	322.69
269.841	353.69
270.073	346.69
270.306	329.69
270.538	327.69
270.77	334.69
271.002	322.69
271.234	347.69
271.466	349.69
271.698	338.69
271.93	353.69
272.162	352.69
272.394	343.69
272.626	332.69
272.858	337.69
273.09	337.69
273.322	356.69
273.553	347.69
273.785	366.69
274.017	328.69
274.249	366.69
274.481	376.69
274.713	360.69
274.945	368.69
275.176	379.69
275.408	362.69
275.64	379.69
275.872	373.69
276.104	390.69
276.335	364.69
276.567	380.69
276.799	376.69
277.031	376.69
277.262	376.69
277.494	376.69
277.726	387.69
277.957	384.69
278.189	398.69
278.421	390.69
278.652	395.69
278.884	404.69
279.115	384.69
279.347	410.69
279.579	376.69
279.81	420.69
280.042	410.69
280.273	412.69
280.505	410.69
280.736	412.69
280.968	407.69
281.199	418.69
281.431	405.69
281.662	416.69
281.894	424.69
282.125	406.69
282.356	414.69
282.588	429.69
282.819	422.69
283.051	419.69
283.282	417.69
283.513	435.69
283.745	437.69
283.976	415.69
284.207	435.69
284.439	424.69
284.67	423.69
284.901	425.69
285.132	439.69
285.364	440.69
285.595	447.69
285.826	439.69
286.057	437.69
286.288	442.69
286.52	444.69
286.751	458.69
286.982	446.69
287.213	443.69
287.444	448.69
287.675	436.69
287.906	458.69
288.138	452.69
288.369	459.69
288.6	465.69
288.831	463.69
289.062	457.69
289.293	458.69
289.524	442.69
289.755	463.69
289.986	454.69
290.217	466.69
290.448	467.69
290.679	488.69
290.91	454.69
291.141	499.69
291.371	457.69
291.602	487.69
291.833	471.69
292.064	464.69
292.295	468.69
292.526	480.69
292.757	469.69
292.987	464.69
293.218	479.69
293.449	484.69
293.68	496.69
293.91	492.69
294.141	482.69
294.372	464.69
294.603	495.69
294.833	472.69
295.064	491.69
295.295	469.69
295.525	485.69
295.756	487.69
295.987	468.69
296.217	498.69
296.448	493.69
296.679	496.69
296.909	511.69
297.14	514.69
297.37	497.69
297.601	508.69
297.831	475.69
298.062	488.69
298.292	523.69
298.523	525.69
298.753	537.69
298.984	534.69
299.214	516.69
299.445	540.69
299.675	492.69
299.905	510.69
300.136	530.69
300.366	510.69
300.597	525.69
300.827	535.69
301.057	544.69
301.288	550.69
301.518	538.69
301.748	538.69
301.979	536.69
302.209	536.69
302.439	527.69
302.669	529.69
302.9	546.69
303.13	521.69
303.36	531.69
303.59	522.69
303.82	534.69
304.051	560.69
304.281	548.69
304.511	518.69
304.741	511.69
304.971	524.69
305.201	526.69
305.431	538.69
305.661	531.69
305.891	495.69
306.121	516.69
306.352	524.69
306.582	526.69
306.812	510.69
307.042	508.69
307.272	521.69
307.502	507.69
307.731	519.69
307.961	517.69
308.191	505.69
308.421	518.69
308.651	498.69
308.881	494.69
309.111	519.69
309.341	520.69
309.571	527.69
309.8	519.69
310.03	522.69
310.26	532.69
310.49	521.69
310.72	524.69
310.949	531.69
311.179	518.69
311.409	541.69
311.639	541.69
311.868	527.69
312.098	542.69
312.328	544.69
312.557	544.69
312.787	535.69
313.017	542.69
313.246	539.69
313.476	539.69
313.706	543.69
313.935	569.69
314.165	562.69
314.394	556.69
314.624	564.69
314.853	582.69
315.083	564.69
315.312	540.69
315.542	542.69
315.771	561.69
316.001	548.69
316.23	547.69
316.46	560.69
316.689	555.69
316.919	557.69
317.148	547.69
317.377	564.69
317.607	566.69
317.836	542.69
318.065	540.69
318.295	536.69
318.524	561.69
318.753	514.69
318.983	541.69
319.212	547.69
319.441	559.69
319.67	551.69
319.9	555.69
320.129	527.69
320.358	548.69
320.587	551.69
320.816	561.69
321.046	562.69
321.275	551.69
321.504	562.69
321.733	560.69
321.962	578.69
322.191	548.69
322.42	567.69
322.649	582.69
322.878	542.69
323.108	546.69
323.337	571.69
323.566	560.69
323.795	550.69
324.024	563.69
324.253	586.69
324.482	565.69
324.71	595.69
324.939	580.69
325.168	571.69
325.397	586.69
325.626	592.69
325.855	591.69
326.084	595.69
326.313	617.69
326.542	605.69
326.77	624.69
326.999	621.69
327.228	604.69
327.457	599.69
327.686	604.69
327.914	597.69
328.143	604.69
328.372	604.69
328.6	628.69
328.829	606.69
329.058	582.69
329.287	597.69
329.515	629.69
329.744	610.69
329.972	599.69
330.201	607.69
330.43	591.69
330.658	602.69
330.887	612.69
331.115	631.69
331.344	640.69
331.572	645.69
331.801	676.69
332.03	672.69
332.258	682.69
332.486	696.69
332.715	720.69
332.943	738.69
333.172	818.69
333.4	851.69
333.629	854.69
333.857	849.69
334.085	817.69
334.314	799.69
334.542	788.69
334.771	767.69
334.999	772.69
335.227	768.69
335.455	789.69
335.684	748.69
335.912	734.69
336.14	743.69
336.369	716.69
336.597	736.69
336.825	738.69
337.053	739.69
337.281	719.69
337.51	696.69
337.738	710.69
337.966	686.69
338.194	703.69
338.422	688.69
338.65	642.69
338.878	665.69
339.106	651.69
339.334	646.69
339.562	662.69
339.79	664.69
340.018	650.69
340.246	632.69
340.474	628.69
340.702	644.69
340.93	648.69
341.158	640.69
341.386	647.69
341.614	618.69
341.842	649.69
342.07	638.69
342.298	627.69
342.526	617.69
342.754	638.69
342.981	617.69
343.209	657.69
343.437	687.69
343.665	706.69
343.893	762.69
344.12	804.69
344.348	748.69
344.576	706.69
344.804	671.69
345.031	650.69
345.259	666.69
345.487	658.69
345.714	645.69
345.942	628.69
346.17	646.69
346.397	623.69
346.625	634.69
346.853	633.69
347.08	606.69
347.308	648.69
347.535	634.69
347.763	660.69
347.99	633.69
348.218	635.69
348.445	632.69
348.673	622.69
348.9	624.69
349.128	626.69
349.355	601.69
349.583	615.69
349.81	601.69
350.037	596.69
350.265	589.69
350.492	610.69
350.72	602.69
350.947	596.69
351.174	590.69
351.402	599.69
351.629	563.69
351.856	608.69
352.083	581.69
352.311	590.69
352.538	578.69
352.765	559.69
352.992	584.69
353.22	593.69
353.447	584.69
353.674	595.69
353.901	608.69
354.128	600.69
354.355	588.69
354.583	599.69
354.81	596.69
355.037	583.69
355.264	599.69
355.491	593.69
355.718	590.69
355.945	618.69
356.172	604.69
356.399	589.69
356.626	604.69
356.853	604.69
357.08	597.69
357.307	587.69
357.534	606.69
357.761	587.69
357.988	615.69
358.215	585.69
358.441	596.69
358.668	601.69
358.895	624.69
359.122	587.69
359.349	603.69
359.576	617.69
359.802	575.69
360.029	596.69
360.256	630.69
360.483	593.69
360.709	586.69
360.936	587.69
361.163	610.69
361.39	596.69
361.616	606.69
361.843	595.69
362.07	594.69
362.296	588.69
362.523	572.69
362.749	587.69
362.976	599.69
363.203	582.69
363.429	592.69
363.656	562.69
363.882	593.69
364.109	599.69
364.335	586.69
364.562	576.69
364.788	593.69
365.015	580.69
365.241	598.69
365.468	598.69
365.694	594.69
365.92	579.69
366.147	611.69
366.373	607.69
366.599	576.69
366.826	602.69
367.052	593.69
367.278	584.69
367.505	604.69
367.731	591.69
367.957	597.69
368.184	623.69
368.41	598.69
368.636	582.69
368.862	636.69
369.089	585.69
369.315	608.69
369.541	623.69
369.767	618.69
369.993	623.69
370.219	629.69
370.445	635.69
370.672	615.69
370.898	642.69
371.124	628.69
371.35	641.69
371.576	650.69
371.802	662.69
372.028	616.69
372.254	630.69
372.48	670.69
372.706	661.69
372.932	681.69
373.158	656.69
373.384	646.69
373.61	653.69
373.835	638.69
374.061	672.69
374.287	653.69
374.513	666.69
374.739	672.69
374.965	696.69
375.191	730.69
375.416	699.69
375.642	701.69
375.868	675.69
376.094	670.69
376.319	652.69
376.545	677.69
376.771	658.69
376.997	622.69
377.222	656.69
377.448	636.69
377.674	664.69
377.899	628.69
378.125	651.69
378.35	653.69
378.576	628.69
378.802	634.69
379.027	649.69
379.253	631.69
379.478	634.69
379.704	638.69
379.929	616.69
380.155	676.69
380.38	619.69
380.606	620.69
380.831	623.69
381.057	650.69
381.282	640.69
381.507	638.69
381.733	639.69
381.958	679.69
382.184	654.69
382.409	658.69
382.634	662.69
382.86	678.69
383.085	687.69
383.31	695.69
383.535	679.69
383.761	707.69
383.986	742.69
384.211	755.69
384.436	760.69
384.662	766.69
384.887	787.69
385.112	784.69
385.337	778.69
385.562	807.69
385.787	792.69
386.013	791.69
386.238	768.69
386.463	787.69
386.688	768.69
386.913	766.69
387.138	762.69
387.363	748.69
387.588	747.69
387.813	778.69
388.038	771.69
388.263	781.69
388.488	792.69
388.713	761.69
388.938	734.69
389.163	745.69
389.387	746.69
389.612	730.69
389.837	770.69
390.062	744.69
390.287	764.69
390.512	737.69
390.736	729.69
390.961	791.69
391.186	796.69
391.411	815.69
391.636	853.69
391.86	844.69
392.085	890.69
392.31	869.69
392.534	832.69
392.759	845.69
392.984	837.69
393.208	831.69
393.433	823.69
393.658	830.69
393.882	826.69
394.107	841.69
394.331	810.69
394.556	802.69
394.78	826.69
395.005	843.69
395.229	876.69
395.454	863.69
395.678	901.69
395.903	888.69
396.127	853.69
396.352	822.69
396.576	793.69
396.801	806.69
397.025	800.69
397.249	825.69
397.474	875.69
397.698	867.69
397.922	861.69
398.147	867.69
398.371	888.69
398.595	905.69
398.82	925.69
399.044	996.69
399.268	1116.69
399.492	1319.69
399.717	1534.69
399.941	1498.69
400.165	1304.69
400.389	1141.69
400.613	1062.69
400.837	986.69
401.062	975.69
401.286	946.69
401.51	947.69
401.734	954.69
401.958	982.69
402.182	968.69
402.406	964.69
402.63	991.69
402.854	1054.69
403.078	1070.69
403.302	1064.69
403.526	1127.69
403.75	1152.69
403.974	1154.69
404.198	1127.69
404.422	1156.69
404.645	1139.69
404.869	1119.69
405.093	1110.69
405.317	1070.69
405.541	1078.69
405.765	1078.69
405.988	1093.69
406.212	1054.69
406.436	1041.69
406.66	1065.69
406.883	1101.69
407.107	1169.69
407.331	1237.69
407.555	1295.69
407.778	1249.69
408.002	1230.69
408.226	1187.69
408.449	1162.69
408.673	1108.69
408.896	1091.69
409.12	1086.69
409.344	1123.69
409.567	1105.69
409.791	1112.69
410.014	1110.69
410.238	1090.69
410.461	1087.69
410.685	1072.69
410.908	1057.69
411.132	1053.69
411.355	999.69
411.578	991.69
411.802	998.69
412.025	1004.69
412.249	1021.69
412.472	1024.69
412.695	983.69
412.919	956.69
413.142	987.69
413.365	944.69
413.589	988.69
413.812	948.69
414.035	950.69
414.258	939.69
414.482	948.69
414.705	983.69
414.928	1023.69
415.151	963.69
415.374	980.69
415.597	973.69
415.821	970.69
416.044	922.69
416.267	957.69
416.49	962.69
416.713	955.69
416.936	964.69
417.159	935.69
417.382	969.69
417.605	959.69
417.828	952.69
418.051	961.69
418.274	943.69
418.497	967.69
418.72	989.69
418.943	962.69
419.166	1076.69
419.389	1137.69
419.611	1070.69
419.834	1020.69
420.057	1010.69
420.28	987.69
420.503	949.69
420.726	939.69
420.948	961.69
421.171	961.69
421.394	931.69
421.617	937.69
421.839	979.69
422.062	976.69
422.285	958.69
422.507	1000.69
422.73	1013.69
422.953	975.69
423.175	1037.69
423.398	1028.69
423.621	1048.69
423.843	1042.69
424.066	1050.69
424.288	1007.69
424.511	1043.69
424.733	993.69
424.956	1028.69
425.178	992.69
425.401	961.69
425.623	964.69
425.846	971.69
426.068	923.69
426.291	899.69
426.513	915.69
426.735	890.69
426.958	901.69
427.18	854.69
427.402	876.69
427.625	889.69
427.847	862.69
428.069	860.69
428.292	855.69
428.514	850.69
428.736	847.69
428.958	870.69
429.181	845.69
429.403	835.69
429.625	828.69
429.847	854.69
430.069	824.69
430.292	825.69
430.514	860.69
430.736	828.69
430.958	844.69
431.18	831.69
431.402	835.69
431.624	847.69
431.846	844.69
432.068	878.69
432.29	868.69
432.512	842.69
432.734	866.69
432.956	860.69
433.178	892.69
433.4	858.69
433.622	886.69
433.844	858.69
434.066	880.69
434.287	883.69
434.509	895.69
434.731	951.69
434.953	975.69
435.175	968.69
435.397	959.69
435.618	901.69
435.84	900.69
436.062	844.69
436.284	874.69
436.505	847.69
436.727	862.69
436.949	892.69
437.17	859.69
437.392	848.69
437.614	811.69
437.835	803.69
438.057	849.69
438.278	839.69
438.5	798.69
438.721	854.69
438.943	830.69
439.165	833.69
439.386	841.69
439.608	835.69
439.829	847.69
440.05	840.69
440.272	858.69
440.493	879.69
440.715	892.69
440.936	882.69
441.158	906.69
441.379	891.69
441.6	970.69
441.822	995.69
442.043	984.69
442.264	976.69
442.486	948.69
442.707	963.69
442.928	955.69
443.149	960.69
443.371	959.69
443.592	926.69
443.813	940.69
444.034	986.69
444.255	1050.69
444.476	1058.69
444.698	1148.69
444.919	1206.69
445.14	1240.69
445.361	1104.69
445.582	1011.69
445.803	923.69
446.024	917.69
446.245	868.69
446.466	912.69
446.687	878.69
446.908	855.69
447.129	869.69
447.35	848.69
447.571	834.69
447.792	812.69
448.013	816.69
448.234	825.69
448.455	811.69
448.675	803.69
448.896	819.69
449.117	763.69
449.338	772.69
449.559	805.69
449.779	780.69
450	790.69
450.221	798.69
450.442	833.69
450.662	820.69
450.883	832.69
451.104	819.69
451.324	832.69
451.545	825.69
451.766	792.69
451.986	814.69
452.207	806.69
452.428	811.69
452.648	815.69
452.869	788.69
453.089	776.69
453.31	793.69
453.53	771.69
453.751	766.69
453.971	765.69
454.192	769.69
454.412	766.69
454.633	763.69
454.853	767.69
455.073	753.69
455.294	731.69
455.514	725.69
455.734	736.69
455.955	736.69
456.175	757.69
456.395	715.69
456.616	714.69
456.836	756.69
457.056	731.69
457.276	726.69
457.497	734.69
457.717	741.69
457.937	778.69
458.157	734.69
458.377	736.69
458.598	772.69
458.818	794.69
459.038	807.69
459.258	835.69
459.478	848.69
459.698	886.69
459.918	908.69
460.138	938.69
460.358	1025.69
460.578	1027.69
460.798	1024.69
461.018	1043.69
461.238	990.69
461.458	1022.69
461.678	995.69
461.898	1042.69
462.118	1035.69
462.338	1096.69
462.558	1158.69
462.777	1158.69
462.997	1264.69
463.217	1409.69
463.437	1430.69
463.657	1246.69
463.876	1222.69
464.096	1187.69
464.316	1174.69
464.536	1227.69
464.755	1178.69
464.975	1096.69
465.195	1061.69
465.414	984.69
465.634	922.69
465.854	928.69
466.073	871.69
466.293	878.69
466.512	864.69
466.732	830.69
466.951	837.69
467.171	834.69
467.391	831.69
467.61	841.69
467.829	824.69
468.049	809.69
468.268	801.69
468.488	788.69
468.707	773.69
468.927	793.69
469.146	794.69
469.365	799.69
469.585	807.69
469.804	828.69
470.023	857.69
470.243	861.69
470.462	888.69
470.681	894.69
470.901	882.69
471.12	839.69
471.339	835.69
471.558	827.69
471.777	807.69
471.997	826.69
472.216	800.69
472.435	771.69
472.654	768.69
472.873	760.69
473.092	747.69
473.311	743.69
473.53	771.69
473.749	772.69
473.968	748.69
474.187	749.69
474.406	770.69
474.625	791.69
474.844	774.69
475.063	791.69
475.282	789.69
475.501	787.69
475.72	774.69
475.939	792.69
476.158	779.69
476.377	792.69
476.596	801.69
476.814	824.69
477.033	806.69
477.252	834.69
477.471	855.69
477.69	871.69
477.908	887.69
478.127	936.69
478.346	916.69
478.564	939.69
478.783	931.69
479.002	936.69
479.22	987.69
479.439	979.69
479.658	981.69
479.876	956.69
480.095	979.69
480.313	1024.69
480.532	1052.69
480.751	1048.69
480.969	994.69
481.188	942.69
481.406	883.69
481.624	930.69
481.843	896.69
482.061	916.69
482.28	875.69
482.498	900.69
482.717	864.69
482.935	859.69
483.153	871.69
483.372	865.69
483.59	870.69
483.808	913.69
484.027	886.69
484.245	863.69
484.463	894.69
484.681	908.69
484.9	916.69
485.118	905.69
485.336	905.69
485.554	933.69
485.772	928.69
485.99	920.69
486.209	943.69
486.427	964.69
486.645	927.69
486.863	948.69
487.081	962.69
487.299	918.69
487.517	923.69
487.735	928.69
487.953	934.69
488.171	930.69
488.389	943.69
488.607	907.69
488.825	896.69
489.043	899.69
489.261	890.69
489.479	918.69
489.696	934.69
489.914	935.69
490.132	906.69
490.35	935.69
490.568	891.69
490.786	902.69
491.003	937.69
491.221	937.69
491.439	927.69
491.657	912.69
491.874	950.69
492.092	935.69
492.31	947.69
492.527	939.69
492.745	931.69
492.963	926.69
493.18	937.69
493.398	956.69
493.615	989.69
493.833	963.69
494.05	959.69
494.268	962.69
494.485	991.69
494.703	981.69
494.92	977.69
495.138	962.69
495.355	976.69
495.573	955.69
495.79	987.69
496.008	996.69
496.225	973.69
496.442	1001.69
496.66	1010.69
496.877	1023.69
497.094	1042.69
497.312	1054.69
497.529	1067.69
497.746	1069.69
497.963	1125.69
498.181	1194.69
498.398	1235.69
498.615	1280.69
498.832	1385.69
499.049	1499.69
499.267	1620.69
499.484	1767.69
499.701	1970.69
499.918	2187.69
500.135	2559.69
