Data from Ni(NO3)2@0.125M.TitratingCurve.Agarose3%dH2O.NegLispCup.LampEnergy10.LIBS07252019_HRD10591_18-08-55-567.txt Node
Date: Thu Jul 25 18:08:55 EDT 2019
User: cochatt
Spectrometer: HR+D1059
Trigger mode: 1
Integration Time (sec): 1.000000E-1
Scans to average: 1
Electric dark correction enabled: true
Nonlinearity correction enabled: false
Boxcar width: 0
XAxis mode: Wavelengths
Number of Pixels in Spectrum: 2048
>>>>>Begin Spectral Data<<<<<
223.165	-25.69
223.4	-25.69
223.635	-25.69
223.869	-16.69
224.104	-16.69
224.338	-19.69
224.573	-9.69
224.808	-8.69
225.042	-11.69
225.277	4.31
225.511	-15.69
225.746	-16.69
225.98	7.31
226.215	20.31
226.449	16.31
226.683	31.31
226.918	28.31
227.152	33.31
227.387	34.31
227.621	42.31
227.856	43.31
228.09	48.31
228.324	53.31
228.559	51.31
228.793	60.31
229.027	97.31
229.262	109.31
229.496	119.31
229.73	111.31
229.964	138.31
230.199	129.31
230.433	133.31
230.667	145.31
230.901	135.31
231.136	125.31
231.37	140.31
231.604	141.31
231.838	126.31
232.072	133.31
232.306	142.31
232.541	153.31
232.775	150.31
233.009	142.31
233.243	117.31
233.477	137.31
233.711	147.31
233.945	149.31
234.179	154.31
234.413	152.31
234.647	149.31
234.881	150.31
235.115	151.31
235.349	132.31
235.583	138.31
235.817	156.31
236.051	148.31
236.285	158.31
236.519	167.31
236.753	151.31
236.987	161.31
237.221	154.31
237.455	148.31
237.689	141.31
237.922	165.31
238.156	151.31
238.39	147.31
238.624	146.31
238.858	165.31
239.091	171.31
239.325	167.31
239.559	154.31
239.793	183.31
240.027	175.31
240.26	183.31
240.494	163.31
240.728	169.31
240.961	175.31
241.195	185.31
241.429	179.31
241.662	183.31
241.896	191.31
242.13	195.31
242.363	185.31
242.597	171.31
242.83	184.31
243.064	185.31
243.298	188.31
243.531	191.31
243.765	187.31
243.998	183.31
244.232	196.31
244.465	187.31
244.699	196.31
244.932	211.31
245.166	196.31
245.399	207.31
245.633	203.31
245.866	189.31
246.099	198.31
246.333	230.31
246.566	220.31
246.8	223.31
247.033	229.31
247.266	225.31
247.5	226.31
247.733	221.31
247.966	236.31
248.2	219.31
248.433	217.31
248.666	220.31
248.899	240.31
249.133	230.31
249.366	231.31
249.599	225.31
249.832	235.31
250.066	237.31
250.299	235.31
250.532	241.31
250.765	235.31
250.998	233.31
251.231	260.31
251.465	231.31
251.698	257.31
251.931	251.31
252.164	252.31
252.397	247.31
252.63	257.31
252.863	269.31
253.096	279.31
253.329	259.31
253.562	276.31
253.795	255.31
254.028	279.31
254.261	261.31
254.494	271.31
254.727	252.31
254.96	281.31
255.193	281.31
255.426	277.31
255.659	282.31
255.892	275.31
256.124	287.31
256.357	263.31
256.59	287.31
256.823	297.31
257.056	287.31
257.289	285.31
257.521	298.31
257.754	294.31
257.987	286.31
258.22	310.31
258.452	291.31
258.685	296.31
258.918	281.31
259.151	315.31
259.383	302.31
259.616	303.31
259.849	300.31
260.081	309.31
260.314	295.31
260.547	307.31
260.779	316.31
261.012	326.31
261.244	327.31
261.477	319.31
261.71	315.31
261.942	335.31
262.175	312.31
262.407	320.31
262.64	310.31
262.872	317.31
263.105	320.31
263.337	332.31
263.57	320.31
263.802	332.31
264.035	326.31
264.267	319.31
264.499	340.31
264.732	328.31
264.964	331.31
265.197	340.31
265.429	350.31
265.661	343.31
265.894	349.31
266.126	342.31
266.358	354.31
266.591	334.31
266.823	356.31
267.055	353.31
267.287	346.31
267.52	365.31
267.752	368.31
267.984	348.31
268.216	366.31
268.448	348.31
268.681	361.31
268.913	364.31
269.145	365.31
269.377	364.31
269.609	355.31
269.841	371.31
270.073	355.31
270.306	365.31
270.538	368.31
270.77	352.31
271.002	377.31
271.234	383.31
271.466	379.31
271.698	364.31
271.93	357.31
272.162	374.31
272.394	367.31
272.626	375.31
272.858	383.31
273.09	387.31
273.322	373.31
273.553	398.31
273.785	385.31
274.017	385.31
274.249	381.31
274.481	390.31
274.713	389.31
274.945	394.31
275.176	400.31
275.408	399.31
275.64	403.31
275.872	392.31
276.104	407.31
276.335	417.31
276.567	411.31
276.799	412.31
277.031	408.31
277.262	401.31
277.494	416.31
277.726	415.31
277.957	407.31
278.189	413.31
278.421	416.31
278.652	411.31
278.884	440.31
279.115	437.31
279.347	427.31
279.579	414.31
279.81	423.31
280.042	436.31
280.273	435.31
280.505	415.31
280.736	436.31
280.968	426.31
281.199	420.31
281.431	444.31
281.662	428.31
281.894	445.31
282.125	436.31
282.356	449.31
282.588	447.31
282.819	449.31
283.051	451.31
283.282	432.31
283.513	456.31
283.745	451.31
283.976	455.31
284.207	462.31
284.439	460.31
284.67	456.31
284.901	477.31
285.132	461.31
285.364	474.31
285.595	459.31
285.826	460.31
286.057	454.31
286.288	463.31
286.52	491.31
286.751	470.31
286.982	463.31
287.213	476.31
287.444	473.31
287.675	447.31
287.906	471.31
288.138	479.31
288.369	466.31
288.6	472.31
288.831	483.31
289.062	487.31
289.293	482.31
289.524	471.31
289.755	494.31
289.986	473.31
290.217	481.31
290.448	483.31
290.679	500.31
290.91	472.31
291.141	501.31
291.371	502.31
291.602	517.31
291.833	502.31
292.064	500.31
292.295	496.31
292.526	499.31
292.757	513.31
292.987	491.31
293.218	469.31
293.449	480.31
293.68	517.31
293.91	509.31
294.141	493.31
294.372	507.31
294.603	501.31
294.833	517.31
295.064	517.31
295.295	506.31
295.525	493.31
295.756	505.31
295.987	501.31
296.217	514.31
296.448	524.31
296.679	513.31
296.909	518.31
297.14	507.31
297.37	521.31
297.601	531.31
297.831	520.31
298.062	528.31
298.292	544.31
298.523	580.31
298.753	559.31
298.984	543.31
299.214	521.31
299.445	535.31
299.675	528.31
299.905	535.31
300.136	531.31
300.366	544.31
300.597	575.31
300.827	559.31
301.057	550.31
301.288	561.31
301.518	536.31
301.748	589.31
301.979	567.31
302.209	544.31
302.439	577.31
302.669	550.31
302.9	543.31
303.13	544.31
303.36	541.31
303.59	573.31
303.82	545.31
304.051	544.31
304.281	519.31
304.511	543.31
304.741	559.31
304.971	582.31
305.201	581.31
305.431	569.31
305.661	550.31
305.891	567.31
306.121	542.31
306.352	570.31
306.582	537.31
306.812	545.31
307.042	547.31
307.272	556.31
307.502	543.31
307.731	548.31
307.961	530.31
308.191	525.31
308.421	551.31
308.651	528.31
308.881	529.31
309.111	536.31
309.341	524.31
309.571	517.31
309.8	552.31
310.03	534.31
310.26	544.31
310.49	553.31
310.72	567.31
310.949	552.31
311.179	529.31
311.409	556.31
311.639	567.31
311.868	550.31
312.098	548.31
312.328	581.31
312.557	584.31
312.787	557.31
313.017	584.31
313.246	595.31
313.476	586.31
313.706	607.31
313.935	608.31
314.165	613.31
314.394	600.31
314.624	600.31
314.853	576.31
315.083	578.31
315.312	561.31
315.542	581.31
315.771	566.31
316.001	539.31
316.23	565.31
316.46	565.31
316.689	568.31
316.919	571.31
317.148	579.31
317.377	605.31
317.607	573.31
317.836	566.31
318.065	577.31
318.295	570.31
318.524	583.31
318.753	575.31
318.983	583.31
319.212	567.31
319.441	572.31
319.67	569.31
319.9	586.31
320.129	579.31
320.358	592.31
320.587	572.31
320.816	583.31
321.046	595.31
321.275	592.31
321.504	590.31
321.733	583.31
321.962	581.31
322.191	573.31
322.42	603.31
322.649	599.31
322.878	602.31
323.108	568.31
323.337	619.31
323.566	610.31
323.795	606.31
324.024	583.31
324.253	624.31
324.482	623.31
324.71	598.31
324.939	615.31
325.168	613.31
325.397	616.31
325.626	631.31
325.855	642.31
326.084	649.31
326.313	633.31
326.542	658.31
326.77	664.31
326.999	671.31
327.228	650.31
327.457	654.31
327.686	637.31
327.914	657.31
328.143	670.31
328.372	662.31
328.6	653.31
328.829	635.31
329.058	656.31
329.287	650.31
329.515	668.31
329.744	686.31
329.972	673.31
330.201	641.31
330.43	658.31
330.658	651.31
330.887	675.31
331.115	664.31
331.344	712.31
331.572	695.31
331.801	683.31
332.03	710.31
332.258	727.31
332.486	774.31
332.715	796.31
332.943	806.31
333.172	864.31
333.4	891.31
333.629	907.31
333.857	920.31
334.085	897.31
334.314	850.31
334.542	852.31
334.771	826.31
334.999	814.31
335.227	819.31
335.455	835.31
335.684	800.31
335.912	832.31
336.14	826.31
336.369	828.31
336.597	811.31
336.825	807.31
337.053	809.31
337.281	783.31
337.51	764.31
337.738	728.31
337.966	748.31
338.194	740.31
338.422	722.31
338.65	732.31
338.878	723.31
339.106	725.31
339.334	725.31
339.562	714.31
339.79	697.31
340.018	701.31
340.246	680.31
340.474	688.31
340.702	680.31
340.93	716.31
341.158	699.31
341.386	706.31
341.614	716.31
341.842	720.31
342.07	677.31
342.298	669.31
342.526	686.31
342.754	695.31
342.981	680.31
343.209	699.31
343.437	742.31
343.665	791.31
343.893	855.31
344.12	886.31
344.348	823.31
344.576	754.31
344.804	770.31
345.031	763.31
345.259	724.31
345.487	708.31
345.714	709.31
345.942	680.31
346.17	686.31
346.397	703.31
346.625	682.31
346.853	673.31
347.08	661.31
347.308	695.31
347.535	720.31
347.763	699.31
347.99	707.31
348.218	704.31
348.445	706.31
348.673	681.31
348.9	676.31
349.128	669.31
349.355	685.31
349.583	673.31
349.81	672.31
350.037	676.31
350.265	663.31
350.492	665.31
350.72	692.31
350.947	663.31
351.174	641.31
351.402	652.31
351.629	656.31
351.856	663.31
352.083	665.31
352.311	657.31
352.538	671.31
352.765	675.31
352.992	647.31
353.22	644.31
353.447	630.31
353.674	643.31
353.901	636.31
354.128	653.31
354.355	640.31
354.583	647.31
354.81	653.31
355.037	644.31
355.264	658.31
355.491	650.31
355.718	638.31
355.945	662.31
356.172	642.31
356.399	667.31
356.626	662.31
356.853	675.31
357.08	648.31
357.307	664.31
357.534	647.31
357.761	649.31
357.988	643.31
358.215	648.31
358.441	661.31
358.668	640.31
358.895	641.31
359.122	661.31
359.349	655.31
359.576	631.31
359.802	636.31
360.029	637.31
360.256	679.31
360.483	658.31
360.709	635.31
360.936	684.31
361.163	642.31
361.39	651.31
361.616	650.31
361.843	672.31
362.07	659.31
362.296	664.31
362.523	639.31
362.749	651.31
362.976	644.31
363.203	655.31
363.429	640.31
363.656	636.31
363.882	622.31
364.109	620.31
364.335	635.31
364.562	645.31
364.788	634.31
365.015	642.31
365.241	622.31
365.468	637.31
365.694	642.31
365.92	641.31
366.147	602.31
366.373	643.31
366.599	630.31
366.826	624.31
367.052	641.31
367.278	648.31
367.505	639.31
367.731	652.31
367.957	643.31
368.184	649.31
368.41	658.31
368.636	657.31
368.862	663.31
369.089	659.31
369.315	657.31
369.541	663.31
369.767	661.31
369.993	656.31
370.219	673.31
370.445	689.31
370.672	697.31
370.898	695.31
371.124	693.31
371.35	719.31
371.576	699.31
371.802	714.31
372.028	684.31
372.254	683.31
372.48	695.31
372.706	714.31
372.932	717.31
373.158	739.31
373.384	701.31
373.61	705.31
373.835	715.31
374.061	699.31
374.287	701.31
374.513	712.31
374.739	723.31
374.965	742.31
375.191	801.31
375.416	807.31
375.642	726.31
375.868	745.31
376.094	729.31
376.319	726.31
376.545	713.31
376.771	710.31
376.997	716.31
377.222	706.31
377.448	682.31
377.674	717.31
377.899	698.31
378.125	689.31
378.35	677.31
378.576	685.31
378.802	659.31
379.027	700.31
379.253	670.31
379.478	657.31
379.704	679.31
379.929	664.31
380.155	690.31
380.38	686.31
380.606	653.31
380.831	679.31
381.057	695.31
381.282	696.31
381.507	699.31
381.733	693.31
381.958	714.31
382.184	700.31
382.409	705.31
382.634	728.31
382.86	749.31
383.085	719.31
383.31	727.31
383.535	779.31
383.761	759.31
383.986	794.31
384.211	837.31
384.436	802.31
384.662	833.31
384.887	801.31
385.112	848.31
385.337	846.31
385.562	840.31
385.787	820.31
386.013	826.31
386.238	852.31
386.463	839.31
386.688	817.31
386.913	811.31
387.138	797.31
387.363	805.31
387.588	810.31
387.813	832.31
388.038	804.31
388.263	824.31
388.488	849.31
388.713	810.31
388.938	807.31
389.163	798.31
389.387	791.31
389.612	792.31
389.837	822.31
390.062	792.31
390.287	794.31
390.512	789.31
390.736	791.31
390.961	832.31
391.186	837.31
391.411	872.31
391.636	888.31
391.86	913.31
392.085	915.31
392.31	905.31
392.534	919.31
392.759	883.31
392.984	851.31
393.208	883.31
393.433	888.31
393.658	877.31
393.882	881.31
394.107	859.31
394.331	879.31
394.556	892.31
394.78	861.31
395.005	871.31
395.229	858.31
395.454	906.31
395.678	931.31
395.903	926.31
396.127	901.31
396.352	859.31
396.576	856.31
396.801	846.31
397.025	860.31
397.249	872.31
397.474	888.31
397.698	901.31
397.922	910.31
398.147	900.31
398.371	944.31
398.595	951.31
398.82	977.31
399.044	1064.31
399.268	1172.31
399.492	1369.31
399.717	1577.31
399.941	1593.31
400.165	1385.31
400.389	1202.31
400.613	1119.31
400.837	1049.31
401.062	1021.31
401.286	1027.31
401.51	1025.31
401.734	995.31
401.958	1035.31
402.182	1044.31
402.406	1044.31
402.63	1048.31
402.854	1108.31
403.078	1114.31
403.302	1131.31
403.526	1148.31
403.75	1179.31
403.974	1221.31
404.198	1200.31
404.422	1238.31
404.645	1195.31
404.869	1187.31
405.093	1169.31
405.317	1126.31
405.541	1134.31
405.765	1134.31
405.988	1141.31
406.212	1148.31
406.436	1099.31
406.66	1169.31
406.883	1155.31
407.107	1223.31
407.331	1317.31
407.555	1361.31
407.778	1352.31
408.002	1309.31
408.226	1227.31
408.449	1251.31
408.673	1188.31
408.896	1165.31
409.12	1185.31
409.344	1193.31
409.567	1228.31
409.791	1223.31
410.014	1225.31
410.238	1222.31
410.461	1207.31
410.685	1179.31
410.908	1129.31
411.132	1097.31
411.355	1067.31
411.578	1077.31
411.802	1074.31
412.025	1097.31
412.249	1103.31
412.472	1093.31
412.695	1050.31
412.919	1033.31
413.142	1063.31
413.365	1025.31
413.589	1063.31
413.812	1036.31
414.035	1027.31
414.258	1017.31
414.482	1067.31
414.705	1071.31
414.928	1063.31
415.151	1066.31
415.374	1012.31
415.597	1035.31
415.821	1048.31
416.044	1030.31
416.267	995.31
416.49	1006.31
416.713	1014.31
416.936	1032.31
417.159	1015.31
417.382	1018.31
417.605	1036.31
417.828	1024.31
418.051	1006.31
418.274	1060.31
418.497	1039.31
418.72	1070.31
418.943	1083.31
419.166	1149.31
419.389	1227.31
419.611	1218.31
419.834	1147.31
420.057	1085.31
420.28	1081.31
420.503	1057.31
420.726	997.31
420.948	1004.31
421.171	1027.31
421.394	1042.31
421.617	1036.31
421.839	1057.31
422.062	1061.31
422.285	1061.31
422.507	1052.31
422.73	1058.31
422.953	1078.31
423.175	1132.31
423.398	1127.31
423.621	1134.31
423.843	1149.31
424.066	1123.31
424.288	1109.31
424.511	1089.31
424.733	1072.31
424.956	1068.31
425.178	1046.31
425.401	1056.31
425.623	1068.31
425.846	1025.31
426.068	1008.31
426.291	1029.31
426.513	997.31
426.735	1007.31
426.958	999.31
427.18	956.31
427.402	955.31
427.625	973.31
427.847	961.31
428.069	959.31
428.292	956.31
428.514	933.31
428.736	929.31
428.958	951.31
429.181	948.31
429.403	931.31
429.625	911.31
429.847	891.31
430.069	877.31
430.292	906.31
430.514	903.31
430.736	904.31
430.958	937.31
431.18	925.31
431.402	945.31
431.624	922.31
431.846	953.31
432.068	929.31
432.29	957.31
432.512	934.31
432.734	963.31
432.956	953.31
433.178	971.31
433.4	932.31
433.622	932.31
433.844	960.31
434.066	973.31
434.287	982.31
434.509	985.31
434.731	1029.31
434.953	1068.31
435.175	1109.31
435.397	1047.31
435.618	1006.31
435.84	964.31
436.062	951.31
436.284	951.31
436.505	952.31
436.727	969.31
436.949	949.31
437.17	959.31
437.392	952.31
437.614	955.31
437.835	889.31
438.057	905.31
438.278	911.31
438.5	905.31
438.721	923.31
438.943	925.31
439.165	917.31
439.386	947.31
439.608	966.31
439.829	940.31
440.05	949.31
440.272	959.31
440.493	977.31
440.715	962.31
440.936	992.31
441.158	1025.31
441.379	1051.31
441.6	1096.31
441.822	1127.31
442.043	1107.31
442.264	1055.31
442.486	1055.31
442.707	1057.31
442.928	1047.31
443.149	1040.31
443.371	1069.31
443.592	1059.31
443.813	1080.31
444.034	1092.31
444.255	1127.31
444.476	1193.31
444.698	1285.31
444.919	1296.31
445.14	1401.31
445.361	1266.31
445.582	1134.31
445.803	1062.31
446.024	1013.31
446.245	1015.31
446.466	984.31
446.687	985.31
446.908	981.31
447.129	943.31
447.35	944.31
447.571	936.31
447.792	912.31
448.013	914.31
448.234	909.31
448.455	883.31
448.675	904.31
448.896	895.31
449.117	892.31
449.338	890.31
449.559	886.31
449.779	871.31
450	876.31
450.221	884.31
450.442	911.31
450.662	909.31
450.883	893.31
451.104	921.31
451.324	919.31
451.545	930.31
451.766	899.31
451.986	890.31
452.207	902.31
452.428	909.31
452.648	896.31
452.869	881.31
453.089	878.31
453.31	893.31
453.53	855.31
453.751	879.31
453.971	856.31
454.192	878.31
454.412	853.31
454.633	834.31
454.853	839.31
455.073	840.31
455.294	824.31
455.514	822.31
455.734	806.31
455.955	827.31
456.175	825.31
456.395	805.31
456.616	831.31
456.836	841.31
457.056	804.31
457.276	838.31
457.497	851.31
457.717	789.31
457.937	794.31
458.157	834.31
458.377	834.31
458.598	858.31
458.818	870.31
459.038	926.31
459.258	955.31
459.478	985.31
459.698	1004.31
459.918	1014.31
460.138	1041.31
460.358	1139.31
460.578	1125.31
460.798	1148.31
461.018	1120.31
461.238	1144.31
461.458	1111.31
461.678	1123.31
461.898	1106.31
462.118	1118.31
462.338	1204.31
462.558	1227.31
462.777	1317.31
462.997	1407.31
463.217	1529.31
463.437	1549.31
463.657	1388.31
463.876	1352.31
464.096	1357.31
464.316	1318.31
464.536	1340.31
464.755	1292.31
464.975	1268.31
465.195	1185.31
465.414	1077.31
465.634	1049.31
465.854	1008.31
466.073	973.31
466.293	960.31
466.512	960.31
466.732	926.31
466.951	908.31
467.171	936.31
467.391	926.31
467.61	942.31
467.829	931.31
468.049	903.31
468.268	904.31
468.488	887.31
468.707	880.31
468.927	875.31
469.146	911.31
469.365	932.31
469.585	905.31
469.804	921.31
470.023	942.31
470.243	931.31
470.462	989.31
470.681	955.31
470.901	968.31
471.12	932.31
471.339	913.31
471.558	920.31
471.777	885.31
471.997	903.31
472.216	864.31
472.435	881.31
472.654	895.31
472.873	854.31
473.092	865.31
473.311	853.31
473.53	860.31
473.749	863.31
473.968	839.31
474.187	848.31
474.406	836.31
474.625	862.31
474.844	899.31
475.063	859.31
475.282	880.31
475.501	855.31
475.72	885.31
475.939	899.31
476.158	880.31
476.377	892.31
476.596	892.31
476.814	907.31
477.033	923.31
477.252	908.31
477.471	972.31
477.69	976.31
477.908	991.31
478.127	1009.31
478.346	1023.31
478.564	1061.31
478.783	1084.31
479.002	1085.31
479.22	1096.31
479.439	1092.31
479.658	1059.31
479.876	1118.31
480.095	1107.31
480.313	1147.31
480.532	1201.31
480.751	1175.31
480.969	1085.31
481.188	1033.31
481.406	1029.31
481.624	1028.31
481.843	1010.31
482.061	984.31
482.28	992.31
482.498	981.31
482.717	972.31
482.935	987.31
483.153	1016.31
483.372	989.31
483.59	981.31
483.808	1000.31
484.027	975.31
484.245	988.31
484.463	1018.31
484.681	1013.31
484.9	1003.31
485.118	1039.31
485.336	1017.31
485.554	1024.31
485.772	1066.31
485.99	1035.31
486.209	1046.31
486.427	1060.31
486.645	1071.31
486.863	1094.31
487.081	1047.31
487.299	1051.31
487.517	1023.31
487.735	1035.31
487.953	1080.31
488.171	1070.31
488.389	1039.31
488.607	1028.31
488.825	1019.31
489.043	1009.31
489.261	1060.31
489.479	1052.31
489.696	1033.31
489.914	1052.31
490.132	1052.31
490.35	1039.31
490.568	1080.31
490.786	1045.31
491.003	1042.31
491.221	1083.31
491.439	1095.31
491.657	1062.31
491.874	1057.31
492.092	1073.31
492.31	1107.31
492.527	1102.31
492.745	1091.31
492.963	1085.31
493.18	1108.31
493.398	1108.31
493.615	1088.31
493.833	1116.31
494.05	1128.31
494.268	1145.31
494.485	1114.31
494.703	1120.31
494.92	1129.31
495.138	1097.31
495.355	1127.31
495.573	1095.31
495.79	1151.31
496.008	1125.31
496.225	1109.31
496.442	1141.31
496.66	1135.31
496.877	1168.31
497.094	1161.31
497.312	1184.31
497.529	1216.31
497.746	1257.31
497.963	1282.31
