Data from Ni(NO3)2@0.0625M.TitratingCurve.Agarose3%dH2O.NegLispCup.LampEnergy10.LIBS07252019_HRD10591_18-14-50-570.txt Node
Date: Thu Jul 25 18:14:50 EDT 2019
User: cochatt
Spectrometer: HR+D1059
Trigger mode: 1
Integration Time (sec): 1.000000E-1
Scans to average: 1
Electric dark correction enabled: true
Nonlinearity correction enabled: false
Boxcar width: 0
XAxis mode: Wavelengths
Number of Pixels in Spectrum: 2048
>>>>>Begin Spectral Data<<<<<
223.165	-15.06
223.4	-15.06
223.635	-15.06
223.869	-15.06
224.104	-16.06
224.338	-11.06
224.573	-9.06
224.808	-8.06
225.042	-9.06
225.277	-2.06
225.511	-11.06
225.746	3.94
225.98	-3.06
226.215	17.94
226.449	16.94
226.683	19.94
226.918	11.94
227.152	28.94
227.387	28.94
227.621	42.94
227.856	46.94
228.09	47.94
228.324	59.94
228.559	66.94
228.793	62.94
229.027	94.94
229.262	100.94
229.496	105.94
229.73	107.94
229.964	116.94
230.199	126.94
230.433	113.94
230.667	121.94
230.901	118.94
231.136	123.94
231.37	127.94
231.604	127.94
231.838	122.94
232.072	133.94
232.306	133.94
232.541	125.94
232.775	119.94
233.009	135.94
233.243	142.94
233.477	142.94
233.711	125.94
233.945	125.94
234.179	133.94
234.413	135.94
234.647	114.94
234.881	143.94
235.115	140.94
235.349	125.94
235.583	134.94
235.817	131.94
236.051	126.94
236.285	120.94
236.519	125.94
236.753	132.94
236.987	128.94
237.221	133.94
237.455	131.94
237.689	138.94
237.922	112.94
238.156	137.94
238.39	134.94
238.624	135.94
238.858	144.94
239.091	135.94
239.325	138.94
239.559	138.94
239.793	151.94
240.027	129.94
240.26	137.94
240.494	142.94
240.728	148.94
240.961	144.94
241.195	142.94
241.429	158.94
241.662	141.94
241.896	152.94
242.13	141.94
242.363	156.94
242.597	144.94
242.83	151.94
243.064	149.94
243.298	159.94
243.531	151.94
243.765	161.94
243.998	159.94
244.232	169.94
244.465	176.94
244.699	147.94
244.932	167.94
245.166	160.94
245.399	176.94
245.633	153.94
245.866	153.94
246.099	180.94
246.333	174.94
246.566	174.94
246.8	167.94
247.033	176.94
247.266	175.94
247.5	169.94
247.733	185.94
247.966	183.94
248.2	173.94
248.433	179.94
248.666	168.94
248.899	186.94
249.133	165.94
249.366	173.94
249.599	191.94
249.832	183.94
250.066	169.94
250.299	211.94
250.532	197.94
250.765	189.94
250.998	192.94
251.231	192.94
251.465	202.94
251.698	213.94
251.931	188.94
252.164	197.94
252.397	196.94
252.63	199.94
252.863	179.94
253.096	207.94
253.329	212.94
253.562	200.94
253.795	205.94
254.028	191.94
254.261	203.94
254.494	213.94
254.727	191.94
254.96	199.94
255.193	199.94
255.426	205.94
255.659	201.94
255.892	213.94
256.124	207.94
256.357	203.94
256.59	211.94
256.823	232.94
257.056	216.94
257.289	216.94
257.521	222.94
257.754	223.94
257.987	210.94
258.22	209.94
258.452	216.94
258.685	221.94
258.918	224.94
259.151	230.94
259.383	212.94
259.616	219.94
259.849	223.94
260.081	227.94
260.314	236.94
260.547	235.94
260.779	242.94
261.012	237.94
261.244	219.94
261.477	234.94
261.71	232.94
261.942	236.94
262.175	240.94
262.407	233.94
262.64	228.94
262.872	230.94
263.105	237.94
263.337	227.94
263.57	226.94
263.802	240.94
264.035	230.94
264.267	243.94
264.499	236.94
264.732	256.94
264.964	259.94
265.197	261.94
265.429	262.94
265.661	243.94
265.894	271.94
266.126	252.94
266.358	255.94
266.591	243.94
266.823	249.94
267.055	271.94
267.287	259.94
267.52	248.94
267.752	255.94
267.984	253.94
268.216	273.94
268.448	262.94
268.681	279.94
268.913	240.94
269.145	267.94
269.377	253.94
269.609	283.94
269.841	271.94
270.073	261.94
270.306	285.94
270.538	258.94
270.77	272.94
271.002	279.94
271.234	281.94
271.466	290.94
271.698	275.94
271.93	285.94
272.162	276.94
272.394	292.94
272.626	268.94
272.858	271.94
273.09	291.94
273.322	277.94
273.553	294.94
273.785	265.94
274.017	273.94
274.249	287.94
274.481	285.94
274.713	283.94
274.945	296.94
275.176	286.94
275.408	301.94
275.64	302.94
275.872	294.94
276.104	303.94
276.335	279.94
276.567	300.94
276.799	304.94
277.031	296.94
277.262	305.94
277.494	299.94
277.726	307.94
277.957	296.94
278.189	309.94
278.421	305.94
278.652	305.94
278.884	319.94
279.115	293.94
279.347	304.94
279.579	321.94
279.81	315.94
280.042	311.94
280.273	307.94
280.505	316.94
280.736	328.94
280.968	313.94
281.199	311.94
281.431	311.94
281.662	321.94
281.894	323.94
282.125	335.94
282.356	339.94
282.588	331.94
282.819	327.94
283.051	348.94
283.282	336.94
283.513	328.94
283.745	328.94
283.976	337.94
284.207	341.94
284.439	332.94
284.67	350.94
284.901	350.94
285.132	348.94
285.364	356.94
285.595	337.94
285.826	356.94
286.057	361.94
286.288	332.94
286.52	343.94
286.751	343.94
286.982	356.94
287.213	338.94
287.444	361.94
287.675	355.94
287.906	358.94
288.138	363.94
288.369	359.94
288.6	373.94
288.831	374.94
289.062	320.94
289.293	364.94
289.524	367.94
289.755	345.94
289.986	379.94
290.217	362.94
290.448	366.94
290.679	375.94
290.91	390.94
291.141	371.94
291.371	357.94
291.602	367.94
291.833	353.94
292.064	373.94
292.295	366.94
292.526	374.94
292.757	366.94
292.987	381.94
293.218	356.94
293.449	371.94
293.68	380.94
293.91	357.94
294.141	371.94
294.372	387.94
294.603	399.94
294.833	378.94
295.064	381.94
295.295	396.94
295.525	389.94
295.756	387.94
295.987	390.94
296.217	387.94
296.448	405.94
296.679	391.94
296.909	397.94
297.14	378.94
297.37	405.94
297.601	401.94
297.831	396.94
298.062	385.94
298.292	412.94
298.523	413.94
298.753	422.94
298.984	411.94
299.214	403.94
299.445	391.94
299.675	423.94
299.905	400.94
300.136	416.94
300.366	413.94
300.597	432.94
300.827	430.94
301.057	429.94
301.288	422.94
301.518	423.94
301.748	409.94
301.979	422.94
302.209	444.94
302.439	409.94
302.669	441.94
302.9	437.94
303.13	437.94
303.36	424.94
303.59	412.94
303.82	424.94
304.051	411.94
304.281	432.94
304.511	424.94
304.741	428.94
304.971	427.94
305.201	430.94
305.431	417.94
305.661	417.94
305.891	418.94
306.121	413.94
306.352	405.94
306.582	424.94
306.812	412.94
307.042	425.94
307.272	390.94
307.502	409.94
307.731	397.94
307.961	431.94
308.191	428.94
308.421	406.94
308.651	371.94
308.881	390.94
309.111	405.94
309.341	411.94
309.571	427.94
309.8	412.94
310.03	426.94
310.26	415.94
310.49	417.94
310.72	437.94
310.949	397.94
311.179	415.94
311.409	438.94
311.639	410.94
311.868	408.94
312.098	420.94
312.328	423.94
312.557	437.94
312.787	422.94
313.017	423.94
313.246	443.94
313.476	447.94
313.706	452.94
313.935	437.94
314.165	440.94
314.394	432.94
314.624	433.94
314.853	437.94
315.083	453.94
315.312	433.94
315.542	437.94
315.771	444.94
316.001	439.94
316.23	448.94
316.46	423.94
316.689	426.94
316.919	419.94
317.148	446.94
317.377	435.94
317.607	411.94
317.836	430.94
318.065	441.94
318.295	441.94
318.524	421.94
318.753	437.94
318.983	431.94
319.212	403.94
319.441	438.94
319.67	421.94
319.9	431.94
320.129	447.94
320.358	428.94
320.587	439.94
320.816	432.94
321.046	447.94
321.275	432.94
321.504	439.94
321.733	463.94
321.962	433.94
322.191	451.94
322.42	444.94
322.649	433.94
322.878	437.94
323.108	450.94
323.337	436.94
323.566	451.94
323.795	460.94
324.024	460.94
324.253	433.94
324.482	429.94
324.71	440.94
324.939	437.94
325.168	462.94
325.397	439.94
325.626	440.94
325.855	448.94
326.084	475.94
326.313	486.94
326.542	476.94
326.77	477.94
326.999	479.94
327.228	476.94
327.457	474.94
327.686	484.94
327.914	486.94
328.143	489.94
328.372	477.94
328.6	464.94
328.829	471.94
329.058	451.94
329.287	487.94
329.515	489.94
329.744	490.94
329.972	507.94
330.201	471.94
330.43	493.94
330.658	473.94
330.887	507.94
331.115	485.94
331.344	511.94
331.572	511.94
331.801	527.94
332.03	519.94
332.258	524.94
332.486	567.94
332.715	572.94
332.943	576.94
333.172	634.94
333.4	637.94
333.629	640.94
333.857	631.94
334.085	629.94
334.314	616.94
334.542	609.94
334.771	601.94
334.999	634.94
335.227	597.94
335.455	589.94
335.684	585.94
335.912	603.94
336.14	569.94
336.369	565.94
336.597	576.94
336.825	581.94
337.053	573.94
337.281	576.94
337.51	573.94
337.738	554.94
337.966	531.94
338.194	545.94
338.422	508.94
338.65	521.94
338.878	518.94
339.106	508.94
339.334	504.94
339.562	543.94
339.79	515.94
340.018	492.94
340.246	496.94
340.474	511.94
340.702	492.94
340.93	485.94
341.158	522.94
341.386	510.94
341.614	502.94
341.842	496.94
342.07	500.94
342.298	493.94
342.526	493.94
342.754	504.94
342.981	519.94
343.209	529.94
343.437	553.94
343.665	563.94
343.893	610.94
344.12	610.94
344.348	583.94
344.576	582.94
344.804	558.94
345.031	531.94
345.259	512.94
345.487	527.94
345.714	517.94
345.942	513.94
346.17	500.94
346.397	501.94
346.625	496.94
346.853	494.94
347.08	494.94
347.308	498.94
347.535	500.94
347.763	520.94
347.99	512.94
348.218	520.94
348.445	500.94
348.673	513.94
348.9	497.94
349.128	495.94
349.355	482.94
349.583	483.94
349.81	501.94
350.037	485.94
350.265	476.94
350.492	456.94
350.72	492.94
350.947	478.94
351.174	482.94
351.402	502.94
351.629	477.94
351.856	480.94
352.083	482.94
352.311	459.94
352.538	491.94
352.765	480.94
352.992	473.94
353.22	472.94
353.447	452.94
353.674	483.94
353.901	482.94
354.128	462.94
354.355	462.94
354.583	466.94
354.81	479.94
355.037	473.94
355.264	482.94
355.491	488.94
355.718	474.94
355.945	479.94
356.172	472.94
356.399	484.94
356.626	470.94
356.853	482.94
357.08	475.94
357.307	453.94
357.534	479.94
357.761	467.94
357.988	473.94
358.215	483.94
358.441	471.94
358.668	476.94
358.895	474.94
359.122	480.94
359.349	481.94
359.576	473.94
359.802	484.94
360.029	480.94
360.256	497.94
360.483	444.94
360.709	460.94
360.936	483.94
361.163	458.94
361.39	478.94
361.616	487.94
361.843	491.94
362.07	489.94
362.296	489.94
362.523	462.94
362.749	458.94
362.976	480.94
363.203	485.94
363.429	479.94
363.656	478.94
363.882	469.94
364.109	481.94
364.335	459.94
364.562	457.94
364.788	452.94
365.015	462.94
365.241	450.94
365.468	476.94
365.694	454.94
365.92	465.94
366.147	452.94
366.373	496.94
366.599	468.94
366.826	466.94
367.052	478.94
367.278	492.94
367.505	496.94
367.731	486.94
367.957	474.94
368.184	478.94
368.41	495.94
368.636	472.94
368.862	497.94
369.089	502.94
369.315	500.94
369.541	500.94
369.767	491.94
369.993	503.94
370.219	470.94
370.445	503.94
370.672	492.94
370.898	519.94
371.124	503.94
371.35	521.94
371.576	520.94
371.802	503.94
372.028	504.94
372.254	515.94
372.48	511.94
372.706	515.94
372.932	547.94
373.158	519.94
373.384	520.94
373.61	524.94
373.835	523.94
374.061	527.94
374.287	529.94
374.513	536.94
374.739	539.94
374.965	570.94
375.191	581.94
375.416	577.94
375.642	562.94
375.868	545.94
376.094	546.94
376.319	519.94
376.545	526.94
376.771	513.94
376.997	524.94
377.222	483.94
377.448	503.94
377.674	515.94
377.899	522.94
378.125	534.94
378.35	512.94
378.576	500.94
378.802	521.94
379.027	509.94
379.253	502.94
379.478	517.94
379.704	515.94
379.929	522.94
380.155	505.94
380.38	527.94
380.606	537.94
380.831	519.94
381.057	496.94
381.282	508.94
381.507	520.94
381.733	507.94
381.958	505.94
382.184	521.94
382.409	547.94
382.634	507.94
382.86	524.94
383.085	551.94
383.31	544.94
383.535	567.94
383.761	572.94
383.986	571.94
384.211	592.94
384.436	616.94
384.662	633.94
384.887	614.94
385.112	607.94
385.337	609.94
385.562	620.94
385.787	618.94
386.013	614.94
386.238	606.94
386.463	645.94
386.688	632.94
386.913	611.94
387.138	593.94
387.363	600.94
387.588	620.94
387.813	599.94
388.038	579.94
388.263	608.94
388.488	620.94
388.713	613.94
388.938	608.94
389.163	593.94
389.387	608.94
389.612	595.94
389.837	601.94
390.062	584.94
390.287	577.94
390.512	607.94
390.736	600.94
390.961	623.94
391.186	617.94
391.411	661.94
391.636	675.94
391.86	681.94
392.085	697.94
392.31	681.94
392.534	655.94
392.759	630.94
392.984	649.94
393.208	625.94
393.433	644.94
393.658	656.94
393.882	649.94
394.107	653.94
394.331	651.94
394.556	647.94
394.78	628.94
395.005	677.94
395.229	648.94
395.454	672.94
395.678	711.94
395.903	688.94
396.127	676.94
396.352	657.94
396.576	639.94
396.801	665.94
397.025	666.94
397.249	680.94
397.474	675.94
397.698	680.94
397.922	682.94
398.147	688.94
398.371	689.94
398.595	712.94
398.82	746.94
399.044	791.94
399.268	887.94
399.492	1025.94
399.717	1157.94
399.941	1168.94
400.165	1013.94
400.389	909.94
400.613	804.94
400.837	797.94
401.062	754.94
401.286	750.94
401.51	750.94
401.734	761.94
401.958	774.94
402.182	784.94
402.406	767.94
402.63	762.94
402.854	808.94
403.078	850.94
403.302	853.94
403.526	863.94
403.75	865.94
403.974	903.94
404.198	922.94
404.422	915.94
404.645	864.94
404.869	868.94
405.093	881.94
405.317	872.94
405.541	795.94
405.765	879.94
405.988	816.94
406.212	839.94
406.436	851.94
406.66	867.94
406.883	856.94
407.107	912.94
407.331	966.94
407.555	991.94
407.778	984.94
408.002	1006.94
408.226	942.94
408.449	927.94
408.673	885.94
408.896	853.94
409.12	867.94
409.344	865.94
409.567	884.94
409.791	887.94
410.014	888.94
410.238	846.94
410.461	840.94
410.685	858.94
410.908	868.94
411.132	835.94
411.355	820.94
411.578	796.94
411.802	770.94
412.025	823.94
412.249	805.94
412.472	793.94
412.695	789.94
412.919	743.94
413.142	753.94
413.365	766.94
413.589	779.94
413.812	767.94
414.035	742.94
414.258	771.94
414.482	764.94
414.705	794.94
414.928	819.94
415.151	786.94
415.374	766.94
415.597	767.94
415.821	748.94
416.044	741.94
416.267	744.94
416.49	746.94
416.713	763.94
416.936	753.94
417.159	730.94
417.382	766.94
417.605	767.94
417.828	764.94
418.051	752.94
418.274	752.94
418.497	781.94
418.72	791.94
418.943	789.94
419.166	831.94
419.389	849.94
419.611	848.94
419.834	821.94
420.057	793.94
420.28	738.94
420.503	763.94
420.726	744.94
420.948	749.94
421.171	731.94
421.394	748.94
421.617	734.94
421.839	750.94
422.062	740.94
422.285	744.94
422.507	780.94
422.73	783.94
422.953	792.94
423.175	793.94
423.398	829.94
423.621	767.94
423.843	820.94
424.066	833.94
424.288	801.94
424.511	779.94
424.733	766.94
424.956	788.94
425.178	781.94
425.401	786.94
425.623	767.94
425.846	744.94
426.068	734.94
426.291	719.94
426.513	717.94
426.735	739.94
426.958	714.94
427.18	686.94
427.402	709.94
427.625	703.94
427.847	688.94
428.069	693.94
428.292	699.94
428.514	696.94
428.736	674.94
428.958	671.94
429.181	672.94
429.403	708.94
429.625	686.94
429.847	668.94
430.069	651.94
430.292	678.94
430.514	661.94
430.736	669.94
430.958	643.94
431.18	680.94
431.402	671.94
431.624	669.94
431.846	696.94
432.068	701.94
432.29	700.94
432.512	684.94
432.734	696.94
432.956	677.94
433.178	696.94
433.4	697.94
433.622	673.94
433.844	699.94
434.066	695.94
434.287	713.94
434.509	727.94
434.731	770.94
434.953	785.94
435.175	768.94
435.397	764.94
435.618	715.94
435.84	721.94
436.062	695.94
436.284	707.94
436.505	697.94
436.727	694.94
436.949	697.94
437.17	694.94
437.392	677.94
437.614	669.94
437.835	656.94
438.057	657.94
438.278	656.94
438.5	664.94
438.721	635.94
438.943	653.94
439.165	663.94
439.386	684.94
439.608	672.94
439.829	682.94
440.05	704.94
440.272	701.94
440.493	691.94
440.715	709.94
440.936	710.94
441.158	731.94
441.379	732.94
441.6	797.94
441.822	800.94
442.043	805.94
442.264	789.94
442.486	755.94
442.707	770.94
442.928	792.94
443.149	762.94
443.371	772.94
443.592	779.94
443.813	755.94
444.034	779.94
444.255	817.94
444.476	819.94
444.698	869.94
444.919	917.94
445.14	1005.94
445.361	870.94
445.582	795.94
445.803	723.94
446.024	725.94
446.245	710.94
446.466	702.94
446.687	695.94
446.908	694.94
447.129	699.94
447.35	671.94
447.571	665.94
447.792	620.94
448.013	642.94
448.234	643.94
448.455	634.94
448.675	643.94
448.896	623.94
449.117	621.94
449.338	641.94
449.559	635.94
449.779	617.94
450	622.94
450.221	633.94
450.442	643.94
450.662	640.94
450.883	647.94
451.104	632.94
451.324	650.94
451.545	653.94
451.766	661.94
451.986	674.94
452.207	646.94
452.428	649.94
452.648	658.94
452.869	637.94
453.089	655.94
453.31	649.94
453.53	626.94
453.751	595.94
453.971	623.94
454.192	597.94
454.412	613.94
454.633	611.94
454.853	615.94
455.073	605.94
455.294	618.94
455.514	590.94
455.734	587.94
455.955	602.94
456.175	592.94
456.395	582.94
456.616	612.94
456.836	594.94
457.056	605.94
457.276	591.94
457.497	589.94
457.717	602.94
457.937	601.94
458.157	583.94
458.377	607.94
458.598	620.94
458.818	631.94
459.038	657.94
459.258	671.94
459.478	702.94
459.698	721.94
459.918	738.94
460.138	769.94
460.358	815.94
460.578	839.94
460.798	820.94
461.018	841.94
461.238	797.94
461.458	811.94
461.678	798.94
461.898	844.94
462.118	861.94
462.338	865.94
462.558	873.94
462.777	930.94
462.997	1030.94
463.217	1101.94
463.437	1136.94
463.657	1036.94
463.876	971.94
464.096	951.94
464.316	938.94
464.536	982.94
464.755	911.94
464.975	892.94
465.195	849.94
465.414	793.94
465.634	760.94
465.854	733.94
466.073	698.94
466.293	697.94
466.512	696.94
466.732	701.94
466.951	680.94
467.171	667.94
467.391	663.94
467.61	660.94
467.829	650.94
468.049	639.94
468.268	641.94
468.488	651.94
468.707	618.94
468.927	641.94
469.146	638.94
469.365	640.94
469.585	647.94
469.804	656.94
470.023	705.94
470.243	689.94
470.462	692.94
470.681	703.94
470.901	697.94
471.12	678.94
471.339	681.94
471.558	645.94
471.777	632.94
471.997	630.94
472.216	643.94
472.435	637.94
472.654	639.94
472.873	619.94
473.092	621.94
473.311	625.94
473.53	616.94
473.749	604.94
473.968	629.94
474.187	608.94
474.406	604.94
474.625	621.94
474.844	628.94
475.063	629.94
475.282	645.94
475.501	609.94
475.72	643.94
475.939	633.94
476.158	677.94
476.377	666.94
476.596	649.94
476.814	678.94
477.033	664.94
477.252	653.94
477.471	680.94
477.69	708.94
477.908	715.94
478.127	732.94
478.346	725.94
478.564	734.94
478.783	775.94
479.002	803.94
479.22	791.94
479.439	772.94
479.658	747.94
479.876	764.94
480.095	789.94
480.313	819.94
480.532	834.94
480.751	835.94
480.969	792.94
481.188	750.94
481.406	740.94
481.624	715.94
481.843	703.94
482.061	752.94
482.28	705.94
482.498	716.94
482.717	707.94
482.935	718.94
483.153	713.94
483.372	677.94
483.59	710.94
483.808	737.94
484.027	723.94
484.245	703.94
484.463	716.94
484.681	731.94
484.9	752.94
485.118	720.94
485.336	744.94
485.554	781.94
485.772	744.94
485.99	779.94
486.209	754.94
486.427	764.94
486.645	763.94
486.863	755.94
487.081	782.94
487.299	752.94
487.517	751.94
487.735	733.94
487.953	763.94
488.171	766.94
488.389	741.94
488.607	739.94
488.825	756.94
489.043	780.94
489.261	733.94
489.479	751.94
489.696	724.94
489.914	750.94
490.132	761.94
490.35	758.94
490.568	763.94
490.786	765.94
491.003	728.94
491.221	791.94
491.439	769.94
491.657	749.94
491.874	747.94
492.092	746.94
492.31	773.94
492.527	785.94
492.745	743.94
492.963	769.94
493.18	742.94
493.398	775.94
493.615	782.94
493.833	764.94
494.05	781.94
494.268	757.94
494.485	774.94
494.703	779.94
494.92	769.94
495.138	783.94
495.355	751.94
495.573	814.94
495.79	777.94
496.008	809.94
496.225	827.94
496.442	804.94
496.66	799.94
496.877	815.94
497.094	826.94
497.312	856.94
497.529	866.94
497.746	897.94
497.963	899.94
498.181	933.94
498.398	974.94
498.615	1031.94
498.832	1089.94
499.049	1175.94
499.267	1259.94
499.484	1387.94
499.701	1568.94
499.918	1681.94
500.135	1991.94
500.352	2296.94
500.569	2407.94
500.786	2377.94
501.003	2185.94
501.22	1927.94
