Data from Ni(NO3)2Standard.Agarose3%.GreenCap.LampEnergy5.5.E.O_HRD10591_14-41-45-188.txt Node
Date: Mon Jul 22 14:41:45 EDT 2019
User: cochatt
Spectrometer: HR+D1059
Trigger mode: 1
Integration Time (sec): 1.000000E-1
Scans to average: 1
Electric dark correction enabled: true
Nonlinearity correction enabled: false
Boxcar width: 0
XAxis mode: Wavelengths
Number of Pixels in Spectrum: 2048
>>>>>Begin Spectral Data<<<<<
223.165	-2.56
223.4	-2.56
223.635	-2.56
223.869	-24.56
224.104	-14.56
224.338	-30.56
224.573	-20.56
224.808	-10.56
225.042	-1.56
225.277	3.44
225.511	-10.56
225.746	-1.56
225.98	18.44
226.215	16.44
226.449	31.44
226.683	22.44
226.918	7.44
227.152	17.44
227.387	20.44
227.621	40.44
227.856	37.44
228.09	51.44
228.324	48.44
228.559	48.44
228.793	52.44
229.027	59.44
229.262	57.44
229.496	67.44
229.73	64.44
229.964	56.44
230.199	73.44
230.433	72.44
230.667	74.44
230.901	67.44
231.136	86.44
231.37	86.44
231.604	84.44
231.838	68.44
232.072	75.44
232.306	79.44
232.541	79.44
232.775	68.44
233.009	85.44
233.243	91.44
233.477	94.44
233.711	82.44
233.945	85.44
234.179	70.44
234.413	85.44
234.647	91.44
234.881	74.44
235.115	85.44
235.349	73.44
235.583	84.44
235.817	72.44
236.051	70.44
236.285	70.44
236.519	66.44
236.753	85.44
236.987	67.44
237.221	75.44
237.455	88.44
237.689	101.44
237.922	84.44
238.156	86.44
238.39	74.44
238.624	66.44
238.858	80.44
239.091	64.44
239.325	86.44
239.559	73.44
239.793	64.44
240.027	82.44
240.26	72.44
240.494	80.44
240.728	67.44
240.961	79.44
241.195	79.44
241.429	75.44
241.662	73.44
241.896	91.44
242.13	82.44
242.363	75.44
242.597	79.44
242.83	71.44
243.064	64.44
243.298	61.44
243.531	79.44
243.765	66.44
243.998	76.44
244.232	72.44
244.465	74.44
244.699	68.44
244.932	70.44
245.166	74.44
245.399	81.44
245.633	79.44
245.866	77.44
246.099	69.44
246.333	92.44
246.566	83.44
246.8	72.44
247.033	75.44
247.266	87.44
247.5	71.44
247.733	70.44
247.966	87.44
248.2	82.44
248.433	70.44
248.666	84.44
248.899	88.44
249.133	88.44
249.366	72.44
249.599	79.44
249.832	79.44
250.066	68.44
250.299	78.44
250.532	90.44
250.765	65.44
250.998	67.44
251.231	90.44
251.465	80.44
251.698	54.44
251.931	77.44
252.164	68.44
252.397	64.44
252.63	79.44
252.863	80.44
253.096	70.44
253.329	82.44
253.562	77.44
253.795	73.44
254.028	75.44
254.261	77.44
254.494	82.44
254.727	73.44
254.96	82.44
255.193	80.44
255.426	82.44
255.659	85.44
255.892	78.44
256.124	102.44
256.357	86.44
256.59	78.44
256.823	76.44
257.056	68.44
257.289	88.44
257.521	72.44
257.754	94.44
257.987	75.44
258.22	85.44
258.452	80.44
258.685	84.44
258.918	74.44
259.151	78.44
259.383	93.44
259.616	80.44
259.849	78.44
260.081	77.44
260.314	69.44
260.547	91.44
260.779	86.44
261.012	73.44
261.244	75.44
261.477	76.44
261.71	95.44
261.942	74.44
262.175	87.44
262.407	89.44
262.64	82.44
262.872	73.44
263.105	88.44
263.337	67.44
263.57	79.44
263.802	79.44
264.035	88.44
264.267	68.44
264.499	73.44
264.732	92.44
264.964	93.44
265.197	81.44
265.429	95.44
265.661	80.44
265.894	79.44
266.126	87.44
266.358	85.44
266.591	78.44
266.823	78.44
267.055	89.44
267.287	78.44
267.52	94.44
267.752	83.44
267.984	80.44
268.216	85.44
268.448	87.44
268.681	73.44
268.913	81.44
269.145	85.44
269.377	87.44
269.609	84.44
269.841	74.44
270.073	66.44
270.306	83.44
270.538	74.44
270.77	77.44
271.002	87.44
271.234	92.44
271.466	84.44
271.698	83.44
271.93	92.44
272.162	88.44
272.394	103.44
272.626	85.44
272.858	76.44
273.09	80.44
273.322	87.44
273.553	92.44
273.785	85.44
274.017	74.44
274.249	85.44
274.481	84.44
274.713	90.44
274.945	81.44
275.176	82.44
275.408	80.44
275.64	56.44
275.872	92.44
276.104	74.44
276.335	65.44
276.567	83.44
276.799	94.44
277.031	88.44
277.262	92.44
277.494	88.44
277.726	80.44
277.957	85.44
278.189	82.44
278.421	75.44
278.652	89.44
278.884	87.44
279.115	84.44
279.347	88.44
279.579	72.44
279.81	83.44
280.042	86.44
280.273	97.44
280.505	88.44
280.736	81.44
280.968	71.44
281.199	77.44
281.431	80.44
281.662	65.44
281.894	82.44
282.125	92.44
282.356	83.44
282.588	74.44
282.819	87.44
283.051	94.44
283.282	84.44
283.513	82.44
283.745	91.44
283.976	75.44
284.207	74.44
284.439	87.44
284.67	88.44
284.901	90.44
285.132	84.44
285.364	91.44
285.595	80.44
285.826	75.44
286.057	75.44
286.288	86.44
286.52	77.44
286.751	97.44
286.982	80.44
287.213	87.44
287.444	81.44
287.675	91.44
287.906	73.44
288.138	89.44
288.369	91.44
288.6	68.44
288.831	97.44
289.062	94.44
289.293	87.44
289.524	95.44
289.755	82.44
289.986	89.44
290.217	73.44
290.448	89.44
290.679	76.44
290.91	79.44
291.141	65.44
291.371	81.44
291.602	70.44
291.833	86.44
292.064	93.44
292.295	71.44
292.526	77.44
292.757	82.44
292.987	83.44
293.218	94.44
293.449	84.44
293.68	73.44
293.91	71.44
294.141	79.44
294.372	81.44
294.603	86.44
294.833	84.44
295.064	88.44
295.295	60.44
295.525	100.44
295.756	92.44
295.987	84.44
296.217	79.44
296.448	84.44
296.679	82.44
296.909	86.44
297.14	85.44
297.37	94.44
297.601	76.44
297.831	81.44
298.062	74.44
298.292	79.44
298.523	82.44
298.753	81.44
298.984	87.44
299.214	95.44
299.445	96.44
299.675	97.44
299.905	73.44
300.136	73.44
300.366	76.44
300.597	89.44
300.827	85.44
301.057	97.44
301.288	80.44
301.518	80.44
301.748	81.44
301.979	78.44
302.209	80.44
302.439	95.44
302.669	79.44
302.9	100.44
303.13	87.44
303.36	74.44
303.59	88.44
303.82	72.44
304.051	79.44
304.281	98.44
304.511	95.44
304.741	77.44
304.971	80.44
305.201	86.44
305.431	81.44
305.661	89.44
305.891	86.44
306.121	94.44
306.352	92.44
306.582	86.44
306.812	78.44
307.042	79.44
307.272	97.44
307.502	90.44
307.731	95.44
307.961	87.44
308.191	76.44
308.421	93.44
308.651	96.44
308.881	92.44
309.111	88.44
309.341	75.44
309.571	71.44
309.8	81.44
310.03	86.44
310.26	67.44
310.49	94.44
310.72	98.44
310.949	75.44
311.179	85.44
311.409	88.44
311.639	82.44
311.868	87.44
312.098	69.44
312.328	91.44
312.557	93.44
312.787	79.44
313.017	80.44
313.246	91.44
313.476	91.44
313.706	90.44
313.935	82.44
314.165	85.44
314.394	84.44
314.624	84.44
314.853	96.44
315.083	84.44
315.312	90.44
315.542	96.44
315.771	80.44
316.001	87.44
316.23	95.44
316.46	84.44
316.689	71.44
316.919	77.44
317.148	82.44
317.377	87.44
317.607	79.44
317.836	82.44
318.065	84.44
318.295	95.44
318.524	88.44
318.753	89.44
318.983	81.44
319.212	99.44
319.441	80.44
319.67	88.44
319.9	87.44
320.129	85.44
320.358	77.44
320.587	83.44
320.816	87.44
321.046	79.44
321.275	89.44
321.504	96.44
321.733	78.44
321.962	99.44
322.191	81.44
322.42	91.44
322.649	84.44
322.878	83.44
323.108	74.44
323.337	78.44
323.566	94.44
323.795	87.44
324.024	91.44
324.253	96.44
324.482	90.44
324.71	83.44
324.939	78.44
325.168	80.44
325.397	70.44
325.626	92.44
325.855	94.44
326.084	94.44
326.313	86.44
326.542	81.44
326.77	84.44
326.999	76.44
327.228	73.44
327.457	80.44
327.686	78.44
327.914	84.44
328.143	91.44
328.372	94.44
328.6	71.44
328.829	79.44
329.058	72.44
329.287	79.44
329.515	86.44
329.744	84.44
329.972	76.44
330.201	75.44
330.43	82.44
330.658	88.44
330.887	84.44
331.115	75.44
331.344	82.44
331.572	100.44
331.801	88.44
332.03	72.44
332.258	83.44
332.486	82.44
332.715	84.44
332.943	83.44
333.172	76.44
333.4	80.44
333.629	90.44
333.857	91.44
334.085	95.44
334.314	71.44
334.542	82.44
334.771	89.44
334.999	96.44
335.227	97.44
335.455	95.44
335.684	104.44
335.912	90.44
336.14	83.44
336.369	94.44
336.597	94.44
336.825	83.44
337.053	82.44
337.281	86.44
337.51	81.44
337.738	84.44
337.966	87.44
338.194	102.44
338.422	102.44
338.65	88.44
338.878	97.44
339.106	75.44
339.334	85.44
339.562	94.44
339.79	95.44
340.018	80.44
340.246	75.44
340.474	90.44
340.702	96.44
340.93	86.44
341.158	89.44
341.386	79.44
341.614	88.44
341.842	83.44
342.07	92.44
342.298	87.44
342.526	82.44
342.754	92.44
342.981	77.44
343.209	91.44
343.437	85.44
343.665	86.44
343.893	92.44
344.12	96.44
344.348	102.44
344.576	90.44
344.804	84.44
345.031	91.44
345.259	73.44
345.487	94.44
345.714	80.44
345.942	87.44
346.17	87.44
346.397	84.44
346.625	89.44
346.853	80.44
347.08	57.44
347.308	82.44
347.535	76.44
347.763	94.44
347.99	82.44
348.218	84.44
348.445	80.44
348.673	84.44
348.9	90.44
349.128	92.44
349.355	77.44
349.583	91.44
349.81	82.44
350.037	87.44
350.265	89.44
350.492	75.44
350.72	90.44
350.947	85.44
351.174	82.44
351.402	82.44
351.629	84.44
351.856	93.44
352.083	95.44
352.311	100.44
352.538	87.44
352.765	87.44
352.992	88.44
353.22	101.44
353.447	89.44
353.674	84.44
353.901	82.44
354.128	90.44
354.355	85.44
354.583	80.44
354.81	84.44
355.037	76.44
355.264	80.44
355.491	97.44
355.718	76.44
355.945	89.44
356.172	88.44
356.399	91.44
356.626	72.44
356.853	92.44
357.08	98.44
357.307	82.44
357.534	83.44
357.761	77.44
357.988	79.44
358.215	91.44
358.441	83.44
358.668	84.44
358.895	96.44
359.122	91.44
359.349	90.44
359.576	88.44
359.802	92.44
360.029	77.44
360.256	86.44
360.483	89.44
360.709	87.44
360.936	77.44
361.163	90.44
361.39	76.44
361.616	83.44
361.843	98.44
362.07	91.44
362.296	84.44
362.523	96.44
362.749	92.44
362.976	93.44
363.203	88.44
363.429	90.44
363.656	80.44
363.882	89.44
364.109	97.44
364.335	89.44
364.562	87.44
364.788	84.44
365.015	72.44
365.241	84.44
365.468	87.44
365.694	68.44
365.92	95.44
366.147	93.44
366.373	84.44
366.599	91.44
366.826	96.44
367.052	87.44
367.278	95.44
367.505	82.44
367.731	84.44
367.957	84.44
368.184	96.44
368.41	88.44
368.636	90.44
368.862	103.44
369.089	66.44
369.315	77.44
369.541	77.44
369.767	94.44
369.993	94.44
370.219	73.44
370.445	71.44
370.672	87.44
370.898	95.44
371.124	60.44
371.35	82.44
371.576	87.44
371.802	78.44
372.028	84.44
372.254	83.44
372.48	78.44
372.706	83.44
372.932	102.44
373.158	89.44
373.384	85.44
373.61	76.44
373.835	95.44
374.061	89.44
374.287	82.44
374.513	85.44
374.739	85.44
374.965	93.44
375.191	79.44
375.416	90.44
375.642	84.44
375.868	94.44
376.094	90.44
376.319	80.44
376.545	85.44
376.771	89.44
376.997	75.44
377.222	86.44
377.448	92.44
377.674	82.44
377.899	87.44
378.125	94.44
378.35	84.44
378.576	74.44
378.802	95.44
379.027	87.44
379.253	87.44
379.478	90.44
379.704	96.44
379.929	90.44
380.155	76.44
380.38	81.44
380.606	93.44
380.831	92.44
381.057	93.44
381.282	86.44
381.507	85.44
381.733	100.44
381.958	80.44
382.184	78.44
382.409	87.44
382.634	85.44
382.86	97.44
383.085	94.44
383.31	85.44
383.535	99.44
383.761	84.44
383.986	80.44
384.211	76.44
384.436	90.44
384.662	82.44
384.887	82.44
385.112	95.44
385.337	79.44
385.562	88.44
385.787	100.44
386.013	88.44
386.238	89.44
386.463	91.44
386.688	82.44
386.913	97.44
387.138	91.44
387.363	74.44
387.588	90.44
387.813	80.44
388.038	86.44
388.263	80.44
388.488	94.44
388.713	68.44
388.938	82.44
389.163	94.44
389.387	79.44
389.612	99.44
389.837	91.44
390.062	64.44
390.287	78.44
390.512	89.44
390.736	84.44
390.961	82.44
391.186	79.44
391.411	90.44
391.636	86.44
391.86	75.44
392.085	90.44
392.31	77.44
392.534	85.44
392.759	85.44
392.984	91.44
393.208	88.44
393.433	83.44
393.658	86.44
393.882	83.44
394.107	86.44
394.331	88.44
394.556	96.44
394.78	78.44
395.005	83.44
395.229	81.44
395.454	79.44
395.678	96.44
395.903	98.44
396.127	85.44
396.352	98.44
396.576	77.44
396.801	77.44
397.025	75.44
397.249	85.44
397.474	98.44
397.698	92.44
397.922	90.44
398.147	84.44
398.371	83.44
398.595	89.44
398.82	90.44
399.044	76.44
399.268	78.44
399.492	68.44
399.717	83.44
399.941	76.44
400.165	89.44
400.389	81.44
400.613	85.44
400.837	74.44
401.062	80.44
401.286	88.44
401.51	89.44
401.734	70.44
401.958	83.44
402.182	85.44
402.406	96.44
402.63	101.44
402.854	84.44
403.078	84.44
403.302	89.44
403.526	90.44
403.75	74.44
403.974	74.44
404.198	83.44
404.422	90.44
404.645	94.44
404.869	84.44
405.093	84.44
405.317	91.44
405.541	85.44
405.765	85.44
405.988	86.44
406.212	91.44
406.436	82.44
406.66	89.44
406.883	88.44
407.107	67.44
407.331	75.44
407.555	88.44
407.778	91.44
408.002	88.44
408.226	83.44
408.449	79.44
408.673	88.44
408.896	76.44
409.12	83.44
409.344	85.44
409.567	82.44
409.791	92.44
410.014	83.44
410.238	86.44
410.461	80.44
410.685	90.44
410.908	92.44
411.132	76.44
411.355	75.44
411.578	85.44
411.802	87.44
412.025	75.44
412.249	110.44
412.472	72.44
412.695	88.44
412.919	88.44
413.142	86.44
413.365	84.44
413.589	89.44
413.812	72.44
414.035	94.44
414.258	89.44
414.482	76.44
414.705	105.44
414.928	86.44
415.151	75.44
415.374	81.44
415.597	82.44
415.821	106.44
416.044	83.44
416.267	68.44
416.49	86.44
416.713	90.44
416.936	94.44
417.159	79.44
417.382	85.44
417.605	82.44
417.828	78.44
418.051	71.44
418.274	86.44
418.497	79.44
418.72	88.44
418.943	91.44
419.166	80.44
419.389	86.44
419.611	86.44
419.834	80.44
420.057	97.44
420.28	92.44
420.503	69.44
420.726	81.44
420.948	74.44
421.171	91.44
421.394	87.44
421.617	76.44
421.839	88.44
422.062	83.44
422.285	98.44
422.507	95.44
422.73	89.44
422.953	85.44
423.175	82.44
423.398	83.44
423.621	84.44
423.843	89.44
424.066	79.44
424.288	78.44
424.511	95.44
424.733	83.44
424.956	80.44
425.178	72.44
425.401	75.44
425.623	88.44
425.846	78.44
426.068	94.44
426.291	76.44
426.513	71.44
426.735	87.44
426.958	77.44
427.18	89.44
427.402	79.44
427.625	84.44
427.847	93.44
428.069	76.44
428.292	76.44
428.514	84.44
428.736	74.44
428.958	91.44
429.181	72.44
429.403	80.44
429.625	82.44
429.847	84.44
430.069	85.44
430.292	82.44
430.514	86.44
430.736	97.44
430.958	86.44
431.18	75.44
431.402	87.44
431.624	105.44
431.846	77.44
432.068	79.44
432.29	94.44
432.512	91.44
432.734	77.44
432.956	88.44
433.178	95.44
433.4	94.44
433.622	91.44
433.844	91.44
434.066	79.44
434.287	87.44
434.509	83.44
434.731	84.44
434.953	80.44
435.175	84.44
435.397	74.44
435.618	65.44
435.84	90.44
436.062	90.44
436.284	83.44
436.505	98.44
436.727	99.44
436.949	73.44
437.17	72.44
437.392	74.44
437.614	90.44
437.835	94.44
438.057	78.44
438.278	86.44
438.5	88.44
438.721	94.44
438.943	88.44
439.165	65.44
439.386	77.44
439.608	78.44
439.829	94.44
440.05	73.44
440.272	90.44
440.493	78.44
440.715	79.44
440.936	82.44
441.158	84.44
441.379	88.44
441.6	82.44
441.822	98.44
442.043	83.44
442.264	88.44
442.486	92.44
442.707	94.44
442.928	96.44
443.149	103.44
443.371	97.44
443.592	98.44
443.813	80.44
444.034	88.44
444.255	90.44
444.476	82.44
444.698	87.44
444.919	87.44
445.14	170.44
445.361	128.44
445.582	100.44
445.803	87.44
446.024	94.44
446.245	83.44
446.466	74.44
446.687	80.44
446.908	100.44
447.129	93.44
447.35	93.44
447.571	76.44
447.792	84.44
448.013	85.44
448.234	81.44
448.455	92.44
448.675	69.44
448.896	74.44
449.117	82.44
449.338	83.44
449.559	95.44
449.779	99.44
450	98.44
450.221	90.44
450.442	91.44
450.662	92.44
450.883	80.44
451.104	88.44
451.324	86.44
451.545	73.44
451.766	84.44
451.986	100.44
452.207	87.44
452.428	93.44
452.648	82.44
452.869	91.44
453.089	87.44
453.31	71.44
453.53	81.44
453.751	81.44
453.971	93.44
454.192	73.44
454.412	73.44
454.633	85.44
454.853	90.44
455.073	92.44
455.294	92.44
455.514	76.44
455.734	85.44
455.955	67.44
456.175	68.44
456.395	84.44
456.616	82.44
456.836	92.44
457.056	76.44
457.276	75.44
457.497	98.44
457.717	76.44
457.937	81.44
458.157	89.44
458.377	60.44
458.598	70.44
458.818	85.44
459.038	80.44
459.258	85.44
459.478	72.44
459.698	84.44
459.918	89.44
460.138	75.44
460.358	90.44
460.578	80.44
460.798	76.44
461.018	74.44
461.238	85.44
461.458	88.44
461.678	84.44
461.898	83.44
462.118	96.44
462.338	88.44
462.558	100.44
462.777	93.44
462.997	96.44
463.217	77.44
463.437	95.44
463.657	89.44
463.876	90.44
464.096	81.44
464.316	80.44
464.536	88.44
464.755	92.44
464.975	77.44
465.195	103.44
465.414	88.44
465.634	92.44
465.854	87.44
466.073	95.44
466.293	87.44
466.512	98.44
466.732	95.44
466.951	96.44
467.171	98.44
467.391	84.44
467.61	90.44
467.829	80.44
468.049	96.44
468.268	78.44
468.488	90.44
468.707	85.44
468.927	85.44
469.146	90.44
469.365	96.44
469.585	85.44
469.804	86.44
470.023	83.44
470.243	94.44
470.462	100.44
470.681	93.44
470.901	88.44
471.12	92.44
471.339	82.44
471.558	87.44
471.777	97.44
471.997	80.44
472.216	91.44
472.435	86.44
472.654	97.44
472.873	96.44
473.092	86.44
473.311	83.44
473.53	78.44
473.749	94.44
473.968	73.44
474.187	89.44
474.406	81.44
474.625	89.44
474.844	103.44
475.063	70.44
475.282	94.44
475.501	74.44
475.72	91.44
475.939	86.44
476.158	80.44
476.377	87.44
476.596	82.44
476.814	82.44
477.033	94.44
477.252	92.44
477.471	79.44
477.69	95.44
477.908	86.44
478.127	105.44
478.346	80.44
478.564	97.44
478.783	91.44
479.002	88.44
479.22	75.44
479.439	92.44
479.658	80.44
479.876	80.44
480.095	88.44
480.313	77.44
480.532	91.44
480.751	79.44
480.969	99.44
481.188	94.44
481.406	102.44
481.624	81.44
481.843	82.44
482.061	93.44
482.28	96.44
482.498	74.44
482.717	95.44
482.935	86.44
483.153	92.44
483.372	91.44
483.59	98.44
483.808	99.44
484.027	92.44
484.245	89.44
484.463	88.44
484.681	96.44
484.9	87.44
485.118	83.44
485.336	91.44
485.554	89.44
485.772	81.44
485.99	89.44
486.209	89.44
486.427	84.44
486.645	92.44
486.863	89.44
487.081	94.44
487.299	88.44
487.517	102.44
487.735	91.44
487.953	82.44
488.171	99.44
488.389	87.44
488.607	90.44
488.825	87.44
489.043	98.44
489.261	92.44
489.479	88.44
489.696	96.44
489.914	97.44
490.132	99.44
490.35	90.44
490.568	94.44
490.786	84.44
491.003	86.44
491.221	88.44
491.439	92.44
491.657	92.44
491.874	83.44
492.092	106.44
492.31	108.44
492.527	101.44
492.745	97.44
492.963	84.44
493.18	95.44
493.398	100.44
493.615	97.44
493.833	90.44
494.05	94.44
494.268	103.44
494.485	102.44
494.703	100.44
494.92	91.44
495.138	98.44
495.355	101.44
495.573	95.44
495.79	98.44
496.008	95.44
496.225	96.44
496.442	97.44
496.66	94.44
496.877	78.44
497.094	85.44
497.312	95.44
497.529	100.44
497.746	88.44
497.963	96.44
498.181	92.44
498.398	84.44
498.615	100.44
498.832	89.44
499.049	88.44
499.267	97.44
499.484	98.44
499.701	105.44
499.918	103.44
500.135	102.44
500.352	105.44
500.569	116.44
500.786	130.44
501.003	114.44
501.22	112.44
501.437	106.44
501.654	97.44
501.871	106.44
502.088	81.44
502.305	111.44
502.522	103.44
502.739	91.44
502.956	107.44
503.172	87.44
503.389	97.44
503.606	88.44
503.823	102.44
504.04	96.44
504.256	79.44
504.473	99.44
504.69	111.44
504.907	91.44
505.123	97.44
505.34	89.44
505.557	111.44
505.773	91.44
505.99	86.44
506.207	90.44
506.423	100.44
506.64	105.44
506.856	85.44
507.073	95.44
507.289	98.44
507.506	90.44
507.722	101.44
507.939	90.44
508.155	97.44
508.372	102.44
508.588	90.44
508.805	84.44
509.021	93.44
509.238	92.44
509.454	79.44
509.67	97.44
509.887	87.44
510.103	92.44
510.319	89.44
510.536	99.44
510.752	91.44
510.968	96.44
511.184	90.44
511.401	81.44
511.617	91.44
511.833	94.44
512.049	87.44
512.265	99.44
512.481	93.44
512.698	78.44
512.914	81.44
513.13	88.44
513.346	77.44
513.562	92.44
513.778	91.44
513.994	75.44
514.21	94.44
514.426	94.44
514.642	91.44
514.858	76.44
515.074	84.44
515.29	103.44
515.506	88.44
515.721	81.44
515.937	87.44
516.153	106.44
516.369	90.44
516.585	88.44
516.801	103.44
517.016	100.44
517.232	95.44
517.448	96.44
517.664	91.44
517.879	91.44
518.095	87.44
518.311	104.44
518.527	100.44
