Data from Ni(NO3)2@0.5M.TitratingCurve.Agarose3%dH2O.NegLispCup.LampEnergy10.LIBS07252019_HRD10591_18-00-13-565.txt Node
Date: Thu Jul 25 18:00:13 EDT 2019
User: cochatt
Spectrometer: HR+D1059
Trigger mode: 1
Integration Time (sec): 1.000000E-1
Scans to average: 1
Electric dark correction enabled: true
Nonlinearity correction enabled: false
Boxcar width: 0
XAxis mode: Wavelengths
Number of Pixels in Spectrum: 2048
>>>>>Begin Spectral Data<<<<<
223.165	-16.88
223.4	-16.88
223.635	-16.88
223.869	-16.88
224.104	-24.88
224.338	3.12
224.573	-22.88
224.808	-8.88
225.042	-0.88
225.277	-17.88
225.511	-10.88
225.746	2.12
225.98	16.12
226.215	10.12
226.449	16.12
226.683	15.12
226.918	21.12
227.152	36.12
227.387	24.12
227.621	38.12
227.856	38.12
228.09	40.12
228.324	28.12
228.559	54.12
228.793	79.12
229.027	127.12
229.262	143.12
229.496	133.12
229.73	119.12
229.964	151.12
230.199	163.12
230.433	162.12
230.667	168.12
230.901	160.12
231.136	147.12
231.37	150.12
231.604	155.12
231.838	169.12
232.072	176.12
232.306	162.12
232.541	153.12
232.775	150.12
233.009	146.12
233.243	144.12
233.477	143.12
233.711	163.12
233.945	158.12
234.179	167.12
234.413	161.12
234.647	160.12
234.881	162.12
235.115	171.12
235.349	163.12
235.583	170.12
235.817	150.12
236.051	163.12
236.285	146.12
236.519	175.12
236.753	145.12
236.987	159.12
237.221	156.12
237.455	178.12
237.689	188.12
237.922	171.12
238.156	170.12
238.39	186.12
238.624	165.12
238.858	167.12
239.091	180.12
239.325	182.12
239.559	178.12
239.793	200.12
240.027	204.12
240.26	195.12
240.494	178.12
240.728	191.12
240.961	183.12
241.195	193.12
241.429	197.12
241.662	204.12
241.896	212.12
242.13	209.12
242.363	201.12
242.597	208.12
242.83	212.12
243.064	201.12
243.298	203.12
243.531	206.12
243.765	206.12
243.998	228.12
244.232	228.12
244.465	218.12
244.699	213.12
244.932	224.12
245.166	226.12
245.399	210.12
245.633	221.12
245.866	227.12
246.099	234.12
246.333	232.12
246.566	229.12
246.8	212.12
247.033	223.12
247.266	224.12
247.5	226.12
247.733	244.12
247.966	259.12
248.2	245.12
248.433	258.12
248.666	243.12
248.899	257.12
249.133	265.12
249.366	245.12
249.599	257.12
249.832	243.12
250.066	256.12
250.299	249.12
250.532	248.12
250.765	279.12
250.998	268.12
251.231	280.12
251.465	284.12
251.698	304.12
251.931	287.12
252.164	269.12
252.397	277.12
252.63	271.12
252.863	289.12
253.096	289.12
253.329	281.12
253.562	282.12
253.795	300.12
254.028	291.12
254.261	288.12
254.494	299.12
254.727	290.12
254.96	303.12
255.193	293.12
255.426	285.12
255.659	298.12
255.892	281.12
256.124	296.12
256.357	319.12
256.59	326.12
256.823	311.12
257.056	336.12
257.289	294.12
257.521	323.12
257.754	311.12
257.987	313.12
258.22	332.12
258.452	334.12
258.685	333.12
258.918	315.12
259.151	335.12
259.383	323.12
259.616	325.12
259.849	335.12
260.081	314.12
260.314	333.12
260.547	351.12
260.779	336.12
261.012	354.12
261.244	344.12
261.477	362.12
261.71	357.12
261.942	357.12
262.175	367.12
262.407	367.12
262.64	359.12
262.872	370.12
263.105	371.12
263.337	369.12
263.57	363.12
263.802	385.12
264.035	363.12
264.267	364.12
264.499	403.12
264.732	357.12
264.964	363.12
265.197	362.12
265.429	370.12
265.661	365.12
265.894	373.12
266.126	375.12
266.358	392.12
266.591	387.12
266.823	395.12
267.055	394.12
267.287	408.12
267.52	386.12
267.752	385.12
267.984	413.12
268.216	419.12
268.448	413.12
268.681	413.12
268.913	391.12
269.145	395.12
269.377	404.12
269.609	409.12
269.841	417.12
270.073	419.12
270.306	417.12
270.538	406.12
270.77	404.12
271.002	410.12
271.234	427.12
271.466	422.12
271.698	422.12
271.93	409.12
272.162	427.12
272.394	436.12
272.626	431.12
272.858	421.12
273.09	444.12
273.322	427.12
273.553	404.12
273.785	429.12
274.017	413.12
274.249	433.12
274.481	447.12
274.713	439.12
274.945	457.12
275.176	453.12
275.408	467.12
275.64	451.12
275.872	474.12
276.104	456.12
276.335	457.12
276.567	460.12
276.799	480.12
277.031	447.12
277.262	466.12
277.494	460.12
277.726	475.12
277.957	473.12
278.189	505.12
278.421	470.12
278.652	473.12
278.884	491.12
279.115	471.12
279.347	470.12
279.579	479.12
279.81	458.12
280.042	489.12
280.273	472.12
280.505	500.12
280.736	487.12
280.968	491.12
281.199	502.12
281.431	500.12
281.662	507.12
281.894	505.12
282.125	504.12
282.356	518.12
282.588	498.12
282.819	492.12
283.051	517.12
283.282	525.12
283.513	513.12
283.745	513.12
283.976	515.12
284.207	526.12
284.439	535.12
284.67	520.12
284.901	515.12
285.132	525.12
285.364	520.12
285.595	516.12
285.826	523.12
286.057	527.12
286.288	539.12
286.52	535.12
286.751	550.12
286.982	559.12
287.213	542.12
287.444	550.12
287.675	550.12
287.906	554.12
288.138	538.12
288.369	551.12
288.6	560.12
288.831	541.12
289.062	567.12
289.293	552.12
289.524	561.12
289.755	572.12
289.986	551.12
290.217	552.12
290.448	568.12
290.679	563.12
290.91	567.12
291.141	571.12
291.371	578.12
291.602	566.12
291.833	576.12
292.064	548.12
292.295	535.12
292.526	569.12
292.757	583.12
292.987	592.12
293.218	559.12
293.449	583.12
293.68	564.12
293.91	577.12
294.141	573.12
294.372	585.12
294.603	563.12
294.833	559.12
295.064	579.12
295.295	575.12
295.525	561.12
295.756	579.12
295.987	581.12
296.217	595.12
296.448	584.12
296.679	589.12
296.909	603.12
297.14	591.12
297.37	599.12
297.601	608.12
297.831	599.12
298.062	595.12
298.292	615.12
298.523	611.12
298.753	619.12
298.984	616.12
299.214	607.12
299.445	593.12
299.675	608.12
299.905	629.12
300.136	610.12
300.366	651.12
300.597	654.12
300.827	635.12
301.057	658.12
301.288	629.12
301.518	655.12
301.748	643.12
301.979	640.12
302.209	670.12
302.439	678.12
302.669	644.12
302.9	650.12
303.13	643.12
303.36	652.12
303.59	660.12
303.82	647.12
304.051	643.12
304.281	673.12
304.511	654.12
304.741	656.12
304.971	654.12
305.201	667.12
305.431	674.12
305.661	680.12
305.891	644.12
306.121	672.12
306.352	640.12
306.582	654.12
306.812	644.12
307.042	651.12
307.272	638.12
307.502	639.12
307.731	663.12
307.961	652.12
308.191	650.12
308.421	664.12
308.651	663.12
308.881	653.12
309.111	639.12
309.341	654.12
309.571	668.12
309.8	653.12
310.03	669.12
310.26	696.12
310.49	695.12
310.72	676.12
310.949	667.12
311.179	666.12
311.409	690.12
311.639	675.12
311.868	682.12
312.098	649.12
312.328	690.12
312.557	683.12
312.787	702.12
313.017	701.12
313.246	716.12
313.476	711.12
313.706	741.12
313.935	699.12
314.165	715.12
314.394	721.12
314.624	716.12
314.853	687.12
315.083	725.12
315.312	730.12
315.542	720.12
315.771	688.12
316.001	672.12
316.23	719.12
316.46	709.12
316.689	716.12
316.919	688.12
317.148	706.12
317.377	704.12
317.607	709.12
317.836	725.12
318.065	709.12
318.295	717.12
318.524	719.12
318.753	712.12
318.983	707.12
319.212	707.12
319.441	710.12
319.67	717.12
319.9	710.12
320.129	722.12
320.358	733.12
320.587	700.12
320.816	725.12
321.046	719.12
321.275	743.12
321.504	752.12
321.733	713.12
321.962	732.12
322.191	737.12
322.42	745.12
322.649	737.12
322.878	778.12
323.108	720.12
323.337	782.12
323.566	747.12
323.795	767.12
324.024	746.12
324.253	755.12
324.482	762.12
324.71	768.12
324.939	776.12
325.168	780.12
325.397	753.12
325.626	786.12
325.855	780.12
326.084	789.12
326.313	787.12
326.542	770.12
326.77	763.12
326.999	775.12
327.228	818.12
327.457	776.12
327.686	793.12
327.914	796.12
328.143	807.12
328.372	817.12
328.6	787.12
328.829	786.12
329.058	805.12
329.287	787.12
329.515	833.12
329.744	817.12
329.972	847.12
330.201	811.12
330.43	811.12
330.658	820.12
330.887	831.12
331.115	823.12
331.344	859.12
331.572	867.12
331.801	855.12
332.03	888.12
332.258	871.12
332.486	883.12
332.715	883.12
332.943	893.12
333.172	926.12
333.4	923.12
333.629	937.12
333.857	936.12
334.085	981.12
334.314	963.12
334.542	971.12
334.771	956.12
334.999	958.12
335.227	940.12
335.455	958.12
335.684	985.12
335.912	991.12
336.14	979.12
336.369	960.12
336.597	991.12
336.825	954.12
337.053	994.12
337.281	958.12
337.51	946.12
337.738	938.12
337.966	917.12
338.194	929.12
338.422	949.12
338.65	889.12
338.878	887.12
339.106	870.12
339.334	939.12
339.562	901.12
339.79	877.12
340.018	849.12
340.246	859.12
340.474	877.12
340.702	868.12
340.93	872.12
341.158	866.12
341.386	876.12
341.614	936.12
341.842	895.12
342.07	849.12
342.298	854.12
342.526	883.12
342.754	867.12
342.981	867.12
343.209	885.12
343.437	925.12
343.665	964.12
343.893	950.12
344.12	937.12
344.348	950.12
344.576	952.12
344.804	941.12
345.031	925.12
345.259	917.12
345.487	888.12
345.714	869.12
345.942	913.12
346.17	919.12
346.397	880.12
346.625	854.12
346.853	828.12
347.08	837.12
347.308	829.12
347.535	845.12
347.763	844.12
347.99	840.12
348.218	805.12
348.445	817.12
348.673	833.12
348.9	830.12
349.128	855.12
349.355	861.12
349.583	853.12
349.81	827.12
350.037	812.12
350.265	827.12
350.492	799.12
350.72	803.12
350.947	817.12
351.174	842.12
351.402	848.12
351.629	860.12
351.856	834.12
352.083	794.12
352.311	819.12
352.538	861.12
352.765	843.12
352.992	794.12
353.22	780.12
353.447	793.12
353.674	812.12
353.901	778.12
354.128	795.12
354.355	767.12
354.583	799.12
354.81	800.12
355.037	797.12
355.264	811.12
355.491	791.12
355.718	789.12
355.945	809.12
356.172	812.12
356.399	812.12
356.626	836.12
356.853	852.12
357.08	819.12
357.307	823.12
357.534	833.12
357.761	808.12
357.988	785.12
358.215	789.12
358.441	809.12
358.668	804.12
358.895	829.12
359.122	809.12
359.349	796.12
359.576	799.12
359.802	815.12
360.029	806.12
360.256	797.12
360.483	805.12
360.709	803.12
360.936	836.12
361.163	859.12
361.39	807.12
361.616	813.12
361.843	842.12
362.07	870.12
362.296	852.12
362.523	811.12
362.749	851.12
362.976	796.12
363.203	818.12
363.429	789.12
363.656	835.12
363.882	816.12
364.109	810.12
364.335	827.12
364.562	815.12
364.788	819.12
365.015	826.12
365.241	808.12
365.468	805.12
365.694	837.12
365.92	807.12
366.147	785.12
366.373	834.12
366.599	804.12
366.826	811.12
367.052	802.12
367.278	811.12
367.505	809.12
367.731	801.12
367.957	796.12
368.184	815.12
368.41	819.12
368.636	831.12
368.862	822.12
369.089	847.12
369.315	833.12
369.541	864.12
369.767	846.12
369.993	849.12
370.219	855.12
370.445	849.12
370.672	877.12
370.898	875.12
371.124	844.12
371.35	871.12
371.576	871.12
371.802	895.12
372.028	879.12
372.254	851.12
372.48	882.12
372.706	887.12
372.932	895.12
373.158	903.12
373.384	889.12
373.61	890.12
373.835	889.12
374.061	899.12
374.287	877.12
374.513	888.12
374.739	927.12
374.965	923.12
375.191	921.12
375.416	936.12
375.642	931.12
375.868	887.12
376.094	905.12
376.319	892.12
376.545	867.12
376.771	881.12
376.997	893.12
377.222	873.12
377.448	886.12
377.674	880.12
377.899	901.12
378.125	864.12
378.35	891.12
378.576	857.12
378.802	855.12
379.027	869.12
379.253	870.12
379.478	875.12
379.704	873.12
379.929	891.12
380.155	853.12
380.38	877.12
380.606	857.12
380.831	901.12
381.057	855.12
381.282	883.12
381.507	902.12
381.733	887.12
381.958	865.12
382.184	887.12
382.409	907.12
382.634	916.12
382.86	913.12
383.085	919.12
383.31	913.12
383.535	932.12
383.761	902.12
383.986	940.12
384.211	923.12
384.436	947.12
384.662	961.12
384.887	976.12
385.112	986.12
385.337	984.12
385.562	1001.12
385.787	993.12
386.013	1013.12
386.238	1030.12
386.463	1044.12
386.688	1018.12
386.913	1020.12
387.138	1000.12
387.363	1035.12
387.588	1008.12
387.813	1013.12
388.038	1040.12
388.263	1038.12
388.488	1034.12
388.713	1041.12
388.938	1041.12
389.163	1037.12
389.387	1048.12
389.612	1008.12
389.837	997.12
390.062	995.12
390.287	1014.12
390.512	1033.12
390.736	1024.12
390.961	1052.12
391.186	1075.12
391.411	1093.12
391.636	1083.12
391.86	1059.12
392.085	1099.12
392.31	1093.12
392.534	1106.12
392.759	1085.12
392.984	1079.12
393.208	1075.12
393.433	1066.12
393.658	1060.12
393.882	1090.12
394.107	1068.12
394.331	1101.12
394.556	1072.12
394.78	1065.12
395.005	1075.12
395.229	1067.12
395.454	1105.12
395.678	1142.12
395.903	1092.12
396.127	1099.12
396.352	1074.12
396.576	1110.12
396.801	1136.12
397.025	1127.12
397.249	1107.12
397.474	1130.12
397.698	1151.12
397.922	1182.12
398.147	1175.12
398.371	1196.12
398.595	1224.12
398.82	1236.12
399.044	1322.12
399.268	1377.12
399.492	1446.12
399.717	1549.12
399.941	1549.12
400.165	1509.12
400.389	1457.12
400.613	1366.12
400.837	1311.12
401.062	1283.12
401.286	1251.12
401.51	1230.12
401.734	1250.12
401.958	1250.12
402.182	1247.12
402.406	1267.12
402.63	1244.12
402.854	1266.12
403.078	1233.12
403.302	1262.12
403.526	1315.12
403.75	1301.12
403.974	1290.12
404.198	1276.12
404.422	1270.12
404.645	1278.12
404.869	1283.12
405.093	1286.12
405.317	1299.12
405.541	1322.12
405.765	1315.12
405.988	1338.12
406.212	1344.12
406.436	1340.12
406.66	1387.12
406.883	1359.12
407.107	1398.12
407.331	1442.12
407.555	1485.12
407.778	1458.12
408.002	1462.12
408.226	1460.12
408.449	1463.12
408.673	1393.12
408.896	1411.12
409.12	1354.12
409.344	1387.12
409.567	1372.12
409.791	1404.12
410.014	1361.12
410.238	1388.12
410.461	1364.12
410.685	1342.12
410.908	1341.12
411.132	1318.12
411.355	1337.12
411.578	1301.12
411.802	1315.12
412.025	1317.12
412.249	1301.12
412.472	1282.12
412.695	1267.12
412.919	1277.12
413.142	1263.12
413.365	1268.12
413.589	1299.12
413.812	1282.12
414.035	1265.12
414.258	1255.12
414.482	1281.12
414.705	1258.12
414.928	1251.12
415.151	1258.12
415.374	1228.12
415.597	1231.12
415.821	1219.12
416.044	1217.12
416.267	1212.12
416.49	1240.12
416.713	1185.12
416.936	1198.12
417.159	1192.12
417.382	1188.12
417.605	1187.12
417.828	1184.12
418.051	1241.12
418.274	1219.12
418.497	1197.12
418.72	1209.12
418.943	1229.12
419.166	1264.12
419.389	1337.12
419.611	1357.12
419.834	1300.12
420.057	1271.12
420.28	1221.12
420.503	1187.12
420.726	1195.12
420.948	1208.12
421.171	1195.12
421.394	1190.12
421.617	1173.12
421.839	1212.12
422.062	1233.12
422.285	1175.12
422.507	1206.12
422.73	1182.12
422.953	1193.12
423.175	1181.12
423.398	1183.12
423.621	1187.12
423.843	1205.12
424.066	1214.12
424.288	1210.12
424.511	1181.12
424.733	1202.12
424.956	1226.12
425.178	1175.12
425.401	1166.12
425.623	1204.12
425.846	1163.12
426.068	1194.12
426.291	1166.12
426.513	1165.12
426.735	1151.12
426.958	1153.12
427.18	1132.12
427.402	1132.12
427.625	1124.12
427.847	1116.12
428.069	1109.12
428.292	1139.12
428.514	1122.12
428.736	1130.12
428.958	1137.12
429.181	1087.12
429.403	1123.12
429.625	1120.12
429.847	1092.12
430.069	1106.12
430.292	1123.12
430.514	1110.12
430.736	1123.12
430.958	1109.12
431.18	1091.12
431.402	1107.12
431.624	1097.12
431.846	1135.12
432.068	1127.12
432.29	1133.12
432.512	1148.12
432.734	1146.12
432.956	1163.12
433.178	1150.12
433.4	1157.12
433.622	1157.12
433.844	1148.12
434.066	1148.12
434.287	1177.12
434.509	1187.12
434.731	1217.12
434.953	1199.12
435.175	1202.12
435.397	1236.12
435.618	1186.12
435.84	1168.12
436.062	1164.12
436.284	1122.12
436.505	1112.12
436.727	1147.12
436.949	1145.12
437.17	1115.12
437.392	1109.12
437.614	1088.12
437.835	1062.12
438.057	1087.12
438.278	1071.12
438.5	1075.12
438.721	1069.12
438.943	1095.12
439.165	1093.12
439.386	1063.12
439.608	1091.12
439.829	1117.12
440.05	1117.12
440.272	1107.12
440.493	1124.12
440.715	1113.12
440.936	1150.12
441.158	1148.12
441.379	1157.12
441.6	1192.12
441.822	1189.12
442.043	1223.12
442.264	1199.12
442.486	1194.12
442.707	1177.12
442.928	1157.12
443.149	1205.12
443.371	1216.12
443.592	1268.12
443.813	1251.12
444.034	1228.12
444.255	1216.12
444.476	1258.12
444.698	1288.12
444.919	1327.12
445.14	1397.12
445.361	1339.12
445.582	1247.12
445.803	1191.12
446.024	1159.12
446.245	1162.12
446.466	1171.12
446.687	1137.12
446.908	1130.12
447.129	1111.12
447.35	1121.12
447.571	1101.12
447.792	1102.12
448.013	1057.12
448.234	1058.12
448.455	1072.12
448.675	1046.12
448.896	1069.12
449.117	1041.12
449.338	1043.12
449.559	1000.12
449.779	998.12
450	1028.12
450.221	981.12
450.442	1007.12
450.662	1032.12
450.883	1056.12
451.104	1067.12
451.324	1021.12
451.545	1005.12
451.766	1027.12
451.986	1034.12
452.207	1010.12
452.428	1026.12
452.648	987.12
452.869	1004.12
453.089	979.12
453.31	1012.12
453.53	960.12
453.751	982.12
453.971	987.12
454.192	1012.12
454.412	980.12
454.633	992.12
454.853	966.12
455.073	969.12
455.294	1000.12
455.514	976.12
455.734	995.12
455.955	999.12
456.175	993.12
456.395	967.12
456.616	977.12
456.836	977.12
457.056	987.12
457.276	936.12
457.497	983.12
457.717	983.12
457.937	987.12
458.157	982.12
458.377	1000.12
458.598	996.12
458.818	1034.12
459.038	1027.12
459.258	1075.12
459.478	1124.12
459.698	1163.12
459.918	1196.12
460.138	1183.12
460.358	1210.12
460.578	1238.12
460.798	1256.12
461.018	1292.12
461.238	1232.12
461.458	1252.12
461.678	1233.12
461.898	1237.12
462.118	1277.12
462.338	1317.12
462.558	1361.12
462.777	1414.12
462.997	1446.12
463.217	1457.12
463.437	1495.12
463.657	1473.12
463.876	1440.12
464.096	1408.12
464.316	1366.12
464.536	1379.12
464.755	1384.12
464.975	1322.12
465.195	1268.12
465.414	1217.12
465.634	1211.12
465.854	1147.12
466.073	1140.12
466.293	1111.12
466.512	1097.12
466.732	1112.12
466.951	1101.12
467.171	1065.12
467.391	1074.12
467.61	1064.12
467.829	1039.12
468.049	1059.12
468.268	1043.12
468.488	1054.12
468.707	1034.12
468.927	1036.12
469.146	1053.12
469.365	1066.12
469.585	1075.12
469.804	1085.12
470.023	1046.12
470.243	1079.12
470.462	1088.12
470.681	1084.12
470.901	1087.12
471.12	1081.12
471.339	1090.12
471.558	1077.12
471.777	1090.12
471.997	1095.12
472.216	1063.12
472.435	1058.12
472.654	1032.12
472.873	1043.12
473.092	1053.12
473.311	1047.12
473.53	1032.12
473.749	1005.12
473.968	1038.12
474.187	1010.12
474.406	1020.12
474.625	1037.12
474.844	1045.12
475.063	1038.12
475.282	1055.12
475.501	1095.12
475.72	1064.12
475.939	1109.12
476.158	1047.12
476.377	1062.12
476.596	1067.12
476.814	1116.12
477.033	1087.12
477.252	1091.12
477.471	1125.12
477.69	1145.12
477.908	1169.12
478.127	1195.12
478.346	1167.12
478.564	1207.12
478.783	1202.12
479.002	1266.12
479.22	1255.12
479.439	1287.12
479.658	1264.12
479.876	1277.12
480.095	1253.12
480.313	1295.12
480.532	1305.12
480.751	1288.12
480.969	1251.12
481.188	1248.12
481.406	1246.12
481.624	1250.12
481.843	1233.12
482.061	1217.12
482.28	1212.12
482.498	1211.12
482.717	1238.12
482.935	1237.12
483.153	1237.12
483.372	1240.12
483.59	1255.12
483.808	1218.12
484.027	1203.12
484.245	1235.12
484.463	1224.12
484.681	1255.12
484.9	1241.12
485.118	1252.12
485.336	1240.12
485.554	1266.12
485.772	1273.12
485.99	1262.12
486.209	1289.12
486.427	1257.12
486.645	1247.12
486.863	1302.12
487.081	1285.12
487.299	1298.12
487.517	1243.12
487.735	1277.12
487.953	1308.12
488.171	1273.12
488.389	1263.12
488.607	1268.12
488.825	1271.12
489.043	1257.12
489.261	1228.12
489.479	1245.12
489.696	1224.12
489.914	1245.12
490.132	1239.12
490.35	1245.12
490.568	1260.12
490.786	1306.12
491.003	1259.12
491.221	1242.12
491.439	1272.12
491.657	1257.12
491.874	1307.12
492.092	1323.12
492.31	1312.12
492.527	1288.12
492.745	1304.12
492.963	1264.12
493.18	1268.12
493.398	1288.12
493.615	1287.12
493.833	1298.12
494.05	1323.12
494.268	1313.12
494.485	1339.12
494.703	1347.12
494.92	1337.12
495.138	1329.12
