Data from Ni(NO3)2@0.0625M.TitratingCurve.Agarose3%dH2O.NegLispCup.LampEnergy10.LIBS07252019_HRD10591_18-15-21-570.txt Node
Date: Thu Jul 25 18:15:21 EDT 2019
User: cochatt
Spectrometer: HR+D1059
Trigger mode: 1
Integration Time (sec): 1.000000E-1
Scans to average: 1
Electric dark correction enabled: true
Nonlinearity correction enabled: false
Boxcar width: 0
XAxis mode: Wavelengths
Number of Pixels in Spectrum: 2048
>>>>>Begin Spectral Data<<<<<
223.165	-17.56
223.4	-17.56
223.635	-17.56
223.869	-6.56
224.104	-16.56
224.338	-13.56
224.573	-22.56
224.808	-16.56
225.042	-21.56
225.277	-4.56
225.511	1.44
225.746	1.44
225.98	3.44
226.215	25.44
226.449	7.44
226.683	21.44
226.918	35.44
227.152	23.44
227.387	24.44
227.621	36.44
227.856	35.44
228.09	27.44
228.324	35.44
228.559	42.44
228.793	56.44
229.027	86.44
229.262	93.44
229.496	97.44
229.73	104.44
229.964	134.44
230.199	126.44
230.433	133.44
230.667	133.44
230.901	125.44
231.136	118.44
231.37	139.44
231.604	129.44
231.838	153.44
232.072	128.44
232.306	122.44
232.541	144.44
232.775	145.44
233.009	135.44
233.243	151.44
233.477	141.44
233.711	147.44
233.945	124.44
234.179	145.44
234.413	143.44
234.647	150.44
234.881	143.44
235.115	148.44
235.349	132.44
235.583	138.44
235.817	157.44
236.051	151.44
236.285	146.44
236.519	155.44
236.753	130.44
236.987	151.44
237.221	141.44
237.455	145.44
237.689	160.44
237.922	146.44
238.156	161.44
238.39	151.44
238.624	158.44
238.858	153.44
239.091	153.44
239.325	162.44
239.559	173.44
239.793	161.44
240.027	177.44
240.26	167.44
240.494	185.44
240.728	175.44
240.961	193.44
241.195	171.44
241.429	198.44
241.662	189.44
241.896	181.44
242.13	168.44
242.363	184.44
242.597	170.44
242.83	187.44
243.064	197.44
243.298	192.44
243.531	189.44
243.765	198.44
243.998	201.44
244.232	210.44
244.465	199.44
244.699	197.44
244.932	202.44
245.166	202.44
245.399	210.44
245.633	217.44
245.866	197.44
246.099	226.44
246.333	190.44
246.566	214.44
246.8	223.44
247.033	208.44
247.266	219.44
247.5	219.44
247.733	213.44
247.966	221.44
248.2	238.44
248.433	238.44
248.666	211.44
248.899	233.44
249.133	233.44
249.366	225.44
249.599	234.44
249.832	231.44
250.066	252.44
250.299	241.44
250.532	237.44
250.765	239.44
250.998	228.44
251.231	255.44
251.465	242.44
251.698	244.44
251.931	244.44
252.164	250.44
252.397	271.44
252.63	241.44
252.863	251.44
253.096	273.44
253.329	252.44
253.562	232.44
253.795	265.44
254.028	267.44
254.261	258.44
254.494	280.44
254.727	268.44
254.96	274.44
255.193	281.44
255.426	261.44
255.659	274.44
255.892	276.44
256.124	273.44
256.357	280.44
256.59	284.44
256.823	286.44
257.056	288.44
257.289	297.44
257.521	285.44
257.754	290.44
257.987	294.44
258.22	288.44
258.452	288.44
258.685	295.44
258.918	288.44
259.151	332.44
259.383	312.44
259.616	305.44
259.849	304.44
260.081	312.44
260.314	294.44
260.547	303.44
260.779	312.44
261.012	287.44
261.244	288.44
261.477	308.44
261.71	301.44
261.942	308.44
262.175	296.44
262.407	327.44
262.64	310.44
262.872	331.44
263.105	312.44
263.337	331.44
263.57	304.44
263.802	309.44
264.035	344.44
264.267	333.44
264.499	343.44
264.732	334.44
264.964	338.44
265.197	333.44
265.429	330.44
265.661	345.44
265.894	340.44
266.126	339.44
266.358	350.44
266.591	337.44
266.823	355.44
267.055	355.44
267.287	337.44
267.52	358.44
267.752	340.44
267.984	345.44
268.216	348.44
268.448	354.44
268.681	365.44
268.913	360.44
269.145	357.44
269.377	359.44
269.609	341.44
269.841	365.44
270.073	349.44
270.306	351.44
270.538	357.44
270.77	355.44
271.002	366.44
271.234	368.44
271.466	366.44
271.698	370.44
271.93	372.44
272.162	361.44
272.394	377.44
272.626	388.44
272.858	376.44
273.09	379.44
273.322	386.44
273.553	384.44
273.785	371.44
274.017	366.44
274.249	385.44
274.481	385.44
274.713	379.44
274.945	394.44
275.176	390.44
275.408	400.44
275.64	406.44
275.872	393.44
276.104	412.44
276.335	387.44
276.567	376.44
276.799	400.44
277.031	414.44
277.262	393.44
277.494	393.44
277.726	400.44
277.957	406.44
278.189	394.44
278.421	395.44
278.652	395.44
278.884	414.44
279.115	409.44
279.347	422.44
279.579	420.44
279.81	410.44
280.042	420.44
280.273	426.44
280.505	408.44
280.736	425.44
280.968	428.44
281.199	425.44
281.431	403.44
281.662	439.44
281.894	439.44
282.125	445.44
282.356	457.44
282.588	448.44
282.819	465.44
283.051	447.44
283.282	455.44
283.513	430.44
283.745	441.44
283.976	449.44
284.207	461.44
284.439	456.44
284.67	451.44
284.901	470.44
285.132	482.44
285.364	484.44
285.595	469.44
285.826	468.44
286.057	480.44
286.288	454.44
286.52	497.44
286.751	460.44
286.982	476.44
287.213	478.44
287.444	473.44
287.675	487.44
287.906	475.44
288.138	490.44
288.369	480.44
288.6	483.44
288.831	487.44
289.062	493.44
289.293	480.44
289.524	498.44
289.755	482.44
289.986	509.44
290.217	489.44
290.448	520.44
290.679	486.44
290.91	505.44
291.141	499.44
291.371	509.44
291.602	521.44
291.833	506.44
292.064	490.44
292.295	510.44
292.526	504.44
292.757	505.44
292.987	511.44
293.218	490.44
293.449	521.44
293.68	497.44
293.91	511.44
294.141	509.44
294.372	490.44
294.603	494.44
294.833	519.44
295.064	521.44
295.295	505.44
295.525	508.44
295.756	533.44
295.987	530.44
296.217	527.44
296.448	518.44
296.679	533.44
296.909	497.44
297.14	537.44
297.37	537.44
297.601	559.44
297.831	551.44
298.062	559.44
298.292	554.44
298.523	580.44
298.753	560.44
298.984	561.44
299.214	556.44
299.445	582.44
299.675	553.44
299.905	543.44
300.136	529.44
300.366	553.44
300.597	571.44
300.827	571.44
301.057	565.44
301.288	588.44
301.518	613.44
301.748	587.44
301.979	609.44
302.209	584.44
302.439	593.44
302.669	591.44
302.9	557.44
303.13	568.44
303.36	570.44
303.59	563.44
303.82	559.44
304.051	560.44
304.281	563.44
304.511	561.44
304.741	579.44
304.971	567.44
305.201	584.44
305.431	541.44
305.661	569.44
305.891	558.44
306.121	545.44
306.352	554.44
306.582	542.44
306.812	550.44
307.042	553.44
307.272	549.44
307.502	530.44
307.731	548.44
307.961	545.44
308.191	555.44
308.421	530.44
308.651	555.44
308.881	535.44
309.111	547.44
309.341	557.44
309.571	539.44
309.8	555.44
310.03	566.44
310.26	557.44
310.49	563.44
310.72	580.44
310.949	570.44
311.179	566.44
311.409	574.44
311.639	547.44
311.868	551.44
312.098	577.44
312.328	587.44
312.557	569.44
312.787	571.44
313.017	578.44
313.246	597.44
313.476	601.44
313.706	601.44
313.935	603.44
314.165	613.44
314.394	581.44
314.624	581.44
314.853	587.44
315.083	597.44
315.312	591.44
315.542	598.44
315.771	591.44
316.001	589.44
316.23	570.44
316.46	586.44
316.689	582.44
316.919	579.44
317.148	618.44
317.377	613.44
317.607	600.44
317.836	554.44
318.065	596.44
318.295	557.44
318.524	600.44
318.753	580.44
318.983	595.44
319.212	585.44
319.441	571.44
319.67	587.44
319.9	571.44
320.129	566.44
320.358	570.44
320.587	583.44
320.816	594.44
321.046	589.44
321.275	574.44
321.504	589.44
321.733	615.44
321.962	597.44
322.191	591.44
322.42	578.44
322.649	588.44
322.878	578.44
323.108	591.44
323.337	600.44
323.566	603.44
323.795	613.44
324.024	591.44
324.253	631.44
324.482	597.44
324.71	587.44
324.939	602.44
325.168	602.44
325.397	597.44
325.626	621.44
325.855	619.44
326.084	623.44
326.313	632.44
326.542	622.44
326.77	642.44
326.999	653.44
327.228	634.44
327.457	633.44
327.686	608.44
327.914	629.44
328.143	621.44
328.372	641.44
328.6	648.44
328.829	630.44
329.058	635.44
329.287	671.44
329.515	651.44
329.744	655.44
329.972	645.44
330.201	637.44
330.43	629.44
330.658	656.44
330.887	655.44
331.115	690.44
331.344	659.44
331.572	671.44
331.801	691.44
332.03	722.44
332.258	705.44
332.486	733.44
332.715	732.44
332.943	787.44
333.172	862.44
333.4	864.44
333.629	874.44
333.857	877.44
334.085	887.44
334.314	854.44
334.542	835.44
334.771	819.44
334.999	826.44
335.227	792.44
335.455	794.44
335.684	770.44
335.912	782.44
336.14	773.44
336.369	797.44
336.597	784.44
336.825	782.44
337.053	768.44
337.281	755.44
337.51	753.44
337.738	721.44
337.966	742.44
338.194	719.44
338.422	669.44
338.65	690.44
338.878	681.44
339.106	675.44
339.334	694.44
339.562	684.44
339.79	684.44
340.018	658.44
340.246	669.44
340.474	672.44
340.702	678.44
340.93	675.44
341.158	689.44
341.386	680.44
341.614	664.44
341.842	680.44
342.07	650.44
342.298	636.44
342.526	652.44
342.754	659.44
342.981	658.44
343.209	655.44
343.437	703.44
343.665	743.44
343.893	819.44
344.12	834.44
344.348	810.44
344.576	745.44
344.804	736.44
345.031	718.44
345.259	696.44
345.487	671.44
345.714	678.44
345.942	646.44
346.17	661.44
346.397	648.44
346.625	653.44
346.853	662.44
347.08	638.44
347.308	652.44
347.535	677.44
347.763	672.44
347.99	655.44
348.218	656.44
348.445	664.44
348.673	645.44
348.9	650.44
349.128	635.44
349.355	665.44
349.583	648.44
349.81	643.44
350.037	632.44
350.265	623.44
350.492	637.44
350.72	644.44
350.947	613.44
351.174	610.44
351.402	629.44
351.629	617.44
351.856	630.44
352.083	640.44
352.311	613.44
352.538	607.44
352.765	623.44
352.992	627.44
353.22	607.44
353.447	581.44
353.674	618.44
353.901	638.44
354.128	635.44
354.355	623.44
354.583	597.44
354.81	615.44
355.037	633.44
355.264	629.44
355.491	655.44
355.718	647.44
355.945	628.44
356.172	634.44
356.399	627.44
356.626	626.44
356.853	618.44
357.08	619.44
357.307	619.44
357.534	609.44
357.761	633.44
357.988	634.44
358.215	614.44
358.441	600.44
358.668	626.44
358.895	624.44
359.122	612.44
359.349	611.44
359.576	631.44
359.802	606.44
360.029	589.44
360.256	633.44
360.483	615.44
360.709	635.44
360.936	613.44
361.163	616.44
361.39	634.44
361.616	612.44
361.843	634.44
362.07	631.44
362.296	632.44
362.523	627.44
362.749	631.44
362.976	609.44
363.203	611.44
363.429	628.44
363.656	623.44
363.882	626.44
364.109	589.44
364.335	612.44
364.562	617.44
364.788	616.44
365.015	630.44
365.241	613.44
365.468	623.44
365.694	621.44
365.92	605.44
366.147	625.44
366.373	639.44
366.599	646.44
366.826	633.44
367.052	622.44
367.278	635.44
367.505	601.44
367.731	611.44
367.957	638.44
368.184	608.44
368.41	627.44
368.636	618.44
368.862	657.44
369.089	659.44
369.315	658.44
369.541	644.44
369.767	670.44
369.993	636.44
370.219	642.44
370.445	671.44
370.672	650.44
370.898	671.44
371.124	645.44
371.35	671.44
371.576	703.44
371.802	704.44
372.028	665.44
372.254	681.44
372.48	662.44
372.706	662.44
372.932	719.44
373.158	706.44
373.384	705.44
373.61	703.44
373.835	672.44
374.061	671.44
374.287	680.44
374.513	711.44
374.739	721.44
374.965	746.44
375.191	771.44
375.416	770.44
375.642	743.44
375.868	729.44
376.094	707.44
376.319	696.44
376.545	678.44
376.771	681.44
376.997	664.44
377.222	692.44
377.448	670.44
377.674	683.44
377.899	686.44
378.125	675.44
378.35	665.44
378.576	675.44
378.802	680.44
379.027	677.44
379.253	653.44
379.478	686.44
379.704	699.44
379.929	690.44
380.155	682.44
380.38	664.44
380.606	692.44
380.831	669.44
381.057	670.44
381.282	671.44
381.507	705.44
381.733	705.44
381.958	707.44
382.184	701.44
382.409	694.44
382.634	729.44
382.86	735.44
383.085	709.44
383.31	741.44
383.535	763.44
383.761	777.44
383.986	793.44
384.211	792.44
384.436	826.44
384.662	839.44
384.887	843.44
385.112	829.44
385.337	856.44
385.562	853.44
385.787	818.44
386.013	826.44
386.238	848.44
386.463	841.44
386.688	856.44
386.913	814.44
387.138	819.44
387.363	830.44
387.588	805.44
387.813	815.44
388.038	823.44
388.263	826.44
388.488	811.44
388.713	796.44
388.938	792.44
389.163	775.44
389.387	813.44
389.612	775.44
389.837	815.44
390.062	810.44
390.287	795.44
390.512	797.44
390.736	815.44
390.961	828.44
391.186	823.44
391.411	874.44
391.636	886.44
391.86	905.44
392.085	952.44
392.31	930.44
392.534	899.44
392.759	902.44
392.984	867.44
393.208	863.44
393.433	864.44
393.658	852.44
393.882	869.44
394.107	897.44
394.331	890.44
394.556	869.44
394.78	892.44
395.005	898.44
395.229	877.44
395.454	941.44
395.678	939.44
395.903	927.44
396.127	935.44
396.352	882.44
396.576	864.44
396.801	856.44
397.025	879.44
397.249	890.44
397.474	939.44
397.698	931.44
397.922	926.44
398.147	926.44
398.371	915.44
398.595	925.44
398.82	996.44
399.044	1036.44
399.268	1235.44
399.492	1410.44
399.717	1626.44
399.941	1640.44
400.165	1412.44
400.389	1239.44
400.613	1140.44
400.837	1083.44
401.062	1056.44
401.286	1050.44
401.51	1024.44
401.734	1017.44
401.958	1019.44
402.182	1099.44
402.406	1096.44
402.63	1083.44
402.854	1109.44
403.078	1130.44
403.302	1178.44
403.526	1163.44
403.75	1203.44
403.974	1210.44
404.198	1241.44
404.422	1231.44
404.645	1226.44
404.869	1189.44
405.093	1203.44
405.317	1162.44
405.541	1144.44
405.765	1170.44
405.988	1128.44
406.212	1113.44
406.436	1126.44
406.66	1175.44
406.883	1173.44
407.107	1245.44
407.331	1303.44
407.555	1398.44
407.778	1353.44
408.002	1315.44
408.226	1274.44
408.449	1249.44
408.673	1204.44
408.896	1193.44
409.12	1200.44
409.344	1198.44
409.567	1170.44
409.791	1213.44
410.014	1223.44
410.238	1191.44
410.461	1168.44
410.685	1156.44
410.908	1125.44
411.132	1119.44
411.355	1078.44
411.578	1090.44
411.802	1053.44
412.025	1082.44
412.249	1104.44
412.472	1127.44
412.695	1075.44
412.919	1026.44
413.142	1037.44
413.365	1049.44
413.589	1037.44
413.812	1020.44
414.035	1033.44
414.258	991.44
414.482	1037.44
414.705	1072.44
414.928	1071.44
415.151	1076.44
415.374	1055.44
415.597	1043.44
415.821	1046.44
416.044	1010.44
416.267	1007.44
416.49	967.44
416.713	997.44
416.936	1023.44
417.159	1029.44
417.382	1001.44
417.605	1046.44
417.828	1010.44
418.051	1051.44
418.274	1007.44
418.497	1017.44
418.72	1073.44
418.943	1071.44
419.166	1140.44
419.389	1202.44
419.611	1177.44
419.834	1115.44
420.057	1090.44
420.28	1013.44
420.503	1045.44
420.726	1023.44
420.948	1034.44
421.171	1033.44
421.394	1014.44
421.617	1001.44
421.839	1040.44
422.062	1039.44
422.285	1017.44
422.507	1031.44
422.73	1029.44
422.953	1070.44
423.175	1108.44
423.398	1087.44
423.621	1121.44
423.843	1129.44
424.066	1098.44
424.288	1126.44
424.511	1127.44
424.733	1107.44
424.956	1073.44
425.178	1071.44
425.401	1026.44
425.623	1040.44
425.846	1001.44
426.068	980.44
426.291	974.44
426.513	989.44
426.735	953.44
426.958	953.44
427.18	911.44
427.402	939.44
427.625	945.44
427.847	905.44
428.069	946.44
428.292	915.44
428.514	903.44
428.736	913.44
428.958	935.44
429.181	880.44
429.403	893.44
429.625	887.44
429.847	898.44
430.069	887.44
430.292	912.44
430.514	869.44
430.736	890.44
430.958	897.44
431.18	875.44
431.402	907.44
431.624	880.44
431.846	926.44
432.068	924.44
432.29	939.44
432.512	927.44
432.734	921.44
432.956	921.44
433.178	915.44
433.4	934.44
433.622	938.44
433.844	935.44
434.066	916.44
434.287	951.44
434.509	978.44
434.731	1006.44
434.953	1048.44
435.175	1061.44
435.397	1071.44
435.618	983.44
435.84	982.44
436.062	951.44
436.284	918.44
436.505	905.44
436.727	930.44
436.949	908.44
437.17	938.44
437.392	884.44
437.614	874.44
437.835	885.44
438.057	899.44
438.278	869.44
438.5	831.44
438.721	890.44
438.943	905.44
439.165	870.44
439.386	897.44
439.608	919.44
439.829	895.44
440.05	930.44
440.272	896.44
440.493	913.44
440.715	921.44
440.936	945.44
441.158	943.44
441.379	1006.44
441.6	1031.44
441.822	1069.44
442.043	1080.44
442.264	1030.44
442.486	1013.44
442.707	1055.44
442.928	997.44
443.149	1021.44
443.371	1020.44
443.592	1019.44
443.813	1031.44
444.034	1062.44
444.255	1101.44
444.476	1127.44
444.698	1214.44
444.919	1279.44
445.14	1349.44
445.361	1190.44
445.582	1094.44
445.803	998.44
446.024	992.44
446.245	947.44
446.466	958.44
446.687	933.44
446.908	922.44
447.129	906.44
447.35	875.44
447.571	889.44
447.792	869.44
448.013	858.44
448.234	845.44
448.455	833.44
448.675	865.44
448.896	877.44
449.117	845.44
449.338	856.44
449.559	851.44
449.779	849.44
450	836.44
450.221	845.44
450.442	843.44
450.662	854.44
450.883	854.44
451.104	881.44
451.324	883.44
451.545	859.44
451.766	856.44
451.986	847.44
452.207	866.44
452.428	851.44
452.648	854.44
452.869	867.44
453.089	833.44
453.31	849.44
453.53	847.44
453.751	813.44
453.971	854.44
454.192	818.44
454.412	833.44
454.633	825.44
454.853	816.44
455.073	834.44
455.294	821.44
455.514	804.44
455.734	836.44
455.955	787.44
456.175	791.44
456.395	803.44
456.616	792.44
456.836	793.44
457.056	766.44
457.276	772.44
457.497	793.44
457.717	791.44
457.937	792.44
458.157	804.44
458.377	815.44
458.598	841.44
458.818	846.44
459.038	888.44
459.258	902.44
459.478	908.44
459.698	965.44
459.918	977.44
460.138	992.44
460.358	1080.44
460.578	1123.44
460.798	1107.44
461.018	1104.44
461.238	1101.44
461.458	1087.44
461.678	1085.44
461.898	1118.44
462.118	1112.44
462.338	1143.44
462.558	1188.44
462.777	1234.44
462.997	1347.44
463.217	1543.44
463.437	1545.44
463.657	1401.44
463.876	1278.44
464.096	1301.44
464.316	1268.44
464.536	1341.44
464.755	1237.44
464.975	1187.44
465.195	1145.44
465.414	1089.44
465.634	1006.44
465.854	998.44
466.073	968.44
466.293	942.44
466.512	925.44
466.732	901.44
466.951	917.44
467.171	904.44
467.391	899.44
467.61	890.44
467.829	882.44
468.049	877.44
468.268	873.44
468.488	833.44
468.707	859.44
468.927	871.44
469.146	843.44
469.365	893.44
469.585	890.44
469.804	863.44
470.023	933.44
470.243	883.44
470.462	918.44
470.681	929.44
470.901	911.44
471.12	889.44
471.339	899.44
471.558	861.44
471.777	858.44
471.997	847.44
472.216	871.44
472.435	865.44
472.654	838.44
472.873	835.44
473.092	787.44
473.311	833.44
473.53	817.44
473.749	808.44
473.968	817.44
474.187	837.44
474.406	811.44
474.625	810.44
474.844	807.44
475.063	820.44
475.282	858.44
475.501	852.44
475.72	831.44
475.939	826.44
476.158	859.44
476.377	867.44
476.596	869.44
476.814	857.44
477.033	849.44
477.252	862.44
477.471	925.44
477.69	949.44
477.908	969.44
478.127	992.44
478.346	994.44
478.564	1018.44
478.783	1008.44
479.002	1047.44
479.22	1026.44
479.439	1051.44
479.658	1046.44
479.876	1009.44
480.095	1032.44
480.313	1099.44
480.532	1131.44
480.751	1135.44
480.969	1082.44
481.188	1003.44
481.406	1000.44
481.624	963.44
481.843	990.44
482.061	977.44
482.28	968.44
482.498	957.44
482.717	963.44
482.935	903.44
483.153	966.44
483.372	934.44
483.59	945.44
483.808	956.44
484.027	952.44
484.245	960.44
484.463	972.44
484.681	995.44
484.9	1000.44
485.118	973.44
485.336	993.44
485.554	992.44
485.772	1000.44
485.99	1002.44
486.209	1008.44
486.427	1031.44
486.645	1014.44
486.863	1020.44
487.081	1013.44
487.299	995.44
487.517	1021.44
487.735	1026.44
487.953	999.44
488.171	985.44
488.389	1007.44
488.607	985.44
488.825	996.44
489.043	968.44
489.261	998.44
489.479	981.44
489.696	989.44
489.914	1005.44
490.132	1007.44
490.35	1035.44
490.568	981.44
490.786	1013.44
491.003	1000.44
491.221	1046.44
491.439	1021.44
491.657	1009.44
491.874	1032.44
492.092	1001.44
492.31	1005.44
492.527	998.44
492.745	1029.44
492.963	1005.44
493.18	1040.44
493.398	1027.44
493.615	1052.44
493.833	1049.44
494.05	1040.44
494.268	1055.44
494.485	1066.44
494.703	1035.44
494.92	1057.44
495.138	1058.44
495.355	1042.44
495.573	1064.44
495.79	1065.44
496.008	1064.44
496.225	1034.44
496.442	1072.44
496.66	1079.44
496.877	1133.44
497.094	1112.44
497.312	1145.44
497.529	1160.44
497.746	1167.44
497.963	1227.44
498.181	1275.44
498.398	1308.44
