Data from Ni(NO3)2@0.25M.TitratingCurve.Agarose3%dH2O.NegLispCup.LampEnergy10.LIBS07252019_HRD10591_18-03-06-566.txt Node
Date: Thu Jul 25 18:03:06 EDT 2019
User: cochatt
Spectrometer: HR+D1059
Trigger mode: 1
Integration Time (sec): 1.000000E-1
Scans to average: 1
Electric dark correction enabled: true
Nonlinearity correction enabled: false
Boxcar width: 0
XAxis mode: Wavelengths
Number of Pixels in Spectrum: 2048
>>>>>Begin Spectral Data<<<<<
223.165	-15.19
223.4	-15.19
223.635	-15.19
223.869	-16.19
224.104	-1.19
224.338	-16.19
224.573	-5.19
224.808	4.81
225.042	-17.19
225.277	-13.19
225.511	-14.19
225.746	8.81
225.98	9.81
226.215	5.81
226.449	12.81
226.683	14.81
226.918	17.81
227.152	23.81
227.387	45.81
227.621	40.81
227.856	47.81
228.09	33.81
228.324	48.81
228.559	77.81
228.793	55.81
229.027	91.81
229.262	101.81
229.496	98.81
229.73	102.81
229.964	126.81
230.199	122.81
230.433	124.81
230.667	126.81
230.901	123.81
231.136	108.81
231.37	114.81
231.604	123.81
231.838	138.81
232.072	128.81
232.306	123.81
232.541	140.81
232.775	101.81
233.009	116.81
233.243	109.81
233.477	126.81
233.711	134.81
233.945	121.81
234.179	139.81
234.413	119.81
234.647	119.81
234.881	119.81
235.115	122.81
235.349	128.81
235.583	112.81
235.817	128.81
236.051	116.81
236.285	108.81
236.519	113.81
236.753	133.81
236.987	128.81
237.221	144.81
237.455	116.81
237.689	117.81
237.922	129.81
238.156	122.81
238.39	122.81
238.624	137.81
238.858	132.81
239.091	139.81
239.325	133.81
239.559	144.81
239.793	142.81
240.027	134.81
240.26	137.81
240.494	127.81
240.728	134.81
240.961	121.81
241.195	125.81
241.429	133.81
241.662	146.81
241.896	156.81
242.13	156.81
242.363	144.81
242.597	157.81
242.83	156.81
243.064	143.81
243.298	139.81
243.531	128.81
243.765	157.81
243.998	162.81
244.232	146.81
244.465	161.81
244.699	151.81
244.932	154.81
245.166	170.81
245.399	160.81
245.633	168.81
245.866	161.81
246.099	161.81
246.333	173.81
246.566	160.81
246.8	174.81
247.033	184.81
247.266	186.81
247.5	186.81
247.733	174.81
247.966	180.81
248.2	198.81
248.433	203.81
248.666	192.81
248.899	192.81
249.133	210.81
249.366	210.81
249.599	218.81
249.832	209.81
250.066	226.81
250.299	215.81
250.532	231.81
250.765	247.81
250.998	248.81
251.231	256.81
251.465	262.81
251.698	260.81
251.931	254.81
252.164	274.81
252.397	276.81
252.63	273.81
252.863	287.81
253.096	290.81
253.329	285.81
253.562	306.81
253.795	293.81
254.028	298.81
254.261	316.81
254.494	309.81
254.727	301.81
254.96	319.81
255.193	327.81
255.426	332.81
255.659	332.81
255.892	335.81
256.124	336.81
256.357	348.81
256.59	346.81
256.823	333.81
257.056	350.81
257.289	368.81
257.521	363.81
257.754	358.81
257.987	368.81
258.22	374.81
258.452	384.81
258.685	410.81
258.918	392.81
259.151	396.81
259.383	399.81
259.616	386.81
259.849	402.81
260.081	415.81
260.314	398.81
260.547	389.81
260.779	410.81
261.012	424.81
261.244	441.81
261.477	412.81
261.71	432.81
261.942	424.81
262.175	436.81
262.407	430.81
262.64	442.81
262.872	438.81
263.105	441.81
263.337	447.81
263.57	473.81
263.802	438.81
264.035	473.81
264.267	449.81
264.499	445.81
264.732	440.81
264.964	454.81
265.197	448.81
265.429	443.81
265.661	447.81
265.894	445.81
266.126	473.81
266.358	456.81
266.591	469.81
266.823	462.81
267.055	479.81
267.287	477.81
267.52	465.81
267.752	463.81
267.984	486.81
268.216	484.81
268.448	481.81
268.681	490.81
268.913	482.81
269.145	477.81
269.377	474.81
269.609	484.81
269.841	489.81
270.073	488.81
270.306	490.81
270.538	489.81
270.77	494.81
271.002	466.81
271.234	484.81
271.466	480.81
271.698	480.81
271.93	489.81
272.162	502.81
272.394	501.81
272.626	496.81
272.858	486.81
273.09	512.81
273.322	500.81
273.553	494.81
273.785	508.81
274.017	508.81
274.249	525.81
274.481	499.81
274.713	493.81
274.945	490.81
275.176	513.81
275.408	504.81
275.64	502.81
275.872	508.81
276.104	484.81
276.335	513.81
276.567	518.81
276.799	534.81
277.031	546.81
277.262	537.81
277.494	520.81
277.726	526.81
277.957	526.81
278.189	505.81
278.421	528.81
278.652	515.81
278.884	495.81
279.115	538.81
279.347	536.81
279.579	528.81
279.81	527.81
280.042	510.81
280.273	510.81
280.505	525.81
280.736	524.81
280.968	516.81
281.199	513.81
281.431	536.81
281.662	512.81
281.894	512.81
282.125	524.81
282.356	535.81
282.588	514.81
282.819	504.81
283.051	526.81
283.282	516.81
283.513	526.81
283.745	510.81
283.976	521.81
284.207	512.81
284.439	518.81
284.67	548.81
284.901	533.81
285.132	537.81
285.364	525.81
285.595	534.81
285.826	528.81
286.057	542.81
286.288	531.81
286.52	527.81
286.751	520.81
286.982	524.81
287.213	532.81
287.444	534.81
287.675	541.81
287.906	551.81
288.138	539.81
288.369	540.81
288.6	527.81
288.831	522.81
289.062	537.81
289.293	525.81
289.524	548.81
289.755	517.81
289.986	529.81
290.217	523.81
290.448	521.81
290.679	517.81
290.91	525.81
291.141	534.81
291.371	525.81
291.602	548.81
291.833	532.81
292.064	533.81
292.295	521.81
292.526	520.81
292.757	518.81
292.987	509.81
293.218	508.81
293.449	533.81
293.68	524.81
293.91	540.81
294.141	527.81
294.372	526.81
294.603	522.81
294.833	522.81
295.064	525.81
295.295	510.81
295.525	512.81
295.756	504.81
295.987	528.81
296.217	537.81
296.448	536.81
296.679	517.81
296.909	534.81
297.14	530.81
297.37	539.81
297.601	550.81
297.831	536.81
298.062	552.81
298.292	543.81
298.523	547.81
298.753	551.81
298.984	547.81
299.214	550.81
299.445	548.81
299.675	545.81
299.905	554.81
300.136	560.81
300.366	557.81
300.597	574.81
300.827	543.81
301.057	568.81
301.288	566.81
301.518	542.81
301.748	567.81
301.979	579.81
302.209	587.81
302.439	575.81
302.669	577.81
302.9	574.81
303.13	589.81
303.36	586.81
303.59	579.81
303.82	580.81
304.051	601.81
304.281	597.81
304.511	583.81
304.741	589.81
304.971	606.81
305.201	617.81
305.431	608.81
305.661	593.81
305.891	608.81
306.121	619.81
306.352	616.81
306.582	581.81
306.812	600.81
307.042	595.81
307.272	604.81
307.502	624.81
307.731	618.81
307.961	642.81
308.191	604.81
308.421	628.81
308.651	636.81
308.881	619.81
309.111	611.81
309.341	609.81
309.571	665.81
309.8	652.81
310.03	642.81
310.26	661.81
310.49	660.81
310.72	662.81
310.949	665.81
311.179	685.81
311.409	651.81
311.639	654.81
311.868	688.81
312.098	698.81
312.328	688.81
312.557	694.81
312.787	712.81
313.017	716.81
313.246	729.81
313.476	712.81
313.706	730.81
313.935	731.81
314.165	729.81
314.394	733.81
314.624	774.81
314.853	756.81
315.083	749.81
315.312	760.81
315.542	774.81
315.771	789.81
316.001	793.81
316.23	796.81
316.46	791.81
316.689	818.81
316.919	813.81
317.148	826.81
317.377	830.81
317.607	809.81
317.836	798.81
318.065	828.81
318.295	873.81
318.524	864.81
318.753	868.81
318.983	850.81
319.212	884.81
319.441	869.81
319.67	887.81
319.9	904.81
320.129	906.81
320.358	921.81
320.587	930.81
320.816	919.81
321.046	928.81
321.275	928.81
321.504	929.81
321.733	936.81
321.962	961.81
322.191	949.81
322.42	986.81
322.649	973.81
322.878	999.81
323.108	958.81
323.337	1007.81
323.566	991.81
323.795	1041.81
324.024	1019.81
324.253	1028.81
324.482	1046.81
324.71	1028.81
324.939	1080.81
325.168	1082.81
325.397	1059.81
325.626	1072.81
325.855	1084.81
326.084	1101.81
326.313	1105.81
326.542	1128.81
326.77	1142.81
326.999	1146.81
327.228	1128.81
327.457	1140.81
327.686	1153.81
327.914	1163.81
328.143	1170.81
328.372	1174.81
328.6	1153.81
328.829	1169.81
329.058	1170.81
329.287	1204.81
329.515	1224.81
329.744	1242.81
329.972	1206.81
330.201	1209.81
330.43	1232.81
330.658	1234.81
330.887	1250.81
331.115	1222.81
331.344	1241.81
331.572	1253.81
331.801	1286.81
332.03	1288.81
332.258	1298.81
332.486	1296.81
332.715	1293.81
332.943	1298.81
333.172	1309.81
333.4	1281.81
333.629	1336.81
333.857	1335.81
334.085	1334.81
334.314	1367.81
334.542	1359.81
334.771	1364.81
334.999	1390.81
335.227	1400.81
335.455	1406.81
335.684	1382.81
335.912	1444.81
336.14	1432.81
336.369	1392.81
336.597	1448.81
336.825	1420.81
337.053	1480.81
337.281	1422.81
337.51	1413.81
337.738	1434.81
337.966	1400.81
338.194	1405.81
338.422	1417.81
338.65	1414.81
338.878	1424.81
339.106	1397.81
339.334	1390.81
339.562	1408.81
339.79	1384.81
340.018	1423.81
340.246	1389.81
340.474	1415.81
340.702	1406.81
340.93	1402.81
341.158	1410.81
341.386	1406.81
341.614	1410.81
341.842	1410.81
342.07	1393.81
342.298	1365.81
342.526	1375.81
342.754	1407.81
342.981	1391.81
343.209	1379.81
343.437	1418.81
343.665	1440.81
343.893	1428.81
344.12	1421.81
344.348	1425.81
344.576	1433.81
344.804	1482.81
345.031	1452.81
345.259	1441.81
345.487	1418.81
345.714	1412.81
345.942	1352.81
346.17	1397.81
346.397	1366.81
346.625	1397.81
346.853	1361.81
347.08	1390.81
347.308	1385.81
347.535	1420.81
347.763	1392.81
347.99	1364.81
348.218	1362.81
348.445	1362.81
348.673	1368.81
348.9	1398.81
349.128	1380.81
349.355	1381.81
349.583	1355.81
349.81	1368.81
350.037	1359.81
350.265	1361.81
350.492	1348.81
350.72	1361.81
350.947	1366.81
351.174	1370.81
351.402	1377.81
351.629	1323.81
351.856	1357.81
352.083	1344.81
352.311	1366.81
352.538	1354.81
352.765	1346.81
352.992	1323.81
353.22	1320.81
353.447	1308.81
353.674	1360.81
353.901	1304.81
354.128	1322.81
354.355	1328.81
354.583	1318.81
354.81	1327.81
355.037	1339.81
355.264	1341.81
355.491	1318.81
355.718	1304.81
355.945	1326.81
356.172	1341.81
356.399	1301.81
356.626	1301.81
356.853	1325.81
357.08	1341.81
357.307	1330.81
357.534	1294.81
357.761	1338.81
357.988	1340.81
358.215	1275.81
358.441	1311.81
358.668	1288.81
358.895	1310.81
359.122	1305.81
359.349	1325.81
359.576	1336.81
359.802	1345.81
360.029	1327.81
360.256	1315.81
360.483	1329.81
360.709	1310.81
360.936	1341.81
361.163	1349.81
361.39	1299.81
361.616	1315.81
361.843	1326.81
362.07	1348.81
362.296	1309.81
362.523	1338.81
362.749	1312.81
362.976	1311.81
363.203	1299.81
363.429	1276.81
363.656	1316.81
363.882	1360.81
364.109	1336.81
364.335	1284.81
364.562	1327.81
364.788	1288.81
365.015	1321.81
365.241	1320.81
365.468	1292.81
365.694	1293.81
365.92	1297.81
366.147	1309.81
366.373	1297.81
366.599	1326.81
366.826	1286.81
367.052	1277.81
367.278	1332.81
367.505	1314.81
367.731	1322.81
367.957	1286.81
368.184	1285.81
368.41	1314.81
368.636	1295.81
368.862	1330.81
369.089	1316.81
369.315	1311.81
369.541	1306.81
369.767	1318.81
369.993	1302.81
370.219	1329.81
370.445	1306.81
370.672	1338.81
370.898	1317.81
371.124	1297.81
371.35	1296.81
371.576	1308.81
371.802	1286.81
372.028	1288.81
372.254	1332.81
372.48	1267.81
372.706	1303.81
372.932	1296.81
373.158	1336.81
373.384	1292.81
373.61	1294.81
373.835	1289.81
374.061	1288.81
374.287	1307.81
374.513	1285.81
374.739	1285.81
374.965	1308.81
375.191	1273.81
375.416	1270.81
375.642	1323.81
375.868	1298.81
376.094	1270.81
376.319	1293.81
376.545	1254.81
376.771	1269.81
376.997	1233.81
377.222	1273.81
377.448	1242.81
377.674	1247.81
377.899	1269.81
378.125	1212.81
378.35	1253.81
378.576	1238.81
378.802	1226.81
379.027	1226.81
379.253	1222.81
379.478	1208.81
379.704	1205.81
379.929	1217.81
380.155	1218.81
380.38	1212.81
380.606	1220.81
380.831	1215.81
381.057	1244.81
381.282	1219.81
381.507	1240.81
381.733	1232.81
381.958	1205.81
382.184	1224.81
382.409	1226.81
382.634	1241.81
382.86	1225.81
383.085	1212.81
383.31	1250.81
383.535	1253.81
383.761	1271.81
383.986	1245.81
384.211	1239.81
384.436	1257.81
384.662	1270.81
384.887	1260.81
385.112	1259.81
385.337	1263.81
385.562	1269.81
385.787	1292.81
386.013	1293.81
386.238	1270.81
386.463	1272.81
386.688	1284.81
386.913	1283.81
387.138	1308.81
387.363	1328.81
387.588	1283.81
387.813	1313.81
388.038	1353.81
388.263	1324.81
388.488	1325.81
388.713	1289.81
388.938	1300.81
389.163	1324.81
389.387	1320.81
389.612	1291.81
389.837	1322.81
390.062	1297.81
390.287	1317.81
390.512	1342.81
390.736	1299.81
390.961	1322.81
391.186	1297.81
391.411	1306.81
391.636	1358.81
391.86	1362.81
392.085	1344.81
392.31	1345.81
392.534	1334.81
392.759	1329.81
392.984	1342.81
393.208	1356.81
393.433	1357.81
393.658	1312.81
393.882	1280.81
394.107	1350.81
394.331	1312.81
394.556	1365.81
394.78	1369.81
395.005	1303.81
395.229	1338.81
395.454	1327.81
395.678	1361.81
395.903	1360.81
396.127	1383.81
396.352	1355.81
396.576	1369.81
396.801	1359.81
397.025	1401.81
397.249	1422.81
397.474	1394.81
397.698	1397.81
397.922	1420.81
398.147	1432.81
398.371	1414.81
398.595	1417.81
398.82	1447.81
399.044	1471.81
399.268	1507.81
399.492	1527.81
399.717	1552.81
399.941	1559.81
400.165	1547.81
400.389	1540.81
400.613	1556.81
400.837	1513.81
401.062	1533.81
401.286	1518.81
401.51	1513.81
401.734	1487.81
401.958	1491.81
402.182	1514.81
402.406	1462.81
402.63	1477.81
402.854	1493.81
403.078	1486.81
403.302	1525.81
403.526	1497.81
403.75	1507.81
403.974	1510.81
404.198	1482.81
404.422	1484.81
404.645	1501.81
404.869	1508.81
405.093	1558.81
405.317	1542.81
405.541	1544.81
405.765	1556.81
405.988	1538.81
406.212	1572.81
406.436	1544.81
406.66	1591.81
406.883	1573.81
407.107	1616.81
407.331	1625.81
407.555	1625.81
407.778	1658.81
408.002	1649.81
408.226	1637.81
408.449	1657.81
408.673	1650.81
408.896	1652.81
409.12	1646.81
409.344	1643.81
409.567	1599.81
409.791	1605.81
410.014	1623.81
410.238	1611.81
410.461	1616.81
410.685	1624.81
410.908	1631.81
411.132	1610.81
411.355	1562.81
411.578	1635.81
411.802	1551.81
412.025	1564.81
412.249	1585.81
412.472	1574.81
412.695	1588.81
412.919	1580.81
413.142	1590.81
413.365	1562.81
413.589	1594.81
413.812	1610.81
414.035	1577.81
414.258	1563.81
414.482	1584.81
414.705	1613.81
414.928	1577.81
415.151	1564.81
415.374	1576.81
415.597	1606.81
415.821	1552.81
416.044	1560.81
416.267	1546.81
416.49	1561.81
416.713	1582.81
416.936	1604.81
417.159	1560.81
417.382	1560.81
417.605	1538.81
417.828	1569.81
418.051	1544.81
418.274	1556.81
418.497	1522.81
418.72	1555.81
418.943	1546.81
419.166	1609.81
419.389	1743.81
419.611	1686.81
419.834	1658.81
420.057	1630.81
420.28	1618.81
420.503	1530.81
420.726	1546.81
420.948	1578.81
421.171	1558.81
421.394	1572.81
421.617	1595.81
421.839	1553.81
422.062	1604.81
422.285	1526.81
422.507	1572.81
422.73	1546.81
422.953	1562.81
423.175	1567.81
423.398	1615.81
423.621	1593.81
423.843	1582.81
424.066	1572.81
424.288	1584.81
424.511	1580.81
424.733	1585.81
424.956	1599.81
425.178	1601.81
425.401	1656.81
425.623	1617.81
425.846	1668.81
426.068	1630.81
426.291	1592.81
426.513	1625.81
426.735	1601.81
426.958	1622.81
427.18	1588.81
427.402	1643.81
427.625	1622.81
427.847	1608.81
428.069	1625.81
428.292	1622.81
428.514	1602.81
428.736	1617.81
428.958	1631.81
429.181	1641.81
429.403	1607.81
429.625	1608.81
429.847	1605.81
430.069	1639.81
430.292	1618.81
430.514	1664.81
430.736	1616.81
430.958	1636.81
431.18	1641.81
431.402	1596.81
431.624	1626.81
431.846	1598.81
432.068	1606.81
432.29	1669.81
432.512	1606.81
432.734	1670.81
432.956	1626.81
433.178	1664.81
433.4	1647.81
433.622	1694.81
433.844	1707.81
434.066	1636.81
434.287	1696.81
434.509	1666.81
434.731	1661.81
434.953	1644.81
435.175	1682.81
435.397	1711.81
435.618	1641.81
435.84	1652.81
436.062	1672.81
436.284	1661.81
436.505	1619.81
436.727	1636.81
436.949	1652.81
437.17	1596.81
437.392	1613.81
437.614	1595.81
437.835	1624.81
438.057	1625.81
438.278	1596.81
438.5	1645.81
438.721	1616.81
438.943	1628.81
439.165	1605.81
439.386	1614.81
439.608	1657.81
439.829	1632.81
440.05	1620.81
440.272	1610.81
440.493	1616.81
440.715	1641.81
440.936	1676.81
441.158	1635.81
441.379	1650.81
441.6	1642.81
441.822	1661.81
442.043	1664.81
442.264	1656.81
442.486	1659.81
442.707	1686.81
442.928	1664.81
443.149	1690.81
443.371	1639.81
443.592	1676.81
443.813	1704.81
444.034	1679.81
444.255	1672.81
444.476	1710.81
444.698	1682.81
444.919	1708.81
445.14	1833.81
445.361	1716.81
445.582	1698.81
445.803	1639.81
446.024	1652.81
446.245	1660.81
446.466	1678.81
446.687	1620.81
446.908	1658.81
447.129	1614.81
447.35	1630.81
447.571	1633.81
447.792	1619.81
448.013	1593.81
448.234	1566.81
448.455	1600.81
448.675	1567.81
448.896	1569.81
449.117	1514.81
449.338	1552.81
449.559	1553.81
449.779	1527.81
450	1500.81
450.221	1540.81
450.442	1550.81
450.662	1518.81
450.883	1547.81
451.104	1551.81
451.324	1532.81
451.545	1554.81
451.766	1505.81
451.986	1525.81
452.207	1521.81
452.428	1494.81
452.648	1506.81
452.869	1493.81
453.089	1480.81
453.31	1531.81
453.53	1484.81
453.751	1487.81
453.971	1459.81
454.192	1509.81
454.412	1525.81
454.633	1465.81
454.853	1508.81
455.073	1470.81
455.294	1508.81
455.514	1495.81
455.734	1524.81
455.955	1518.81
456.175	1473.81
456.395	1494.81
456.616	1481.81
456.836	1483.81
457.056	1465.81
457.276	1456.81
457.497	1515.81
457.717	1516.81
457.937	1525.81
458.157	1504.81
458.377	1522.81
458.598	1529.81
458.818	1548.81
459.038	1569.81
459.258	1569.81
459.478	1605.81
459.698	1641.81
459.918	1608.81
460.138	1637.81
460.358	1664.81
460.578	1644.81
460.798	1670.81
461.018	1707.81
461.238	1722.81
461.458	1707.81
461.678	1671.81
461.898	1754.81
462.118	1694.81
462.338	1750.81
462.558	1733.81
462.777	1738.81
462.997	1823.81
463.217	1812.81
463.437	1828.81
463.657	1785.81
463.876	1797.81
464.096	1787.81
464.316	1735.81
464.536	1751.81
464.755	1729.81
464.975	1752.81
465.195	1690.81
465.414	1710.81
465.634	1678.81
465.854	1673.81
466.073	1654.81
466.293	1649.81
466.512	1668.81
466.732	1630.81
466.951	1607.81
467.171	1613.81
467.391	1616.81
467.61	1590.81
467.829	1604.81
468.049	1631.81
468.268	1572.81
468.488	1614.81
468.707	1607.81
468.927	1632.81
469.146	1638.81
469.365	1618.81
469.585	1612.81
469.804	1634.81
470.023	1681.81
470.243	1592.81
470.462	1652.81
470.681	1615.81
470.901	1603.81
471.12	1584.81
471.339	1646.81
471.558	1635.81
471.777	1668.81
471.997	1640.81
472.216	1650.81
472.435	1633.81
472.654	1640.81
472.873	1623.81
473.092	1648.81
473.311	1653.81
473.53	1703.81
473.749	1703.81
473.968	1686.81
474.187	1665.81
474.406	1660.81
474.625	1664.81
474.844	1694.81
475.063	1680.81
475.282	1732.81
475.501	1689.81
475.72	1729.81
475.939	1742.81
476.158	1760.81
476.377	1761.81
476.596	1769.81
476.814	1790.81
477.033	1744.81
477.252	1764.81
477.471	1810.81
477.69	1831.81
477.908	1882.81
478.127	1834.81
478.346	1861.81
478.564	1855.81
478.783	1920.81
479.002	1911.81
479.22	1890.81
479.439	1910.81
479.658	1924.81
479.876	1932.81
480.095	1913.81
480.313	1944.81
480.532	1924.81
480.751	1912.81
480.969	1904.81
481.188	1952.81
481.406	1960.81
481.624	1911.81
481.843	1964.81
482.061	1956.81
482.28	1991.81
482.498	1940.81
482.717	1951.81
482.935	1968.81
483.153	1998.81
483.372	1982.81
483.59	1933.81
483.808	1993.81
484.027	2002.81
484.245	2016.81
484.463	2005.81
484.681	2006.81
484.9	2006.81
485.118	2036.81
485.336	1972.81
485.554	2018.81
485.772	2028.81
485.99	1995.81
486.209	1989.81
486.427	2043.81
486.645	2028.81
486.863	2009.81
487.081	2017.81
487.299	2021.81
487.517	2010.81
487.735	2062.81
487.953	2107.81
488.171	2104.81
488.389	2069.81
488.607	2021.81
488.825	2067.81
489.043	2058.81
489.261	2042.81
489.479	2076.81
489.696	2061.81
489.914	2067.81
490.132	2069.81
490.35	2101.81
490.568	2090.81
490.786	2130.81
491.003	2128.81
491.221	2174.81
