Data from Ni(NO3)2@0.125M.TitratingCurve.Agarose3%dH2O.NegLispCup.LampEnergy10.LIBS07252019_HRD10591_18-09-18-567.txt Node
Date: Thu Jul 25 18:09:18 EDT 2019
User: cochatt
Spectrometer: HR+D1059
Trigger mode: 1
Integration Time (sec): 1.000000E-1
Scans to average: 1
Electric dark correction enabled: true
Nonlinearity correction enabled: false
Boxcar width: 0
XAxis mode: Wavelengths
Number of Pixels in Spectrum: 2048
>>>>>Begin Spectral Data<<<<<
223.165	-7.56
223.4	-7.56
223.635	-7.56
223.869	-19.56
224.104	-3.56
224.338	-7.56
224.573	-5.56
224.808	-7.56
225.042	-15.56
225.277	-20.56
225.511	1.44
225.746	4.44
225.98	0.44
226.215	11.44
226.449	6.44
226.683	22.44
226.918	15.44
227.152	25.44
227.387	26.44
227.621	27.44
227.856	40.44
228.09	27.44
228.324	48.44
228.559	50.44
228.793	71.44
229.027	85.44
229.262	94.44
229.496	92.44
229.73	97.44
229.964	109.44
230.199	119.44
230.433	120.44
230.667	120.44
230.901	118.44
231.136	114.44
231.37	137.44
231.604	118.44
231.838	121.44
232.072	119.44
232.306	128.44
232.541	126.44
232.775	146.44
233.009	129.44
233.243	118.44
233.477	141.44
233.711	132.44
233.945	141.44
234.179	123.44
234.413	129.44
234.647	126.44
234.881	142.44
235.115	145.44
235.349	123.44
235.583	128.44
235.817	132.44
236.051	135.44
236.285	141.44
236.519	136.44
236.753	126.44
236.987	139.44
237.221	139.44
237.455	137.44
237.689	137.44
237.922	139.44
238.156	146.44
238.39	137.44
238.624	150.44
238.858	144.44
239.091	143.44
239.325	148.44
239.559	162.44
239.793	139.44
240.027	144.44
240.26	152.44
240.494	153.44
240.728	151.44
240.961	145.44
241.195	147.44
241.429	159.44
241.662	154.44
241.896	152.44
242.13	166.44
242.363	162.44
242.597	151.44
242.83	167.44
243.064	170.44
243.298	158.44
243.531	155.44
243.765	163.44
243.998	165.44
244.232	161.44
244.465	171.44
244.699	187.44
244.932	178.44
245.166	173.44
245.399	196.44
245.633	169.44
245.866	173.44
246.099	170.44
246.333	185.44
246.566	199.44
246.8	176.44
247.033	198.44
247.266	180.44
247.5	183.44
247.733	189.44
247.966	180.44
248.2	202.44
248.433	189.44
248.666	203.44
248.899	189.44
249.133	198.44
249.366	196.44
249.599	191.44
249.832	183.44
250.066	205.44
250.299	192.44
250.532	202.44
250.765	205.44
250.998	205.44
251.231	218.44
251.465	225.44
251.698	219.44
251.931	215.44
252.164	208.44
252.397	215.44
252.63	218.44
252.863	217.44
253.096	229.44
253.329	242.44
253.562	225.44
253.795	220.44
254.028	221.44
254.261	233.44
254.494	229.44
254.727	220.44
254.96	222.44
255.193	239.44
255.426	240.44
255.659	214.44
255.892	225.44
256.124	222.44
256.357	213.44
256.59	238.44
256.823	237.44
257.056	253.44
257.289	242.44
257.521	257.44
257.754	246.44
257.987	263.44
258.22	253.44
258.452	255.44
258.685	242.44
258.918	250.44
259.151	259.44
259.383	259.44
259.616	251.44
259.849	266.44
260.081	257.44
260.314	254.44
260.547	251.44
260.779	266.44
261.012	277.44
261.244	259.44
261.477	281.44
261.71	285.44
261.942	257.44
262.175	265.44
262.407	261.44
262.64	274.44
262.872	268.44
263.105	293.44
263.337	289.44
263.57	264.44
263.802	277.44
264.035	303.44
264.267	275.44
264.499	288.44
264.732	301.44
264.964	297.44
265.197	299.44
265.429	283.44
265.661	298.44
265.894	284.44
266.126	303.44
266.358	309.44
266.591	285.44
266.823	294.44
267.055	301.44
267.287	297.44
267.52	282.44
267.752	303.44
267.984	283.44
268.216	304.44
268.448	295.44
268.681	288.44
268.913	313.44
269.145	297.44
269.377	311.44
269.609	307.44
269.841	276.44
270.073	297.44
270.306	302.44
270.538	295.44
270.77	296.44
271.002	295.44
271.234	296.44
271.466	316.44
271.698	311.44
271.93	317.44
272.162	320.44
272.394	319.44
272.626	332.44
272.858	325.44
273.09	317.44
273.322	340.44
273.553	317.44
273.785	339.44
274.017	331.44
274.249	336.44
274.481	328.44
274.713	325.44
274.945	337.44
275.176	341.44
275.408	331.44
275.64	334.44
275.872	329.44
276.104	330.44
276.335	346.44
276.567	349.44
276.799	347.44
277.031	333.44
277.262	339.44
277.494	335.44
277.726	352.44
277.957	349.44
278.189	344.44
278.421	359.44
278.652	349.44
278.884	355.44
279.115	366.44
279.347	343.44
279.579	353.44
279.81	358.44
280.042	357.44
280.273	371.44
280.505	354.44
280.736	365.44
280.968	367.44
281.199	369.44
281.431	358.44
281.662	387.44
281.894	358.44
282.125	369.44
282.356	359.44
282.588	381.44
282.819	358.44
283.051	377.44
283.282	381.44
283.513	392.44
283.745	374.44
283.976	367.44
284.207	360.44
284.439	381.44
284.67	413.44
284.901	399.44
285.132	387.44
285.364	382.44
285.595	402.44
285.826	403.44
286.057	398.44
286.288	401.44
286.52	396.44
286.751	425.44
286.982	395.44
287.213	409.44
287.444	419.44
287.675	406.44
287.906	401.44
288.138	399.44
288.369	402.44
288.6	431.44
288.831	403.44
289.062	401.44
289.293	408.44
289.524	416.44
289.755	409.44
289.986	410.44
290.217	439.44
290.448	417.44
290.679	422.44
290.91	433.44
291.141	423.44
291.371	413.44
291.602	410.44
291.833	410.44
292.064	422.44
292.295	408.44
292.526	405.44
292.757	426.44
292.987	425.44
293.218	441.44
293.449	427.44
293.68	417.44
293.91	422.44
294.141	434.44
294.372	431.44
294.603	431.44
294.833	432.44
295.064	427.44
295.295	424.44
295.525	416.44
295.756	421.44
295.987	435.44
296.217	453.44
296.448	442.44
296.679	437.44
296.909	425.44
297.14	440.44
297.37	442.44
297.601	465.44
297.831	437.44
298.062	482.44
298.292	456.44
298.523	484.44
298.753	478.44
298.984	458.44
299.214	466.44
299.445	460.44
299.675	449.44
299.905	473.44
300.136	448.44
300.366	464.44
300.597	499.44
300.827	485.44
301.057	458.44
301.288	479.44
301.518	478.44
301.748	482.44
301.979	472.44
302.209	492.44
302.439	479.44
302.669	489.44
302.9	477.44
303.13	465.44
303.36	476.44
303.59	449.44
303.82	467.44
304.051	473.44
304.281	478.44
304.511	492.44
304.741	474.44
304.971	494.44
305.201	478.44
305.431	470.44
305.661	485.44
305.891	447.44
306.121	479.44
306.352	472.44
306.582	460.44
306.812	464.44
307.042	472.44
307.272	472.44
307.502	470.44
307.731	467.44
307.961	439.44
308.191	459.44
308.421	472.44
308.651	469.44
308.881	447.44
309.111	468.44
309.341	473.44
309.571	462.44
309.8	484.44
310.03	460.44
310.26	449.44
310.49	473.44
310.72	455.44
310.949	469.44
311.179	484.44
311.409	466.44
311.639	464.44
311.868	469.44
312.098	473.44
312.328	459.44
312.557	470.44
312.787	483.44
313.017	464.44
313.246	485.44
313.476	507.44
313.706	487.44
313.935	504.44
314.165	501.44
314.394	489.44
314.624	505.44
314.853	508.44
315.083	488.44
315.312	521.44
315.542	507.44
315.771	474.44
316.001	482.44
316.23	503.44
316.46	495.44
316.689	472.44
316.919	480.44
317.148	495.44
317.377	503.44
317.607	513.44
317.836	470.44
318.065	484.44
318.295	476.44
318.524	485.44
318.753	497.44
318.983	489.44
319.212	501.44
319.441	477.44
319.67	482.44
319.9	465.44
320.129	513.44
320.358	479.44
320.587	490.44
320.816	476.44
321.046	491.44
321.275	502.44
321.504	487.44
321.733	504.44
321.962	503.44
322.191	502.44
322.42	492.44
322.649	526.44
322.878	515.44
323.108	496.44
323.337	498.44
323.566	518.44
323.795	518.44
324.024	517.44
324.253	504.44
324.482	506.44
324.71	510.44
324.939	513.44
325.168	524.44
325.397	514.44
325.626	546.44
325.855	531.44
326.084	536.44
326.313	557.44
326.542	553.44
326.77	557.44
326.999	560.44
327.228	547.44
327.457	544.44
327.686	545.44
327.914	550.44
328.143	533.44
328.372	549.44
328.6	542.44
328.829	543.44
329.058	547.44
329.287	550.44
329.515	551.44
329.744	577.44
329.972	575.44
330.201	535.44
330.43	581.44
330.658	552.44
330.887	551.44
331.115	573.44
331.344	591.44
331.572	591.44
331.801	598.44
332.03	597.44
332.258	614.44
332.486	658.44
332.715	672.44
332.943	699.44
333.172	753.44
333.4	757.44
333.629	769.44
333.857	768.44
334.085	730.44
334.314	751.44
334.542	733.44
334.771	723.44
334.999	686.44
335.227	689.44
335.455	696.44
335.684	722.44
335.912	673.44
336.14	668.44
336.369	658.44
336.597	682.44
336.825	655.44
337.053	669.44
337.281	655.44
337.51	629.44
337.738	627.44
337.966	622.44
338.194	623.44
338.422	603.44
338.65	590.44
338.878	587.44
339.106	601.44
339.334	647.44
339.562	597.44
339.79	587.44
340.018	574.44
340.246	568.44
340.474	583.44
340.702	595.44
340.93	593.44
341.158	588.44
341.386	577.44
341.614	593.44
341.842	567.44
342.07	563.44
342.298	609.44
342.526	578.44
342.754	574.44
342.981	579.44
343.209	598.44
343.437	647.44
343.665	650.44
343.893	702.44
344.12	741.44
344.348	695.44
344.576	659.44
344.804	626.44
345.031	599.44
345.259	608.44
345.487	595.44
345.714	583.44
345.942	575.44
346.17	584.44
346.397	584.44
346.625	568.44
346.853	583.44
347.08	582.44
347.308	573.44
347.535	579.44
347.763	583.44
347.99	591.44
348.218	592.44
348.445	586.44
348.673	575.44
348.9	596.44
349.128	586.44
349.355	562.44
349.583	587.44
349.81	558.44
350.037	536.44
350.265	544.44
350.492	551.44
350.72	554.44
350.947	568.44
351.174	561.44
351.402	562.44
351.629	547.44
351.856	556.44
352.083	549.44
352.311	546.44
352.538	519.44
352.765	550.44
352.992	529.44
353.22	545.44
353.447	540.44
353.674	551.44
353.901	525.44
354.128	543.44
354.355	539.44
354.583	549.44
354.81	546.44
355.037	540.44
355.264	545.44
355.491	541.44
355.718	570.44
355.945	552.44
356.172	539.44
356.399	535.44
356.626	553.44
356.853	582.44
357.08	561.44
357.307	536.44
357.534	550.44
357.761	548.44
357.988	564.44
358.215	561.44
358.441	551.44
358.668	543.44
358.895	552.44
359.122	538.44
359.349	551.44
359.576	560.44
359.802	543.44
360.029	538.44
360.256	557.44
360.483	565.44
360.709	536.44
360.936	547.44
361.163	546.44
361.39	550.44
361.616	542.44
361.843	546.44
362.07	552.44
362.296	545.44
362.523	523.44
362.749	540.44
362.976	541.44
363.203	548.44
363.429	533.44
363.656	557.44
363.882	516.44
364.109	547.44
364.335	543.44
364.562	541.44
364.788	547.44
365.015	531.44
365.241	522.44
365.468	537.44
365.694	534.44
365.92	550.44
366.147	524.44
366.373	529.44
366.599	537.44
366.826	547.44
367.052	527.44
367.278	547.44
367.505	553.44
367.731	559.44
367.957	515.44
368.184	534.44
368.41	553.44
368.636	538.44
368.862	564.44
369.089	552.44
369.315	580.44
369.541	564.44
369.767	570.44
369.993	571.44
370.219	542.44
370.445	558.44
370.672	568.44
370.898	590.44
371.124	588.44
371.35	598.44
371.576	583.44
371.802	575.44
372.028	584.44
372.254	577.44
372.48	600.44
372.706	596.44
372.932	605.44
373.158	623.44
373.384	591.44
373.61	586.44
373.835	589.44
374.061	575.44
374.287	601.44
374.513	593.44
374.739	622.44
374.965	645.44
375.191	657.44
375.416	648.44
375.642	658.44
375.868	633.44
376.094	611.44
376.319	597.44
376.545	604.44
376.771	602.44
376.997	586.44
377.222	595.44
377.448	585.44
377.674	589.44
377.899	589.44
378.125	569.44
378.35	569.44
378.576	577.44
378.802	586.44
379.027	587.44
379.253	579.44
379.478	583.44
379.704	575.44
379.929	601.44
380.155	566.44
380.38	578.44
380.606	594.44
380.831	589.44
381.057	589.44
381.282	585.44
381.507	573.44
381.733	590.44
381.958	593.44
382.184	606.44
382.409	600.44
382.634	608.44
382.86	612.44
383.085	617.44
383.31	642.44
383.535	639.44
383.761	660.44
383.986	689.44
384.211	681.44
384.436	686.44
384.662	702.44
384.887	696.44
385.112	689.44
385.337	708.44
385.562	692.44
385.787	702.44
386.013	742.44
386.238	711.44
386.463	723.44
386.688	681.44
386.913	685.44
387.138	695.44
387.363	679.44
387.588	679.44
387.813	698.44
388.038	685.44
388.263	694.44
388.488	714.44
388.713	699.44
388.938	687.44
389.163	662.44
389.387	681.44
389.612	682.44
389.837	682.44
390.062	675.44
390.287	667.44
390.512	670.44
390.736	671.44
390.961	693.44
391.186	704.44
391.411	722.44
391.636	777.44
391.86	774.44
392.085	794.44
392.31	799.44
392.534	752.44
392.759	766.44
392.984	741.44
393.208	726.44
393.433	725.44
393.658	749.44
393.882	769.44
394.107	752.44
394.331	755.44
394.556	726.44
394.78	748.44
395.005	745.44
395.229	775.44
395.454	765.44
395.678	784.44
395.903	810.44
396.127	782.44
396.352	758.44
396.576	726.44
396.801	714.44
397.025	730.44
397.249	733.44
397.474	789.44
397.698	742.44
397.922	774.44
398.147	766.44
398.371	785.44
398.595	793.44
398.82	839.44
399.044	890.44
399.268	1031.44
399.492	1165.44
399.717	1378.44
399.941	1406.44
400.165	1142.44
400.389	1007.44
400.613	966.44
400.837	896.44
401.062	893.44
401.286	897.44
401.51	852.44
401.734	873.44
401.958	887.44
402.182	881.44
402.406	888.44
402.63	892.44
402.854	917.44
403.078	945.44
403.302	1006.44
403.526	1025.44
403.75	1043.44
403.974	1050.44
404.198	1050.44
404.422	1075.44
404.645	1063.44
404.869	1005.44
405.093	1010.44
405.317	956.44
405.541	1000.44
405.765	961.44
405.988	951.44
406.212	979.44
406.436	977.44
406.66	994.44
406.883	988.44
407.107	1062.44
407.331	1097.44
407.555	1173.44
407.778	1146.44
408.002	1129.44
408.226	1067.44
408.449	1061.44
408.673	1040.44
408.896	1004.44
409.12	996.44
409.344	1011.44
409.567	1025.44
409.791	1055.44
410.014	1051.44
410.238	996.44
410.461	1024.44
410.685	984.44
410.908	977.44
411.132	960.44
411.355	917.44
411.578	932.44
411.802	944.44
412.025	913.44
412.249	922.44
412.472	931.44
412.695	897.44
412.919	873.44
413.142	886.44
413.365	874.44
413.589	893.44
413.812	873.44
414.035	885.44
414.258	865.44
414.482	889.44
414.705	898.44
414.928	903.44
415.151	908.44
415.374	913.44
415.597	900.44
415.821	900.44
416.044	866.44
416.267	831.44
416.49	872.44
416.713	870.44
416.936	877.44
417.159	870.44
417.382	860.44
417.605	889.44
417.828	889.44
418.051	886.44
418.274	884.44
418.497	881.44
418.72	900.44
418.943	933.44
419.166	963.44
419.389	1030.44
419.611	1001.44
419.834	974.44
420.057	934.44
420.28	916.44
420.503	869.44
420.726	880.44
420.948	895.44
421.171	873.44
421.394	853.44
421.617	853.44
421.839	902.44
422.062	903.44
422.285	901.44
422.507	937.44
422.73	916.44
422.953	922.44
423.175	944.44
423.398	950.44
423.621	936.44
423.843	979.44
424.066	950.44
424.288	950.44
424.511	963.44
424.733	941.44
424.956	934.44
425.178	931.44
425.401	912.44
425.623	904.44
425.846	886.44
426.068	867.44
426.291	840.44
426.513	841.44
426.735	836.44
426.958	821.44
427.18	835.44
427.402	846.44
427.625	811.44
427.847	808.44
428.069	817.44
428.292	816.44
428.514	820.44
428.736	771.44
428.958	802.44
429.181	787.44
429.403	785.44
429.625	785.44
429.847	754.44
430.069	757.44
430.292	784.44
430.514	790.44
430.736	763.44
430.958	786.44
431.18	788.44
431.402	790.44
431.624	774.44
431.846	793.44
432.068	801.44
432.29	800.44
432.512	803.44
432.734	800.44
432.956	805.44
433.178	799.44
433.4	815.44
433.622	829.44
433.844	811.44
434.066	788.44
434.287	824.44
434.509	822.44
434.731	878.44
434.953	911.44
435.175	921.44
435.397	917.44
435.618	848.44
435.84	837.44
436.062	798.44
436.284	815.44
436.505	801.44
436.727	805.44
436.949	823.44
437.17	808.44
437.392	803.44
437.614	800.44
437.835	778.44
438.057	778.44
438.278	776.44
438.5	771.44
438.721	773.44
438.943	808.44
439.165	767.44
439.386	784.44
439.608	814.44
439.829	810.44
440.05	812.44
440.272	817.44
440.493	819.44
440.715	846.44
440.936	849.44
441.158	866.44
441.379	916.44
441.6	911.44
441.822	933.44
442.043	917.44
442.264	916.44
442.486	896.44
442.707	928.44
442.928	890.44
443.149	906.44
443.371	919.44
443.592	913.44
443.813	919.44
444.034	957.44
444.255	971.44
444.476	997.44
444.698	1088.44
444.919	1109.44
445.14	1202.44
445.361	1052.44
445.582	953.44
445.803	883.44
446.024	872.44
446.245	889.44
446.466	860.44
446.687	820.44
446.908	825.44
447.129	810.44
447.35	800.44
447.571	821.44
447.792	788.44
448.013	779.44
448.234	750.44
448.455	788.44
448.675	753.44
448.896	763.44
449.117	747.44
449.338	771.44
449.559	754.44
449.779	735.44
450	736.44
450.221	747.44
450.442	762.44
450.662	792.44
450.883	758.44
451.104	792.44
451.324	760.44
451.545	788.44
451.766	755.44
451.986	762.44
452.207	760.44
452.428	751.44
452.648	761.44
452.869	728.44
453.089	742.44
453.31	739.44
453.53	738.44
453.751	719.44
453.971	735.44
454.192	713.44
454.412	723.44
454.633	723.44
454.853	714.44
455.073	697.44
455.294	710.44
455.514	711.44
455.734	705.44
455.955	710.44
456.175	674.44
456.395	695.44
456.616	706.44
456.836	707.44
457.056	706.44
457.276	705.44
457.497	715.44
457.717	718.44
457.937	708.44
458.157	711.44
458.377	728.44
458.598	738.44
458.818	735.44
459.038	777.44
459.258	802.44
459.478	836.44
459.698	838.44
459.918	866.44
460.138	902.44
460.358	965.44
460.578	952.44
460.798	972.44
461.018	975.44
461.238	961.44
461.458	953.44
461.678	943.44
461.898	970.44
462.118	974.44
462.338	1039.44
462.558	1069.44
462.777	1105.44
462.997	1184.44
463.217	1338.44
463.437	1373.44
463.657	1222.44
463.876	1147.44
464.096	1147.44
464.316	1155.44
464.536	1158.44
464.755	1118.44
464.975	1054.44
465.195	1013.44
465.414	933.44
465.634	898.44
465.854	856.44
466.073	850.44
466.293	805.44
466.512	826.44
466.732	791.44
466.951	793.44
467.171	815.44
467.391	808.44
467.61	775.44
467.829	789.44
468.049	791.44
468.268	730.44
468.488	752.44
468.707	744.44
468.927	746.44
469.146	765.44
469.365	787.44
469.585	753.44
469.804	782.44
470.023	822.44
470.243	824.44
470.462	825.44
470.681	814.44
470.901	840.44
471.12	814.44
471.339	776.44
471.558	781.44
471.777	755.44
471.997	751.44
472.216	765.44
472.435	726.44
472.654	744.44
472.873	732.44
473.092	746.44
473.311	710.44
473.53	722.44
473.749	719.44
473.968	748.44
474.187	733.44
474.406	719.44
474.625	745.44
474.844	741.44
475.063	734.44
475.282	745.44
475.501	730.44
475.72	730.44
475.939	750.44
476.158	742.44
476.377	771.44
476.596	771.44
476.814	771.44
477.033	759.44
477.252	760.44
477.471	792.44
477.69	824.44
477.908	857.44
478.127	888.44
478.346	879.44
478.564	883.44
478.783	907.44
479.002	931.44
479.22	941.44
479.439	887.44
479.658	913.44
479.876	901.44
480.095	930.44
480.313	979.44
480.532	1009.44
480.751	1003.44
480.969	933.44
481.188	891.44
481.406	872.44
481.624	829.44
481.843	842.44
482.061	829.44
482.28	853.44
482.498	821.44
482.717	837.44
482.935	822.44
483.153	874.44
483.372	862.44
483.59	850.44
483.808	853.44
484.027	829.44
484.245	844.44
484.463	865.44
484.681	889.44
484.9	858.44
485.118	872.44
485.336	894.44
485.554	872.44
485.772	906.44
485.99	883.44
486.209	913.44
486.427	903.44
486.645	908.44
486.863	909.44
487.081	913.44
487.299	906.44
487.517	902.44
487.735	904.44
487.953	872.44
488.171	875.44
488.389	878.44
488.607	885.44
488.825	838.44
489.043	854.44
489.261	872.44
489.479	873.44
489.696	874.44
489.914	885.44
490.132	889.44
490.35	880.44
490.568	878.44
490.786	890.44
491.003	890.44
491.221	911.44
491.439	903.44
491.657	926.44
491.874	910.44
492.092	914.44
492.31	908.44
492.527	895.44
492.745	946.44
492.963	920.44
493.18	897.44
493.398	936.44
493.615	928.44
493.833	930.44
494.05	964.44
494.268	951.44
494.485	924.44
494.703	962.44
494.92	936.44
495.138	947.44
495.355	925.44
495.573	941.44
495.79	919.44
496.008	951.44
496.225	943.44
496.442	937.44
496.66	976.44
496.877	961.44
497.094	1003.44
497.312	1008.44
497.529	1005.44
497.746	1058.44
497.963	1071.44
498.181	1103.44
498.398	1154.44
498.615	1209.44
498.832	1271.44
499.049	1411.44
499.267	1535.44
499.484	1714.44
499.701	1853.44
499.918	2064.44
500.135	2465.44
500.352	2848.44
500.569	3026.44
500.786	2992.44
