Data from Ni(NO3)2@0.5M.TitratingCurve.Agarose3%dH2O.NegLispCup.LampEnergy10.LIBS07252019_HRD10591_17-59-29-564.txt Node
Date: Thu Jul 25 17:59:29 EDT 2019
User: cochatt
Spectrometer: HR+D1059
Trigger mode: 1
Integration Time (sec): 1.000000E-1
Scans to average: 1
Electric dark correction enabled: true
Nonlinearity correction enabled: false
Boxcar width: 0
XAxis mode: Wavelengths
Number of Pixels in Spectrum: 2048
>>>>>Begin Spectral Data<<<<<
223.165	-15.69
223.4	-15.69
223.635	-15.69
223.869	-24.69
224.104	-14.69
224.338	-2.69
224.573	-9.69
224.808	-19.69
225.042	-14.69
225.277	-11.69
225.511	-13.69
225.746	12.31
225.98	5.31
226.215	4.31
226.449	20.31
226.683	23.31
226.918	29.31
227.152	32.31
227.387	35.31
227.621	31.31
227.856	37.31
228.09	41.31
228.324	59.31
228.559	45.31
228.793	69.31
229.027	95.31
229.262	122.31
229.496	108.31
229.73	96.31
229.964	154.31
230.199	174.31
230.433	156.31
230.667	154.31
230.901	146.31
231.136	132.31
231.37	128.31
231.604	138.31
231.838	171.31
232.072	166.31
232.306	161.31
232.541	152.31
232.775	142.31
233.009	145.31
233.243	145.31
233.477	137.31
233.711	146.31
233.945	140.31
234.179	145.31
234.413	129.31
234.647	139.31
234.881	149.31
235.115	159.31
235.349	128.31
235.583	141.31
235.817	142.31
236.051	137.31
236.285	134.31
236.519	136.31
236.753	122.31
236.987	141.31
237.221	144.31
237.455	130.31
237.689	142.31
237.922	144.31
238.156	132.31
238.39	154.31
238.624	132.31
238.858	133.31
239.091	143.31
239.325	139.31
239.559	168.31
239.793	153.31
240.027	162.31
240.26	154.31
240.494	166.31
240.728	171.31
240.961	140.31
241.195	146.31
241.429	155.31
241.662	170.31
241.896	182.31
242.13	188.31
242.363	164.31
242.597	153.31
242.83	154.31
243.064	160.31
243.298	169.31
243.531	167.31
243.765	175.31
243.998	190.31
244.232	182.31
244.465	160.31
244.699	172.31
244.932	175.31
245.166	177.31
245.399	181.31
245.633	194.31
245.866	181.31
246.099	167.31
246.333	173.31
246.566	182.31
246.8	187.31
247.033	169.31
247.266	177.31
247.5	177.31
247.733	167.31
247.966	186.31
248.2	184.31
248.433	192.31
248.666	193.31
248.899	189.31
249.133	202.31
249.366	210.31
249.599	202.31
249.832	189.31
250.066	199.31
250.299	188.31
250.532	198.31
250.765	205.31
250.998	218.31
251.231	210.31
251.465	236.31
251.698	230.31
251.931	201.31
252.164	209.31
252.397	199.31
252.63	215.31
252.863	186.31
253.096	204.31
253.329	223.31
253.562	219.31
253.795	211.31
254.028	238.31
254.261	230.31
254.494	222.31
254.727	222.31
254.96	223.31
255.193	208.31
255.426	223.31
255.659	239.31
255.892	229.31
256.124	217.31
256.357	228.31
256.59	227.31
256.823	228.31
257.056	241.31
257.289	213.31
257.521	213.31
257.754	232.31
257.987	222.31
258.22	235.31
258.452	241.31
258.685	250.31
258.918	246.31
259.151	233.31
259.383	239.31
259.616	245.31
259.849	248.31
260.081	264.31
260.314	254.31
260.547	242.31
260.779	248.31
261.012	264.31
261.244	261.31
261.477	276.31
261.71	281.31
261.942	251.31
262.175	263.31
262.407	268.31
262.64	276.31
262.872	276.31
263.105	268.31
263.337	268.31
263.57	278.31
263.802	274.31
264.035	262.31
264.267	262.31
264.499	271.31
264.732	250.31
264.964	252.31
265.197	267.31
265.429	283.31
265.661	292.31
265.894	276.31
266.126	273.31
266.358	270.31
266.591	270.31
266.823	283.31
267.055	270.31
267.287	292.31
267.52	273.31
267.752	292.31
267.984	293.31
268.216	303.31
268.448	312.31
268.681	273.31
268.913	305.31
269.145	294.31
269.377	288.31
269.609	283.31
269.841	288.31
270.073	284.31
270.306	292.31
270.538	300.31
270.77	303.31
271.002	306.31
271.234	296.31
271.466	297.31
271.698	308.31
271.93	300.31
272.162	316.31
272.394	303.31
272.626	312.31
272.858	296.31
273.09	321.31
273.322	303.31
273.553	311.31
273.785	313.31
274.017	316.31
274.249	318.31
274.481	310.31
274.713	313.31
274.945	314.31
275.176	319.31
275.408	326.31
275.64	323.31
275.872	327.31
276.104	332.31
276.335	302.31
276.567	328.31
276.799	334.31
277.031	316.31
277.262	317.31
277.494	323.31
277.726	340.31
277.957	326.31
278.189	350.31
278.421	342.31
278.652	346.31
278.884	358.31
279.115	342.31
279.347	330.31
279.579	364.31
279.81	346.31
280.042	336.31
280.273	353.31
280.505	346.31
280.736	357.31
280.968	330.31
281.199	345.31
281.431	354.31
281.662	356.31
281.894	380.31
282.125	329.31
282.356	363.31
282.588	350.31
282.819	344.31
283.051	356.31
283.282	366.31
283.513	362.31
283.745	363.31
283.976	375.31
284.207	362.31
284.439	378.31
284.67	361.31
284.901	370.31
285.132	380.31
285.364	386.31
285.595	370.31
285.826	353.31
286.057	376.31
286.288	385.31
286.52	359.31
286.751	356.31
286.982	376.31
287.213	360.31
287.444	380.31
287.675	374.31
287.906	388.31
288.138	387.31
288.369	376.31
288.6	384.31
288.831	377.31
289.062	380.31
289.293	366.31
289.524	378.31
289.755	396.31
289.986	394.31
290.217	396.31
290.448	389.31
290.679	386.31
290.91	396.31
291.141	387.31
291.371	392.31
291.602	398.31
291.833	397.31
292.064	392.31
292.295	395.31
292.526	383.31
292.757	383.31
292.987	378.31
293.218	376.31
293.449	383.31
293.68	381.31
293.91	412.31
294.141	390.31
294.372	400.31
294.603	410.31
294.833	389.31
295.064	397.31
295.295	406.31
295.525	415.31
295.756	390.31
295.987	401.31
296.217	382.31
296.448	382.31
296.679	417.31
296.909	401.31
297.14	401.31
297.37	422.31
297.601	417.31
297.831	413.31
298.062	401.31
298.292	421.31
298.523	429.31
298.753	420.31
298.984	417.31
299.214	425.31
299.445	439.31
299.675	421.31
299.905	409.31
300.136	450.31
300.366	433.31
300.597	454.31
300.827	459.31
301.057	478.31
301.288	450.31
301.518	453.31
301.748	468.31
301.979	469.31
302.209	447.31
302.439	452.31
302.669	449.31
302.9	447.31
303.13	443.31
303.36	447.31
303.59	430.31
303.82	459.31
304.051	454.31
304.281	452.31
304.511	437.31
304.741	453.31
304.971	454.31
305.201	465.31
305.431	443.31
305.661	448.31
305.891	463.31
306.121	437.31
306.352	452.31
306.582	469.31
306.812	431.31
307.042	440.31
307.272	440.31
307.502	449.31
307.731	428.31
307.961	456.31
308.191	449.31
308.421	436.31
308.651	454.31
308.881	433.31
309.111	431.31
309.341	455.31
309.571	442.31
309.8	462.31
310.03	466.31
310.26	476.31
310.49	474.31
310.72	463.31
310.949	457.31
311.179	460.31
311.409	477.31
311.639	458.31
311.868	453.31
312.098	468.31
312.328	462.31
312.557	461.31
312.787	460.31
313.017	484.31
313.246	501.31
313.476	488.31
313.706	488.31
313.935	487.31
314.165	472.31
314.394	481.31
314.624	492.31
314.853	492.31
315.083	485.31
315.312	486.31
315.542	483.31
315.771	501.31
316.001	500.31
316.23	500.31
316.46	484.31
316.689	500.31
316.919	479.31
317.148	494.31
317.377	471.31
317.607	491.31
317.836	493.31
318.065	489.31
318.295	490.31
318.524	503.31
318.753	482.31
318.983	494.31
319.212	486.31
319.441	502.31
319.67	518.31
319.9	471.31
320.129	486.31
320.358	513.31
320.587	500.31
320.816	514.31
321.046	516.31
321.275	488.31
321.504	513.31
321.733	526.31
321.962	506.31
322.191	510.31
322.42	508.31
322.649	526.31
322.878	524.31
323.108	517.31
323.337	536.31
323.566	514.31
323.795	536.31
324.024	509.31
324.253	534.31
324.482	534.31
324.71	510.31
324.939	543.31
325.168	544.31
325.397	551.31
325.626	544.31
325.855	530.31
326.084	542.31
326.313	526.31
326.542	540.31
326.77	546.31
326.999	530.31
327.228	528.31
327.457	535.31
327.686	542.31
327.914	562.31
328.143	547.31
328.372	542.31
328.6	541.31
328.829	558.31
329.058	549.31
329.287	536.31
329.515	560.31
329.744	549.31
329.972	574.31
330.201	556.31
330.43	564.31
330.658	564.31
330.887	577.31
331.115	558.31
331.344	564.31
331.572	577.31
331.801	603.31
332.03	602.31
332.258	602.31
332.486	586.31
332.715	604.31
332.943	611.31
333.172	596.31
333.4	628.31
333.629	609.31
333.857	640.31
334.085	630.31
334.314	618.31
334.542	624.31
334.771	643.31
334.999	614.31
335.227	624.31
335.455	615.31
335.684	634.31
335.912	652.31
336.14	632.31
336.369	665.31
336.597	645.31
336.825	653.31
337.053	661.31
337.281	632.31
337.51	661.31
337.738	646.31
337.966	639.31
338.194	657.31
338.422	637.31
338.65	614.31
338.878	618.31
339.106	600.31
339.334	630.31
339.562	628.31
339.79	592.31
340.018	588.31
340.246	584.31
340.474	593.31
340.702	600.31
340.93	606.31
341.158	625.31
341.386	618.31
341.614	626.31
341.842	633.31
342.07	599.31
342.298	597.31
342.526	608.31
342.754	628.31
342.981	588.31
343.209	594.31
343.437	629.31
343.665	620.31
343.893	638.31
344.12	659.31
344.348	614.31
344.576	634.31
344.804	643.31
345.031	616.31
345.259	617.31
345.487	615.31
345.714	613.31
345.942	634.31
346.17	637.31
346.397	614.31
346.625	588.31
346.853	565.31
347.08	576.31
347.308	589.31
347.535	606.31
347.763	580.31
347.99	597.31
348.218	576.31
348.445	584.31
348.673	569.31
348.9	567.31
349.128	583.31
349.355	616.31
349.583	620.31
349.81	553.31
350.037	575.31
350.265	563.31
350.492	564.31
350.72	551.31
350.947	585.31
351.174	600.31
351.402	585.31
351.629	598.31
351.856	598.31
352.083	596.31
352.311	590.31
352.538	600.31
352.765	587.31
352.992	554.31
353.22	556.31
353.447	555.31
353.674	545.31
353.901	553.31
354.128	590.31
354.355	553.31
354.583	539.31
354.81	552.31
355.037	542.31
355.264	572.31
355.491	561.31
355.718	587.31
355.945	577.31
356.172	581.31
356.399	555.31
356.626	586.31
356.853	600.31
357.08	578.31
357.307	568.31
357.534	578.31
357.761	580.31
357.988	569.31
358.215	569.31
358.441	557.31
358.668	545.31
358.895	556.31
359.122	572.31
359.349	577.31
359.576	565.31
359.802	604.31
360.029	571.31
360.256	559.31
360.483	566.31
360.709	559.31
360.936	578.31
361.163	600.31
361.39	582.31
361.616	578.31
361.843	594.31
362.07	587.31
362.296	591.31
362.523	597.31
362.749	574.31
362.976	575.31
363.203	564.31
363.429	550.31
363.656	566.31
363.882	585.31
364.109	567.31
364.335	584.31
364.562	573.31
364.788	578.31
365.015	568.31
365.241	589.31
365.468	574.31
365.694	582.31
365.92	584.31
366.147	553.31
366.373	580.31
366.599	573.31
366.826	578.31
367.052	569.31
367.278	568.31
367.505	594.31
367.731	574.31
367.957	580.31
368.184	586.31
368.41	585.31
368.636	568.31
368.862	592.31
369.089	567.31
369.315	580.31
369.541	583.31
369.767	574.31
369.993	588.31
370.219	601.31
370.445	595.31
370.672	592.31
370.898	569.31
371.124	592.31
371.35	625.31
371.576	615.31
371.802	609.31
372.028	592.31
372.254	608.31
372.48	608.31
372.706	619.31
372.932	586.31
373.158	622.31
373.384	632.31
373.61	609.31
373.835	625.31
374.061	606.31
374.287	613.31
374.513	624.31
374.739	647.31
374.965	648.31
375.191	638.31
375.416	659.31
375.642	632.31
375.868	636.31
376.094	638.31
376.319	633.31
376.545	605.31
376.771	612.31
376.997	598.31
377.222	636.31
377.448	613.31
377.674	600.31
377.899	601.31
378.125	581.31
378.35	602.31
378.576	605.31
378.802	576.31
379.027	606.31
379.253	606.31
379.478	605.31
379.704	616.31
379.929	602.31
380.155	595.31
380.38	593.31
380.606	605.31
380.831	612.31
381.057	606.31
381.282	612.31
381.507	608.31
381.733	608.31
381.958	612.31
382.184	612.31
382.409	617.31
382.634	612.31
382.86	637.31
383.085	632.31
383.31	630.31
383.535	658.31
383.761	636.31
383.986	648.31
384.211	638.31
384.436	625.31
384.662	655.31
384.887	665.31
385.112	642.31
385.337	676.31
385.562	676.31
385.787	659.31
386.013	669.31
386.238	682.31
386.463	668.31
386.688	672.31
386.913	685.31
387.138	677.31
387.363	696.31
387.588	670.31
387.813	685.31
388.038	668.31
388.263	657.31
388.488	687.31
388.713	681.31
388.938	701.31
389.163	686.31
389.387	677.31
389.612	648.31
389.837	650.31
390.062	707.31
390.287	692.31
390.512	689.31
390.736	698.31
390.961	696.31
391.186	688.31
391.411	694.31
391.636	709.31
391.86	700.31
392.085	737.31
392.31	710.31
392.534	719.31
392.759	711.31
392.984	711.31
393.208	699.31
393.433	733.31
393.658	724.31
393.882	724.31
394.107	705.31
394.331	730.31
394.556	708.31
394.78	712.31
395.005	735.31
395.229	734.31
395.454	729.31
395.678	738.31
395.903	717.31
396.127	720.31
396.352	714.31
396.576	732.31
396.801	731.31
397.025	743.31
397.249	735.31
397.474	764.31
397.698	746.31
397.922	788.31
398.147	738.31
398.371	758.31
398.595	781.31
398.82	774.31
399.044	805.31
399.268	841.31
399.492	898.31
399.717	911.31
399.941	928.31
400.165	878.31
400.389	920.31
400.613	868.31
400.837	830.31
401.062	814.31
401.286	820.31
401.51	822.31
401.734	769.31
401.958	812.31
402.182	826.31
402.406	808.31
402.63	800.31
402.854	790.31
403.078	814.31
403.302	806.31
403.526	813.31
403.75	829.31
403.974	815.31
404.198	826.31
404.422	822.31
404.645	837.31
404.869	820.31
405.093	843.31
405.317	844.31
405.541	837.31
405.765	838.31
405.988	836.31
406.212	847.31
406.436	832.31
406.66	851.31
406.883	832.31
407.107	894.31
407.331	912.31
407.555	943.31
407.778	917.31
408.002	925.31
408.226	931.31
408.449	913.31
408.673	899.31
408.896	913.31
409.12	884.31
409.344	888.31
409.567	859.31
409.791	872.31
410.014	867.31
410.238	841.31
410.461	839.31
410.685	869.31
410.908	826.31
411.132	847.31
411.355	832.31
411.578	824.31
411.802	833.31
412.025	837.31
412.249	843.31
412.472	847.31
412.695	867.31
412.919	777.31
413.142	825.31
413.365	825.31
413.589	809.31
413.812	804.31
414.035	806.31
414.258	826.31
414.482	823.31
414.705	820.31
414.928	784.31
415.151	805.31
415.374	808.31
415.597	792.31
415.821	803.31
416.044	794.31
416.267	780.31
416.49	777.31
416.713	773.31
416.936	776.31
417.159	775.31
417.382	766.31
417.605	790.31
417.828	778.31
418.051	792.31
418.274	798.31
418.497	773.31
418.72	802.31
418.943	789.31
419.166	804.31
419.389	846.31
419.611	845.31
419.834	797.31
420.057	829.31
420.28	785.31
420.503	774.31
420.726	766.31
420.948	771.31
421.171	788.31
421.394	772.31
421.617	762.31
421.839	755.31
422.062	774.31
422.285	740.31
422.507	767.31
422.73	765.31
422.953	784.31
423.175	762.31
423.398	784.31
423.621	782.31
423.843	791.31
424.066	778.31
424.288	787.31
424.511	782.31
424.733	774.31
424.956	747.31
425.178	790.31
425.401	790.31
425.623	774.31
425.846	759.31
426.068	776.31
426.291	768.31
426.513	749.31
426.735	763.31
426.958	762.31
427.18	749.31
427.402	741.31
427.625	765.31
427.847	735.31
428.069	738.31
428.292	750.31
428.514	727.31
428.736	751.31
428.958	745.31
429.181	727.31
429.403	724.31
429.625	741.31
429.847	736.31
430.069	720.31
430.292	729.31
430.514	740.31
430.736	730.31
430.958	728.31
431.18	736.31
431.402	735.31
431.624	729.31
431.846	742.31
432.068	748.31
432.29	748.31
432.512	729.31
432.734	776.31
432.956	743.31
433.178	759.31
433.4	774.31
433.622	791.31
433.844	773.31
434.066	788.31
434.287	781.31
434.509	762.31
434.731	773.31
434.953	790.31
435.175	789.31
435.397	824.31
435.618	785.31
435.84	772.31
436.062	774.31
436.284	759.31
436.505	769.31
436.727	751.31
436.949	729.31
437.17	752.31
437.392	749.31
437.614	781.31
437.835	699.31
438.057	724.31
438.278	732.31
438.5	736.31
438.721	712.31
438.943	728.31
439.165	732.31
439.386	711.31
439.608	729.31
439.829	727.31
440.05	731.31
440.272	738.31
440.493	752.31
440.715	766.31
440.936	762.31
441.158	765.31
441.379	778.31
441.6	812.31
441.822	814.31
442.043	795.31
442.264	792.31
442.486	765.31
442.707	784.31
442.928	790.31
443.149	792.31
443.371	810.31
443.592	830.31
443.813	820.31
444.034	765.31
444.255	802.31
444.476	805.31
444.698	809.31
444.919	858.31
445.14	929.31
445.361	879.31
445.582	840.31
445.803	776.31
446.024	795.31
446.245	760.31
446.466	756.31
446.687	743.31
446.908	723.31
447.129	722.31
447.35	719.31
447.571	719.31
447.792	716.31
448.013	705.31
448.234	690.31
448.455	684.31
448.675	717.31
448.896	714.31
449.117	690.31
449.338	692.31
449.559	666.31
449.779	670.31
450	666.31
450.221	690.31
450.442	675.31
450.662	684.31
450.883	697.31
451.104	719.31
451.324	689.31
451.545	678.31
451.766	689.31
451.986	672.31
452.207	671.31
452.428	678.31
452.648	657.31
452.869	673.31
453.089	681.31
453.31	704.31
453.53	682.31
453.751	662.31
453.971	668.31
454.192	670.31
454.412	681.31
454.633	696.31
454.853	662.31
455.073	653.31
455.294	672.31
455.514	665.31
455.734	684.31
455.955	694.31
456.175	658.31
456.395	642.31
456.616	670.31
456.836	665.31
457.056	659.31
457.276	640.31
457.497	701.31
457.717	688.31
457.937	670.31
458.157	682.31
458.377	678.31
458.598	680.31
458.818	699.31
459.038	698.31
459.258	727.31
459.478	774.31
459.698	832.31
459.918	854.31
460.138	829.31
460.358	792.31
460.578	794.31
460.798	870.31
461.018	867.31
461.238	794.31
461.458	777.31
461.678	795.31
461.898	806.31
462.118	802.31
462.338	858.31
462.558	863.31
462.777	878.31
462.997	908.31
463.217	943.31
463.437	962.31
463.657	965.31
463.876	886.31
464.096	891.31
464.316	861.31
464.536	861.31
464.755	842.31
464.975	834.31
465.195	817.31
465.414	812.31
465.634	748.31
465.854	735.31
466.073	758.31
466.293	747.31
466.512	730.31
466.732	731.31
466.951	731.31
467.171	722.31
467.391	740.31
467.61	701.31
467.829	698.31
468.049	717.31
468.268	700.31
468.488	740.31
468.707	701.31
468.927	688.31
469.146	725.31
469.365	735.31
469.585	720.31
469.804	714.31
470.023	725.31
470.243	723.31
470.462	739.31
470.681	734.31
470.901	741.31
471.12	705.31
471.339	731.31
471.558	702.31
471.777	726.31
471.997	710.31
472.216	712.31
472.435	690.31
472.654	705.31
472.873	698.31
473.092	711.31
473.311	721.31
473.53	694.31
473.749	711.31
473.968	716.31
474.187	702.31
474.406	708.31
474.625	730.31
474.844	732.31
475.063	705.31
475.282	738.31
475.501	747.31
475.72	723.31
475.939	744.31
476.158	735.31
476.377	761.31
476.596	749.31
476.814	786.31
477.033	737.31
477.252	747.31
477.471	759.31
477.69	798.31
477.908	790.31
478.127	827.31
478.346	800.31
478.564	817.31
478.783	846.31
479.002	867.31
479.22	893.31
479.439	859.31
479.658	832.31
479.876	852.31
480.095	837.31
480.313	860.31
480.532	848.31
480.751	855.31
480.969	867.31
481.188	855.31
481.406	829.31
481.624	852.31
481.843	860.31
482.061	846.31
482.28	840.31
482.498	831.31
482.717	842.31
482.935	870.31
483.153	880.31
483.372	853.31
483.59	909.31
483.808	844.31
484.027	863.31
484.245	862.31
484.463	853.31
484.681	889.31
484.9	864.31
485.118	849.31
485.336	844.31
485.554	869.31
485.772	871.31
485.99	864.31
486.209	850.31
486.427	864.31
486.645	842.31
486.863	888.31
487.081	864.31
487.299	836.31
487.517	884.31
487.735	895.31
487.953	894.31
488.171	880.31
488.389	886.31
488.607	849.31
488.825	904.31
489.043	873.31
489.261	850.31
489.479	882.31
489.696	865.31
489.914	893.31
490.132	879.31
490.35	856.31
490.568	888.31
490.786	914.31
491.003	890.31
491.221	894.31
491.439	902.31
491.657	890.31
491.874	889.31
492.092	916.31
492.31	910.31
492.527	873.31
492.745	877.31
492.963	892.31
493.18	876.31
493.398	905.31
493.615	902.31
493.833	894.31
494.05	891.31
494.268	907.31
494.485	929.31
494.703	914.31
494.92	913.31
495.138	920.31
495.355	906.31
495.573	938.31
495.79	911.31
496.008	901.31
496.225	914.31
496.442	916.31
496.66	941.31
496.877	940.31
497.094	942.31
497.312	956.31
497.529	956.31
497.746	988.31
497.963	1000.31
498.181	1052.31
498.398	1081.31
498.615	1068.31
498.832	1114.31
499.049	1159.31
499.267	1195.31
499.484	1226.31
499.701	1303.31
499.918	1386.31
500.135	1474.31
500.352	1528.31
500.569	1534.31
500.786	1501.31
501.003	1500.31
501.22	1452.31
501.437	1402.31
