Data from Ni(NO3)2@0.5M.TitratingCurve.Agarose3%dH2O.NegLispCup.LampEnergy10.LIBS07252019_HRD10591_17-58-45-565.txt Node
Date: Thu Jul 25 17:58:45 EDT 2019
User: cochatt
Spectrometer: HR+D1059
Trigger mode: 1
Integration Time (sec): 1.000000E-1
Scans to average: 1
Electric dark correction enabled: true
Nonlinearity correction enabled: false
Boxcar width: 0
XAxis mode: Wavelengths
Number of Pixels in Spectrum: 2048
>>>>>Begin Spectral Data<<<<<
223.165	-22.62
223.4	-22.62
223.635	-22.62
223.869	-16.62
224.104	-19.62
224.338	-24.62
224.573	-1.62
224.808	-14.62
225.042	-5.62
225.277	2.38
225.511	2.38
225.746	8.38
225.98	5.38
226.215	13.38
226.449	11.38
226.683	18.38
226.918	27.38
227.152	16.38
227.387	25.38
227.621	45.38
227.856	56.38
228.09	47.38
228.324	58.38
228.559	64.38
228.793	75.38
229.027	154.38
229.262	168.38
229.496	169.38
229.73	177.38
229.964	200.38
230.199	255.38
230.433	256.38
230.667	239.38
230.901	258.38
231.136	203.38
231.37	196.38
231.604	236.38
231.838	242.38
232.072	268.38
232.306	247.38
232.541	212.38
232.775	191.38
233.009	194.38
233.243	198.38
233.477	183.38
233.711	202.38
233.945	205.38
234.179	209.38
234.413	208.38
234.647	214.38
234.881	205.38
235.115	217.38
235.349	195.38
235.583	190.38
235.817	181.38
236.051	212.38
236.285	190.38
236.519	196.38
236.753	195.38
236.987	196.38
237.221	204.38
237.455	219.38
237.689	226.38
237.922	201.38
238.156	213.38
238.39	215.38
238.624	213.38
238.858	202.38
239.091	223.38
239.325	260.38
239.559	247.38
239.793	291.38
240.027	290.38
240.26	240.38
240.494	233.38
240.728	223.38
240.961	204.38
241.195	221.38
241.429	247.38
241.662	249.38
241.896	300.38
242.13	307.38
242.363	246.38
242.597	249.38
242.83	240.38
243.064	244.38
243.298	247.38
243.531	260.38
243.765	277.38
243.998	274.38
244.232	277.38
244.465	283.38
244.699	276.38
244.932	268.38
245.166	261.38
245.399	263.38
245.633	280.38
245.866	269.38
246.099	275.38
246.333	278.38
246.566	259.38
246.8	273.38
247.033	282.38
247.266	283.38
247.5	287.38
247.733	282.38
247.966	308.38
248.2	289.38
248.433	306.38
248.666	289.38
248.899	309.38
249.133	292.38
249.366	327.38
249.599	311.38
249.832	304.38
250.066	313.38
250.299	307.38
250.532	319.38
250.765	328.38
250.998	344.38
251.231	363.38
251.465	381.38
251.698	390.38
251.931	353.38
252.164	354.38
252.397	360.38
252.63	359.38
252.863	332.38
253.096	340.38
253.329	358.38
253.562	347.38
253.795	345.38
254.028	357.38
254.261	363.38
254.494	374.38
254.727	371.38
254.96	380.38
255.193	381.38
255.426	378.38
255.659	371.38
255.892	386.38
256.124	395.38
256.357	378.38
256.59	388.38
256.823	371.38
257.056	387.38
257.289	419.38
257.521	404.38
257.754	383.38
257.987	393.38
258.22	423.38
258.452	424.38
258.685	390.38
258.918	413.38
259.151	417.38
259.383	419.38
259.616	416.38
259.849	410.38
260.081	425.38
260.314	425.38
260.547	401.38
260.779	426.38
261.012	415.38
261.244	442.38
261.477	437.38
261.71	452.38
261.942	431.38
262.175	445.38
262.407	442.38
262.64	445.38
262.872	464.38
263.105	477.38
263.337	444.38
263.57	480.38
263.802	475.38
264.035	471.38
264.267	466.38
264.499	471.38
264.732	473.38
264.964	469.38
265.197	469.38
265.429	470.38
265.661	479.38
265.894	467.38
266.126	461.38
266.358	489.38
266.591	480.38
266.823	471.38
267.055	484.38
267.287	481.38
267.52	493.38
267.752	502.38
267.984	508.38
268.216	497.38
268.448	537.38
268.681	525.38
268.913	498.38
269.145	521.38
269.377	495.38
269.609	507.38
269.841	512.38
270.073	520.38
270.306	516.38
270.538	535.38
270.77	505.38
271.002	547.38
271.234	533.38
271.466	527.38
271.698	554.38
271.93	544.38
272.162	533.38
272.394	540.38
272.626	537.38
272.858	559.38
273.09	527.38
273.322	547.38
273.553	524.38
273.785	557.38
274.017	554.38
274.249	548.38
274.481	533.38
274.713	572.38
274.945	570.38
275.176	569.38
275.408	581.38
275.64	567.38
275.872	588.38
276.104	579.38
276.335	579.38
276.567	584.38
276.799	582.38
277.031	586.38
277.262	602.38
277.494	603.38
277.726	601.38
277.957	594.38
278.189	614.38
278.421	611.38
278.652	586.38
278.884	584.38
279.115	606.38
279.347	608.38
279.579	633.38
279.81	610.38
280.042	618.38
280.273	647.38
280.505	624.38
280.736	604.38
280.968	601.38
281.199	637.38
281.431	613.38
281.662	635.38
281.894	649.38
282.125	655.38
282.356	626.38
282.588	651.38
282.819	641.38
283.051	652.38
283.282	643.38
283.513	647.38
283.745	638.38
283.976	636.38
284.207	664.38
284.439	664.38
284.67	644.38
284.901	677.38
285.132	669.38
285.364	665.38
285.595	661.38
285.826	665.38
286.057	696.38
286.288	683.38
286.52	716.38
286.751	697.38
286.982	650.38
287.213	689.38
287.444	675.38
287.675	674.38
287.906	694.38
288.138	676.38
288.369	693.38
288.6	723.38
288.831	685.38
289.062	700.38
289.293	697.38
289.524	719.38
289.755	701.38
289.986	693.38
290.217	694.38
290.448	697.38
290.679	703.38
290.91	689.38
291.141	704.38
291.371	701.38
291.602	703.38
291.833	716.38
292.064	680.38
292.295	709.38
292.526	720.38
292.757	716.38
292.987	714.38
293.218	700.38
293.449	717.38
293.68	703.38
293.91	723.38
294.141	716.38
294.372	726.38
294.603	720.38
294.833	711.38
295.064	694.38
295.295	706.38
295.525	712.38
295.756	705.38
295.987	740.38
296.217	726.38
296.448	730.38
296.679	724.38
296.909	719.38
297.14	730.38
297.37	729.38
297.601	728.38
297.831	756.38
298.062	735.38
298.292	753.38
298.523	783.38
298.753	773.38
298.984	762.38
299.214	770.38
299.445	798.38
299.675	799.38
299.905	801.38
300.136	789.38
300.366	869.38
300.597	855.38
300.827	838.38
301.057	818.38
301.288	836.38
301.518	833.38
301.748	828.38
301.979	837.38
302.209	795.38
302.439	785.38
302.669	805.38
302.9	805.38
303.13	799.38
303.36	848.38
303.59	827.38
303.82	864.38
304.051	865.38
304.281	856.38
304.511	827.38
304.741	839.38
304.971	867.38
305.201	879.38
305.431	925.38
305.661	880.38
305.891	869.38
306.121	841.38
306.352	826.38
306.582	838.38
306.812	856.38
307.042	843.38
307.272	800.38
307.502	807.38
307.731	829.38
307.961	843.38
308.191	828.38
308.421	851.38
308.651	857.38
308.881	832.38
309.111	845.38
309.341	840.38
309.571	842.38
309.8	851.38
310.03	874.38
310.26	924.38
310.49	943.38
310.72	897.38
310.949	834.38
311.179	886.38
311.409	853.38
311.639	856.38
311.868	863.38
312.098	880.38
312.328	903.38
312.557	886.38
312.787	917.38
313.017	860.38
313.246	891.38
313.476	887.38
313.706	931.38
313.935	905.38
314.165	882.38
314.394	911.38
314.624	888.38
314.853	904.38
315.083	897.38
315.312	899.38
315.542	899.38
315.771	907.38
316.001	934.38
316.23	920.38
316.46	927.38
316.689	959.38
316.919	910.38
317.148	931.38
317.377	944.38
317.607	955.38
317.836	931.38
318.065	929.38
318.295	938.38
318.524	943.38
318.753	947.38
318.983	974.38
319.212	923.38
319.441	943.38
319.67	960.38
319.9	954.38
320.129	933.38
320.358	966.38
320.587	961.38
320.816	975.38
321.046	952.38
321.275	964.38
321.504	955.38
321.733	989.38
321.962	980.38
322.191	990.38
322.42	968.38
322.649	974.38
322.878	988.38
323.108	960.38
323.337	1026.38
323.566	999.38
323.795	987.38
324.024	993.38
324.253	1012.38
324.482	994.38
324.71	1020.38
324.939	1007.38
325.168	1017.38
325.397	999.38
325.626	1020.38
325.855	1014.38
326.084	1010.38
326.313	1038.38
326.542	1004.38
326.77	1023.38
326.999	1033.38
327.228	1026.38
327.457	1035.38
327.686	1026.38
327.914	1049.38
328.143	1050.38
328.372	1035.38
328.6	1019.38
328.829	1036.38
329.058	1056.38
329.287	1051.38
329.515	1058.38
329.744	1080.38
329.972	1089.38
330.201	1070.38
330.43	1066.38
330.658	1059.38
330.887	1076.38
331.115	1095.38
331.344	1088.38
331.572	1081.38
331.801	1082.38
332.03	1113.38
332.258	1124.38
332.486	1132.38
332.715	1130.38
332.943	1124.38
333.172	1163.38
333.4	1163.38
333.629	1168.38
333.857	1200.38
334.085	1201.38
334.314	1187.38
334.542	1196.38
334.771	1225.38
334.999	1226.38
335.227	1237.38
335.455	1219.38
335.684	1231.38
335.912	1228.38
336.14	1214.38
336.369	1220.38
336.597	1298.38
336.825	1283.38
337.053	1299.38
337.281	1255.38
337.51	1193.38
337.738	1241.38
337.966	1254.38
338.194	1267.38
338.422	1233.38
338.65	1202.38
338.878	1181.38
339.106	1199.38
339.334	1247.38
339.562	1238.38
339.79	1208.38
340.018	1147.38
340.246	1169.38
340.474	1144.38
340.702	1152.38
340.93	1148.38
341.158	1203.38
341.386	1255.38
341.614	1340.38
341.842	1273.38
342.07	1188.38
342.298	1174.38
342.526	1178.38
342.754	1190.38
342.981	1143.38
343.209	1176.38
343.437	1236.38
343.665	1239.38
343.893	1226.38
344.12	1263.38
344.348	1241.38
344.576	1271.38
344.804	1301.38
345.031	1236.38
345.259	1203.38
345.487	1195.38
345.714	1221.38
345.942	1283.38
346.17	1305.38
346.397	1260.38
346.625	1168.38
346.853	1132.38
347.08	1126.38
347.308	1157.38
347.535	1124.38
347.763	1122.38
347.99	1106.38
348.218	1096.38
348.445	1123.38
348.673	1128.38
348.9	1137.38
349.128	1157.38
349.355	1201.38
349.583	1209.38
349.81	1145.38
350.037	1113.38
350.265	1119.38
350.492	1096.38
350.72	1131.38
350.947	1138.38
351.174	1188.38
351.402	1234.38
351.629	1246.38
351.856	1218.38
352.083	1142.38
352.311	1209.38
352.538	1258.38
352.765	1247.38
352.992	1126.38
353.22	1063.38
353.447	1073.38
353.674	1088.38
353.901	1076.38
354.128	1072.38
354.355	1040.38
354.583	1085.38
354.81	1046.38
355.037	1075.38
355.264	1074.38
355.491	1065.38
355.718	1088.38
355.945	1034.38
356.172	1092.38
356.399	1126.38
356.626	1172.38
356.853	1174.38
357.08	1142.38
357.307	1083.38
357.534	1082.38
357.761	1080.38
357.988	1103.38
358.215	1095.38
358.441	1050.38
358.668	1066.38
358.895	1032.38
359.122	1097.38
359.349	1072.38
359.576	1073.38
359.802	1098.38
360.029	1106.38
360.256	1104.38
360.483	1073.38
360.709	1095.38
360.936	1085.38
361.163	1131.38
361.39	1131.38
361.616	1129.38
361.843	1188.38
362.07	1265.38
362.296	1207.38
362.523	1120.38
362.749	1089.38
362.976	1094.38
363.203	1065.38
363.429	1051.38
363.656	1092.38
363.882	1063.38
364.109	1112.38
364.335	1089.38
364.562	1067.38
364.788	1123.38
365.015	1092.38
365.241	1083.38
365.468	1091.38
365.694	1073.38
365.92	1083.38
366.147	1091.38
366.373	1128.38
366.599	1100.38
366.826	1107.38
367.052	1092.38
367.278	1088.38
367.505	1116.38
367.731	1120.38
367.957	1112.38
368.184	1104.38
368.41	1112.38
368.636	1098.38
368.862	1141.38
369.089	1106.38
369.315	1132.38
369.541	1131.38
369.767	1124.38
369.993	1133.38
370.219	1126.38
370.445	1148.38
370.672	1145.38
370.898	1133.38
371.124	1125.38
371.35	1158.38
371.576	1149.38
371.802	1149.38
372.028	1180.38
372.254	1163.38
372.48	1136.38
372.706	1156.38
372.932	1189.38
373.158	1151.38
373.384	1189.38
373.61	1155.38
373.835	1185.38
374.061	1188.38
374.287	1214.38
374.513	1191.38
374.739	1183.38
374.965	1195.38
375.191	1215.38
375.416	1226.38
375.642	1203.38
375.868	1189.38
376.094	1199.38
376.319	1168.38
376.545	1163.38
376.771	1144.38
376.997	1192.38
377.222	1164.38
377.448	1143.38
377.674	1162.38
377.899	1159.38
378.125	1148.38
378.35	1157.38
378.576	1142.38
378.802	1181.38
379.027	1158.38
379.253	1159.38
379.478	1131.38
379.704	1157.38
379.929	1144.38
380.155	1121.38
380.38	1139.38
380.606	1160.38
380.831	1156.38
381.057	1171.38
381.282	1172.38
381.507	1151.38
381.733	1173.38
381.958	1162.38
382.184	1161.38
382.409	1157.38
382.634	1152.38
382.86	1174.38
383.085	1184.38
383.31	1165.38
383.535	1199.38
383.761	1205.38
383.986	1181.38
384.211	1229.38
384.436	1229.38
384.662	1254.38
384.887	1237.38
385.112	1219.38
385.337	1231.38
385.562	1277.38
385.787	1289.38
386.013	1327.38
386.238	1306.38
386.463	1316.38
386.688	1304.38
386.913	1307.38
387.138	1307.38
387.363	1313.38
387.588	1312.38
387.813	1313.38
388.038	1323.38
388.263	1324.38
388.488	1297.38
388.713	1304.38
388.938	1312.38
389.163	1289.38
389.387	1313.38
389.612	1291.38
389.837	1300.38
390.062	1345.38
390.287	1329.38
390.512	1313.38
390.736	1310.38
390.961	1333.38
391.186	1342.38
391.411	1349.38
391.636	1361.38
391.86	1339.38
392.085	1373.38
392.31	1370.38
392.534	1388.38
392.759	1379.38
392.984	1377.38
393.208	1356.38
393.433	1381.38
393.658	1327.38
393.882	1365.38
394.107	1347.38
394.331	1352.38
394.556	1348.38
394.78	1345.38
395.005	1357.38
395.229	1331.38
395.454	1387.38
395.678	1435.38
395.903	1379.38
396.127	1388.38
396.352	1401.38
396.576	1431.38
396.801	1407.38
397.025	1391.38
397.249	1422.38
397.474	1473.38
397.698	1421.38
397.922	1474.38
398.147	1411.38
398.371	1473.38
398.595	1493.38
398.82	1511.38
399.044	1577.38
399.268	1626.38
399.492	1672.38
399.717	1737.38
399.941	1712.38
400.165	1735.38
400.389	1664.38
400.613	1653.38
400.837	1609.38
401.062	1562.38
401.286	1577.38
401.51	1563.38
401.734	1531.38
401.958	1552.38
402.182	1516.38
402.406	1537.38
402.63	1515.38
402.854	1566.38
403.078	1514.38
403.302	1562.38
403.526	1520.38
403.75	1539.38
403.974	1541.38
404.198	1550.38
404.422	1537.38
404.645	1507.38
404.869	1511.38
405.093	1561.38
405.317	1563.38
405.541	1589.38
405.765	1611.38
405.988	1589.38
406.212	1609.38
406.436	1634.38
406.66	1656.38
406.883	1632.38
407.107	1694.38
407.331	1736.38
407.555	1740.38
407.778	1693.38
408.002	1705.38
408.226	1722.38
408.449	1729.38
408.673	1669.38
408.896	1667.38
409.12	1648.38
409.344	1627.38
409.567	1641.38
409.791	1609.38
410.014	1616.38
410.238	1584.38
410.461	1605.38
410.685	1616.38
410.908	1591.38
411.132	1630.38
411.355	1575.38
411.578	1600.38
411.802	1604.38
412.025	1574.38
412.249	1553.38
412.472	1586.38
412.695	1587.38
412.919	1526.38
413.142	1558.38
413.365	1506.38
413.589	1544.38
413.812	1544.38
414.035	1548.38
414.258	1492.38
414.482	1535.38
414.705	1541.38
414.928	1524.38
415.151	1557.38
415.374	1510.38
415.597	1484.38
415.821	1498.38
416.044	1451.38
416.267	1461.38
416.49	1507.38
416.713	1472.38
416.936	1520.38
417.159	1433.38
417.382	1478.38
417.605	1447.38
417.828	1466.38
418.051	1487.38
418.274	1479.38
418.497	1439.38
418.72	1467.38
418.943	1475.38
419.166	1528.38
419.389	1625.38
419.611	1612.38
419.834	1516.38
420.057	1508.38
420.28	1454.38
420.503	1451.38
420.726	1431.38
420.948	1452.38
421.171	1440.38
421.394	1475.38
421.617	1473.38
421.839	1484.38
422.062	1454.38
422.285	1404.38
422.507	1436.38
422.73	1449.38
422.953	1491.38
423.175	1459.38
423.398	1487.38
423.621	1452.38
423.843	1445.38
424.066	1460.38
424.288	1481.38
424.511	1419.38
424.733	1464.38
424.956	1463.38
425.178	1441.38
425.401	1457.38
425.623	1424.38
425.846	1464.38
426.068	1459.38
426.291	1410.38
426.513	1461.38
426.735	1409.38
426.958	1449.38
427.18	1416.38
427.402	1412.38
427.625	1395.38
427.847	1379.38
428.069	1395.38
428.292	1437.38
428.514	1391.38
428.736	1384.38
428.958	1400.38
429.181	1403.38
429.403	1388.38
429.625	1396.38
429.847	1379.38
430.069	1375.38
430.292	1394.38
430.514	1343.38
430.736	1408.38
430.958	1403.38
431.18	1411.38
431.402	1403.38
431.624	1379.38
431.846	1405.38
432.068	1387.38
432.29	1401.38
432.512	1391.38
432.734	1423.38
432.956	1421.38
433.178	1427.38
433.4	1487.38
433.622	1477.38
433.844	1494.38
434.066	1469.38
434.287	1485.38
434.509	1425.38
434.731	1466.38
434.953	1502.38
435.175	1564.38
435.397	1577.38
435.618	1489.38
435.84	1449.38
436.062	1425.38
436.284	1442.38
436.505	1395.38
436.727	1411.38
436.949	1398.38
437.17	1459.38
437.392	1440.38
437.614	1411.38
437.835	1331.38
438.057	1387.38
438.278	1363.38
438.5	1349.38
438.721	1388.38
438.943	1401.38
439.165	1373.38
439.386	1353.38
439.608	1417.38
439.829	1369.38
440.05	1393.38
440.272	1417.38
440.493	1438.38
440.715	1441.38
440.936	1431.38
441.158	1450.38
441.379	1459.38
441.6	1503.38
441.822	1478.38
442.043	1490.38
442.264	1444.38
442.486	1469.38
442.707	1456.38
442.928	1449.38
443.149	1480.38
443.371	1539.38
443.592	1625.38
443.813	1585.38
444.034	1520.38
444.255	1496.38
444.476	1549.38
444.698	1563.38
444.919	1582.38
445.14	1724.38
445.361	1643.38
445.582	1569.38
445.803	1489.38
446.024	1440.38
446.245	1447.38
446.466	1421.38
446.687	1364.38
446.908	1401.38
447.129	1400.38
447.35	1339.38
447.571	1354.38
447.792	1309.38
448.013	1320.38
448.234	1302.38
448.455	1322.38
448.675	1290.38
448.896	1316.38
449.117	1288.38
449.338	1274.38
449.559	1268.38
449.779	1293.38
450	1263.38
450.221	1289.38
450.442	1278.38
450.662	1266.38
450.883	1281.38
451.104	1344.38
451.324	1274.38
451.545	1297.38
451.766	1307.38
451.986	1299.38
452.207	1248.38
452.428	1270.38
452.648	1273.38
452.869	1251.38
453.089	1269.38
453.31	1307.38
453.53	1259.38
453.751	1232.38
453.971	1249.38
454.192	1322.38
454.412	1303.38
454.633	1274.38
454.853	1236.38
455.073	1237.38
455.294	1267.38
455.514	1281.38
455.734	1305.38
455.955	1317.38
456.175	1329.38
456.395	1232.38
456.616	1256.38
456.836	1241.38
457.056	1229.38
457.276	1243.38
457.497	1305.38
457.717	1337.38
457.937	1295.38
458.157	1283.38
458.377	1259.38
458.598	1306.38
458.818	1345.38
459.038	1311.38
459.258	1391.38
459.478	1479.38
459.698	1665.38
459.918	1645.38
460.138	1547.38
460.358	1587.38
460.578	1537.38
460.798	1628.38
461.018	1634.38
461.238	1520.38
461.458	1525.38
461.678	1528.38
461.898	1549.38
462.118	1555.38
462.338	1591.38
462.558	1615.38
462.777	1691.38
462.997	1741.38
463.217	1771.38
463.437	1841.38
463.657	1799.38
463.876	1655.38
464.096	1669.38
464.316	1654.38
464.536	1647.38
464.755	1605.38
464.975	1577.38
465.195	1527.38
465.414	1526.38
465.634	1456.38
465.854	1417.38
466.073	1440.38
466.293	1406.38
466.512	1421.38
466.732	1413.38
466.951	1376.38
467.171	1396.38
467.391	1382.38
467.61	1363.38
467.829	1343.38
468.049	1359.38
468.268	1327.38
468.488	1323.38
468.707	1370.38
468.927	1361.38
469.146	1375.38
469.365	1424.38
469.585	1363.38
469.804	1397.38
470.023	1331.38
470.243	1314.38
470.462	1359.38
470.681	1388.38
470.901	1346.38
471.12	1332.38
471.339	1370.38
471.558	1396.38
471.777	1398.38
471.997	1363.38
472.216	1359.38
472.435	1336.38
472.654	1336.38
472.873	1332.38
473.092	1327.38
473.311	1354.38
473.53	1337.38
473.749	1318.38
473.968	1348.38
474.187	1350.38
474.406	1357.38
474.625	1381.38
474.844	1335.38
475.063	1363.38
475.282	1402.38
475.501	1394.38
475.72	1373.38
475.939	1401.38
476.158	1416.38
476.377	1453.38
476.596	1403.38
476.814	1449.38
477.033	1423.38
477.252	1447.38
477.471	1503.38
477.69	1516.38
477.908	1517.38
478.127	1510.38
478.346	1518.38
478.564	1555.38
478.783	1614.38
479.002	1643.38
479.22	1725.38
479.439	1658.38
479.658	1601.38
479.876	1579.38
480.095	1583.38
480.313	1628.38
480.532	1613.38
480.751	1618.38
480.969	1618.38
481.188	1625.38
481.406	1591.38
481.624	1612.38
481.843	1599.38
482.061	1606.38
482.28	1569.38
482.498	1612.38
482.717	1584.38
482.935	1597.38
483.153	1621.38
483.372	1704.38
483.59	1708.38
483.808	1637.38
484.027	1631.38
484.245	1629.38
484.463	1636.38
484.681	1615.38
484.9	1649.38
485.118	1691.38
485.336	1663.38
485.554	1652.38
485.772	1637.38
485.99	1641.38
486.209	1643.38
486.427	1642.38
486.645	1676.38
486.863	1672.38
487.081	1642.38
487.299	1668.38
487.517	1684.38
487.735	1707.38
487.953	1731.38
488.171	1688.38
488.389	1670.38
488.607	1691.38
488.825	1682.38
489.043	1666.38
489.261	1655.38
489.479	1649.38
489.696	1633.38
489.914	1632.38
490.132	1633.38
490.35	1675.38
490.568	1687.38
490.786	1659.38
491.003	1674.38
491.221	1709.38
491.439	1639.38
