Data from Ni(NO3)2@0.0625M.TitratingCurve.Agarose3%dH2O.NegLispCup.LampEnergy10.LIBS07252019_HRD10591_18-15-29-570.txt Node
Date: Thu Jul 25 18:15:29 EDT 2019
User: cochatt
Spectrometer: HR+D1059
Trigger mode: 1
Integration Time (sec): 1.000000E-1
Scans to average: 1
Electric dark correction enabled: true
Nonlinearity correction enabled: false
Boxcar width: 0
XAxis mode: Wavelengths
Number of Pixels in Spectrum: 2048
>>>>>Begin Spectral Data<<<<<
223.165	-11.5
223.4	-11.5
223.635	-11.5
223.869	-7.5
224.104	-27.5
224.338	-17.5
224.573	-13.5
224.808	-18.5
225.042	-10.5
225.277	-9.5
225.511	-16.5
225.746	7.5
225.98	0.5
226.215	21.5
226.449	14.5
226.683	32.5
226.918	17.5
227.152	38.5
227.387	25.5
227.621	41.5
227.856	54.5
228.09	36.5
228.324	51.5
228.559	51.5
228.793	69.5
229.027	102.5
229.262	89.5
229.496	115.5
229.73	127.5
229.964	129.5
230.199	109.5
230.433	112.5
230.667	136.5
230.901	137.5
231.136	123.5
231.37	147.5
231.604	139.5
231.838	127.5
232.072	129.5
232.306	135.5
232.541	140.5
232.775	139.5
233.009	136.5
233.243	134.5
233.477	136.5
233.711	138.5
233.945	137.5
234.179	129.5
234.413	158.5
234.647	147.5
234.881	146.5
235.115	138.5
235.349	140.5
235.583	143.5
235.817	141.5
236.051	141.5
236.285	145.5
236.519	148.5
236.753	149.5
236.987	163.5
237.221	146.5
237.455	140.5
237.689	150.5
237.922	155.5
238.156	145.5
238.39	178.5
238.624	156.5
238.858	163.5
239.091	162.5
239.325	156.5
239.559	161.5
239.793	174.5
240.027	177.5
240.26	170.5
240.494	165.5
240.728	183.5
240.961	165.5
241.195	179.5
241.429	163.5
241.662	175.5
241.896	184.5
242.13	187.5
242.363	187.5
242.597	184.5
242.83	191.5
243.064	181.5
243.298	193.5
243.531	198.5
243.765	211.5
243.998	210.5
244.232	195.5
244.465	201.5
244.699	204.5
244.932	205.5
245.166	200.5
245.399	210.5
245.633	209.5
245.866	196.5
246.099	230.5
246.333	213.5
246.566	225.5
246.8	219.5
247.033	211.5
247.266	229.5
247.5	233.5
247.733	214.5
247.966	213.5
248.2	223.5
248.433	216.5
248.666	220.5
248.899	235.5
249.133	221.5
249.366	224.5
249.599	244.5
249.832	250.5
250.066	216.5
250.299	236.5
250.532	228.5
250.765	233.5
250.998	237.5
251.231	269.5
251.465	264.5
251.698	256.5
251.931	251.5
252.164	244.5
252.397	259.5
252.63	256.5
252.863	258.5
253.096	245.5
253.329	267.5
253.562	256.5
253.795	264.5
254.028	258.5
254.261	269.5
254.494	276.5
254.727	269.5
254.96	244.5
255.193	272.5
255.426	264.5
255.659	271.5
255.892	283.5
256.124	281.5
256.357	263.5
256.59	281.5
256.823	277.5
257.056	275.5
257.289	271.5
257.521	280.5
257.754	279.5
257.987	280.5
258.22	267.5
258.452	291.5
258.685	293.5
258.918	312.5
259.151	303.5
259.383	279.5
259.616	288.5
259.849	305.5
260.081	292.5
260.314	309.5
260.547	297.5
260.779	313.5
261.012	301.5
261.244	293.5
261.477	299.5
261.71	287.5
261.942	279.5
262.175	304.5
262.407	310.5
262.64	292.5
262.872	306.5
263.105	300.5
263.337	310.5
263.57	300.5
263.802	328.5
264.035	333.5
264.267	317.5
264.499	311.5
264.732	333.5
264.964	357.5
265.197	327.5
265.429	347.5
265.661	347.5
265.894	328.5
266.126	333.5
266.358	345.5
266.591	331.5
266.823	336.5
267.055	341.5
267.287	359.5
267.52	355.5
267.752	338.5
267.984	343.5
268.216	341.5
268.448	356.5
268.681	339.5
268.913	332.5
269.145	342.5
269.377	354.5
269.609	344.5
269.841	373.5
270.073	349.5
270.306	347.5
270.538	349.5
270.77	333.5
271.002	361.5
271.234	348.5
271.466	364.5
271.698	368.5
271.93	387.5
272.162	359.5
272.394	375.5
272.626	357.5
272.858	365.5
273.09	378.5
273.322	369.5
273.553	368.5
273.785	392.5
274.017	375.5
274.249	386.5
274.481	371.5
274.713	387.5
274.945	383.5
275.176	383.5
275.408	396.5
275.64	391.5
275.872	396.5
276.104	397.5
276.335	390.5
276.567	386.5
276.799	387.5
277.031	409.5
277.262	403.5
277.494	379.5
277.726	410.5
277.957	413.5
278.189	402.5
278.421	413.5
278.652	405.5
278.884	404.5
279.115	403.5
279.347	418.5
279.579	419.5
279.81	411.5
280.042	416.5
280.273	394.5
280.505	433.5
280.736	422.5
280.968	428.5
281.199	417.5
281.431	445.5
281.662	412.5
281.894	433.5
282.125	427.5
282.356	442.5
282.588	413.5
282.819	427.5
283.051	434.5
283.282	441.5
283.513	425.5
283.745	456.5
283.976	450.5
284.207	433.5
284.439	447.5
284.67	433.5
284.901	465.5
285.132	447.5
285.364	458.5
285.595	450.5
285.826	459.5
286.057	473.5
286.288	463.5
286.52	469.5
286.751	458.5
286.982	487.5
287.213	447.5
287.444	468.5
287.675	475.5
287.906	478.5
288.138	466.5
288.369	483.5
288.6	494.5
288.831	474.5
289.062	487.5
289.293	484.5
289.524	483.5
289.755	514.5
289.986	496.5
290.217	498.5
290.448	493.5
290.679	492.5
290.91	485.5
291.141	486.5
291.371	483.5
291.602	498.5
291.833	480.5
292.064	468.5
292.295	469.5
292.526	498.5
292.757	471.5
292.987	471.5
293.218	464.5
293.449	479.5
293.68	497.5
293.91	510.5
294.141	479.5
294.372	479.5
294.603	511.5
294.833	492.5
295.064	484.5
295.295	482.5
295.525	518.5
295.756	503.5
295.987	504.5
296.217	498.5
296.448	517.5
296.679	507.5
296.909	510.5
297.14	519.5
297.37	523.5
297.601	532.5
297.831	544.5
298.062	526.5
298.292	540.5
298.523	570.5
298.753	562.5
298.984	547.5
299.214	533.5
299.445	523.5
299.675	543.5
299.905	537.5
300.136	533.5
300.366	539.5
300.597	568.5
300.827	553.5
301.057	575.5
301.288	582.5
301.518	581.5
301.748	588.5
301.979	583.5
302.209	563.5
302.439	577.5
302.669	548.5
302.9	556.5
303.13	559.5
303.36	559.5
303.59	552.5
303.82	554.5
304.051	567.5
304.281	549.5
304.511	542.5
304.741	577.5
304.971	565.5
305.201	545.5
305.431	553.5
305.661	561.5
305.891	545.5
306.121	528.5
306.352	551.5
306.582	546.5
306.812	522.5
307.042	539.5
307.272	535.5
307.502	526.5
307.731	548.5
307.961	548.5
308.191	544.5
308.421	538.5
308.651	537.5
308.881	544.5
309.111	560.5
309.341	535.5
309.571	550.5
309.8	531.5
310.03	538.5
310.26	516.5
310.49	559.5
310.72	540.5
310.949	525.5
311.179	533.5
311.409	573.5
311.639	551.5
311.868	566.5
312.098	549.5
312.328	556.5
312.557	586.5
312.787	569.5
313.017	542.5
313.246	584.5
313.476	551.5
313.706	569.5
313.935	581.5
314.165	583.5
314.394	592.5
314.624	603.5
314.853	585.5
315.083	575.5
315.312	579.5
315.542	559.5
315.771	596.5
316.001	556.5
316.23	564.5
316.46	567.5
316.689	559.5
316.919	581.5
317.148	579.5
317.377	574.5
317.607	560.5
317.836	569.5
318.065	569.5
318.295	569.5
318.524	556.5
318.753	574.5
318.983	578.5
319.212	576.5
319.441	563.5
319.67	568.5
319.9	556.5
320.129	586.5
320.358	570.5
320.587	573.5
320.816	590.5
321.046	549.5
321.275	584.5
321.504	580.5
321.733	570.5
321.962	567.5
322.191	568.5
322.42	577.5
322.649	578.5
322.878	588.5
323.108	588.5
323.337	576.5
323.566	572.5
323.795	577.5
324.024	602.5
324.253	559.5
324.482	583.5
324.71	583.5
324.939	584.5
325.168	576.5
325.397	607.5
325.626	578.5
325.855	609.5
326.084	595.5
326.313	639.5
326.542	620.5
326.77	635.5
326.999	649.5
327.228	621.5
327.457	610.5
327.686	623.5
327.914	615.5
328.143	627.5
328.372	627.5
328.6	601.5
328.829	603.5
329.058	622.5
329.287	627.5
329.515	617.5
329.744	641.5
329.972	620.5
330.201	635.5
330.43	639.5
330.658	632.5
330.887	623.5
331.115	640.5
331.344	660.5
331.572	676.5
331.801	667.5
332.03	696.5
332.258	701.5
332.486	700.5
332.715	752.5
332.943	795.5
333.172	817.5
333.4	855.5
333.629	873.5
333.857	852.5
334.085	840.5
334.314	805.5
334.542	807.5
334.771	785.5
334.999	763.5
335.227	792.5
335.455	777.5
335.684	759.5
335.912	757.5
336.14	753.5
336.369	755.5
336.597	758.5
336.825	758.5
337.053	759.5
337.281	735.5
337.51	722.5
337.738	715.5
337.966	693.5
338.194	689.5
338.422	693.5
338.65	691.5
338.878	702.5
339.106	674.5
339.334	659.5
339.562	693.5
339.79	643.5
340.018	653.5
340.246	670.5
340.474	644.5
340.702	654.5
340.93	659.5
341.158	653.5
341.386	651.5
341.614	660.5
341.842	674.5
342.07	649.5
342.298	628.5
342.526	644.5
342.754	648.5
342.981	637.5
343.209	677.5
343.437	688.5
343.665	728.5
343.893	820.5
344.12	811.5
344.348	811.5
344.576	741.5
344.804	678.5
345.031	693.5
345.259	667.5
345.487	656.5
345.714	659.5
345.942	661.5
346.17	659.5
346.397	639.5
346.625	626.5
346.853	632.5
347.08	632.5
347.308	633.5
347.535	640.5
347.763	638.5
347.99	653.5
348.218	657.5
348.445	643.5
348.673	628.5
348.9	635.5
349.128	636.5
349.355	604.5
349.583	629.5
349.81	635.5
350.037	626.5
350.265	614.5
350.492	622.5
350.72	599.5
350.947	624.5
351.174	650.5
351.402	616.5
351.629	632.5
351.856	624.5
352.083	600.5
352.311	615.5
352.538	588.5
352.765	601.5
352.992	620.5
353.22	619.5
353.447	592.5
353.674	598.5
353.901	620.5
354.128	625.5
354.355	595.5
354.583	628.5
354.81	613.5
355.037	606.5
355.264	641.5
355.491	612.5
355.718	623.5
355.945	611.5
356.172	608.5
356.399	626.5
356.626	614.5
356.853	641.5
357.08	621.5
357.307	629.5
357.534	618.5
357.761	614.5
357.988	621.5
358.215	605.5
358.441	603.5
358.668	624.5
358.895	600.5
359.122	644.5
359.349	618.5
359.576	599.5
359.802	630.5
360.029	626.5
360.256	623.5
360.483	621.5
360.709	611.5
360.936	627.5
361.163	620.5
361.39	632.5
361.616	616.5
361.843	616.5
362.07	626.5
362.296	625.5
362.523	586.5
362.749	600.5
362.976	607.5
363.203	580.5
363.429	607.5
363.656	620.5
363.882	601.5
364.109	610.5
364.335	598.5
364.562	592.5
364.788	596.5
365.015	611.5
365.241	608.5
365.468	590.5
365.694	623.5
365.92	605.5
366.147	618.5
366.373	602.5
366.599	625.5
366.826	614.5
367.052	594.5
367.278	607.5
367.505	609.5
367.731	616.5
367.957	614.5
368.184	612.5
368.41	630.5
368.636	631.5
368.862	625.5
369.089	634.5
369.315	615.5
369.541	641.5
369.767	657.5
369.993	636.5
370.219	641.5
370.445	638.5
370.672	659.5
370.898	639.5
371.124	669.5
371.35	667.5
371.576	668.5
371.802	673.5
372.028	661.5
372.254	654.5
372.48	675.5
372.706	674.5
372.932	709.5
373.158	689.5
373.384	670.5
373.61	659.5
373.835	671.5
374.061	657.5
374.287	692.5
374.513	663.5
374.739	704.5
374.965	741.5
375.191	758.5
375.416	753.5
375.642	718.5
375.868	719.5
376.094	681.5
376.319	699.5
376.545	671.5
376.771	676.5
376.997	675.5
377.222	690.5
377.448	663.5
377.674	703.5
377.899	661.5
378.125	653.5
378.35	651.5
378.576	654.5
378.802	658.5
379.027	657.5
379.253	659.5
379.478	661.5
379.704	660.5
379.929	653.5
380.155	643.5
380.38	675.5
380.606	659.5
380.831	652.5
381.057	668.5
381.282	687.5
381.507	671.5
381.733	706.5
381.958	684.5
382.184	693.5
382.409	684.5
382.634	688.5
382.86	691.5
383.085	700.5
383.31	715.5
383.535	747.5
383.761	748.5
383.986	740.5
384.211	768.5
384.436	772.5
384.662	792.5
384.887	792.5
385.112	810.5
385.337	827.5
385.562	791.5
385.787	793.5
386.013	809.5
386.238	820.5
386.463	805.5
386.688	810.5
386.913	785.5
387.138	801.5
387.363	788.5
387.588	759.5
387.813	774.5
388.038	774.5
388.263	820.5
388.488	789.5
388.713	811.5
388.938	785.5
389.163	763.5
389.387	760.5
389.612	768.5
389.837	774.5
390.062	779.5
390.287	778.5
390.512	773.5
390.736	796.5
390.961	792.5
391.186	823.5
391.411	833.5
391.636	859.5
391.86	869.5
392.085	931.5
392.31	907.5
392.534	861.5
392.759	883.5
392.984	847.5
393.208	833.5
393.433	842.5
393.658	837.5
393.882	874.5
394.107	850.5
394.331	854.5
394.556	824.5
394.78	855.5
395.005	865.5
395.229	847.5
395.454	883.5
395.678	885.5
395.903	894.5
396.127	912.5
396.352	888.5
396.576	850.5
396.801	823.5
397.025	840.5
397.249	859.5
397.474	880.5
397.698	885.5
397.922	896.5
398.147	887.5
398.371	897.5
398.595	916.5
398.82	989.5
399.044	1050.5
399.268	1155.5
399.492	1351.5
399.717	1591.5
399.941	1549.5
400.165	1335.5
400.389	1201.5
400.613	1100.5
400.837	1039.5
401.062	989.5
401.286	1037.5
401.51	998.5
401.734	995.5
401.958	1033.5
402.182	998.5
402.406	1010.5
402.63	1026.5
402.854	1068.5
403.078	1082.5
403.302	1105.5
403.526	1151.5
403.75	1151.5
403.974	1180.5
404.198	1194.5
404.422	1216.5
404.645	1199.5
404.869	1147.5
405.093	1115.5
405.317	1131.5
405.541	1130.5
405.765	1140.5
405.988	1100.5
406.212	1079.5
406.436	1099.5
406.66	1145.5
406.883	1151.5
407.107	1204.5
407.331	1311.5
407.555	1339.5
407.778	1297.5
408.002	1260.5
408.226	1257.5
408.449	1210.5
408.673	1131.5
408.896	1132.5
409.12	1147.5
409.344	1145.5
409.567	1127.5
409.791	1173.5
410.014	1183.5
410.238	1149.5
410.461	1151.5
410.685	1099.5
410.908	1089.5
411.132	1101.5
411.355	1073.5
411.578	1067.5
411.802	1042.5
412.025	1046.5
412.249	1051.5
412.472	1065.5
412.695	1014.5
412.919	1017.5
413.142	1008.5
413.365	985.5
413.589	1024.5
413.812	987.5
414.035	988.5
414.258	975.5
414.482	987.5
414.705	1026.5
414.928	1033.5
415.151	1019.5
415.374	1017.5
415.597	1025.5
415.821	988.5
416.044	964.5
416.267	969.5
416.49	960.5
416.713	958.5
416.936	1018.5
417.159	984.5
417.382	1003.5
417.605	948.5
417.828	1002.5
418.051	991.5
418.274	995.5
418.497	1003.5
418.72	1017.5
418.943	1003.5
419.166	1068.5
419.389	1146.5
419.611	1111.5
419.834	1067.5
420.057	1045.5
420.28	1018.5
420.503	988.5
420.726	968.5
420.948	994.5
421.171	1003.5
421.394	988.5
421.617	965.5
421.839	983.5
422.062	989.5
422.285	1014.5
422.507	1044.5
422.73	1019.5
422.953	1011.5
423.175	1066.5
423.398	1060.5
423.621	1098.5
423.843	1081.5
424.066	1062.5
424.288	1063.5
424.511	1039.5
424.733	1039.5
424.956	1025.5
425.178	1030.5
425.401	996.5
425.623	986.5
425.846	965.5
426.068	926.5
426.291	933.5
426.513	939.5
426.735	924.5
426.958	907.5
427.18	901.5
427.402	920.5
427.625	919.5
427.847	904.5
428.069	896.5
428.292	925.5
428.514	887.5
428.736	848.5
428.958	881.5
429.181	859.5
429.403	862.5
429.625	871.5
429.847	868.5
430.069	854.5
430.292	834.5
430.514	861.5
430.736	874.5
430.958	868.5
431.18	842.5
431.402	891.5
431.624	870.5
431.846	895.5
432.068	895.5
432.29	917.5
432.512	859.5
432.734	888.5
432.956	895.5
433.178	875.5
433.4	872.5
433.622	887.5
433.844	895.5
434.066	886.5
434.287	899.5
434.509	963.5
434.731	977.5
434.953	1023.5
435.175	1027.5
435.397	1024.5
435.618	947.5
435.84	937.5
436.062	906.5
436.284	888.5
436.505	885.5
436.727	901.5
436.949	868.5
437.17	884.5
437.392	850.5
437.614	841.5
437.835	841.5
438.057	845.5
438.278	839.5
438.5	839.5
438.721	845.5
438.943	851.5
439.165	863.5
439.386	858.5
439.608	903.5
439.829	871.5
440.05	858.5
440.272	879.5
440.493	895.5
440.715	911.5
440.936	912.5
441.158	927.5
441.379	937.5
441.6	995.5
441.822	1024.5
442.043	1023.5
442.264	1002.5
442.486	940.5
442.707	960.5
442.928	969.5
443.149	990.5
443.371	976.5
443.592	965.5
443.813	993.5
444.034	1004.5
444.255	1015.5
444.476	1076.5
444.698	1178.5
444.919	1214.5
445.14	1295.5
445.361	1147.5
445.582	1021.5
445.803	935.5
446.024	899.5
446.245	900.5
446.466	900.5
446.687	882.5
446.908	913.5
447.129	887.5
447.35	892.5
447.571	847.5
447.792	840.5
448.013	849.5
448.234	829.5
448.455	841.5
448.675	843.5
448.896	785.5
449.117	790.5
449.338	817.5
449.559	810.5
449.779	775.5
450	804.5
450.221	821.5
450.442	838.5
450.662	846.5
450.883	819.5
451.104	863.5
451.324	864.5
451.545	855.5
451.766	838.5
451.986	803.5
452.207	825.5
452.428	826.5
452.648	848.5
452.869	810.5
453.089	794.5
453.31	819.5
453.53	793.5
453.751	804.5
453.971	782.5
454.192	815.5
454.412	786.5
454.633	789.5
454.853	794.5
455.073	794.5
455.294	785.5
455.514	751.5
455.734	775.5
455.955	754.5
456.175	740.5
456.395	765.5
456.616	761.5
456.836	756.5
457.056	744.5
457.276	729.5
457.497	751.5
457.717	753.5
457.937	788.5
458.157	778.5
458.377	785.5
458.598	783.5
458.818	819.5
459.038	831.5
459.258	888.5
459.478	887.5
459.698	893.5
459.918	923.5
460.138	963.5
460.358	1011.5
460.578	1040.5
460.798	1057.5
461.018	1050.5
461.238	1069.5
461.458	1055.5
461.678	1028.5
461.898	1041.5
462.118	1072.5
462.338	1115.5
462.558	1133.5
462.777	1165.5
462.997	1340.5
463.217	1479.5
463.437	1461.5
463.657	1288.5
463.876	1240.5
464.096	1232.5
464.316	1258.5
464.536	1267.5
464.755	1215.5
464.975	1175.5
465.195	1086.5
465.414	1024.5
465.634	957.5
465.854	935.5
466.073	890.5
466.293	888.5
466.512	864.5
466.732	857.5
466.951	875.5
467.171	837.5
467.391	851.5
467.61	855.5
467.829	851.5
468.049	818.5
468.268	805.5
468.488	817.5
468.707	803.5
468.927	819.5
469.146	807.5
469.365	825.5
469.585	843.5
469.804	851.5
470.023	856.5
470.243	880.5
470.462	885.5
470.681	888.5
470.901	896.5
471.12	879.5
471.339	856.5
471.558	853.5
471.777	838.5
471.997	837.5
472.216	829.5
472.435	801.5
472.654	812.5
472.873	789.5
473.092	771.5
473.311	783.5
473.53	795.5
473.749	780.5
473.968	792.5
474.187	774.5
474.406	794.5
474.625	785.5
474.844	768.5
475.063	791.5
475.282	820.5
475.501	817.5
475.72	820.5
475.939	817.5
476.158	811.5
476.377	816.5
476.596	832.5
476.814	854.5
477.033	834.5
477.252	858.5
477.471	842.5
477.69	883.5
477.908	917.5
478.127	931.5
478.346	945.5
478.564	949.5
478.783	953.5
479.002	998.5
479.22	1007.5
479.439	982.5
479.658	964.5
479.876	965.5
480.095	994.5
480.313	1037.5
480.532	1036.5
480.751	1066.5
480.969	996.5
481.188	987.5
481.406	959.5
481.624	943.5
481.843	928.5
482.061	916.5
482.28	903.5
482.498	897.5
482.717	868.5
482.935	872.5
483.153	874.5
483.372	893.5
483.59	915.5
483.808	915.5
484.027	890.5
484.245	897.5
484.463	913.5
484.681	934.5
484.9	924.5
485.118	953.5
485.336	951.5
485.554	938.5
485.772	970.5
485.99	973.5
486.209	972.5
486.427	982.5
486.645	957.5
486.863	965.5
487.081	971.5
487.299	948.5
487.517	954.5
487.735	933.5
487.953	951.5
488.171	947.5
488.389	956.5
488.607	928.5
488.825	894.5
489.043	918.5
489.261	932.5
489.479	933.5
489.696	953.5
489.914	932.5
490.132	954.5
490.35	937.5
490.568	963.5
490.786	947.5
491.003	943.5
491.221	955.5
491.439	928.5
491.657	962.5
491.874	949.5
492.092	922.5
492.31	959.5
492.527	945.5
492.745	977.5
492.963	985.5
493.18	937.5
493.398	972.5
493.615	992.5
493.833	969.5
494.05	956.5
494.268	974.5
494.485	1004.5
494.703	991.5
494.92	1000.5
495.138	995.5
495.355	954.5
495.573	1002.5
495.79	1016.5
496.008	1009.5
496.225	976.5
496.442	1029.5
496.66	1032.5
496.877	1036.5
497.094	1042.5
497.312	1062.5
497.529	1096.5
497.746	1111.5
497.963	1151.5
498.181	1187.5
498.398	1226.5
498.615	1311.5
498.832	1366.5
499.049	1493.5
499.267	1637.5
499.484	1817.5
499.701	2030.5
499.918	2237.5
500.135	2634.5
500.352	3097.5
500.569	3241.5
500.786	3193.5
501.003	2931.5
501.22	2509.5
501.437	2256.5
501.654	1959.5
501.871	1786.5
502.088	1594.5
502.305	1499.5
502.522	1391.5
502.739	1393.5
502.956	1296.5
503.172	1254.5
503.389	1199.5
503.606	1137.5
503.823	1115.5
504.04	1146.5
504.256	1135.5
504.473	1186.5
504.69	1228.5
504.907	1219.5
505.123	1104.5
505.34	1019.5
505.557	1004.5
505.773	981.5
505.99	932.5
506.207	947.5
506.423	894.5
506.64	929.5
506.856	891.5
507.073	907.5
507.289	879.5
507.506	869.5
507.722	877.5
507.939	872.5
508.155	848.5
508.372	852.5
508.588	833.5
508.805	866.5
509.021	844.5
509.238	836.5
509.454	832.5
509.67	830.5
509.887	832.5
510.103	821.5
510.319	842.5
510.536	812.5
510.752	804.5
510.968	804.5
511.184	790.5
511.401	794.5
511.617	801.5
511.833	810.5
512.049	814.5
512.265	801.5
512.481	818.5
512.698	838.5
512.914	801.5
513.13	809.5
513.346	841.5
513.562	782.5
513.778	812.5
513.994	829.5
514.21	812.5
514.426	813.5
514.642	835.5
514.858	823.5
515.074	813.5
515.29	844.5
515.506	864.5
515.721	840.5
515.937	868.5
516.153	839.5
516.369	910.5
516.585	921.5
516.801	955.5
