Data from Ni(NO3)2@0.125M.TitratingCurve.Agarose3%dH2O.NegLispCup.LampEnergy10.LIBS07252019_HRD10591_18-10-31-568.txt Node
Date: Thu Jul 25 18:10:31 EDT 2019
User: cochatt
Spectrometer: HR+D1059
Trigger mode: 1
Integration Time (sec): 1.000000E-1
Scans to average: 1
Electric dark correction enabled: true
Nonlinearity correction enabled: false
Boxcar width: 0
XAxis mode: Wavelengths
Number of Pixels in Spectrum: 2048
>>>>>Begin Spectral Data<<<<<
223.165	-5.38
223.4	-5.38
223.635	-5.38
223.869	-15.38
224.104	-27.38
224.338	-16.38
224.573	-13.38
224.808	-1.38
225.042	-18.38
225.277	-0.38
225.511	-2.38
225.746	6.62
225.98	2.62
226.215	12.62
226.449	30.62
226.683	17.62
226.918	8.62
227.152	21.62
227.387	29.62
227.621	31.62
227.856	32.62
228.09	49.62
228.324	59.62
228.559	59.62
228.793	74.62
229.027	107.62
229.262	124.62
229.496	130.62
229.73	122.62
229.964	126.62
230.199	135.62
230.433	144.62
230.667	133.62
230.901	117.62
231.136	123.62
231.37	135.62
231.604	145.62
231.838	137.62
232.072	141.62
232.306	151.62
232.541	142.62
232.775	140.62
233.009	165.62
233.243	142.62
233.477	155.62
233.711	159.62
233.945	145.62
234.179	157.62
234.413	152.62
234.647	141.62
234.881	145.62
235.115	138.62
235.349	147.62
235.583	163.62
235.817	156.62
236.051	151.62
236.285	157.62
236.519	146.62
236.753	161.62
236.987	157.62
237.221	165.62
237.455	173.62
237.689	171.62
237.922	163.62
238.156	167.62
238.39	160.62
238.624	172.62
238.858	161.62
239.091	169.62
239.325	171.62
239.559	188.62
239.793	164.62
240.027	176.62
240.26	169.62
240.494	176.62
240.728	177.62
240.961	171.62
241.195	185.62
241.429	193.62
241.662	194.62
241.896	202.62
242.13	204.62
242.363	187.62
242.597	211.62
242.83	208.62
243.064	214.62
243.298	191.62
243.531	203.62
243.765	202.62
243.998	225.62
244.232	215.62
244.465	205.62
244.699	205.62
244.932	224.62
245.166	199.62
245.399	225.62
245.633	232.62
245.866	233.62
246.099	229.62
246.333	227.62
246.566	224.62
246.8	235.62
247.033	226.62
247.266	240.62
247.5	245.62
247.733	232.62
247.966	235.62
248.2	255.62
248.433	252.62
248.666	235.62
248.899	245.62
249.133	242.62
249.366	257.62
249.599	261.62
249.832	256.62
250.066	262.62
250.299	279.62
250.532	270.62
250.765	268.62
250.998	277.62
251.231	285.62
251.465	285.62
251.698	278.62
251.931	262.62
252.164	270.62
252.397	269.62
252.63	277.62
252.863	289.62
253.096	281.62
253.329	270.62
253.562	293.62
253.795	275.62
254.028	278.62
254.261	285.62
254.494	269.62
254.727	295.62
254.96	315.62
255.193	279.62
255.426	279.62
255.659	291.62
255.892	285.62
256.124	293.62
256.357	290.62
256.59	296.62
256.823	311.62
257.056	304.62
257.289	314.62
257.521	318.62
257.754	300.62
257.987	321.62
258.22	303.62
258.452	303.62
258.685	315.62
258.918	327.62
259.151	311.62
259.383	324.62
259.616	305.62
259.849	311.62
260.081	331.62
260.314	325.62
260.547	334.62
260.779	328.62
261.012	335.62
261.244	346.62
261.477	362.62
261.71	322.62
261.942	337.62
262.175	327.62
262.407	332.62
262.64	355.62
262.872	352.62
263.105	355.62
263.337	346.62
263.57	346.62
263.802	336.62
264.035	359.62
264.267	355.62
264.499	352.62
264.732	362.62
264.964	369.62
265.197	363.62
265.429	356.62
265.661	372.62
265.894	360.62
266.126	368.62
266.358	374.62
266.591	365.62
266.823	394.62
267.055	364.62
267.287	368.62
267.52	387.62
267.752	374.62
267.984	385.62
268.216	397.62
268.448	380.62
268.681	379.62
268.913	368.62
269.145	384.62
269.377	401.62
269.609	392.62
269.841	395.62
270.073	394.62
270.306	376.62
270.538	396.62
270.77	409.62
271.002	398.62
271.234	378.62
271.466	401.62
271.698	412.62
271.93	408.62
272.162	394.62
272.394	405.62
272.626	394.62
272.858	414.62
273.09	415.62
273.322	395.62
273.553	419.62
273.785	422.62
274.017	408.62
274.249	413.62
274.481	418.62
274.713	406.62
274.945	437.62
275.176	448.62
275.408	428.62
275.64	445.62
275.872	426.62
276.104	437.62
276.335	443.62
276.567	457.62
276.799	444.62
277.031	450.62
277.262	449.62
277.494	443.62
277.726	418.62
277.957	447.62
278.189	439.62
278.421	453.62
278.652	457.62
278.884	441.62
279.115	469.62
279.347	472.62
279.579	468.62
279.81	450.62
280.042	463.62
280.273	480.62
280.505	473.62
280.736	473.62
280.968	472.62
281.199	481.62
281.431	484.62
281.662	458.62
281.894	476.62
282.125	487.62
282.356	485.62
282.588	484.62
282.819	489.62
283.051	480.62
283.282	472.62
283.513	491.62
283.745	477.62
283.976	503.62
284.207	495.62
284.439	500.62
284.67	506.62
284.901	513.62
285.132	511.62
285.364	505.62
285.595	531.62
285.826	484.62
286.057	503.62
286.288	518.62
286.52	516.62
286.751	520.62
286.982	504.62
287.213	507.62
287.444	518.62
287.675	513.62
287.906	508.62
288.138	534.62
288.369	549.62
288.6	529.62
288.831	523.62
289.062	540.62
289.293	554.62
289.524	526.62
289.755	550.62
289.986	520.62
290.217	541.62
290.448	563.62
290.679	528.62
290.91	533.62
291.141	538.62
291.371	525.62
291.602	537.62
291.833	556.62
292.064	561.62
292.295	545.62
292.526	540.62
292.757	518.62
292.987	543.62
293.218	544.62
293.449	534.62
293.68	535.62
293.91	547.62
294.141	547.62
294.372	547.62
294.603	533.62
294.833	550.62
295.064	563.62
295.295	541.62
295.525	542.62
295.756	558.62
295.987	540.62
296.217	563.62
296.448	545.62
296.679	537.62
296.909	572.62
297.14	567.62
297.37	583.62
297.601	583.62
297.831	577.62
298.062	581.62
298.292	613.62
298.523	594.62
298.753	591.62
298.984	596.62
299.214	585.62
299.445	576.62
299.675	596.62
299.905	605.62
300.136	611.62
300.366	601.62
300.597	611.62
300.827	632.62
301.057	631.62
301.288	625.62
301.518	618.62
301.748	645.62
301.979	641.62
302.209	627.62
302.439	611.62
302.669	615.62
302.9	624.62
303.13	619.62
303.36	616.62
303.59	620.62
303.82	583.62
304.051	590.62
304.281	637.62
304.511	594.62
304.741	617.62
304.971	614.62
305.201	625.62
305.431	627.62
305.661	612.62
305.891	599.62
306.121	603.62
306.352	613.62
306.582	627.62
306.812	601.62
307.042	589.62
307.272	583.62
307.502	589.62
307.731	614.62
307.961	610.62
308.191	596.62
308.421	576.62
308.651	600.62
308.881	581.62
309.111	597.62
309.341	611.62
309.571	603.62
309.8	605.62
310.03	601.62
310.26	618.62
310.49	591.62
310.72	607.62
310.949	590.62
311.179	599.62
311.409	601.62
311.639	601.62
311.868	599.62
312.098	612.62
312.328	612.62
312.557	624.62
312.787	627.62
313.017	632.62
313.246	632.62
313.476	641.62
313.706	636.62
313.935	631.62
314.165	647.62
314.394	646.62
314.624	643.62
314.853	647.62
315.083	628.62
315.312	641.62
315.542	648.62
315.771	637.62
316.001	629.62
316.23	631.62
316.46	635.62
316.689	636.62
316.919	625.62
317.148	629.62
317.377	630.62
317.607	624.62
317.836	621.62
318.065	634.62
318.295	631.62
318.524	647.62
318.753	634.62
318.983	632.62
319.212	628.62
319.441	628.62
319.67	633.62
319.9	653.62
320.129	633.62
320.358	641.62
320.587	640.62
320.816	651.62
321.046	645.62
321.275	646.62
321.504	650.62
321.733	658.62
321.962	643.62
322.191	665.62
322.42	636.62
322.649	646.62
322.878	660.62
323.108	669.62
323.337	648.62
323.566	659.62
323.795	659.62
324.024	677.62
324.253	662.62
324.482	671.62
324.71	649.62
324.939	669.62
325.168	675.62
325.397	688.62
325.626	669.62
325.855	696.62
326.084	699.62
326.313	730.62
326.542	751.62
326.77	716.62
326.999	711.62
327.228	697.62
327.457	690.62
327.686	707.62
327.914	689.62
328.143	712.62
328.372	700.62
328.6	698.62
328.829	695.62
329.058	704.62
329.287	723.62
329.515	704.62
329.744	703.62
329.972	720.62
330.201	704.62
330.43	731.62
330.658	717.62
330.887	737.62
331.115	729.62
331.344	752.62
331.572	729.62
331.801	763.62
332.03	799.62
332.258	804.62
332.486	834.62
332.715	864.62
332.943	907.62
333.172	913.62
333.4	937.62
333.629	984.62
333.857	984.62
334.085	947.62
334.314	939.62
334.542	902.62
334.771	889.62
334.999	904.62
335.227	896.62
335.455	887.62
335.684	867.62
335.912	875.62
336.14	875.62
336.369	862.62
336.597	859.62
336.825	891.62
337.053	856.62
337.281	825.62
337.51	802.62
337.738	819.62
337.966	819.62
338.194	794.62
338.422	776.62
338.65	748.62
338.878	783.62
339.106	785.62
339.334	752.62
339.562	775.62
339.79	735.62
340.018	751.62
340.246	731.62
340.474	769.62
340.702	743.62
340.93	740.62
341.158	759.62
341.386	741.62
341.614	743.62
341.842	756.62
342.07	726.62
342.298	713.62
342.526	732.62
342.754	750.62
342.981	763.62
343.209	772.62
343.437	788.62
343.665	832.62
343.893	911.62
344.12	947.62
344.348	910.62
344.576	864.62
344.804	800.62
345.031	791.62
345.259	774.62
345.487	740.62
345.714	749.62
345.942	751.62
346.17	767.62
346.397	738.62
346.625	721.62
346.853	722.62
347.08	709.62
347.308	730.62
347.535	723.62
347.763	739.62
347.99	738.62
348.218	726.62
348.445	754.62
348.673	735.62
348.9	719.62
349.128	710.62
349.355	733.62
349.583	732.62
349.81	723.62
350.037	719.62
350.265	704.62
350.492	684.62
350.72	700.62
350.947	716.62
351.174	701.62
351.402	695.62
351.629	683.62
351.856	711.62
352.083	699.62
352.311	699.62
352.538	701.62
352.765	684.62
352.992	673.62
353.22	663.62
353.447	689.62
353.674	699.62
353.901	688.62
354.128	699.62
354.355	710.62
354.583	685.62
354.81	697.62
355.037	710.62
355.264	709.62
355.491	691.62
355.718	707.62
355.945	694.62
356.172	711.62
356.399	689.62
356.626	705.62
356.853	725.62
357.08	688.62
357.307	703.62
357.534	709.62
357.761	682.62
357.988	707.62
358.215	679.62
358.441	683.62
358.668	687.62
358.895	721.62
359.122	710.62
359.349	709.62
359.576	675.62
359.802	692.62
360.029	711.62
360.256	704.62
360.483	713.62
360.709	696.62
360.936	701.62
361.163	699.62
361.39	701.62
361.616	700.62
361.843	675.62
362.07	678.62
362.296	714.62
362.523	677.62
362.749	681.62
362.976	683.62
363.203	679.62
363.429	703.62
363.656	683.62
363.882	670.62
364.109	688.62
364.335	688.62
364.562	658.62
364.788	685.62
365.015	687.62
365.241	689.62
365.468	692.62
365.694	663.62
365.92	710.62
366.147	677.62
366.373	690.62
366.599	682.62
366.826	669.62
367.052	672.62
367.278	707.62
367.505	682.62
367.731	689.62
367.957	703.62
368.184	727.62
368.41	706.62
368.636	684.62
368.862	703.62
369.089	695.62
369.315	710.62
369.541	730.62
369.767	711.62
369.993	728.62
370.219	733.62
370.445	733.62
370.672	743.62
370.898	729.62
371.124	751.62
371.35	755.62
371.576	764.62
371.802	736.62
372.028	763.62
372.254	745.62
372.48	782.62
372.706	757.62
372.932	792.62
373.158	805.62
373.384	775.62
373.61	747.62
373.835	764.62
374.061	751.62
374.287	770.62
374.513	773.62
374.739	802.62
374.965	795.62
375.191	857.62
375.416	834.62
375.642	815.62
375.868	807.62
376.094	802.62
376.319	781.62
376.545	771.62
376.771	766.62
376.997	730.62
377.222	767.62
377.448	794.62
377.674	760.62
377.899	741.62
378.125	771.62
378.35	748.62
378.576	748.62
378.802	761.62
379.027	743.62
379.253	727.62
379.478	732.62
379.704	745.62
379.929	737.62
380.155	731.62
380.38	769.62
380.606	718.62
380.831	756.62
381.057	769.62
381.282	730.62
381.507	737.62
381.733	743.62
381.958	753.62
382.184	793.62
382.409	757.62
382.634	803.62
382.86	807.62
383.085	812.62
383.31	805.62
383.535	838.62
383.761	823.62
383.986	828.62
384.211	862.62
384.436	909.62
384.662	917.62
384.887	919.62
385.112	914.62
385.337	935.62
385.562	904.62
385.787	920.62
386.013	917.62
386.238	913.62
386.463	936.62
386.688	917.62
386.913	889.62
387.138	909.62
387.363	896.62
387.588	892.62
387.813	904.62
388.038	895.62
388.263	879.62
388.488	897.62
388.713	909.62
388.938	867.62
389.163	893.62
389.387	889.62
389.612	890.62
389.837	862.62
390.062	865.62
390.287	889.62
390.512	887.62
390.736	885.62
390.961	900.62
391.186	894.62
391.411	949.62
391.636	964.62
391.86	1004.62
392.085	1041.62
392.31	1022.62
392.534	972.62
392.759	949.62
392.984	978.62
393.208	957.62
393.433	919.62
393.658	963.62
393.882	945.62
394.107	950.62
394.331	939.62
394.556	948.62
394.78	974.62
395.005	992.62
395.229	976.62
395.454	1000.62
395.678	1031.62
395.903	1023.62
396.127	1022.62
396.352	976.62
396.576	934.62
396.801	940.62
397.025	958.62
397.249	982.62
397.474	1000.62
397.698	992.62
397.922	1041.62
398.147	993.62
398.371	1027.62
398.595	1042.62
398.82	1112.62
399.044	1196.62
399.268	1276.62
399.492	1570.62
399.717	1805.62
399.941	1748.62
400.165	1546.62
400.389	1350.62
400.613	1231.62
400.837	1185.62
401.062	1139.62
401.286	1135.62
401.51	1132.62
401.734	1112.62
401.958	1136.62
402.182	1146.62
402.406	1177.62
402.63	1167.62
402.854	1221.62
403.078	1244.62
403.302	1305.62
403.526	1290.62
403.75	1354.62
403.974	1361.62
404.198	1332.62
404.422	1348.62
404.645	1365.62
404.869	1296.62
405.093	1320.62
405.317	1264.62
405.541	1279.62
405.765	1260.62
405.988	1224.62
406.212	1228.62
406.436	1245.62
406.66	1250.62
406.883	1286.62
407.107	1377.62
407.331	1413.62
407.555	1489.62
407.778	1503.62
408.002	1420.62
408.226	1353.62
408.449	1376.62
408.673	1324.62
408.896	1287.62
409.12	1265.62
409.344	1289.62
409.567	1298.62
409.791	1327.62
410.014	1307.62
410.238	1303.62
410.461	1273.62
410.685	1238.62
410.908	1259.62
411.132	1211.62
411.355	1173.62
411.578	1203.62
411.802	1170.62
412.025	1184.62
412.249	1203.62
412.472	1166.62
412.695	1172.62
412.919	1143.62
413.142	1123.62
413.365	1139.62
413.589	1139.62
413.812	1088.62
414.035	1084.62
414.258	1131.62
414.482	1108.62
414.705	1173.62
414.928	1143.62
415.151	1171.62
415.374	1145.62
415.597	1124.62
415.821	1105.62
416.044	1120.62
416.267	1127.62
416.49	1107.62
416.713	1078.62
416.936	1140.62
417.159	1103.62
417.382	1129.62
417.605	1105.62
417.828	1125.62
418.051	1147.62
418.274	1101.62
418.497	1119.62
418.72	1151.62
418.943	1161.62
419.166	1226.62
419.389	1313.62
419.611	1288.62
419.834	1188.62
420.057	1185.62
420.28	1153.62
420.503	1096.62
420.726	1136.62
420.948	1110.62
421.171	1119.62
421.394	1118.62
421.617	1124.62
421.839	1119.62
422.062	1113.62
422.285	1122.62
422.507	1171.62
422.73	1164.62
422.953	1132.62
423.175	1159.62
423.398	1195.62
423.621	1195.62
423.843	1196.62
424.066	1283.62
424.288	1235.62
424.511	1213.62
424.733	1183.62
424.956	1127.62
425.178	1165.62
425.401	1131.62
425.623	1123.62
425.846	1079.62
426.068	1103.62
426.291	1094.62
426.513	1083.62
426.735	1106.62
426.958	1038.62
427.18	993.62
427.402	1031.62
427.625	1013.62
427.847	1014.62
428.069	1023.62
428.292	999.62
428.514	986.62
428.736	1015.62
428.958	1009.62
429.181	999.62
429.403	960.62
429.625	998.62
429.847	960.62
430.069	945.62
430.292	970.62
430.514	929.62
430.736	957.62
430.958	985.62
431.18	972.62
431.402	997.62
431.624	986.62
431.846	997.62
432.068	1043.62
432.29	1032.62
432.512	976.62
432.734	1026.62
432.956	1010.62
433.178	1002.62
433.4	1027.62
433.622	1001.62
433.844	1038.62
434.066	1024.62
434.287	1037.62
434.509	1054.62
434.731	1087.62
434.953	1145.62
435.175	1165.62
435.397	1145.62
435.618	1081.62
435.84	1042.62
436.062	1014.62
436.284	1017.62
436.505	1005.62
436.727	997.62
436.949	1026.62
437.17	1001.62
437.392	970.62
437.614	991.62
437.835	944.62
438.057	985.62
438.278	965.62
438.5	953.62
438.721	955.62
438.943	977.62
439.165	963.62
439.386	999.62
439.608	1036.62
439.829	989.62
440.05	1017.62
440.272	1033.62
440.493	1031.62
440.715	1021.62
440.936	1027.62
441.158	1030.62
441.379	1098.62
441.6	1148.62
441.822	1159.62
442.043	1143.62
442.264	1102.62
442.486	1108.62
442.707	1119.62
442.928	1130.62
443.149	1139.62
443.371	1137.62
443.592	1156.62
443.813	1135.62
444.034	1156.62
444.255	1200.62
444.476	1233.62
444.698	1311.62
444.919	1418.62
445.14	1449.62
445.361	1323.62
445.582	1192.62
445.803	1103.62
446.024	1067.62
446.245	1064.62
446.466	1049.62
446.687	1043.62
446.908	1025.62
447.129	1011.62
447.35	959.62
447.571	964.62
447.792	933.62
448.013	940.62
448.234	935.62
448.455	956.62
448.675	942.62
448.896	935.62
449.117	907.62
449.338	917.62
449.559	925.62
449.779	913.62
450	922.62
450.221	927.62
450.442	935.62
450.662	924.62
450.883	949.62
451.104	992.62
451.324	959.62
451.545	968.62
451.766	973.62
451.986	941.62
452.207	908.62
452.428	925.62
452.648	953.62
452.869	922.62
453.089	915.62
453.31	923.62
453.53	863.62
453.751	897.62
453.971	899.62
454.192	908.62
454.412	870.62
454.633	884.62
454.853	879.62
455.073	881.62
455.294	889.62
455.514	864.62
455.734	859.62
455.955	820.62
456.175	848.62
456.395	826.62
456.616	875.62
456.836	888.62
457.056	855.62
457.276	850.62
457.497	845.62
457.717	877.62
457.937	861.62
458.157	892.62
458.377	882.62
458.598	906.62
458.818	924.62
459.038	956.62
459.258	980.62
459.478	1010.62
459.698	1021.62
459.918	1067.62
460.138	1127.62
460.358	1188.62
460.578	1226.62
460.798	1223.62
461.018	1213.62
461.238	1201.62
461.458	1164.62
461.678	1204.62
461.898	1189.62
462.118	1181.62
462.338	1301.62
462.558	1292.62
462.777	1356.62
462.997	1484.62
463.217	1685.62
463.437	1695.62
463.657	1516.62
463.876	1428.62
464.096	1419.62
464.316	1421.62
464.536	1428.62
464.755	1365.62
464.975	1291.62
465.195	1271.62
465.414	1150.62
465.634	1112.62
465.854	1091.62
466.073	1078.62
466.293	1042.62
466.512	1007.62
466.732	1001.62
466.951	988.62
467.171	972.62
467.391	980.62
467.61	1005.62
467.829	965.62
468.049	952.62
468.268	945.62
468.488	932.62
468.707	920.62
468.927	920.62
469.146	914.62
469.365	961.62
469.585	942.62
469.804	984.62
470.023	991.62
470.243	1011.62
470.462	1020.62
470.681	1000.62
470.901	1050.62
471.12	979.62
471.339	978.62
471.558	929.62
471.777	957.62
471.997	913.62
472.216	938.62
472.435	916.62
472.654	900.62
472.873	897.62
473.092	892.62
473.311	895.62
473.53	911.62
473.749	895.62
473.968	909.62
474.187	887.62
474.406	895.62
474.625	894.62
474.844	895.62
475.063	909.62
475.282	889.62
475.501	895.62
475.72	941.62
475.939	918.62
476.158	933.62
476.377	932.62
476.596	956.62
476.814	951.62
477.033	957.62
477.252	980.62
477.471	998.62
477.69	1003.62
477.908	1025.62
478.127	1077.62
478.346	1083.62
478.564	1091.62
478.783	1111.62
479.002	1199.62
479.22	1179.62
479.439	1139.62
479.658	1113.62
479.876	1132.62
480.095	1159.62
480.313	1215.62
480.532	1241.62
480.751	1260.62
480.969	1163.62
481.188	1119.62
481.406	1114.62
481.624	1059.62
481.843	1023.62
482.061	1048.62
482.28	1009.62
482.498	1014.62
482.717	1003.62
482.935	1010.62
483.153	1005.62
483.372	1064.62
483.59	1040.62
483.808	1051.62
484.027	1046.62
484.245	1053.62
484.463	1028.62
484.681	1060.62
484.9	1052.62
485.118	1074.62
485.336	1075.62
485.554	1081.62
485.772	1123.62
485.99	1114.62
486.209	1085.62
486.427	1136.62
486.645	1137.62
486.863	1107.62
487.081	1100.62
487.299	1091.62
487.517	1094.62
487.735	1087.62
487.953	1069.62
488.171	1083.62
488.389	1053.62
488.607	1080.62
488.825	1047.62
489.043	1087.62
489.261	1078.62
489.479	1084.62
489.696	1062.62
489.914	1097.62
490.132	1102.62
490.35	1086.62
490.568	1091.62
490.786	1100.62
491.003	1067.62
491.221	1096.62
491.439	1105.62
491.657	1091.62
491.874	1098.62
492.092	1113.62
492.31	1133.62
492.527	1126.62
492.745	1111.62
492.963	1101.62
493.18	1093.62
493.398	1112.62
493.615	1132.62
493.833	1169.62
494.05	1185.62
494.268	1164.62
494.485	1143.62
494.703	1131.62
494.92	1148.62
495.138	1165.62
495.355	1127.62
495.573	1148.62
495.79	1159.62
496.008	1144.62
496.225	1144.62
496.442	1193.62
496.66	1187.62
496.877	1203.62
497.094	1220.62
