Data from Ni(NO3)2@0.125M.TitratingCurve.Agarose3%dH2O.NegLispCup.LampEnergy10.LIBS07252019_HRD10591_18-10-42-567.txt Node
Date: Thu Jul 25 18:10:42 EDT 2019
User: cochatt
Spectrometer: HR+D1059
Trigger mode: 1
Integration Time (sec): 1.000000E-1
Scans to average: 1
Electric dark correction enabled: true
Nonlinearity correction enabled: false
Boxcar width: 0
XAxis mode: Wavelengths
Number of Pixels in Spectrum: 2048
>>>>>Begin Spectral Data<<<<<
223.165	-20.44
223.4	-20.44
223.635	-20.44
223.869	-25.44
224.104	-28.44
224.338	-3.44
224.573	-13.44
224.808	-6.44
225.042	-13.44
225.277	-9.44
225.511	1.56
225.746	11.56
225.98	14.56
226.215	4.56
226.449	22.56
226.683	22.56
226.918	20.56
227.152	22.56
227.387	26.56
227.621	27.56
227.856	48.56
228.09	33.56
228.324	38.56
228.559	52.56
228.793	56.56
229.027	92.56
229.262	123.56
229.496	110.56
229.73	108.56
229.964	126.56
230.199	138.56
230.433	153.56
230.667	124.56
230.901	137.56
231.136	136.56
231.37	135.56
231.604	123.56
231.838	145.56
232.072	137.56
232.306	147.56
232.541	150.56
232.775	162.56
233.009	161.56
233.243	144.56
233.477	149.56
233.711	155.56
233.945	153.56
234.179	158.56
234.413	157.56
234.647	161.56
234.881	140.56
235.115	162.56
235.349	158.56
235.583	169.56
235.817	159.56
236.051	159.56
236.285	171.56
236.519	156.56
236.753	167.56
236.987	157.56
237.221	168.56
237.455	147.56
237.689	169.56
237.922	178.56
238.156	178.56
238.39	176.56
238.624	177.56
238.858	190.56
239.091	159.56
239.325	159.56
239.559	188.56
239.793	186.56
240.027	190.56
240.26	183.56
240.494	183.56
240.728	204.56
240.961	178.56
241.195	194.56
241.429	210.56
241.662	201.56
241.896	192.56
242.13	215.56
242.363	198.56
242.597	211.56
242.83	214.56
243.064	210.56
243.298	215.56
243.531	210.56
243.765	231.56
243.998	208.56
244.232	208.56
244.465	214.56
244.699	228.56
244.932	231.56
245.166	212.56
245.399	246.56
245.633	236.56
245.866	227.56
246.099	243.56
246.333	232.56
246.566	233.56
246.8	231.56
247.033	235.56
247.266	234.56
247.5	255.56
247.733	226.56
247.966	232.56
248.2	258.56
248.433	256.56
248.666	244.56
248.899	248.56
249.133	251.56
249.366	266.56
249.599	279.56
249.832	251.56
250.066	275.56
250.299	290.56
250.532	281.56
250.765	262.56
250.998	253.56
251.231	275.56
251.465	277.56
251.698	274.56
251.931	277.56
252.164	283.56
252.397	295.56
252.63	309.56
252.863	295.56
253.096	281.56
253.329	282.56
253.562	292.56
253.795	302.56
254.028	290.56
254.261	292.56
254.494	307.56
254.727	292.56
254.96	297.56
255.193	299.56
255.426	303.56
255.659	289.56
255.892	308.56
256.124	305.56
256.357	315.56
256.59	318.56
256.823	319.56
257.056	306.56
257.289	307.56
257.521	343.56
257.754	315.56
257.987	308.56
258.22	328.56
258.452	326.56
258.685	347.56
258.918	315.56
259.151	327.56
259.383	340.56
259.616	358.56
259.849	354.56
260.081	327.56
260.314	342.56
260.547	349.56
260.779	343.56
261.012	322.56
261.244	346.56
261.477	366.56
261.71	339.56
261.942	356.56
262.175	355.56
262.407	344.56
262.64	336.56
262.872	358.56
263.105	350.56
263.337	361.56
263.57	373.56
263.802	376.56
264.035	364.56
264.267	374.56
264.499	370.56
264.732	382.56
264.964	374.56
265.197	393.56
265.429	382.56
265.661	385.56
265.894	394.56
266.126	385.56
266.358	406.56
266.591	400.56
266.823	381.56
267.055	388.56
267.287	378.56
267.52	391.56
267.752	402.56
267.984	414.56
268.216	396.56
268.448	398.56
268.681	407.56
268.913	395.56
269.145	440.56
269.377	410.56
269.609	402.56
269.841	428.56
270.073	404.56
270.306	408.56
270.538	402.56
270.77	402.56
271.002	412.56
271.234	411.56
271.466	402.56
271.698	420.56
271.93	433.56
272.162	421.56
272.394	420.56
272.626	432.56
272.858	407.56
273.09	409.56
273.322	417.56
273.553	422.56
273.785	427.56
274.017	448.56
274.249	452.56
274.481	449.56
274.713	424.56
274.945	438.56
275.176	432.56
275.408	448.56
275.64	476.56
275.872	451.56
276.104	444.56
276.335	448.56
276.567	452.56
276.799	438.56
277.031	481.56
277.262	475.56
277.494	476.56
277.726	466.56
277.957	492.56
278.189	492.56
278.421	465.56
278.652	478.56
278.884	459.56
279.115	457.56
279.347	466.56
279.579	464.56
279.81	468.56
280.042	484.56
280.273	486.56
280.505	474.56
280.736	475.56
280.968	497.56
281.199	487.56
281.431	498.56
281.662	494.56
281.894	536.56
282.125	511.56
282.356	509.56
282.588	494.56
282.819	504.56
283.051	512.56
283.282	518.56
283.513	503.56
283.745	513.56
283.976	517.56
284.207	513.56
284.439	502.56
284.67	546.56
284.901	538.56
285.132	533.56
285.364	518.56
285.595	515.56
285.826	530.56
286.057	534.56
286.288	547.56
286.52	554.56
286.751	565.56
286.982	539.56
287.213	526.56
287.444	554.56
287.675	542.56
287.906	554.56
288.138	560.56
288.369	542.56
288.6	555.56
288.831	548.56
289.062	567.56
289.293	568.56
289.524	571.56
289.755	587.56
289.986	559.56
290.217	566.56
290.448	580.56
290.679	563.56
290.91	564.56
291.141	551.56
291.371	568.56
291.602	596.56
291.833	586.56
292.064	554.56
292.295	566.56
292.526	574.56
292.757	576.56
292.987	581.56
293.218	555.56
293.449	568.56
293.68	554.56
293.91	578.56
294.141	587.56
294.372	570.56
294.603	568.56
294.833	580.56
295.064	577.56
295.295	564.56
295.525	573.56
295.756	577.56
295.987	575.56
296.217	591.56
296.448	608.56
296.679	607.56
296.909	593.56
297.14	598.56
297.37	635.56
297.601	588.56
297.831	595.56
298.062	604.56
298.292	633.56
298.523	651.56
298.753	638.56
298.984	629.56
299.214	633.56
299.445	641.56
299.675	610.56
299.905	625.56
300.136	619.56
300.366	642.56
300.597	647.56
300.827	646.56
301.057	647.56
301.288	643.56
301.518	657.56
301.748	657.56
301.979	661.56
302.209	658.56
302.439	660.56
302.669	638.56
302.9	636.56
303.13	644.56
303.36	663.56
303.59	650.56
303.82	634.56
304.051	652.56
304.281	648.56
304.511	636.56
304.741	656.56
304.971	670.56
305.201	654.56
305.431	637.56
305.661	667.56
305.891	631.56
306.121	620.56
306.352	627.56
306.582	648.56
306.812	615.56
307.042	634.56
307.272	635.56
307.502	630.56
307.731	647.56
307.961	642.56
308.191	628.56
308.421	643.56
308.651	624.56
308.881	623.56
309.111	640.56
309.341	617.56
309.571	628.56
309.8	636.56
310.03	646.56
310.26	638.56
310.49	652.56
310.72	652.56
310.949	631.56
311.179	625.56
311.409	670.56
311.639	658.56
311.868	666.56
312.098	662.56
312.328	664.56
312.557	676.56
312.787	662.56
313.017	679.56
313.246	690.56
313.476	663.56
313.706	694.56
313.935	670.56
314.165	686.56
314.394	690.56
314.624	674.56
314.853	652.56
315.083	670.56
315.312	704.56
315.542	698.56
315.771	673.56
316.001	672.56
316.23	668.56
316.46	647.56
316.689	658.56
316.919	669.56
317.148	681.56
317.377	679.56
317.607	649.56
317.836	656.56
318.065	674.56
318.295	670.56
318.524	690.56
318.753	642.56
318.983	665.56
319.212	650.56
319.441	678.56
319.67	667.56
319.9	678.56
320.129	668.56
320.358	661.56
320.587	661.56
320.816	666.56
321.046	696.56
321.275	688.56
321.504	690.56
321.733	669.56
321.962	665.56
322.191	676.56
322.42	681.56
322.649	702.56
322.878	660.56
323.108	684.56
323.337	680.56
323.566	716.56
323.795	704.56
324.024	698.56
324.253	707.56
324.482	684.56
324.71	700.56
324.939	699.56
325.168	739.56
325.397	724.56
325.626	715.56
325.855	735.56
326.084	747.56
326.313	774.56
326.542	755.56
326.77	761.56
326.999	754.56
327.228	770.56
327.457	746.56
327.686	742.56
327.914	735.56
328.143	769.56
328.372	747.56
328.6	750.56
328.829	743.56
329.058	752.56
329.287	756.56
329.515	756.56
329.744	754.56
329.972	772.56
330.201	745.56
330.43	770.56
330.658	757.56
330.887	780.56
331.115	786.56
331.344	780.56
331.572	788.56
331.801	804.56
332.03	846.56
332.258	869.56
332.486	887.56
332.715	918.56
332.943	954.56
333.172	990.56
333.4	1023.56
333.629	1008.56
333.857	1028.56
334.085	1010.56
334.314	981.56
334.542	994.56
334.771	970.56
334.999	968.56
335.227	959.56
335.455	936.56
335.684	924.56
335.912	907.56
336.14	892.56
336.369	907.56
336.597	899.56
336.825	894.56
337.053	922.56
337.281	880.56
337.51	873.56
337.738	854.56
337.966	848.56
338.194	831.56
338.422	822.56
338.65	805.56
338.878	837.56
339.106	825.56
339.334	808.56
339.562	798.56
339.79	811.56
340.018	759.56
340.246	792.56
340.474	776.56
340.702	744.56
340.93	806.56
341.158	807.56
341.386	809.56
341.614	785.56
341.842	799.56
342.07	775.56
342.298	771.56
342.526	763.56
342.754	784.56
342.981	768.56
343.209	790.56
343.437	845.56
343.665	887.56
343.893	934.56
344.12	1022.56
344.348	932.56
344.576	902.56
344.804	836.56
345.031	824.56
345.259	801.56
345.487	795.56
345.714	809.56
345.942	772.56
346.17	784.56
346.397	779.56
346.625	771.56
346.853	750.56
347.08	738.56
347.308	766.56
347.535	768.56
347.763	815.56
347.99	768.56
348.218	785.56
348.445	785.56
348.673	777.56
348.9	778.56
349.128	751.56
349.355	763.56
349.583	744.56
349.81	747.56
350.037	742.56
350.265	766.56
350.492	735.56
350.72	739.56
350.947	731.56
351.174	740.56
351.402	720.56
351.629	722.56
351.856	733.56
352.083	731.56
352.311	735.56
352.538	710.56
352.765	715.56
352.992	712.56
353.22	712.56
353.447	715.56
353.674	699.56
353.901	706.56
354.128	725.56
354.355	713.56
354.583	744.56
354.81	721.56
355.037	725.56
355.264	716.56
355.491	726.56
355.718	726.56
355.945	750.56
356.172	721.56
356.399	706.56
356.626	750.56
356.853	736.56
357.08	734.56
357.307	751.56
357.534	700.56
357.761	738.56
357.988	735.56
358.215	746.56
358.441	740.56
358.668	709.56
358.895	727.56
359.122	729.56
359.349	735.56
359.576	709.56
359.802	735.56
360.029	740.56
360.256	749.56
360.483	713.56
360.709	720.56
360.936	703.56
361.163	739.56
361.39	734.56
361.616	752.56
361.843	725.56
362.07	739.56
362.296	729.56
362.523	728.56
362.749	741.56
362.976	713.56
363.203	713.56
363.429	703.56
363.656	732.56
363.882	758.56
364.109	720.56
364.335	700.56
364.562	711.56
364.788	710.56
365.015	734.56
365.241	727.56
365.468	738.56
365.694	700.56
365.92	731.56
366.147	716.56
366.373	724.56
366.599	709.56
366.826	729.56
367.052	715.56
367.278	741.56
367.505	707.56
367.731	739.56
367.957	719.56
368.184	727.56
368.41	739.56
368.636	726.56
368.862	748.56
369.089	737.56
369.315	768.56
369.541	760.56
369.767	770.56
369.993	750.56
370.219	790.56
370.445	786.56
370.672	791.56
370.898	770.56
371.124	775.56
371.35	789.56
371.576	791.56
371.802	802.56
372.028	784.56
372.254	788.56
372.48	804.56
372.706	805.56
372.932	824.56
373.158	801.56
373.384	788.56
373.61	778.56
373.835	806.56
374.061	787.56
374.287	815.56
374.513	826.56
374.739	850.56
374.965	871.56
375.191	876.56
375.416	881.56
375.642	869.56
375.868	828.56
376.094	803.56
376.319	782.56
376.545	828.56
376.771	791.56
376.997	787.56
377.222	779.56
377.448	791.56
377.674	805.56
377.899	792.56
378.125	760.56
378.35	764.56
378.576	775.56
378.802	779.56
379.027	784.56
379.253	778.56
379.478	768.56
379.704	799.56
379.929	799.56
380.155	795.56
380.38	774.56
380.606	791.56
380.831	782.56
381.057	788.56
381.282	779.56
381.507	770.56
381.733	792.56
381.958	816.56
382.184	814.56
382.409	806.56
382.634	818.56
382.86	831.56
383.085	854.56
383.31	866.56
383.535	868.56
383.761	867.56
383.986	914.56
384.211	910.56
384.436	938.56
384.662	950.56
384.887	966.56
385.112	969.56
385.337	970.56
385.562	945.56
385.787	945.56
386.013	977.56
386.238	972.56
386.463	972.56
386.688	987.56
386.913	930.56
387.138	958.56
387.363	926.56
387.588	942.56
387.813	957.56
388.038	948.56
388.263	943.56
388.488	944.56
388.713	954.56
388.938	917.56
389.163	924.56
389.387	927.56
389.612	931.56
389.837	930.56
390.062	899.56
390.287	931.56
390.512	913.56
390.736	951.56
390.961	958.56
391.186	961.56
391.411	995.56
391.636	1033.56
391.86	1072.56
392.085	1058.56
392.31	1104.56
392.534	1025.56
392.759	1007.56
392.984	1002.56
393.208	1032.56
393.433	1018.56
393.658	996.56
393.882	999.56
394.107	1007.56
394.331	1022.56
394.556	1003.56
394.78	1008.56
395.005	1013.56
395.229	1035.56
395.454	1055.56
395.678	1051.56
395.903	1087.56
396.127	1040.56
396.352	1001.56
396.576	1012.56
396.801	1008.56
397.025	966.56
397.249	1037.56
397.474	1059.56
397.698	1074.56
397.922	1075.56
398.147	1034.56
398.371	1088.56
398.595	1118.56
398.82	1163.56
399.044	1241.56
399.268	1380.56
399.492	1644.56
399.717	1880.56
399.941	1878.56
400.165	1630.56
400.389	1398.56
400.613	1321.56
400.837	1214.56
401.062	1211.56
401.286	1192.56
401.51	1174.56
401.734	1190.56
401.958	1185.56
402.182	1204.56
402.406	1225.56
402.63	1240.56
402.854	1277.56
403.078	1310.56
403.302	1348.56
403.526	1379.56
403.75	1404.56
403.974	1412.56
404.198	1435.56
404.422	1435.56
404.645	1405.56
404.869	1393.56
405.093	1386.56
405.317	1341.56
405.541	1348.56
405.765	1324.56
405.988	1287.56
406.212	1323.56
406.436	1305.56
406.66	1315.56
406.883	1354.56
407.107	1434.56
407.331	1518.56
407.555	1590.56
407.778	1548.56
408.002	1497.56
408.226	1470.56
408.449	1435.56
408.673	1365.56
408.896	1343.56
409.12	1356.56
409.344	1332.56
409.567	1366.56
409.791	1373.56
410.014	1413.56
410.238	1366.56
410.461	1367.56
410.685	1316.56
410.908	1302.56
411.132	1263.56
411.355	1260.56
411.578	1248.56
411.802	1234.56
412.025	1247.56
412.249	1285.56
412.472	1273.56
412.695	1208.56
412.919	1188.56
413.142	1204.56
413.365	1188.56
413.589	1205.56
413.812	1184.56
414.035	1165.56
414.258	1204.56
414.482	1200.56
414.705	1217.56
414.928	1211.56
415.151	1201.56
415.374	1208.56
415.597	1188.56
415.821	1188.56
416.044	1163.56
416.267	1176.56
416.49	1139.56
416.713	1158.56
416.936	1200.56
417.159	1152.56
417.382	1193.56
417.605	1182.56
417.828	1204.56
418.051	1189.56
418.274	1181.56
418.497	1179.56
418.72	1218.56
418.943	1227.56
419.166	1309.56
419.389	1353.56
419.611	1365.56
419.834	1283.56
420.057	1257.56
420.28	1196.56
420.503	1169.56
420.726	1148.56
420.948	1142.56
421.171	1186.56
421.394	1185.56
421.617	1136.56
421.839	1182.56
422.062	1206.56
422.285	1181.56
422.507	1207.56
422.73	1232.56
422.953	1257.56
423.175	1257.56
423.398	1275.56
423.621	1310.56
423.843	1299.56
424.066	1301.56
424.288	1264.56
424.511	1272.56
424.733	1229.56
424.956	1232.56
425.178	1198.56
425.401	1172.56
425.623	1174.56
425.846	1165.56
426.068	1176.56
426.291	1136.56
426.513	1147.56
426.735	1096.56
426.958	1095.56
427.18	1061.56
427.402	1071.56
427.625	1036.56
427.847	1046.56
428.069	1059.56
428.292	1062.56
428.514	1058.56
428.736	1054.56
428.958	1068.56
429.181	1037.56
429.403	1032.56
429.625	1026.56
429.847	1041.56
430.069	993.56
430.292	1047.56
430.514	1015.56
430.736	1034.56
430.958	1047.56
431.18	1049.56
431.402	1071.56
431.624	1070.56
431.846	1080.56
432.068	1074.56
432.29	1081.56
432.512	1065.56
432.734	1065.56
432.956	1028.56
433.178	1061.56
433.4	1047.56
433.622	1049.56
433.844	1076.56
434.066	1087.56
434.287	1057.56
434.509	1121.56
434.731	1187.56
434.953	1164.56
435.175	1212.56
435.397	1194.56
435.618	1151.56
435.84	1108.56
436.062	1070.56
436.284	1074.56
436.505	1058.56
436.727	1056.56
436.949	1065.56
437.17	1064.56
437.392	1054.56
437.614	1039.56
437.835	998.56
438.057	1033.56
438.278	1000.56
438.5	1007.56
438.721	1011.56
438.943	972.56
439.165	999.56
439.386	1028.56
439.608	1062.56
439.829	1077.56
440.05	1022.56
440.272	1019.56
440.493	1079.56
440.715	1101.56
440.936	1106.56
441.158	1135.56
441.379	1156.56
441.6	1185.56
441.822	1247.56
442.043	1219.56
442.264	1170.56
442.486	1189.56
442.707	1164.56
442.928	1195.56
443.149	1190.56
443.371	1182.56
443.592	1177.56
443.813	1192.56
444.034	1232.56
444.255	1240.56
444.476	1313.56
444.698	1410.56
444.919	1422.56
445.14	1503.56
445.361	1352.56
445.582	1231.56
445.803	1158.56
446.024	1148.56
446.245	1111.56
446.466	1070.56
446.687	1050.56
446.908	1060.56
447.129	1024.56
447.35	1014.56
447.571	1020.56
447.792	1017.56
448.013	1010.56
448.234	1007.56
448.455	986.56
448.675	993.56
448.896	1002.56
449.117	977.56
449.338	964.56
449.559	940.56
449.779	947.56
450	960.56
450.221	968.56
450.442	967.56
450.662	1001.56
450.883	976.56
451.104	1020.56
451.324	974.56
451.545	999.56
451.766	996.56
451.986	968.56
452.207	971.56
452.428	948.56
452.648	962.56
452.869	940.56
453.089	959.56
453.31	956.56
453.53	958.56
453.751	922.56
453.971	949.56
454.192	913.56
454.412	930.56
454.633	946.56
454.853	905.56
455.073	918.56
455.294	902.56
455.514	916.56
455.734	904.56
455.955	873.56
456.175	872.56
456.395	908.56
456.616	898.56
456.836	886.56
457.056	914.56
457.276	889.56
457.497	881.56
457.717	882.56
457.937	897.56
458.157	894.56
458.377	902.56
458.598	935.56
458.818	944.56
459.038	969.56
459.258	1050.56
459.478	1063.56
459.698	1098.56
459.918	1127.56
460.138	1172.56
460.358	1230.56
460.578	1261.56
460.798	1283.56
461.018	1269.56
461.238	1239.56
461.458	1256.56
461.678	1204.56
461.898	1235.56
462.118	1249.56
462.338	1332.56
462.558	1349.56
462.777	1434.56
462.997	1564.56
463.217	1765.56
463.437	1722.56
463.657	1593.56
463.876	1487.56
464.096	1428.56
464.316	1476.56
464.536	1515.56
464.755	1400.56
464.975	1357.56
465.195	1300.56
465.414	1240.56
465.634	1123.56
465.854	1154.56
466.073	1102.56
466.293	1078.56
466.512	1057.56
466.732	1023.56
466.951	1038.56
467.171	1025.56
467.391	1033.56
467.61	1012.56
467.829	1002.56
468.049	978.56
468.268	945.56
468.488	972.56
468.707	976.56
468.927	992.56
469.146	963.56
469.365	966.56
469.585	967.56
469.804	1001.56
470.023	1003.56
470.243	1049.56
470.462	1054.56
470.681	1061.56
470.901	1038.56
471.12	1050.56
471.339	1012.56
471.558	984.56
471.777	983.56
471.997	961.56
472.216	953.56
472.435	973.56
472.654	948.56
472.873	927.56
473.092	923.56
473.311	926.56
473.53	926.56
473.749	944.56
473.968	948.56
474.187	914.56
474.406	938.56
474.625	940.56
474.844	944.56
475.063	950.56
475.282	962.56
475.501	954.56
475.72	985.56
475.939	963.56
476.158	968.56
476.377	1008.56
476.596	970.56
476.814	1005.56
477.033	954.56
477.252	976.56
477.471	995.56
477.69	1049.56
477.908	1072.56
478.127	1122.56
478.346	1148.56
478.564	1150.56
478.783	1179.56
479.002	1199.56
479.22	1208.56
479.439	1190.56
479.658	1169.56
479.876	1165.56
480.095	1198.56
480.313	1249.56
480.532	1328.56
480.751	1306.56
480.969	1204.56
481.188	1172.56
481.406	1142.56
481.624	1126.56
481.843	1114.56
482.061	1083.56
482.28	1055.56
482.498	1095.56
482.717	1076.56
482.935	1098.56
483.153	1095.56
483.372	1100.56
483.59	1084.56
483.808	1053.56
484.027	1079.56
484.245	1067.56
484.463	1079.56
484.681	1083.56
484.9	1115.56
485.118	1147.56
485.336	1121.56
485.554	1136.56
485.772	1164.56
485.99	1134.56
486.209	1168.56
486.427	1141.56
486.645	1160.56
486.863	1140.56
487.081	1150.56
487.299	1143.56
487.517	1118.56
487.735	1122.56
487.953	1117.56
488.171	1156.56
488.389	1146.56
488.607	1106.56
488.825	1104.56
489.043	1082.56
489.261	1111.56
489.479	1127.56
489.696	1124.56
489.914	1139.56
490.132	1139.56
490.35	1168.56
490.568	1158.56
490.786	1143.56
491.003	1161.56
491.221	1123.56
491.439	1134.56
491.657	1157.56
491.874	1152.56
492.092	1142.56
492.31	1140.56
492.527	1201.56
492.745	1162.56
492.963	1169.56
493.18	1158.56
493.398	1186.56
493.615	1224.56
493.833	1208.56
494.05	1188.56
494.268	1200.56
494.485	1206.56
494.703	1181.56
494.92	1186.56
495.138	1176.56
495.355	1160.56
495.573	1178.56
495.79	1184.56
496.008	1191.56
496.225	1233.56
