Data from Ni(NO3)2@0.25M.TitratingCurve.Agarose3%dH2O.NegLispCup.LampEnergy10.LIBS07252019_HRD10591_18-05-02-566.txt Node
Date: Thu Jul 25 18:05:02 EDT 2019
User: cochatt
Spectrometer: HR+D1059
Trigger mode: 1
Integration Time (sec): 1.000000E-1
Scans to average: 1
Electric dark correction enabled: true
Nonlinearity correction enabled: false
Boxcar width: 0
XAxis mode: Wavelengths
Number of Pixels in Spectrum: 2048
>>>>>Begin Spectral Data<<<<<
223.165	-19.44
223.4	-19.44
223.635	-19.44
223.869	-15.44
224.104	-20.44
224.338	-9.44
224.573	-0.44
224.808	-14.44
225.042	-10.44
225.277	-8.44
225.511	-7.44
225.746	6.56
225.98	2.56
226.215	19.56
226.449	10.56
226.683	16.56
226.918	14.56
227.152	35.56
227.387	40.56
227.621	40.56
227.856	46.56
228.09	45.56
228.324	48.56
228.559	64.56
228.793	60.56
229.027	102.56
229.262	112.56
229.496	109.56
229.73	114.56
229.964	110.56
230.199	114.56
230.433	131.56
230.667	113.56
230.901	120.56
231.136	126.56
231.37	124.56
231.604	122.56
231.838	137.56
232.072	128.56
232.306	121.56
232.541	112.56
232.775	124.56
233.009	118.56
233.243	132.56
233.477	122.56
233.711	125.56
233.945	109.56
234.179	123.56
234.413	125.56
234.647	109.56
234.881	123.56
235.115	114.56
235.349	136.56
235.583	136.56
235.817	134.56
236.051	125.56
236.285	141.56
236.519	117.56
236.753	130.56
236.987	128.56
237.221	120.56
237.455	141.56
237.689	123.56
237.922	139.56
238.156	125.56
238.39	122.56
238.624	136.56
238.858	135.56
239.091	139.56
239.325	137.56
239.559	146.56
239.793	147.56
240.027	146.56
240.26	139.56
240.494	142.56
240.728	143.56
240.961	141.56
241.195	145.56
241.429	150.56
241.662	138.56
241.896	143.56
242.13	154.56
242.363	170.56
242.597	155.56
242.83	158.56
243.064	151.56
243.298	164.56
243.531	136.56
243.765	173.56
243.998	176.56
244.232	175.56
244.465	160.56
244.699	166.56
244.932	174.56
245.166	172.56
245.399	170.56
245.633	179.56
245.866	170.56
246.099	180.56
246.333	150.56
246.566	163.56
246.8	165.56
247.033	166.56
247.266	180.56
247.5	180.56
247.733	185.56
247.966	190.56
248.2	186.56
248.433	189.56
248.666	189.56
248.899	186.56
249.133	191.56
249.366	198.56
249.599	196.56
249.832	196.56
250.066	206.56
250.299	202.56
250.532	205.56
250.765	224.56
250.998	226.56
251.231	224.56
251.465	227.56
251.698	235.56
251.931	215.56
252.164	228.56
252.397	244.56
252.63	229.56
252.863	244.56
253.096	241.56
253.329	241.56
253.562	242.56
253.795	250.56
254.028	259.56
254.261	253.56
254.494	264.56
254.727	281.56
254.96	263.56
255.193	253.56
255.426	276.56
255.659	273.56
255.892	273.56
256.124	260.56
256.357	270.56
256.59	276.56
256.823	277.56
257.056	278.56
257.289	276.56
257.521	293.56
257.754	297.56
257.987	275.56
258.22	277.56
258.452	305.56
258.685	308.56
258.918	294.56
259.151	301.56
259.383	295.56
259.616	314.56
259.849	300.56
260.081	297.56
260.314	283.56
260.547	315.56
260.779	313.56
261.012	327.56
261.244	324.56
261.477	322.56
261.71	325.56
261.942	326.56
262.175	304.56
262.407	314.56
262.64	316.56
262.872	330.56
263.105	325.56
263.337	334.56
263.57	323.56
263.802	345.56
264.035	342.56
264.267	347.56
264.499	344.56
264.732	368.56
264.964	325.56
265.197	366.56
265.429	360.56
265.661	344.56
265.894	337.56
266.126	366.56
266.358	352.56
266.591	361.56
266.823	354.56
267.055	347.56
267.287	362.56
267.52	348.56
267.752	347.56
267.984	356.56
268.216	365.56
268.448	358.56
268.681	358.56
268.913	357.56
269.145	366.56
269.377	369.56
269.609	365.56
269.841	393.56
270.073	370.56
270.306	362.56
270.538	384.56
270.77	373.56
271.002	373.56
271.234	397.56
271.466	369.56
271.698	389.56
271.93	388.56
272.162	382.56
272.394	387.56
272.626	376.56
272.858	359.56
273.09	388.56
273.322	388.56
273.553	381.56
273.785	382.56
274.017	382.56
274.249	393.56
274.481	388.56
274.713	416.56
274.945	393.56
275.176	410.56
275.408	413.56
275.64	424.56
275.872	406.56
276.104	406.56
276.335	389.56
276.567	395.56
276.799	414.56
277.031	418.56
277.262	406.56
277.494	403.56
277.726	418.56
277.957	388.56
278.189	429.56
278.421	425.56
278.652	419.56
278.884	405.56
279.115	413.56
279.347	427.56
279.579	412.56
279.81	421.56
280.042	421.56
280.273	435.56
280.505	419.56
280.736	428.56
280.968	422.56
281.199	396.56
281.431	434.56
281.662	437.56
281.894	424.56
282.125	424.56
282.356	423.56
282.588	441.56
282.819	427.56
283.051	428.56
283.282	444.56
283.513	435.56
283.745	440.56
283.976	425.56
284.207	427.56
284.439	431.56
284.67	445.56
284.901	436.56
285.132	458.56
285.364	433.56
285.595	446.56
285.826	442.56
286.057	442.56
286.288	468.56
286.52	466.56
286.751	461.56
286.982	450.56
287.213	444.56
287.444	446.56
287.675	451.56
287.906	456.56
288.138	451.56
288.369	450.56
288.6	464.56
288.831	484.56
289.062	476.56
289.293	472.56
289.524	475.56
289.755	451.56
289.986	454.56
290.217	441.56
290.448	461.56
290.679	468.56
290.91	468.56
291.141	465.56
291.371	477.56
291.602	437.56
291.833	458.56
292.064	449.56
292.295	469.56
292.526	456.56
292.757	452.56
292.987	452.56
293.218	456.56
293.449	463.56
293.68	483.56
293.91	464.56
294.141	475.56
294.372	466.56
294.603	472.56
294.833	463.56
295.064	482.56
295.295	475.56
295.525	453.56
295.756	446.56
295.987	455.56
296.217	475.56
296.448	463.56
296.679	466.56
296.909	469.56
297.14	463.56
297.37	482.56
297.601	467.56
297.831	491.56
298.062	493.56
298.292	472.56
298.523	495.56
298.753	518.56
298.984	490.56
299.214	487.56
299.445	502.56
299.675	503.56
299.905	503.56
300.136	485.56
300.366	508.56
300.597	513.56
300.827	500.56
301.057	487.56
301.288	518.56
301.518	506.56
301.748	512.56
301.979	512.56
302.209	525.56
302.439	514.56
302.669	517.56
302.9	513.56
303.13	509.56
303.36	490.56
303.59	515.56
303.82	525.56
304.051	548.56
304.281	527.56
304.511	513.56
304.741	525.56
304.971	521.56
305.201	545.56
305.431	546.56
305.661	512.56
305.891	520.56
306.121	537.56
306.352	506.56
306.582	502.56
306.812	509.56
307.042	533.56
307.272	521.56
307.502	533.56
307.731	532.56
307.961	507.56
308.191	507.56
308.421	518.56
308.651	527.56
308.881	508.56
309.111	536.56
309.341	528.56
309.571	536.56
309.8	527.56
310.03	551.56
310.26	561.56
310.49	546.56
310.72	553.56
310.949	552.56
311.179	541.56
311.409	573.56
311.639	556.56
311.868	536.56
312.098	572.56
312.328	570.56
312.557	557.56
312.787	584.56
313.017	576.56
313.246	583.56
313.476	595.56
313.706	576.56
313.935	573.56
314.165	557.56
314.394	590.56
314.624	596.56
314.853	610.56
315.083	627.56
315.312	602.56
315.542	594.56
315.771	594.56
316.001	603.56
316.23	581.56
316.46	607.56
316.689	610.56
316.919	606.56
317.148	599.56
317.377	615.56
317.607	610.56
317.836	614.56
318.065	620.56
318.295	636.56
318.524	638.56
318.753	629.56
318.983	632.56
319.212	643.56
319.441	631.56
319.67	624.56
319.9	643.56
320.129	649.56
320.358	646.56
320.587	629.56
320.816	634.56
321.046	645.56
321.275	660.56
321.504	656.56
321.733	660.56
321.962	647.56
322.191	648.56
322.42	664.56
322.649	688.56
322.878	648.56
323.108	692.56
323.337	699.56
323.566	683.56
323.795	707.56
324.024	688.56
324.253	717.56
324.482	720.56
324.71	698.56
324.939	706.56
325.168	724.56
325.397	725.56
325.626	749.56
325.855	716.56
326.084	735.56
326.313	740.56
326.542	746.56
326.77	768.56
326.999	748.56
327.228	753.56
327.457	753.56
327.686	779.56
327.914	764.56
328.143	782.56
328.372	764.56
328.6	789.56
328.829	789.56
329.058	756.56
329.287	774.56
329.515	814.56
329.744	780.56
329.972	822.56
330.201	794.56
330.43	800.56
330.658	812.56
330.887	808.56
331.115	818.56
331.344	832.56
331.572	851.56
331.801	844.56
332.03	853.56
332.258	867.56
332.486	890.56
332.715	897.56
332.943	931.56
333.172	957.56
333.4	964.56
333.629	975.56
333.857	970.56
334.085	989.56
334.314	1030.56
334.542	987.56
334.771	1014.56
334.999	1010.56
335.227	980.56
335.455	994.56
335.684	1005.56
335.912	990.56
336.14	1009.56
336.369	974.56
336.597	1010.56
336.825	1016.56
337.053	971.56
337.281	1005.56
337.51	974.56
337.738	955.56
337.966	939.56
338.194	938.56
338.422	928.56
338.65	922.56
338.878	921.56
339.106	907.56
339.334	942.56
339.562	921.56
339.79	915.56
340.018	892.56
340.246	850.56
340.474	908.56
340.702	886.56
340.93	889.56
341.158	896.56
341.386	917.56
341.614	890.56
341.842	899.56
342.07	911.56
342.298	882.56
342.526	870.56
342.754	892.56
342.981	874.56
343.209	900.56
343.437	926.56
343.665	973.56
343.893	973.56
344.12	1003.56
344.348	1018.56
344.576	981.56
344.804	1004.56
345.031	939.56
345.259	925.56
345.487	923.56
345.714	917.56
345.942	924.56
346.17	927.56
346.397	893.56
346.625	883.56
346.853	856.56
347.08	873.56
347.308	884.56
347.535	884.56
347.763	845.56
347.99	864.56
348.218	837.56
348.445	843.56
348.673	845.56
348.9	847.56
349.128	865.56
349.355	853.56
349.583	837.56
349.81	840.56
350.037	844.56
350.265	813.56
350.492	849.56
350.72	814.56
350.947	820.56
351.174	865.56
351.402	865.56
351.629	838.56
351.856	837.56
352.083	839.56
352.311	838.56
352.538	877.56
352.765	845.56
352.992	843.56
353.22	810.56
353.447	833.56
353.674	820.56
353.901	803.56
354.128	811.56
354.355	823.56
354.583	816.56
354.81	808.56
355.037	826.56
355.264	844.56
355.491	827.56
355.718	814.56
355.945	818.56
356.172	807.56
356.399	828.56
356.626	827.56
356.853	829.56
357.08	824.56
357.307	811.56
357.534	836.56
357.761	819.56
357.988	850.56
358.215	825.56
358.441	793.56
358.668	786.56
358.895	821.56
359.122	835.56
359.349	855.56
359.576	834.56
359.802	833.56
360.029	812.56
360.256	817.56
360.483	803.56
360.709	797.56
360.936	804.56
361.163	826.56
361.39	825.56
361.616	816.56
361.843	833.56
362.07	830.56
362.296	840.56
362.523	826.56
362.749	833.56
362.976	823.56
363.203	816.56
363.429	827.56
363.656	816.56
363.882	827.56
364.109	822.56
364.335	838.56
364.562	811.56
364.788	807.56
365.015	817.56
365.241	804.56
365.468	800.56
365.694	831.56
365.92	825.56
366.147	817.56
366.373	806.56
366.599	827.56
366.826	805.56
367.052	811.56
367.278	817.56
367.505	816.56
367.731	811.56
367.957	790.56
368.184	829.56
368.41	820.56
368.636	810.56
368.862	806.56
369.089	826.56
369.315	814.56
369.541	809.56
369.767	832.56
369.993	830.56
370.219	846.56
370.445	826.56
370.672	858.56
370.898	857.56
371.124	831.56
371.35	857.56
371.576	864.56
371.802	858.56
372.028	886.56
372.254	866.56
372.48	860.56
372.706	861.56
372.932	873.56
373.158	864.56
373.384	861.56
373.61	872.56
373.835	880.56
374.061	864.56
374.287	848.56
374.513	868.56
374.739	881.56
374.965	920.56
375.191	917.56
375.416	888.56
375.642	873.56
375.868	875.56
376.094	875.56
376.319	865.56
376.545	826.56
376.771	836.56
376.997	838.56
377.222	838.56
377.448	832.56
377.674	850.56
377.899	824.56
378.125	845.56
378.35	836.56
378.576	842.56
378.802	819.56
379.027	810.56
379.253	837.56
379.478	827.56
379.704	811.56
379.929	846.56
380.155	809.56
380.38	807.56
380.606	838.56
380.831	822.56
381.057	813.56
381.282	816.56
381.507	830.56
381.733	822.56
381.958	831.56
382.184	820.56
382.409	862.56
382.634	849.56
382.86	843.56
383.085	886.56
383.31	871.56
383.535	877.56
383.761	847.56
383.986	885.56
384.211	885.56
384.436	906.56
384.662	890.56
384.887	925.56
385.112	928.56
385.337	929.56
385.562	946.56
385.787	946.56
386.013	966.56
386.238	956.56
386.463	955.56
386.688	970.56
386.913	964.56
387.138	952.56
387.363	956.56
387.588	957.56
387.813	968.56
388.038	971.56
388.263	955.56
388.488	981.56
388.713	939.56
388.938	971.56
389.163	963.56
389.387	934.56
389.612	958.56
389.837	969.56
390.062	938.56
390.287	957.56
390.512	968.56
390.736	944.56
390.961	981.56
391.186	1005.56
391.411	1002.56
391.636	1032.56
391.86	1041.56
392.085	1036.56
392.31	1069.56
392.534	1036.56
392.759	1029.56
392.984	1028.56
393.208	1001.56
393.433	1023.56
393.658	1032.56
393.882	1018.56
394.107	989.56
394.331	1014.56
394.556	1029.56
394.78	1001.56
395.005	1044.56
395.229	1035.56
395.454	1049.56
395.678	1069.56
395.903	1053.56
396.127	1073.56
396.352	1057.56
396.576	1048.56
396.801	1009.56
397.025	1062.56
397.249	1092.56
397.474	1099.56
397.698	1092.56
397.922	1126.56
398.147	1093.56
398.371	1127.56
398.595	1177.56
398.82	1206.56
399.044	1232.56
399.268	1347.56
399.492	1462.56
399.717	1524.56
399.941	1553.56
400.165	1492.56
400.389	1411.56
400.613	1378.56
400.837	1295.56
401.062	1299.56
401.286	1248.56
401.51	1235.56
401.734	1208.56
401.958	1211.56
402.182	1212.56
402.406	1256.56
402.63	1232.56
402.854	1227.56
403.078	1250.56
403.302	1293.56
403.526	1318.56
403.75	1291.56
403.974	1285.56
404.198	1262.56
404.422	1310.56
404.645	1305.56
404.869	1258.56
405.093	1309.56
405.317	1288.56
405.541	1313.56
405.765	1303.56
405.988	1286.56
406.212	1324.56
406.436	1310.56
406.66	1358.56
406.883	1349.56
407.107	1398.56
407.331	1425.56
407.555	1498.56
407.778	1485.56
408.002	1459.56
408.226	1443.56
408.449	1444.56
408.673	1384.56
408.896	1386.56
409.12	1376.56
409.344	1370.56
409.567	1334.56
409.791	1371.56
410.014	1369.56
410.238	1340.56
410.461	1322.56
410.685	1315.56
410.908	1317.56
411.132	1325.56
411.355	1296.56
411.578	1313.56
411.802	1295.56
412.025	1292.56
412.249	1312.56
412.472	1256.56
412.695	1282.56
412.919	1250.56
413.142	1281.56
413.365	1264.56
413.589	1266.56
413.812	1267.56
414.035	1254.56
414.258	1248.56
414.482	1244.56
414.705	1242.56
414.928	1292.56
415.151	1246.56
415.374	1230.56
415.597	1255.56
415.821	1227.56
416.044	1211.56
416.267	1214.56
416.49	1217.56
416.713	1223.56
416.936	1225.56
417.159	1229.56
417.382	1189.56
417.605	1215.56
417.828	1221.56
418.051	1241.56
418.274	1217.56
418.497	1224.56
418.72	1236.56
418.943	1224.56
419.166	1333.56
419.389	1416.56
419.611	1394.56
419.834	1325.56
420.057	1316.56
420.28	1270.56
420.503	1209.56
420.726	1222.56
420.948	1228.56
421.171	1257.56
421.394	1234.56
421.617	1213.56
421.839	1273.56
422.062	1252.56
422.285	1217.56
422.507	1247.56
422.73	1265.56
422.953	1252.56
423.175	1245.56
423.398	1252.56
423.621	1227.56
423.843	1264.56
424.066	1294.56
424.288	1245.56
424.511	1252.56
424.733	1255.56
424.956	1246.56
425.178	1257.56
425.401	1271.56
425.623	1294.56
425.846	1235.56
426.068	1220.56
426.291	1242.56
426.513	1208.56
426.735	1199.56
426.958	1234.56
427.18	1194.56
427.402	1197.56
427.625	1185.56
427.847	1179.56
428.069	1155.56
428.292	1172.56
428.514	1180.56
428.736	1173.56
428.958	1182.56
429.181	1157.56
429.403	1165.56
429.625	1180.56
429.847	1157.56
430.069	1162.56
430.292	1175.56
430.514	1176.56
430.736	1188.56
430.958	1194.56
431.18	1169.56
431.402	1146.56
431.624	1168.56
431.846	1186.56
432.068	1157.56
432.29	1173.56
432.512	1171.56
432.734	1192.56
432.956	1174.56
433.178	1195.56
433.4	1228.56
433.622	1216.56
433.844	1228.56
434.066	1206.56
434.287	1227.56
434.509	1243.56
434.731	1266.56
434.953	1319.56
435.175	1264.56
435.397	1266.56
435.618	1229.56
435.84	1216.56
436.062	1214.56
436.284	1210.56
436.505	1190.56
436.727	1232.56
436.949	1194.56
437.17	1198.56
437.392	1174.56
437.614	1166.56
437.835	1164.56
438.057	1140.56
438.278	1176.56
438.5	1143.56
438.721	1133.56
438.943	1170.56
439.165	1192.56
439.386	1181.56
439.608	1188.56
439.829	1192.56
440.05	1180.56
440.272	1165.56
440.493	1170.56
440.715	1222.56
440.936	1225.56
441.158	1280.56
441.379	1270.56
441.6	1314.56
441.822	1298.56
442.043	1268.56
442.264	1271.56
442.486	1270.56
442.707	1282.56
442.928	1293.56
443.149	1309.56
443.371	1289.56
443.592	1281.56
443.813	1326.56
444.034	1316.56
444.255	1317.56
444.476	1349.56
444.698	1407.56
444.919	1423.56
445.14	1549.56
445.361	1451.56
445.582	1344.56
445.803	1315.56
446.024	1256.56
446.245	1261.56
446.466	1262.56
446.687	1182.56
446.908	1247.56
447.129	1190.56
447.35	1190.56
447.571	1158.56
447.792	1170.56
448.013	1149.56
448.234	1116.56
448.455	1145.56
448.675	1107.56
448.896	1132.56
449.117	1090.56
449.338	1114.56
449.559	1107.56
449.779	1128.56
450	1099.56
450.221	1102.56
450.442	1126.56
450.662	1124.56
450.883	1094.56
451.104	1085.56
451.324	1089.56
451.545	1099.56
451.766	1094.56
451.986	1100.56
452.207	1085.56
452.428	1097.56
452.648	1100.56
452.869	1016.56
453.089	1060.56
453.31	1078.56
453.53	1042.56
453.751	1028.56
453.971	1076.56
454.192	1070.56
454.412	1038.56
454.633	1012.56
454.853	1063.56
455.073	1055.56
455.294	1061.56
455.514	1031.56
455.734	1035.56
455.955	1027.56
456.175	1023.56
456.395	1038.56
456.616	1042.56
456.836	1034.56
457.056	1051.56
457.276	1031.56
457.497	1054.56
457.717	1045.56
457.937	1073.56
458.157	1082.56
458.377	1104.56
458.598	1089.56
458.818	1092.56
459.038	1152.56
459.258	1161.56
459.478	1225.56
459.698	1236.56
459.918	1270.56
460.138	1283.56
460.358	1298.56
460.578	1345.56
460.798	1335.56
461.018	1384.56
461.238	1388.56
461.458	1389.56
461.678	1381.56
461.898	1377.56
462.118	1378.56
462.338	1413.56
462.558	1486.56
462.777	1523.56
462.997	1595.56
463.217	1660.56
463.437	1618.56
463.657	1609.56
463.876	1561.56
464.096	1550.56
464.316	1528.56
464.536	1542.56
464.755	1481.56
464.975	1436.56
465.195	1391.56
465.414	1363.56
465.634	1291.56
465.854	1259.56
466.073	1267.56
466.293	1217.56
466.512	1178.56
466.732	1176.56
466.951	1180.56
467.171	1162.56
467.391	1157.56
467.61	1158.56
467.829	1168.56
468.049	1166.56
468.268	1152.56
468.488	1138.56
468.707	1108.56
468.927	1112.56
469.146	1130.56
469.365	1138.56
469.585	1150.56
469.804	1183.56
470.023	1168.56
470.243	1166.56
470.462	1163.56
470.681	1154.56
470.901	1182.56
471.12	1147.56
471.339	1186.56
471.558	1188.56
471.777	1149.56
471.997	1148.56
472.216	1124.56
472.435	1148.56
472.654	1145.56
472.873	1145.56
473.092	1116.56
473.311	1090.56
473.53	1129.56
473.749	1110.56
473.968	1114.56
474.187	1136.56
474.406	1094.56
474.625	1125.56
474.844	1119.56
475.063	1106.56
475.282	1122.56
475.501	1144.56
475.72	1117.56
475.939	1150.56
476.158	1152.56
476.377	1157.56
476.596	1194.56
476.814	1196.56
477.033	1165.56
477.252	1184.56
477.471	1218.56
477.69	1238.56
477.908	1236.56
478.127	1305.56
478.346	1310.56
478.564	1351.56
478.783	1333.56
479.002	1353.56
479.22	1368.56
479.439	1377.56
479.658	1367.56
479.876	1344.56
480.095	1353.56
480.313	1399.56
480.532	1434.56
480.751	1393.56
480.969	1394.56
481.188	1372.56
481.406	1305.56
481.624	1292.56
481.843	1314.56
482.061	1306.56
482.28	1281.56
482.498	1294.56
482.717	1282.56
482.935	1312.56
483.153	1305.56
483.372	1321.56
483.59	1329.56
483.808	1293.56
484.027	1284.56
484.245	1288.56
484.463	1293.56
484.681	1348.56
484.9	1366.56
485.118	1358.56
485.336	1334.56
485.554	1350.56
485.772	1355.56
485.99	1308.56
486.209	1360.56
486.427	1337.56
486.645	1333.56
486.863	1361.56
487.081	1334.56
487.299	1363.56
487.517	1336.56
487.735	1365.56
487.953	1345.56
488.171	1325.56
488.389	1350.56
488.607	1353.56
488.825	1330.56
489.043	1328.56
489.261	1345.56
489.479	1346.56
489.696	1336.56
489.914	1364.56
490.132	1335.56
490.35	1332.56
490.568	1344.56
490.786	1360.56
491.003	1346.56
491.221	1363.56
491.439	1386.56
491.657	1378.56
491.874	1372.56
492.092	1399.56
492.31	1440.56
492.527	1432.56
492.745	1450.56
492.963	1418.56
493.18	1401.56
493.398	1440.56
493.615	1430.56
493.833	1461.56
494.05	1483.56
494.268	1450.56
494.485	1454.56
494.703	1445.56
494.92	1467.56
