Data from Ni(NO3)2Standard.Agarose3%.GreenCap.LampEnergy5.5.E.O_HRD10591_14-41-06-188.txt Node
Date: Mon Jul 22 14:41:06 EDT 2019
User: cochatt
Spectrometer: HR+D1059
Trigger mode: 1
Integration Time (sec): 1.000000E-1
Scans to average: 1
Electric dark correction enabled: true
Nonlinearity correction enabled: false
Boxcar width: 0
XAxis mode: Wavelengths
Number of Pixels in Spectrum: 2048
>>>>>Begin Spectral Data<<<<<
223.165	-13.81
223.4	-13.81
223.635	-13.81
223.869	-31.81
224.104	0.19
224.338	-11.81
224.573	-11.81
224.808	-21.81
225.042	-10.81
225.277	-3.81
225.511	-0.81
225.746	4.19
225.98	11.19
226.215	-3.81
226.449	13.19
226.683	30.19
226.918	18.19
227.152	33.19
227.387	30.19
227.621	54.19
227.856	42.19
228.09	48.19
228.324	43.19
228.559	47.19
228.793	49.19
229.027	63.19
229.262	72.19
229.496	64.19
229.73	74.19
229.964	76.19
230.199	78.19
230.433	73.19
230.667	73.19
230.901	84.19
231.136	72.19
231.37	81.19
231.604	80.19
231.838	95.19
232.072	85.19
232.306	76.19
232.541	79.19
232.775	65.19
233.009	63.19
233.243	82.19
233.477	77.19
233.711	79.19
233.945	70.19
234.179	81.19
234.413	89.19
234.647	76.19
234.881	84.19
235.115	85.19
235.349	76.19
235.583	81.19
235.817	87.19
236.051	74.19
236.285	88.19
236.519	86.19
236.753	79.19
236.987	84.19
237.221	78.19
237.455	83.19
237.689	77.19
237.922	72.19
238.156	73.19
238.39	75.19
238.624	77.19
238.858	81.19
239.091	80.19
239.325	68.19
239.559	69.19
239.793	83.19
240.027	67.19
240.26	71.19
240.494	82.19
240.728	90.19
240.961	53.19
241.195	77.19
241.429	73.19
241.662	83.19
241.896	68.19
242.13	74.19
242.363	76.19
242.597	84.19
242.83	67.19
243.064	68.19
243.298	83.19
243.531	79.19
243.765	78.19
243.998	78.19
244.232	84.19
244.465	81.19
244.699	75.19
244.932	83.19
245.166	66.19
245.399	79.19
245.633	73.19
245.866	85.19
246.099	91.19
246.333	82.19
246.566	84.19
246.8	84.19
247.033	77.19
247.266	82.19
247.5	69.19
247.733	80.19
247.966	82.19
248.2	77.19
248.433	75.19
248.666	65.19
248.899	74.19
249.133	80.19
249.366	71.19
249.599	73.19
249.832	82.19
250.066	86.19
250.299	88.19
250.532	75.19
250.765	79.19
250.998	79.19
251.231	72.19
251.465	66.19
251.698	76.19
251.931	74.19
252.164	92.19
252.397	84.19
252.63	78.19
252.863	77.19
253.096	88.19
253.329	79.19
253.562	72.19
253.795	81.19
254.028	63.19
254.261	73.19
254.494	86.19
254.727	83.19
254.96	94.19
255.193	85.19
255.426	80.19
255.659	81.19
255.892	84.19
256.124	93.19
256.357	78.19
256.59	77.19
256.823	88.19
257.056	78.19
257.289	79.19
257.521	85.19
257.754	76.19
257.987	95.19
258.22	77.19
258.452	82.19
258.685	83.19
258.918	80.19
259.151	74.19
259.383	78.19
259.616	85.19
259.849	82.19
260.081	90.19
260.314	89.19
260.547	69.19
260.779	82.19
261.012	91.19
261.244	89.19
261.477	90.19
261.71	75.19
261.942	81.19
262.175	80.19
262.407	77.19
262.64	90.19
262.872	76.19
263.105	72.19
263.337	83.19
263.57	82.19
263.802	91.19
264.035	82.19
264.267	76.19
264.499	77.19
264.732	74.19
264.964	87.19
265.197	76.19
265.429	82.19
265.661	73.19
265.894	97.19
266.126	97.19
266.358	90.19
266.591	87.19
266.823	80.19
267.055	94.19
267.287	89.19
267.52	74.19
267.752	76.19
267.984	88.19
268.216	87.19
268.448	92.19
268.681	79.19
268.913	91.19
269.145	82.19
269.377	89.19
269.609	84.19
269.841	96.19
270.073	93.19
270.306	77.19
270.538	76.19
270.77	87.19
271.002	97.19
271.234	86.19
271.466	85.19
271.698	90.19
271.93	90.19
272.162	79.19
272.394	88.19
272.626	84.19
272.858	90.19
273.09	84.19
273.322	87.19
273.553	98.19
273.785	87.19
274.017	75.19
274.249	64.19
274.481	88.19
274.713	73.19
274.945	77.19
275.176	91.19
275.408	83.19
275.64	92.19
275.872	88.19
276.104	85.19
276.335	87.19
276.567	75.19
276.799	84.19
277.031	81.19
277.262	95.19
277.494	89.19
277.726	88.19
277.957	79.19
278.189	63.19
278.421	89.19
278.652	100.19
278.884	74.19
279.115	74.19
279.347	81.19
279.579	81.19
279.81	82.19
280.042	95.19
280.273	84.19
280.505	82.19
280.736	79.19
280.968	87.19
281.199	85.19
281.431	91.19
281.662	87.19
281.894	81.19
282.125	77.19
282.356	82.19
282.588	91.19
282.819	88.19
283.051	85.19
283.282	77.19
283.513	81.19
283.745	90.19
283.976	85.19
284.207	88.19
284.439	88.19
284.67	82.19
284.901	90.19
285.132	81.19
285.364	95.19
285.595	87.19
285.826	91.19
286.057	91.19
286.288	84.19
286.52	78.19
286.751	81.19
286.982	85.19
287.213	89.19
287.444	79.19
287.675	80.19
287.906	85.19
288.138	87.19
288.369	92.19
288.6	76.19
288.831	86.19
289.062	86.19
289.293	91.19
289.524	81.19
289.755	94.19
289.986	87.19
290.217	84.19
290.448	71.19
290.679	72.19
290.91	96.19
291.141	79.19
291.371	83.19
291.602	99.19
291.833	82.19
292.064	75.19
292.295	88.19
292.526	89.19
292.757	83.19
292.987	90.19
293.218	86.19
293.449	85.19
293.68	82.19
293.91	93.19
294.141	90.19
294.372	82.19
294.603	78.19
294.833	99.19
295.064	81.19
295.295	83.19
295.525	85.19
295.756	92.19
295.987	79.19
296.217	88.19
296.448	82.19
296.679	92.19
296.909	88.19
297.14	90.19
297.37	81.19
297.601	85.19
297.831	82.19
298.062	79.19
298.292	89.19
298.523	81.19
298.753	76.19
298.984	77.19
299.214	97.19
299.445	95.19
299.675	76.19
299.905	78.19
300.136	82.19
300.366	82.19
300.597	77.19
300.827	95.19
301.057	80.19
301.288	82.19
301.518	88.19
301.748	79.19
301.979	77.19
302.209	95.19
302.439	91.19
302.669	96.19
302.9	97.19
303.13	83.19
303.36	83.19
303.59	93.19
303.82	100.19
304.051	95.19
304.281	75.19
304.511	102.19
304.741	82.19
304.971	89.19
305.201	87.19
305.431	100.19
305.661	82.19
305.891	89.19
306.121	85.19
306.352	80.19
306.582	92.19
306.812	83.19
307.042	86.19
307.272	83.19
307.502	87.19
307.731	84.19
307.961	92.19
308.191	78.19
308.421	84.19
308.651	88.19
308.881	78.19
309.111	74.19
309.341	80.19
309.571	85.19
309.8	91.19
310.03	86.19
310.26	76.19
310.49	94.19
310.72	82.19
310.949	83.19
311.179	96.19
311.409	76.19
311.639	84.19
311.868	85.19
312.098	72.19
312.328	88.19
312.557	76.19
312.787	76.19
313.017	95.19
313.246	79.19
313.476	88.19
313.706	83.19
313.935	105.19
314.165	87.19
314.394	75.19
314.624	84.19
314.853	87.19
315.083	97.19
315.312	80.19
315.542	80.19
315.771	100.19
316.001	76.19
316.23	85.19
316.46	87.19
316.689	84.19
316.919	77.19
317.148	83.19
317.377	82.19
317.607	90.19
317.836	98.19
318.065	97.19
318.295	88.19
318.524	93.19
318.753	98.19
318.983	87.19
319.212	80.19
319.441	90.19
319.67	96.19
319.9	98.19
320.129	81.19
320.358	93.19
320.587	83.19
320.816	104.19
321.046	91.19
321.275	89.19
321.504	83.19
321.733	101.19
321.962	87.19
322.191	84.19
322.42	89.19
322.649	101.19
322.878	89.19
323.108	89.19
323.337	82.19
323.566	75.19
323.795	88.19
324.024	103.19
324.253	78.19
324.482	82.19
324.71	77.19
324.939	84.19
325.168	80.19
325.397	94.19
325.626	76.19
325.855	75.19
326.084	85.19
326.313	75.19
326.542	97.19
326.77	80.19
326.999	84.19
327.228	76.19
327.457	92.19
327.686	90.19
327.914	94.19
328.143	89.19
328.372	97.19
328.6	92.19
328.829	77.19
329.058	88.19
329.287	82.19
329.515	67.19
329.744	79.19
329.972	87.19
330.201	100.19
330.43	87.19
330.658	80.19
330.887	83.19
331.115	77.19
331.344	77.19
331.572	80.19
331.801	72.19
332.03	78.19
332.258	100.19
332.486	94.19
332.715	89.19
332.943	73.19
333.172	100.19
333.4	89.19
333.629	82.19
333.857	77.19
334.085	77.19
334.314	98.19
334.542	85.19
334.771	86.19
334.999	93.19
335.227	89.19
335.455	78.19
335.684	96.19
335.912	90.19
336.14	82.19
336.369	76.19
336.597	81.19
336.825	88.19
337.053	105.19
337.281	90.19
337.51	76.19
337.738	84.19
337.966	82.19
338.194	83.19
338.422	91.19
338.65	88.19
338.878	93.19
339.106	85.19
339.334	79.19
339.562	91.19
339.79	82.19
340.018	92.19
340.246	89.19
340.474	87.19
340.702	82.19
340.93	90.19
341.158	96.19
341.386	78.19
341.614	75.19
341.842	82.19
342.07	87.19
342.298	93.19
342.526	92.19
342.754	86.19
342.981	84.19
343.209	92.19
343.437	98.19
343.665	102.19
343.893	95.19
344.12	91.19
344.348	87.19
344.576	78.19
344.804	87.19
345.031	92.19
345.259	92.19
345.487	84.19
345.714	88.19
345.942	85.19
346.17	88.19
346.397	77.19
346.625	81.19
346.853	81.19
347.08	84.19
347.308	98.19
347.535	97.19
347.763	95.19
347.99	83.19
348.218	83.19
348.445	72.19
348.673	86.19
348.9	88.19
349.128	84.19
349.355	90.19
349.583	79.19
349.81	98.19
350.037	82.19
350.265	85.19
350.492	89.19
350.72	95.19
350.947	88.19
351.174	98.19
351.402	72.19
351.629	88.19
351.856	88.19
352.083	83.19
352.311	90.19
352.538	89.19
352.765	95.19
352.992	88.19
353.22	99.19
353.447	83.19
353.674	85.19
353.901	89.19
354.128	79.19
354.355	95.19
354.583	95.19
354.81	85.19
355.037	82.19
355.264	91.19
355.491	74.19
355.718	92.19
355.945	82.19
356.172	98.19
356.399	80.19
356.626	88.19
356.853	89.19
357.08	89.19
357.307	80.19
357.534	83.19
357.761	76.19
357.988	85.19
358.215	88.19
358.441	75.19
358.668	86.19
358.895	84.19
359.122	76.19
359.349	80.19
359.576	92.19
359.802	107.19
360.029	83.19
360.256	89.19
360.483	86.19
360.709	90.19
360.936	95.19
361.163	94.19
361.39	95.19
361.616	92.19
361.843	88.19
362.07	79.19
362.296	105.19
362.523	77.19
362.749	88.19
362.976	84.19
363.203	95.19
363.429	98.19
363.656	87.19
363.882	83.19
364.109	102.19
364.335	80.19
364.562	86.19
364.788	71.19
365.015	86.19
365.241	74.19
365.468	85.19
365.694	99.19
365.92	88.19
366.147	93.19
366.373	75.19
366.599	93.19
366.826	88.19
367.052	89.19
367.278	89.19
367.505	95.19
367.731	78.19
367.957	78.19
368.184	75.19
368.41	74.19
368.636	86.19
368.862	79.19
369.089	76.19
369.315	82.19
369.541	97.19
369.767	89.19
369.993	92.19
370.219	101.19
370.445	97.19
370.672	73.19
370.898	91.19
371.124	85.19
371.35	94.19
371.576	87.19
371.802	89.19
372.028	83.19
372.254	82.19
372.48	92.19
372.706	89.19
372.932	88.19
373.158	87.19
373.384	85.19
373.61	91.19
373.835	77.19
374.061	89.19
374.287	67.19
374.513	82.19
374.739	86.19
374.965	88.19
375.191	86.19
375.416	91.19
375.642	93.19
375.868	92.19
376.094	95.19
376.319	77.19
376.545	74.19
376.771	92.19
376.997	86.19
377.222	79.19
377.448	68.19
377.674	82.19
377.899	74.19
378.125	75.19
378.35	71.19
378.576	87.19
378.802	94.19
379.027	82.19
379.253	90.19
379.478	79.19
379.704	76.19
379.929	90.19
380.155	80.19
380.38	85.19
380.606	84.19
380.831	82.19
381.057	74.19
381.282	92.19
381.507	84.19
381.733	88.19
381.958	86.19
382.184	75.19
382.409	61.19
382.634	92.19
382.86	94.19
383.085	91.19
383.31	81.19
383.535	84.19
383.761	69.19
383.986	82.19
384.211	76.19
384.436	81.19
384.662	80.19
384.887	76.19
385.112	95.19
385.337	90.19
385.562	88.19
385.787	76.19
386.013	80.19
386.238	81.19
386.463	84.19
386.688	88.19
386.913	86.19
387.138	76.19
387.363	94.19
387.588	91.19
387.813	81.19
388.038	91.19
388.263	81.19
388.488	86.19
388.713	81.19
388.938	88.19
389.163	83.19
389.387	74.19
389.612	82.19
389.837	89.19
390.062	87.19
390.287	85.19
390.512	80.19
390.736	106.19
390.961	86.19
391.186	72.19
391.411	96.19
391.636	100.19
391.86	87.19
392.085	88.19
392.31	95.19
392.534	84.19
392.759	92.19
392.984	87.19
393.208	81.19
393.433	80.19
393.658	82.19
393.882	80.19
394.107	95.19
394.331	85.19
394.556	85.19
394.78	83.19
395.005	87.19
395.229	85.19
395.454	83.19
395.678	83.19
395.903	75.19
396.127	88.19
396.352	83.19
396.576	94.19
396.801	83.19
397.025	80.19
397.249	67.19
397.474	89.19
397.698	72.19
397.922	91.19
398.147	88.19
398.371	87.19
398.595	86.19
398.82	63.19
399.044	80.19
399.268	87.19
399.492	82.19
399.717	96.19
399.941	83.19
400.165	88.19
400.389	103.19
400.613	93.19
400.837	90.19
401.062	94.19
401.286	69.19
401.51	84.19
401.734	88.19
401.958	84.19
402.182	85.19
402.406	91.19
402.63	81.19
402.854	90.19
403.078	82.19
403.302	111.19
403.526	82.19
403.75	87.19
403.974	81.19
404.198	81.19
404.422	97.19
404.645	94.19
404.869	89.19
405.093	88.19
405.317	79.19
405.541	84.19
405.765	91.19
405.988	104.19
406.212	96.19
406.436	87.19
406.66	88.19
406.883	86.19
407.107	90.19
407.331	89.19
407.555	86.19
407.778	96.19
408.002	104.19
408.226	97.19
408.449	96.19
408.673	92.19
408.896	97.19
409.12	93.19
409.344	85.19
409.567	87.19
409.791	107.19
410.014	82.19
410.238	88.19
410.461	91.19
410.685	90.19
410.908	100.19
411.132	84.19
411.355	77.19
411.578	84.19
411.802	81.19
412.025	78.19
412.249	97.19
412.472	86.19
412.695	92.19
412.919	76.19
413.142	89.19
413.365	77.19
413.589	77.19
413.812	78.19
414.035	90.19
414.258	102.19
414.482	86.19
414.705	74.19
414.928	85.19
415.151	78.19
415.374	84.19
415.597	88.19
415.821	93.19
416.044	72.19
416.267	80.19
416.49	91.19
416.713	81.19
416.936	96.19
417.159	103.19
417.382	84.19
417.605	83.19
417.828	90.19
418.051	84.19
418.274	83.19
418.497	81.19
418.72	88.19
418.943	83.19
419.166	87.19
419.389	83.19
419.611	82.19
419.834	91.19
420.057	79.19
420.28	77.19
420.503	77.19
420.726	89.19
420.948	82.19
421.171	86.19
421.394	88.19
421.617	91.19
421.839	89.19
422.062	90.19
422.285	88.19
422.507	87.19
422.73	89.19
422.953	94.19
423.175	90.19
423.398	88.19
423.621	83.19
423.843	85.19
424.066	77.19
424.288	71.19
424.511	97.19
424.733	96.19
424.956	97.19
425.178	96.19
425.401	96.19
425.623	81.19
425.846	94.19
426.068	75.19
426.291	87.19
426.513	86.19
426.735	83.19
426.958	87.19
427.18	90.19
427.402	83.19
427.625	94.19
427.847	82.19
428.069	96.19
428.292	81.19
428.514	99.19
428.736	98.19
428.958	88.19
429.181	83.19
429.403	92.19
429.625	81.19
429.847	77.19
430.069	79.19
430.292	96.19
430.514	86.19
430.736	89.19
430.958	85.19
431.18	82.19
431.402	89.19
431.624	78.19
431.846	83.19
432.068	77.19
432.29	97.19
432.512	98.19
432.734	83.19
432.956	90.19
433.178	91.19
433.4	90.19
433.622	76.19
433.844	82.19
434.066	74.19
434.287	83.19
434.509	89.19
434.731	91.19
434.953	92.19
435.175	84.19
435.397	87.19
435.618	100.19
435.84	91.19
436.062	92.19
436.284	66.19
436.505	85.19
436.727	87.19
436.949	87.19
437.17	81.19
437.392	80.19
437.614	76.19
437.835	93.19
438.057	88.19
438.278	86.19
438.5	91.19
438.721	89.19
438.943	77.19
439.165	80.19
439.386	93.19
439.608	91.19
439.829	88.19
440.05	97.19
440.272	86.19
440.493	78.19
440.715	85.19
440.936	91.19
441.158	88.19
441.379	81.19
441.6	95.19
441.822	89.19
442.043	102.19
442.264	86.19
442.486	83.19
442.707	92.19
442.928	91.19
443.149	80.19
443.371	77.19
443.592	103.19
443.813	84.19
444.034	92.19
444.255	85.19
444.476	77.19
444.698	83.19
444.919	73.19
445.14	204.19
445.361	142.19
445.582	74.19
445.803	88.19
446.024	90.19
446.245	83.19
446.466	80.19
446.687	65.19
446.908	78.19
447.129	78.19
447.35	97.19
447.571	91.19
447.792	81.19
448.013	84.19
448.234	88.19
448.455	69.19
448.675	95.19
448.896	76.19
449.117	77.19
449.338	86.19
449.559	88.19
449.779	68.19
450	89.19
450.221	76.19
450.442	83.19
450.662	87.19
450.883	83.19
451.104	94.19
451.324	82.19
451.545	89.19
451.766	85.19
451.986	88.19
452.207	90.19
452.428	85.19
452.648	108.19
452.869	86.19
453.089	95.19
453.31	70.19
453.53	74.19
453.751	81.19
453.971	91.19
454.192	94.19
454.412	77.19
454.633	84.19
454.853	81.19
455.073	75.19
455.294	91.19
455.514	89.19
455.734	84.19
455.955	88.19
456.175	96.19
456.395	80.19
456.616	84.19
456.836	82.19
457.056	84.19
457.276	97.19
457.497	91.19
457.717	93.19
457.937	96.19
458.157	95.19
458.377	69.19
458.598	95.19
458.818	92.19
459.038	82.19
459.258	92.19
459.478	88.19
459.698	78.19
459.918	90.19
460.138	93.19
460.358	80.19
460.578	97.19
460.798	83.19
461.018	77.19
461.238	90.19
461.458	76.19
461.678	88.19
461.898	87.19
462.118	93.19
462.338	82.19
462.558	98.19
462.777	112.19
462.997	87.19
463.217	90.19
463.437	91.19
463.657	92.19
463.876	78.19
464.096	84.19
464.316	93.19
464.536	82.19
464.755	89.19
464.975	83.19
465.195	88.19
465.414	100.19
465.634	73.19
465.854	88.19
466.073	88.19
466.293	87.19
466.512	82.19
466.732	83.19
466.951	76.19
467.171	77.19
467.391	78.19
467.61	77.19
467.829	97.19
468.049	88.19
468.268	83.19
468.488	80.19
468.707	88.19
468.927	95.19
469.146	95.19
469.365	97.19
469.585	99.19
469.804	86.19
470.023	86.19
470.243	71.19
470.462	76.19
470.681	80.19
470.901	85.19
471.12	97.19
471.339	83.19
471.558	77.19
471.777	81.19
471.997	86.19
472.216	75.19
472.435	94.19
472.654	84.19
472.873	89.19
473.092	92.19
473.311	94.19
473.53	89.19
473.749	90.19
473.968	97.19
474.187	92.19
474.406	85.19
474.625	87.19
474.844	83.19
475.063	81.19
475.282	75.19
475.501	74.19
475.72	93.19
475.939	84.19
476.158	79.19
476.377	106.19
476.596	95.19
476.814	78.19
477.033	79.19
477.252	88.19
477.471	82.19
477.69	101.19
477.908	86.19
478.127	101.19
478.346	92.19
478.564	102.19
478.783	95.19
479.002	100.19
479.22	90.19
479.439	105.19
479.658	86.19
479.876	74.19
480.095	81.19
480.313	89.19
480.532	101.19
480.751	91.19
480.969	92.19
481.188	100.19
481.406	97.19
481.624	77.19
481.843	89.19
482.061	86.19
482.28	89.19
482.498	89.19
482.717	89.19
482.935	80.19
483.153	92.19
483.372	97.19
483.59	95.19
483.808	95.19
484.027	71.19
484.245	92.19
484.463	85.19
484.681	97.19
484.9	91.19
485.118	91.19
485.336	75.19
485.554	86.19
485.772	88.19
485.99	87.19
486.209	94.19
486.427	78.19
486.645	72.19
486.863	79.19
487.081	86.19
487.299	92.19
487.517	84.19
487.735	93.19
487.953	94.19
488.171	97.19
488.389	93.19
488.607	91.19
488.825	98.19
489.043	98.19
489.261	92.19
489.479	87.19
489.696	90.19
489.914	100.19
490.132	107.19
490.35	111.19
490.568	83.19
490.786	100.19
491.003	87.19
491.221	94.19
491.439	90.19
491.657	97.19
491.874	87.19
492.092	94.19
492.31	93.19
492.527	94.19
492.745	95.19
492.963	89.19
493.18	111.19
493.398	95.19
493.615	93.19
493.833	80.19
494.05	90.19
494.268	89.19
494.485	111.19
494.703	102.19
494.92	103.19
495.138	86.19
495.355	96.19
495.573	99.19
495.79	101.19
496.008	81.19
496.225	87.19
496.442	107.19
496.66	92.19
496.877	101.19
497.094	109.19
497.312	87.19
497.529	91.19
497.746	92.19
497.963	99.19
498.181	99.19
498.398	88.19
498.615	85.19
498.832	96.19
499.049	100.19
499.267	108.19
499.484	121.19
499.701	103.19
499.918	101.19
500.135	102.19
500.352	101.19
500.569	103.19
500.786	128.19
501.003	115.19
501.22	101.19
501.437	107.19
501.654	106.19
501.871	97.19
502.088	95.19
502.305	105.19
502.522	106.19
502.739	111.19
502.956	86.19
503.172	108.19
503.389	94.19
503.606	98.19
503.823	95.19
504.04	89.19
504.256	87.19
504.473	87.19
504.69	98.19
504.907	103.19
505.123	85.19
505.34	83.19
505.557	92.19
505.773	101.19
505.99	97.19
506.207	94.19
506.423	92.19
506.64	84.19
506.856	104.19
507.073	106.19
507.289	87.19
507.506	92.19
507.722	90.19
507.939	103.19
508.155	93.19
508.372	100.19
508.588	101.19
508.805	94.19
509.021	96.19
509.238	92.19
509.454	73.19
509.67	100.19
509.887	83.19
510.103	90.19
510.319	106.19
510.536	101.19
510.752	103.19
510.968	93.19
511.184	91.19
511.401	97.19
511.617	105.19
511.833	90.19
512.049	97.19
512.265	99.19
512.481	81.19
512.698	94.19
512.914	86.19
513.13	77.19
513.346	87.19
513.562	71.19
513.778	93.19
513.994	86.19
514.21	87.19
514.426	98.19
514.642	82.19
514.858	85.19
515.074	92.19
515.29	94.19
515.506	95.19
515.721	91.19
515.937	90.19
516.153	79.19
516.369	98.19
516.585	104.19
516.801	102.19
517.016	85.19
517.232	79.19
517.448	97.19
517.664	95.19
517.879	85.19
518.095	83.19
518.311	79.19
