Data from Ni(NO3)2@0.0625M.TitratingCurve.Agarose3%dH2O.NegLispCup.LampEnergy10.LIBS07252019_HRD10591_18-15-24-569.txt Node
Date: Thu Jul 25 18:15:24 EDT 2019
User: cochatt
Spectrometer: HR+D1059
Trigger mode: 1
Integration Time (sec): 1.000000E-1
Scans to average: 1
Electric dark correction enabled: true
Nonlinearity correction enabled: false
Boxcar width: 0
XAxis mode: Wavelengths
Number of Pixels in Spectrum: 2048
>>>>>Begin Spectral Data<<<<<
223.165	-9.44
223.4	-9.44
223.635	-9.44
223.869	-22.44
224.104	-12.44
224.338	-12.44
224.573	-10.44
224.808	-16.44
225.042	-15.44
225.277	-14.44
225.511	-5.44
225.746	13.56
225.98	4.56
226.215	13.56
226.449	10.56
226.683	22.56
226.918	20.56
227.152	33.56
227.387	37.56
227.621	36.56
227.856	33.56
228.09	38.56
228.324	50.56
228.559	56.56
228.793	60.56
229.027	100.56
229.262	87.56
229.496	94.56
229.73	107.56
229.964	105.56
230.199	122.56
230.433	116.56
230.667	120.56
230.901	134.56
231.136	128.56
231.37	108.56
231.604	114.56
231.838	131.56
232.072	128.56
232.306	142.56
232.541	141.56
232.775	131.56
233.009	139.56
233.243	126.56
233.477	135.56
233.711	117.56
233.945	122.56
234.179	130.56
234.413	121.56
234.647	134.56
234.881	154.56
235.115	118.56
235.349	115.56
235.583	143.56
235.817	119.56
236.051	121.56
236.285	129.56
236.519	141.56
236.753	120.56
236.987	118.56
237.221	144.56
237.455	134.56
237.689	138.56
237.922	123.56
238.156	133.56
238.39	138.56
238.624	132.56
238.858	144.56
239.091	140.56
239.325	132.56
239.559	154.56
239.793	146.56
240.027	170.56
240.26	149.56
240.494	138.56
240.728	134.56
240.961	155.56
241.195	138.56
241.429	166.56
241.662	147.56
241.896	154.56
242.13	165.56
242.363	155.56
242.597	140.56
242.83	158.56
243.064	159.56
243.298	160.56
243.531	177.56
243.765	163.56
243.998	171.56
244.232	182.56
244.465	164.56
244.699	170.56
244.932	177.56
245.166	169.56
245.399	178.56
245.633	172.56
245.866	184.56
246.099	176.56
246.333	175.56
246.566	187.56
246.8	170.56
247.033	198.56
247.266	186.56
247.5	193.56
247.733	185.56
247.966	182.56
248.2	180.56
248.433	183.56
248.666	193.56
248.899	184.56
249.133	193.56
249.366	192.56
249.599	183.56
249.832	201.56
250.066	197.56
250.299	210.56
250.532	195.56
250.765	217.56
250.998	196.56
251.231	203.56
251.465	211.56
251.698	192.56
251.931	193.56
252.164	199.56
252.397	209.56
252.63	215.56
252.863	210.56
253.096	218.56
253.329	218.56
253.562	225.56
253.795	210.56
254.028	216.56
254.261	202.56
254.494	211.56
254.727	206.56
254.96	220.56
255.193	222.56
255.426	224.56
255.659	228.56
255.892	224.56
256.124	237.56
256.357	209.56
256.59	244.56
256.823	243.56
257.056	238.56
257.289	242.56
257.521	227.56
257.754	217.56
257.987	230.56
258.22	223.56
258.452	221.56
258.685	250.56
258.918	235.56
259.151	227.56
259.383	238.56
259.616	239.56
259.849	240.56
260.081	236.56
260.314	246.56
260.547	242.56
260.779	235.56
261.012	270.56
261.244	261.56
261.477	259.56
261.71	268.56
261.942	267.56
262.175	249.56
262.407	256.56
262.64	258.56
262.872	246.56
263.105	250.56
263.337	266.56
263.57	260.56
263.802	263.56
264.035	276.56
264.267	249.56
264.499	254.56
264.732	283.56
264.964	274.56
265.197	259.56
265.429	260.56
265.661	269.56
265.894	286.56
266.126	268.56
266.358	281.56
266.591	260.56
266.823	265.56
267.055	280.56
267.287	272.56
267.52	278.56
267.752	265.56
267.984	280.56
268.216	265.56
268.448	283.56
268.681	290.56
268.913	270.56
269.145	280.56
269.377	308.56
269.609	288.56
269.841	283.56
270.073	277.56
270.306	284.56
270.538	287.56
270.77	272.56
271.002	278.56
271.234	284.56
271.466	300.56
271.698	317.56
271.93	304.56
272.162	308.56
272.394	297.56
272.626	291.56
272.858	294.56
273.09	303.56
273.322	313.56
273.553	308.56
273.785	308.56
274.017	313.56
274.249	314.56
274.481	315.56
274.713	302.56
274.945	308.56
275.176	294.56
275.408	318.56
275.64	317.56
275.872	304.56
276.104	310.56
276.335	324.56
276.567	320.56
276.799	312.56
277.031	337.56
277.262	332.56
277.494	313.56
277.726	330.56
277.957	330.56
278.189	325.56
278.421	320.56
278.652	309.56
278.884	324.56
279.115	334.56
279.347	343.56
279.579	341.56
279.81	334.56
280.042	336.56
280.273	351.56
280.505	348.56
280.736	353.56
280.968	343.56
281.199	352.56
281.431	343.56
281.662	328.56
281.894	337.56
282.125	349.56
282.356	336.56
282.588	373.56
282.819	343.56
283.051	328.56
283.282	340.56
283.513	354.56
283.745	362.56
283.976	350.56
284.207	348.56
284.439	362.56
284.67	356.56
284.901	358.56
285.132	354.56
285.364	358.56
285.595	361.56
285.826	360.56
286.057	361.56
286.288	378.56
286.52	396.56
286.751	370.56
286.982	366.56
287.213	359.56
287.444	394.56
287.675	374.56
287.906	379.56
288.138	361.56
288.369	382.56
288.6	376.56
288.831	385.56
289.062	396.56
289.293	411.56
289.524	400.56
289.755	388.56
289.986	385.56
290.217	416.56
290.448	419.56
290.679	425.56
290.91	379.56
291.141	382.56
291.371	388.56
291.602	404.56
291.833	395.56
292.064	408.56
292.295	404.56
292.526	384.56
292.757	411.56
292.987	394.56
293.218	384.56
293.449	402.56
293.68	427.56
293.91	427.56
294.141	397.56
294.372	400.56
294.603	394.56
294.833	412.56
295.064	401.56
295.295	414.56
295.525	414.56
295.756	427.56
295.987	417.56
296.217	416.56
296.448	418.56
296.679	411.56
296.909	442.56
297.14	421.56
297.37	424.56
297.601	421.56
297.831	442.56
298.062	421.56
298.292	455.56
298.523	461.56
298.753	458.56
298.984	431.56
299.214	427.56
299.445	442.56
299.675	426.56
299.905	426.56
300.136	458.56
300.366	458.56
300.597	461.56
300.827	458.56
301.057	434.56
301.288	438.56
301.518	462.56
301.748	469.56
301.979	459.56
302.209	478.56
302.439	456.56
302.669	464.56
302.9	457.56
303.13	447.56
303.36	451.56
303.59	446.56
303.82	461.56
304.051	454.56
304.281	450.56
304.511	454.56
304.741	480.56
304.971	457.56
305.201	444.56
305.431	451.56
305.661	452.56
305.891	444.56
306.121	435.56
306.352	444.56
306.582	430.56
306.812	456.56
307.042	459.56
307.272	437.56
307.502	428.56
307.731	428.56
307.961	418.56
308.191	442.56
308.421	450.56
308.651	450.56
308.881	444.56
309.111	421.56
309.341	444.56
309.571	415.56
309.8	448.56
310.03	449.56
310.26	462.56
310.49	448.56
310.72	454.56
310.949	454.56
311.179	438.56
311.409	447.56
311.639	454.56
311.868	464.56
312.098	461.56
312.328	457.56
312.557	473.56
312.787	443.56
313.017	477.56
313.246	464.56
313.476	467.56
313.706	483.56
313.935	474.56
314.165	456.56
314.394	490.56
314.624	474.56
314.853	463.56
315.083	469.56
315.312	467.56
315.542	488.56
315.771	467.56
316.001	465.56
316.23	480.56
316.46	467.56
316.689	472.56
316.919	468.56
317.148	473.56
317.377	464.56
317.607	444.56
317.836	460.56
318.065	460.56
318.295	459.56
318.524	473.56
318.753	461.56
318.983	463.56
319.212	457.56
319.441	463.56
319.67	470.56
319.9	454.56
320.129	460.56
320.358	471.56
320.587	464.56
320.816	448.56
321.046	491.56
321.275	480.56
321.504	464.56
321.733	477.56
321.962	449.56
322.191	475.56
322.42	467.56
322.649	489.56
322.878	477.56
323.108	480.56
323.337	483.56
323.566	487.56
323.795	464.56
324.024	473.56
324.253	466.56
324.482	480.56
324.71	478.56
324.939	486.56
325.168	495.56
325.397	513.56
325.626	502.56
325.855	486.56
326.084	505.56
326.313	498.56
326.542	507.56
326.77	522.56
326.999	508.56
327.228	522.56
327.457	504.56
327.686	522.56
327.914	488.56
328.143	502.56
328.372	521.56
328.6	506.56
328.829	521.56
329.058	512.56
329.287	502.56
329.515	525.56
329.744	519.56
329.972	531.56
330.201	525.56
330.43	518.56
330.658	505.56
330.887	549.56
331.115	515.56
331.344	551.56
331.572	564.56
331.801	574.56
332.03	569.56
332.258	576.56
332.486	597.56
332.715	609.56
332.943	642.56
333.172	655.56
333.4	714.56
333.629	708.56
333.857	679.56
334.085	706.56
334.314	690.56
334.542	664.56
334.771	631.56
334.999	644.56
335.227	639.56
335.455	646.56
335.684	656.56
335.912	637.56
336.14	638.56
336.369	608.56
336.597	639.56
336.825	615.56
337.053	630.56
337.281	619.56
337.51	610.56
337.738	581.56
337.966	586.56
338.194	573.56
338.422	561.56
338.65	555.56
338.878	558.56
339.106	572.56
339.334	566.56
339.562	566.56
339.79	543.56
340.018	533.56
340.246	542.56
340.474	545.56
340.702	546.56
340.93	547.56
341.158	579.56
341.386	557.56
341.614	550.56
341.842	551.56
342.07	543.56
342.298	528.56
342.526	555.56
342.754	546.56
342.981	524.56
343.209	569.56
343.437	603.56
343.665	623.56
343.893	638.56
344.12	656.56
344.348	638.56
344.576	618.56
344.804	581.56
345.031	564.56
345.259	596.56
345.487	578.56
345.714	549.56
345.942	564.56
346.17	568.56
346.397	561.56
346.625	546.56
346.853	537.56
347.08	520.56
347.308	544.56
347.535	534.56
347.763	555.56
347.99	549.56
348.218	562.56
348.445	546.56
348.673	568.56
348.9	537.56
349.128	540.56
349.355	540.56
349.583	542.56
349.81	522.56
350.037	536.56
350.265	515.56
350.492	515.56
350.72	527.56
350.947	510.56
351.174	523.56
351.402	524.56
351.629	527.56
351.856	518.56
352.083	514.56
352.311	497.56
352.538	543.56
352.765	527.56
352.992	487.56
353.22	523.56
353.447	514.56
353.674	502.56
353.901	514.56
354.128	530.56
354.355	508.56
354.583	523.56
354.81	501.56
355.037	517.56
355.264	511.56
355.491	520.56
355.718	517.56
355.945	516.56
356.172	521.56
356.399	511.56
356.626	516.56
356.853	523.56
357.08	528.56
357.307	506.56
357.534	518.56
357.761	512.56
357.988	515.56
358.215	531.56
358.441	532.56
358.668	510.56
358.895	505.56
359.122	498.56
359.349	507.56
359.576	526.56
359.802	534.56
360.029	544.56
360.256	496.56
360.483	515.56
360.709	503.56
360.936	523.56
361.163	534.56
361.39	510.56
361.616	504.56
361.843	520.56
362.07	545.56
362.296	534.56
362.523	500.56
362.749	522.56
362.976	508.56
363.203	511.56
363.429	491.56
363.656	523.56
363.882	527.56
364.109	498.56
364.335	500.56
364.562	495.56
364.788	500.56
365.015	499.56
365.241	510.56
365.468	510.56
365.694	495.56
365.92	502.56
366.147	520.56
366.373	498.56
366.599	502.56
366.826	520.56
367.052	512.56
367.278	507.56
367.505	502.56
367.731	524.56
367.957	505.56
368.184	512.56
368.41	537.56
368.636	522.56
368.862	518.56
369.089	532.56
369.315	513.56
369.541	535.56
369.767	524.56
369.993	518.56
370.219	535.56
370.445	526.56
370.672	565.56
370.898	556.56
371.124	537.56
371.35	548.56
371.576	571.56
371.802	560.56
372.028	549.56
372.254	582.56
372.48	579.56
372.706	581.56
372.932	625.56
373.158	583.56
373.384	563.56
373.61	582.56
373.835	594.56
374.061	564.56
374.287	558.56
374.513	568.56
374.739	595.56
374.965	637.56
375.191	624.56
375.416	619.56
375.642	584.56
375.868	594.56
376.094	582.56
376.319	571.56
376.545	564.56
376.771	591.56
376.997	559.56
377.222	571.56
377.448	569.56
377.674	554.56
377.899	575.56
378.125	554.56
378.35	562.56
378.576	555.56
378.802	551.56
379.027	532.56
379.253	555.56
379.478	545.56
379.704	542.56
379.929	544.56
380.155	551.56
380.38	554.56
380.606	528.56
380.831	560.56
381.057	572.56
381.282	576.56
381.507	553.56
381.733	568.56
381.958	548.56
382.184	580.56
382.409	562.56
382.634	581.56
382.86	588.56
383.085	608.56
383.31	630.56
383.535	638.56
383.761	622.56
383.986	615.56
384.211	632.56
384.436	635.56
384.662	649.56
384.887	679.56
385.112	653.56
385.337	667.56
385.562	687.56
385.787	666.56
386.013	698.56
386.238	700.56
386.463	674.56
386.688	696.56
386.913	658.56
387.138	663.56
387.363	634.56
387.588	673.56
387.813	663.56
388.038	659.56
388.263	670.56
388.488	642.56
388.713	664.56
388.938	649.56
389.163	650.56
389.387	656.56
389.612	656.56
389.837	637.56
390.062	646.56
390.287	664.56
390.512	637.56
390.736	657.56
390.961	677.56
391.186	659.56
391.411	713.56
391.636	713.56
391.86	738.56
392.085	754.56
392.31	742.56
392.534	718.56
392.759	716.56
392.984	684.56
393.208	680.56
393.433	720.56
393.658	694.56
393.882	696.56
394.107	714.56
394.331	722.56
394.556	705.56
394.78	700.56
395.005	701.56
395.229	726.56
395.454	745.56
395.678	738.56
395.903	747.56
396.127	740.56
396.352	699.56
396.576	701.56
396.801	696.56
397.025	697.56
397.249	723.56
397.474	758.56
397.698	746.56
397.922	757.56
398.147	735.56
398.371	747.56
398.595	768.56
398.82	773.56
399.044	880.56
399.268	974.56
399.492	1104.56
399.717	1279.56
399.941	1265.56
400.165	1102.56
400.389	1002.56
400.613	916.56
400.837	864.56
401.062	837.56
401.286	834.56
401.51	820.56
401.734	824.56
401.958	826.56
402.182	844.56
402.406	831.56
402.63	854.56
402.854	889.56
403.078	892.56
403.302	916.56
403.526	960.56
403.75	942.56
403.974	984.56
404.198	986.56
404.422	965.56
404.645	948.56
404.869	939.56
405.093	948.56
405.317	919.56
405.541	904.56
405.765	891.56
405.988	889.56
406.212	900.56
406.436	897.56
406.66	910.56
406.883	965.56
407.107	1004.56
407.331	1074.56
407.555	1080.56
407.778	1082.56
408.002	1049.56
408.226	982.56
408.449	986.56
408.673	959.56
408.896	962.56
409.12	948.56
409.344	945.56
409.567	926.56
409.791	983.56
410.014	978.56
410.238	929.56
410.461	949.56
410.685	948.56
410.908	929.56
411.132	904.56
411.355	879.56
411.578	870.56
411.802	826.56
412.025	884.56
412.249	902.56
412.472	869.56
412.695	859.56
412.919	834.56
413.142	814.56
413.365	818.56
413.589	820.56
413.812	798.56
414.035	799.56
414.258	838.56
414.482	833.56
414.705	832.56
414.928	830.56
415.151	850.56
415.374	843.56
415.597	830.56
415.821	821.56
416.044	812.56
416.267	802.56
416.49	831.56
416.713	799.56
416.936	800.56
417.159	811.56
417.382	828.56
417.605	830.56
417.828	812.56
418.051	803.56
418.274	856.56
418.497	828.56
418.72	836.56
418.943	834.56
419.166	892.56
419.389	969.56
419.611	940.56
419.834	874.56
420.057	854.56
420.28	839.56
420.503	822.56
420.726	807.56
420.948	835.56
421.171	808.56
421.394	817.56
421.617	802.56
421.839	825.56
422.062	824.56
422.285	838.56
422.507	871.56
422.73	855.56
422.953	845.56
423.175	889.56
423.398	884.56
423.621	884.56
423.843	902.56
424.066	907.56
424.288	881.56
424.511	902.56
424.733	833.56
424.956	858.56
425.178	830.56
425.401	828.56
425.623	834.56
425.846	799.56
426.068	774.56
426.291	790.56
426.513	766.56
426.735	770.56
426.958	786.56
427.18	775.56
427.402	754.56
427.625	756.56
427.847	744.56
428.069	711.56
428.292	769.56
428.514	737.56
428.736	745.56
428.958	774.56
429.181	714.56
429.403	714.56
429.625	735.56
429.847	733.56
430.069	710.56
430.292	742.56
430.514	706.56
430.736	738.56
430.958	736.56
431.18	726.56
431.402	731.56
431.624	720.56
431.846	737.56
432.068	727.56
432.29	754.56
432.512	724.56
432.734	760.56
432.956	756.56
433.178	739.56
433.4	733.56
433.622	727.56
433.844	777.56
434.066	745.56
434.287	766.56
434.509	778.56
434.731	827.56
434.953	850.56
435.175	885.56
435.397	828.56
435.618	817.56
435.84	758.56
436.062	757.56
436.284	739.56
436.505	763.56
436.727	760.56
436.949	778.56
437.17	752.56
437.392	762.56
437.614	740.56
437.835	743.56
438.057	712.56
438.278	721.56
438.5	704.56
438.721	708.56
438.943	721.56
439.165	718.56
439.386	720.56
439.608	742.56
439.829	762.56
440.05	740.56
440.272	771.56
440.493	723.56
440.715	799.56
440.936	777.56
441.158	793.56
441.379	798.56
441.6	811.56
441.822	854.56
442.043	830.56
442.264	835.56
442.486	830.56
442.707	797.56
442.928	832.56
443.149	838.56
443.371	823.56
443.592	849.56
443.813	868.56
444.034	857.56
444.255	873.56
444.476	910.56
444.698	961.56
444.919	1003.56
445.14	1059.56
445.361	942.56
445.582	875.56
445.803	798.56
446.024	792.56
446.245	802.56
446.466	757.56
446.687	760.56
446.908	774.56
447.129	724.56
447.35	735.56
447.571	706.56
447.792	712.56
448.013	729.56
448.234	699.56
448.455	706.56
448.675	686.56
448.896	671.56
449.117	677.56
449.338	703.56
449.559	690.56
449.779	686.56
450	668.56
450.221	672.56
450.442	698.56
450.662	692.56
450.883	716.56
451.104	716.56
451.324	695.56
451.545	719.56
451.766	688.56
451.986	680.56
452.207	698.56
452.428	663.56
452.648	691.56
452.869	690.56
453.089	682.56
453.31	709.56
453.53	675.56
453.751	682.56
453.971	662.56
454.192	646.56
454.412	686.56
454.633	663.56
454.853	650.56
455.073	634.56
455.294	663.56
455.514	675.56
455.734	666.56
455.955	678.56
456.175	634.56
456.395	624.56
456.616	626.56
456.836	636.56
457.056	643.56
457.276	648.56
457.497	634.56
457.717	645.56
457.937	653.56
458.157	662.56
458.377	672.56
458.598	665.56
458.818	689.56
459.038	693.56
459.258	730.56
459.478	780.56
459.698	791.56
459.918	808.56
460.138	821.56
460.358	885.56
460.578	873.56
460.798	906.56
461.018	881.56
461.238	882.56
461.458	889.56
461.678	876.56
461.898	884.56
462.118	872.56
462.338	948.56
462.558	966.56
462.777	1010.56
462.997	1099.56
463.217	1203.56
463.437	1192.56
463.657	1108.56
463.876	1063.56
464.096	1052.56
464.316	1082.56
464.536	1048.56
464.755	996.56
464.975	970.56
465.195	927.56
465.414	883.56
465.634	805.56
465.854	788.56
466.073	749.56
466.293	752.56
466.512	744.56
466.732	736.56
466.951	754.56
467.171	745.56
467.391	722.56
467.61	721.56
467.829	715.56
468.049	725.56
468.268	685.56
468.488	693.56
468.707	693.56
468.927	711.56
469.146	704.56
469.365	678.56
469.585	703.56
469.804	711.56
470.023	730.56
470.243	737.56
470.462	759.56
470.681	759.56
470.901	783.56
471.12	733.56
471.339	716.56
471.558	712.56
471.777	717.56
471.997	686.56
472.216	704.56
472.435	711.56
472.654	687.56
472.873	676.56
473.092	664.56
473.311	700.56
473.53	684.56
473.749	670.56
473.968	668.56
474.187	679.56
474.406	690.56
474.625	694.56
474.844	698.56
475.063	690.56
475.282	680.56
475.501	719.56
475.72	690.56
475.939	700.56
476.158	717.56
476.377	712.56
476.596	683.56
476.814	715.56
477.033	725.56
477.252	745.56
477.471	771.56
477.69	778.56
477.908	798.56
478.127	809.56
478.346	825.56
478.564	808.56
478.783	828.56
479.002	886.56
479.22	848.56
479.439	871.56
479.658	853.56
479.876	827.56
480.095	848.56
480.313	898.56
480.532	908.56
480.751	903.56
480.969	877.56
481.188	845.56
481.406	812.56
481.624	792.56
481.843	770.56
482.061	756.56
482.28	775.56
482.498	786.56
482.717	759.56
482.935	796.56
483.153	816.56
483.372	799.56
483.59	801.56
483.808	791.56
484.027	803.56
484.245	791.56
484.463	822.56
484.681	823.56
484.9	810.56
485.118	816.56
485.336	838.56
485.554	833.56
485.772	867.56
485.99	837.56
486.209	856.56
486.427	845.56
486.645	862.56
486.863	844.56
487.081	831.56
487.299	831.56
487.517	863.56
487.735	856.56
487.953	857.56
488.171	832.56
488.389	833.56
488.607	814.56
488.825	844.56
489.043	794.56
489.261	812.56
489.479	852.56
489.696	819.56
489.914	854.56
490.132	850.56
490.35	842.56
490.568	827.56
490.786	828.56
491.003	828.56
491.221	824.56
491.439	836.56
491.657	848.56
491.874	808.56
492.092	804.56
492.31	840.56
492.527	827.56
492.745	858.56
492.963	819.56
493.18	835.56
493.398	855.56
493.615	865.56
493.833	869.56
494.05	868.56
494.268	852.56
494.485	876.56
494.703	848.56
494.92	886.56
495.138	868.56
495.355	886.56
495.573	870.56
495.79	862.56
496.008	878.56
496.225	891.56
496.442	879.56
496.66	878.56
496.877	920.56
497.094	903.56
497.312	934.56
497.529	943.56
497.746	946.56
497.963	1003.56
498.181	1032.56
498.398	1070.56
498.615	1108.56
498.832	1196.56
499.049	1254.56
499.267	1389.56
499.484	1530.56
499.701	1688.56
499.918	1873.56
500.135	2129.56
500.352	2444.56
500.569	2623.56
500.786	2598.56
501.003	2396.56
