Data from Ni(NO3)2@0.125M.TitratingCurve.Agarose3%dH2O.NegLispCup.LampEnergy10.LIBS07252019_HRD10591_18-10-12-568.txt Node
Date: Thu Jul 25 18:10:12 EDT 2019
User: cochatt
Spectrometer: HR+D1059
Trigger mode: 1
Integration Time (sec): 1.000000E-1
Scans to average: 1
Electric dark correction enabled: true
Nonlinearity correction enabled: false
Boxcar width: 0
XAxis mode: Wavelengths
Number of Pixels in Spectrum: 2048
>>>>>Begin Spectral Data<<<<<
223.165	-17.62
223.4	-17.62
223.635	-17.62
223.869	-13.62
224.104	-33.62
224.338	-16.62
224.573	-7.62
224.808	-7.62
225.042	-8.62
225.277	-12.62
225.511	-1.62
225.746	2.38
225.98	12.38
226.215	22.38
226.449	12.38
226.683	12.38
226.918	32.38
227.152	25.38
227.387	26.38
227.621	36.38
227.856	51.38
228.09	48.38
228.324	49.38
228.559	55.38
228.793	67.38
229.027	91.38
229.262	106.38
229.496	112.38
229.73	112.38
229.964	106.38
230.199	103.38
230.433	122.38
230.667	134.38
230.901	124.38
231.136	102.38
231.37	120.38
231.604	122.38
231.838	118.38
232.072	126.38
232.306	129.38
232.541	129.38
232.775	130.38
233.009	143.38
233.243	136.38
233.477	124.38
233.711	131.38
233.945	130.38
234.179	131.38
234.413	127.38
234.647	146.38
234.881	152.38
235.115	132.38
235.349	130.38
235.583	120.38
235.817	124.38
236.051	139.38
236.285	133.38
236.519	128.38
236.753	134.38
236.987	139.38
237.221	137.38
237.455	121.38
237.689	139.38
237.922	135.38
238.156	150.38
238.39	142.38
238.624	131.38
238.858	140.38
239.091	138.38
239.325	134.38
239.559	150.38
239.793	152.38
240.027	131.38
240.26	156.38
240.494	146.38
240.728	158.38
240.961	155.38
241.195	147.38
241.429	161.38
241.662	168.38
241.896	152.38
242.13	169.38
242.363	167.38
242.597	165.38
242.83	149.38
243.064	162.38
243.298	169.38
243.531	156.38
243.765	180.38
243.998	161.38
244.232	169.38
244.465	161.38
244.699	176.38
244.932	176.38
245.166	177.38
245.399	200.38
245.633	176.38
245.866	178.38
246.099	202.38
246.333	183.38
246.566	185.38
246.8	184.38
247.033	177.38
247.266	182.38
247.5	187.38
247.733	198.38
247.966	202.38
248.2	199.38
248.433	197.38
248.666	193.38
248.899	211.38
249.133	207.38
249.366	203.38
249.599	210.38
249.832	212.38
250.066	186.38
250.299	198.38
250.532	208.38
250.765	205.38
250.998	204.38
251.231	203.38
251.465	214.38
251.698	220.38
251.931	207.38
252.164	228.38
252.397	230.38
252.63	221.38
252.863	226.38
253.096	213.38
253.329	217.38
253.562	207.38
253.795	234.38
254.028	218.38
254.261	211.38
254.494	231.38
254.727	218.38
254.96	224.38
255.193	243.38
255.426	242.38
255.659	237.38
255.892	241.38
256.124	230.38
256.357	217.38
256.59	240.38
256.823	237.38
257.056	255.38
257.289	247.38
257.521	230.38
257.754	254.38
257.987	236.38
258.22	242.38
258.452	241.38
258.685	244.38
258.918	241.38
259.151	258.38
259.383	257.38
259.616	244.38
259.849	267.38
260.081	247.38
260.314	260.38
260.547	254.38
260.779	269.38
261.012	260.38
261.244	265.38
261.477	268.38
261.71	250.38
261.942	264.38
262.175	265.38
262.407	258.38
262.64	259.38
262.872	264.38
263.105	288.38
263.337	272.38
263.57	265.38
263.802	297.38
264.035	267.38
264.267	265.38
264.499	276.38
264.732	285.38
264.964	276.38
265.197	267.38
265.429	275.38
265.661	278.38
265.894	302.38
266.126	284.38
266.358	296.38
266.591	300.38
266.823	305.38
267.055	280.38
267.287	288.38
267.52	306.38
267.752	302.38
267.984	297.38
268.216	299.38
268.448	318.38
268.681	305.38
268.913	299.38
269.145	295.38
269.377	305.38
269.609	295.38
269.841	314.38
270.073	306.38
270.306	313.38
270.538	295.38
270.77	306.38
271.002	299.38
271.234	312.38
271.466	315.38
271.698	300.38
271.93	316.38
272.162	308.38
272.394	319.38
272.626	313.38
272.858	321.38
273.09	341.38
273.322	331.38
273.553	327.38
273.785	338.38
274.017	335.38
274.249	326.38
274.481	325.38
274.713	307.38
274.945	325.38
275.176	313.38
275.408	329.38
275.64	336.38
275.872	331.38
276.104	331.38
276.335	341.38
276.567	341.38
276.799	339.38
277.031	347.38
277.262	350.38
277.494	339.38
277.726	341.38
277.957	360.38
278.189	353.38
278.421	347.38
278.652	342.38
278.884	339.38
279.115	351.38
279.347	333.38
279.579	348.38
279.81	352.38
280.042	352.38
280.273	349.38
280.505	348.38
280.736	359.38
280.968	356.38
281.199	358.38
281.431	354.38
281.662	351.38
281.894	360.38
282.125	367.38
282.356	368.38
282.588	368.38
282.819	365.38
283.051	372.38
283.282	356.38
283.513	386.38
283.745	376.38
283.976	378.38
284.207	376.38
284.439	396.38
284.67	396.38
284.901	401.38
285.132	387.38
285.364	403.38
285.595	389.38
285.826	387.38
286.057	378.38
286.288	392.38
286.52	398.38
286.751	387.38
286.982	413.38
287.213	394.38
287.444	395.38
287.675	390.38
287.906	421.38
288.138	416.38
288.369	405.38
288.6	393.38
288.831	397.38
289.062	406.38
289.293	420.38
289.524	401.38
289.755	396.38
289.986	402.38
290.217	398.38
290.448	406.38
290.679	435.38
290.91	424.38
291.141	394.38
291.371	428.38
291.602	409.38
291.833	426.38
292.064	397.38
292.295	411.38
292.526	412.38
292.757	411.38
292.987	438.38
293.218	410.38
293.449	430.38
293.68	426.38
293.91	427.38
294.141	435.38
294.372	409.38
294.603	428.38
294.833	409.38
295.064	418.38
295.295	427.38
295.525	417.38
295.756	422.38
295.987	449.38
296.217	438.38
296.448	411.38
296.679	456.38
296.909	455.38
297.14	439.38
297.37	443.38
297.601	454.38
297.831	450.38
298.062	447.38
298.292	443.38
298.523	458.38
298.753	461.38
298.984	464.38
299.214	468.38
299.445	460.38
299.675	459.38
299.905	437.38
300.136	442.38
300.366	467.38
300.597	476.38
300.827	475.38
301.057	469.38
301.288	466.38
301.518	460.38
301.748	499.38
301.979	482.38
302.209	482.38
302.439	472.38
302.669	481.38
302.9	444.38
303.13	462.38
303.36	465.38
303.59	467.38
303.82	482.38
304.051	470.38
304.281	475.38
304.511	443.38
304.741	475.38
304.971	480.38
305.201	481.38
305.431	463.38
305.661	469.38
305.891	480.38
306.121	456.38
306.352	462.38
306.582	471.38
306.812	472.38
307.042	469.38
307.272	472.38
307.502	466.38
307.731	474.38
307.961	450.38
308.191	450.38
308.421	458.38
308.651	473.38
308.881	454.38
309.111	438.38
309.341	463.38
309.571	464.38
309.8	457.38
310.03	475.38
310.26	470.38
310.49	470.38
310.72	481.38
310.949	456.38
311.179	438.38
311.409	472.38
311.639	488.38
311.868	490.38
312.098	489.38
312.328	495.38
312.557	496.38
312.787	479.38
313.017	484.38
313.246	488.38
313.476	495.38
313.706	520.38
313.935	506.38
314.165	514.38
314.394	505.38
314.624	462.38
314.853	518.38
315.083	494.38
315.312	502.38
315.542	503.38
315.771	500.38
316.001	502.38
316.23	486.38
316.46	483.38
316.689	508.38
316.919	496.38
317.148	483.38
317.377	485.38
317.607	490.38
317.836	502.38
318.065	493.38
318.295	488.38
318.524	493.38
318.753	508.38
318.983	482.38
319.212	463.38
319.441	484.38
319.67	500.38
319.9	489.38
320.129	491.38
320.358	484.38
320.587	507.38
320.816	491.38
321.046	500.38
321.275	472.38
321.504	492.38
321.733	500.38
321.962	504.38
322.191	517.38
322.42	501.38
322.649	505.38
322.878	491.38
323.108	479.38
323.337	500.38
323.566	510.38
323.795	522.38
324.024	518.38
324.253	498.38
324.482	501.38
324.71	480.38
324.939	494.38
325.168	538.38
325.397	513.38
325.626	538.38
325.855	521.38
326.084	538.38
326.313	536.38
326.542	552.38
326.77	561.38
326.999	538.38
327.228	540.38
327.457	546.38
327.686	532.38
327.914	543.38
328.143	530.38
328.372	540.38
328.6	545.38
328.829	549.38
329.058	551.38
329.287	544.38
329.515	562.38
329.744	565.38
329.972	559.38
330.201	562.38
330.43	558.38
330.658	574.38
330.887	576.38
331.115	562.38
331.344	573.38
331.572	585.38
331.801	581.38
332.03	628.38
332.258	626.38
332.486	643.38
332.715	656.38
332.943	680.38
333.172	718.38
333.4	735.38
333.629	739.38
333.857	768.38
334.085	755.38
334.314	694.38
334.542	706.38
334.771	697.38
334.999	683.38
335.227	657.38
335.455	694.38
335.684	706.38
335.912	668.38
336.14	642.38
336.369	666.38
336.597	658.38
336.825	668.38
337.053	672.38
337.281	646.38
337.51	636.38
337.738	631.38
337.966	606.38
338.194	628.38
338.422	616.38
338.65	607.38
338.878	615.38
339.106	593.38
339.334	614.38
339.562	575.38
339.79	588.38
340.018	572.38
340.246	569.38
340.474	602.38
340.702	570.38
340.93	593.38
341.158	576.38
341.386	583.38
341.614	574.38
341.842	579.38
342.07	565.38
342.298	552.38
342.526	568.38
342.754	574.38
342.981	584.38
343.209	613.38
343.437	613.38
343.665	657.38
343.893	720.38
344.12	728.38
344.348	701.38
344.576	659.38
344.804	625.38
345.031	593.38
345.259	593.38
345.487	585.38
345.714	572.38
345.942	561.38
346.17	552.38
346.397	547.38
346.625	565.38
346.853	578.38
347.08	559.38
347.308	580.38
347.535	576.38
347.763	582.38
347.99	561.38
348.218	564.38
348.445	568.38
348.673	571.38
348.9	560.38
349.128	568.38
349.355	562.38
349.583	555.38
349.81	565.38
350.037	558.38
350.265	543.38
350.492	551.38
350.72	522.38
350.947	534.38
351.174	551.38
351.402	523.38
351.629	554.38
351.856	533.38
352.083	509.38
352.311	527.38
352.538	534.38
352.765	546.38
352.992	543.38
353.22	537.38
353.447	533.38
353.674	516.38
353.901	558.38
354.128	548.38
354.355	548.38
354.583	545.38
354.81	555.38
355.037	557.38
355.264	559.38
355.491	562.38
355.718	549.38
355.945	567.38
356.172	543.38
356.399	539.38
356.626	536.38
356.853	542.38
357.08	553.38
357.307	548.38
357.534	551.38
357.761	541.38
357.988	567.38
358.215	551.38
358.441	552.38
358.668	539.38
358.895	558.38
359.122	562.38
359.349	542.38
359.576	536.38
359.802	539.38
360.029	514.38
360.256	537.38
360.483	549.38
360.709	552.38
360.936	552.38
361.163	536.38
361.39	529.38
361.616	540.38
361.843	538.38
362.07	546.38
362.296	552.38
362.523	542.38
362.749	528.38
362.976	549.38
363.203	526.38
363.429	535.38
363.656	541.38
363.882	522.38
364.109	536.38
364.335	550.38
364.562	550.38
364.788	524.38
365.015	521.38
365.241	540.38
365.468	539.38
365.694	524.38
365.92	531.38
366.147	565.38
366.373	536.38
366.599	551.38
366.826	538.38
367.052	553.38
367.278	534.38
367.505	553.38
367.731	545.38
367.957	538.38
368.184	551.38
368.41	553.38
368.636	551.38
368.862	579.38
369.089	545.38
369.315	570.38
369.541	550.38
369.767	561.38
369.993	560.38
370.219	563.38
370.445	577.38
370.672	593.38
370.898	592.38
371.124	586.38
371.35	597.38
371.576	603.38
371.802	603.38
372.028	580.38
372.254	583.38
372.48	598.38
372.706	594.38
372.932	613.38
373.158	597.38
373.384	593.38
373.61	575.38
373.835	582.38
374.061	579.38
374.287	589.38
374.513	605.38
374.739	630.38
374.965	651.38
375.191	656.38
375.416	657.38
375.642	640.38
375.868	613.38
376.094	615.38
376.319	606.38
376.545	599.38
376.771	593.38
376.997	584.38
377.222	576.38
377.448	596.38
377.674	608.38
377.899	603.38
378.125	575.38
378.35	587.38
378.576	575.38
378.802	567.38
379.027	606.38
379.253	606.38
379.478	586.38
379.704	586.38
379.929	589.38
380.155	582.38
380.38	586.38
380.606	569.38
380.831	588.38
381.057	569.38
381.282	589.38
381.507	584.38
381.733	611.38
381.958	593.38
382.184	602.38
382.409	601.38
382.634	613.38
382.86	603.38
383.085	636.38
383.31	648.38
383.535	642.38
383.761	668.38
383.986	683.38
384.211	686.38
384.436	698.38
384.662	725.38
384.887	707.38
385.112	724.38
385.337	698.38
385.562	709.38
385.787	729.38
386.013	731.38
386.238	727.38
386.463	712.38
386.688	714.38
386.913	690.38
387.138	705.38
387.363	691.38
387.588	694.38
387.813	709.38
388.038	697.38
388.263	698.38
388.488	674.38
388.713	706.38
388.938	688.38
389.163	671.38
389.387	690.38
389.612	698.38
389.837	682.38
390.062	681.38
390.287	681.38
390.512	712.38
390.736	687.38
390.961	719.38
391.186	724.38
391.411	733.38
391.636	766.38
391.86	800.38
392.085	834.38
392.31	802.38
392.534	783.38
392.759	736.38
392.984	750.38
393.208	747.38
393.433	757.38
393.658	756.38
393.882	750.38
394.107	743.38
394.331	744.38
394.556	769.38
394.78	760.38
395.005	799.38
395.229	783.38
395.454	774.38
395.678	791.38
395.903	802.38
396.127	774.38
396.352	735.38
396.576	735.38
396.801	743.38
397.025	736.38
397.249	751.38
397.474	792.38
397.698	807.38
397.922	786.38
398.147	757.38
398.371	798.38
398.595	830.38
398.82	851.38
399.044	910.38
399.268	1035.38
399.492	1230.38
399.717	1395.38
399.941	1358.38
400.165	1172.38
400.389	1007.38
400.613	987.38
400.837	923.38
401.062	888.38
401.286	890.38
401.51	879.38
401.734	890.38
401.958	884.38
402.182	913.38
402.406	933.38
402.63	900.38
402.854	962.38
403.078	953.38
403.302	971.38
403.526	1000.38
403.75	1003.38
403.974	1036.38
404.198	1058.38
404.422	1099.38
404.645	1054.38
404.869	1003.38
405.093	994.38
405.317	1002.38
405.541	977.38
405.765	958.38
405.988	976.38
406.212	971.38
406.436	982.38
406.66	1010.38
406.883	996.38
407.107	1089.38
407.331	1106.38
407.555	1132.38
407.778	1117.38
408.002	1104.38
408.226	1082.38
408.449	1070.38
408.673	1011.38
408.896	1008.38
409.12	979.38
409.344	1020.38
409.567	1049.38
409.791	1012.38
410.014	1014.38
410.238	1027.38
410.461	988.38
410.685	981.38
410.908	971.38
411.132	940.38
411.355	910.38
411.578	921.38
411.802	923.38
412.025	920.38
412.249	936.38
412.472	925.38
412.695	902.38
412.919	879.38
413.142	888.38
413.365	848.38
413.589	894.38
413.812	898.38
414.035	889.38
414.258	891.38
414.482	876.38
414.705	887.38
414.928	934.38
415.151	887.38
415.374	908.38
415.597	892.38
415.821	852.38
416.044	861.38
416.267	852.38
416.49	882.38
416.713	872.38
416.936	858.38
417.159	875.38
417.382	888.38
417.605	870.38
417.828	888.38
418.051	858.38
418.274	870.38
418.497	901.38
418.72	895.38
418.943	916.38
419.166	968.38
419.389	1006.38
419.611	1014.38
419.834	963.38
420.057	927.38
420.28	926.38
420.503	877.38
420.726	874.38
420.948	862.38
421.171	854.38
421.394	890.38
421.617	864.38
421.839	894.38
422.062	886.38
422.285	907.38
422.507	928.38
422.73	910.38
422.953	911.38
423.175	922.38
423.398	928.38
423.621	974.38
423.843	955.38
424.066	963.38
424.288	956.38
424.511	930.38
424.733	923.38
424.956	901.38
425.178	916.38
425.401	867.38
425.623	896.38
425.846	864.38
426.068	855.38
426.291	841.38
426.513	812.38
426.735	812.38
426.958	816.38
427.18	798.38
427.402	803.38
427.625	804.38
427.847	793.38
428.069	776.38
428.292	784.38
428.514	780.38
428.736	780.38
428.958	789.38
429.181	759.38
429.403	766.38
429.625	788.38
429.847	741.38
430.069	745.38
430.292	778.38
430.514	761.38
430.736	753.38
430.958	777.38
431.18	750.38
431.402	768.38
431.624	771.38
431.846	780.38
432.068	779.38
432.29	805.38
432.512	754.38
432.734	797.38
432.956	800.38
433.178	794.38
433.4	799.38
433.622	791.38
433.844	818.38
434.066	784.38
434.287	802.38
434.509	843.38
434.731	883.38
434.953	871.38
435.175	892.38
435.397	872.38
435.618	807.38
435.84	815.38
436.062	790.38
436.284	779.38
436.505	798.38
436.727	798.38
436.949	785.38
437.17	783.38
437.392	770.38
437.614	772.38
437.835	736.38
438.057	747.38
438.278	760.38
438.5	770.38
438.721	754.38
438.943	759.38
439.165	760.38
439.386	741.38
439.608	775.38
439.829	784.38
440.05	785.38
440.272	798.38
440.493	789.38
440.715	816.38
440.936	837.38
441.158	839.38
441.379	852.38
441.6	915.38
441.822	948.38
442.043	916.38
442.264	873.38
442.486	855.38
442.707	890.38
442.928	878.38
443.149	902.38
443.371	895.38
443.592	875.38
443.813	895.38
444.034	920.38
444.255	941.38
444.476	988.38
444.698	1032.38
444.919	1109.38
445.14	1150.38
445.361	1024.38
445.582	946.38
445.803	889.38
446.024	816.38
446.245	820.38
446.466	838.38
446.687	816.38
446.908	798.38
447.129	810.38
447.35	792.38
447.571	760.38
447.792	755.38
448.013	755.38
448.234	735.38
448.455	734.38
448.675	730.38
448.896	727.38
449.117	720.38
449.338	700.38
449.559	705.38
449.779	725.38
450	718.38
450.221	729.38
450.442	720.38
450.662	747.38
450.883	743.38
451.104	750.38
451.324	776.38
451.545	736.38
451.766	751.38
451.986	734.38
452.207	729.38
452.428	744.38
452.648	748.38
452.869	719.38
453.089	697.38
453.31	739.38
453.53	699.38
453.751	665.38
453.971	680.38
454.192	708.38
454.412	702.38
454.633	690.38
454.853	672.38
455.073	700.38
455.294	690.38
455.514	687.38
455.734	688.38
455.955	680.38
456.175	679.38
456.395	673.38
456.616	692.38
456.836	671.38
457.056	673.38
457.276	652.38
457.497	694.38
457.717	684.38
457.937	700.38
458.157	682.38
458.377	690.38
458.598	722.38
458.818	706.38
459.038	727.38
459.258	747.38
459.478	786.38
459.698	843.38
459.918	850.38
460.138	907.38
460.358	919.38
460.578	950.38
460.798	951.38
461.018	964.38
461.238	963.38
461.458	927.38
461.678	913.38
461.898	937.38
462.118	947.38
462.338	982.38
462.558	1022.38
462.777	1091.38
462.997	1183.38
463.217	1271.38
463.437	1303.38
463.657	1165.38
463.876	1073.38
464.096	1087.38
464.316	1088.38
464.536	1112.38
464.755	1043.38
464.975	1022.38
465.195	966.38
465.414	912.38
465.634	857.38
465.854	842.38
466.073	822.38
466.293	806.38
466.512	780.38
466.732	730.38
466.951	791.38
467.171	766.38
467.391	729.38
467.61	733.38
467.829	755.38
468.049	731.38
468.268	730.38
468.488	727.38
468.707	711.38
468.927	704.38
469.146	730.38
469.365	723.38
469.585	737.38
469.804	770.38
470.023	756.38
470.243	778.38
470.462	810.38
470.681	783.38
470.901	786.38
471.12	801.38
471.339	769.38
471.558	762.38
471.777	775.38
471.997	737.38
472.216	723.38
472.435	719.38
472.654	691.38
472.873	658.38
473.092	705.38
473.311	697.38
473.53	737.38
473.749	712.38
473.968	689.38
474.187	677.38
474.406	702.38
474.625	710.38
474.844	704.38
475.063	711.38
475.282	721.38
475.501	715.38
475.72	716.38
475.939	715.38
476.158	726.38
476.377	738.38
476.596	724.38
476.814	737.38
477.033	750.38
477.252	738.38
477.471	779.38
477.69	785.38
477.908	768.38
478.127	834.38
478.346	834.38
478.564	864.38
478.783	889.38
479.002	920.38
479.22	911.38
479.439	880.38
479.658	888.38
479.876	899.38
480.095	896.38
480.313	939.38
480.532	958.38
480.751	948.38
480.969	881.38
481.188	862.38
481.406	844.38
481.624	825.38
481.843	802.38
482.061	803.38
482.28	796.38
482.498	791.38
482.717	786.38
482.935	811.38
483.153	801.38
483.372	816.38
483.59	808.38
483.808	818.38
484.027	810.38
484.245	804.38
484.463	810.38
484.681	836.38
484.9	818.38
485.118	862.38
485.336	854.38
485.554	841.38
485.772	851.38
485.99	822.38
486.209	854.38
486.427	855.38
486.645	838.38
486.863	848.38
487.081	859.38
487.299	872.38
487.517	851.38
487.735	826.38
487.953	821.38
488.171	834.38
488.389	834.38
488.607	832.38
488.825	801.38
489.043	794.38
489.261	837.38
489.479	823.38
489.696	834.38
489.914	819.38
490.132	825.38
490.35	831.38
490.568	857.38
490.786	857.38
491.003	842.38
491.221	827.38
491.439	886.38
491.657	852.38
491.874	835.38
492.092	863.38
492.31	870.38
492.527	868.38
492.745	863.38
492.963	899.38
493.18	884.38
493.398	864.38
493.615	870.38
493.833	901.38
494.05	894.38
494.268	890.38
494.485	912.38
494.703	908.38
494.92	913.38
495.138	898.38
495.355	900.38
495.573	888.38
495.79	914.38
496.008	898.38
496.225	916.38
496.442	921.38
496.66	915.38
496.877	939.38
497.094	974.38
497.312	1000.38
497.529	986.38
497.746	1028.38
497.963	1026.38
498.181	1065.38
498.398	1091.38
498.615	1162.38
498.832	1266.38
499.049	1384.38
499.267	1472.38
499.484	1639.38
499.701	1826.38
499.918	2026.38
500.135	2391.38
500.352	2731.38
500.569	2878.38
500.786	2835.38
