Data from Ni(NO3)2@0.25M.TitratingCurve.Agarose3%dH2O.NegLispCup.LampEnergy10.LIBS07252019_HRD10591_18-02-54-565.txt Node
Date: Thu Jul 25 18:02:54 EDT 2019
User: cochatt
Spectrometer: HR+D1059
Trigger mode: 1
Integration Time (sec): 1.000000E-1
Scans to average: 1
Electric dark correction enabled: true
Nonlinearity correction enabled: false
Boxcar width: 0
XAxis mode: Wavelengths
Number of Pixels in Spectrum: 2048
>>>>>Begin Spectral Data<<<<<
223.165	-12.5
223.4	-12.5
223.635	-12.5
223.869	-25.5
224.104	-2.5
224.338	-16.5
224.573	-28.5
224.808	-15.5
225.042	-13.5
225.277	3.5
225.511	11.5
225.746	14.5
225.98	9.5
226.215	11.5
226.449	17.5
226.683	-1.5
226.918	25.5
227.152	22.5
227.387	26.5
227.621	26.5
227.856	37.5
228.09	41.5
228.324	48.5
228.559	49.5
228.793	49.5
229.027	78.5
229.262	83.5
229.496	78.5
229.73	73.5
229.964	99.5
230.199	105.5
230.433	103.5
230.667	98.5
230.901	99.5
231.136	97.5
231.37	86.5
231.604	85.5
231.838	105.5
232.072	117.5
232.306	118.5
232.541	103.5
232.775	126.5
233.009	98.5
233.243	115.5
233.477	98.5
233.711	106.5
233.945	99.5
234.179	102.5
234.413	94.5
234.647	103.5
234.881	99.5
235.115	106.5
235.349	102.5
235.583	107.5
235.817	91.5
236.051	118.5
236.285	107.5
236.519	97.5
236.753	119.5
236.987	97.5
237.221	113.5
237.455	107.5
237.689	106.5
237.922	105.5
238.156	104.5
238.39	110.5
238.624	115.5
238.858	106.5
239.091	111.5
239.325	95.5
239.559	112.5
239.793	123.5
240.027	125.5
240.26	109.5
240.494	106.5
240.728	118.5
240.961	134.5
241.195	110.5
241.429	113.5
241.662	106.5
241.896	117.5
242.13	123.5
242.363	123.5
242.597	119.5
242.83	121.5
243.064	118.5
243.298	121.5
243.531	129.5
243.765	130.5
243.998	129.5
244.232	128.5
244.465	129.5
244.699	143.5
244.932	137.5
245.166	121.5
245.399	130.5
245.633	138.5
245.866	137.5
246.099	120.5
246.333	138.5
246.566	139.5
246.8	139.5
247.033	142.5
247.266	136.5
247.5	131.5
247.733	152.5
247.966	154.5
248.2	147.5
248.433	168.5
248.666	161.5
248.899	158.5
249.133	170.5
249.366	149.5
249.599	152.5
249.832	176.5
250.066	161.5
250.299	170.5
250.532	179.5
250.765	166.5
250.998	184.5
251.231	177.5
251.465	194.5
251.698	185.5
251.931	187.5
252.164	187.5
252.397	186.5
252.63	187.5
252.863	192.5
253.096	209.5
253.329	190.5
253.562	195.5
253.795	205.5
254.028	200.5
254.261	201.5
254.494	218.5
254.727	203.5
254.96	216.5
255.193	220.5
255.426	229.5
255.659	212.5
255.892	240.5
256.124	221.5
256.357	245.5
256.59	237.5
256.823	242.5
257.056	242.5
257.289	238.5
257.521	262.5
257.754	244.5
257.987	257.5
258.22	274.5
258.452	243.5
258.685	255.5
258.918	254.5
259.151	257.5
259.383	261.5
259.616	255.5
259.849	252.5
260.081	266.5
260.314	275.5
260.547	275.5
260.779	267.5
261.012	279.5
261.244	274.5
261.477	261.5
261.71	287.5
261.942	281.5
262.175	247.5
262.407	289.5
262.64	278.5
262.872	286.5
263.105	280.5
263.337	290.5
263.57	296.5
263.802	293.5
264.035	280.5
264.267	307.5
264.499	290.5
264.732	305.5
264.964	296.5
265.197	308.5
265.429	281.5
265.661	315.5
265.894	303.5
266.126	311.5
266.358	300.5
266.591	301.5
266.823	302.5
267.055	308.5
267.287	316.5
267.52	310.5
267.752	300.5
267.984	306.5
268.216	314.5
268.448	306.5
268.681	311.5
268.913	296.5
269.145	328.5
269.377	305.5
269.609	313.5
269.841	320.5
270.073	314.5
270.306	297.5
270.538	332.5
270.77	303.5
271.002	328.5
271.234	329.5
271.466	320.5
271.698	314.5
271.93	338.5
272.162	334.5
272.394	321.5
272.626	338.5
272.858	327.5
273.09	319.5
273.322	345.5
273.553	327.5
273.785	342.5
274.017	330.5
274.249	337.5
274.481	322.5
274.713	314.5
274.945	323.5
275.176	323.5
275.408	342.5
275.64	344.5
275.872	335.5
276.104	336.5
276.335	333.5
276.567	338.5
276.799	301.5
277.031	350.5
277.262	349.5
277.494	343.5
277.726	340.5
277.957	339.5
278.189	343.5
278.421	331.5
278.652	342.5
278.884	339.5
279.115	344.5
279.347	328.5
279.579	338.5
279.81	344.5
280.042	356.5
280.273	336.5
280.505	340.5
280.736	340.5
280.968	338.5
281.199	355.5
281.431	360.5
281.662	359.5
281.894	362.5
282.125	340.5
282.356	360.5
282.588	345.5
282.819	350.5
283.051	334.5
283.282	335.5
283.513	334.5
283.745	353.5
283.976	347.5
284.207	347.5
284.439	355.5
284.67	355.5
284.901	345.5
285.132	359.5
285.364	353.5
285.595	332.5
285.826	336.5
286.057	345.5
286.288	349.5
286.52	360.5
286.751	337.5
286.982	343.5
287.213	366.5
287.444	359.5
287.675	355.5
287.906	347.5
288.138	350.5
288.369	340.5
288.6	364.5
288.831	337.5
289.062	350.5
289.293	366.5
289.524	353.5
289.755	355.5
289.986	355.5
290.217	354.5
290.448	352.5
290.679	369.5
290.91	391.5
291.141	362.5
291.371	362.5
291.602	365.5
291.833	350.5
292.064	341.5
292.295	347.5
292.526	341.5
292.757	347.5
292.987	360.5
293.218	356.5
293.449	375.5
293.68	357.5
293.91	370.5
294.141	359.5
294.372	363.5
294.603	358.5
294.833	356.5
295.064	348.5
295.295	352.5
295.525	351.5
295.756	379.5
295.987	355.5
296.217	353.5
296.448	349.5
296.679	365.5
296.909	348.5
297.14	371.5
297.37	373.5
297.601	378.5
297.831	374.5
298.062	367.5
298.292	378.5
298.523	394.5
298.753	368.5
298.984	371.5
299.214	386.5
299.445	379.5
299.675	379.5
299.905	387.5
300.136	382.5
300.366	394.5
300.597	373.5
300.827	390.5
301.057	392.5
301.288	404.5
301.518	389.5
301.748	399.5
301.979	400.5
302.209	375.5
302.439	393.5
302.669	401.5
302.9	396.5
303.13	401.5
303.36	407.5
303.59	389.5
303.82	403.5
304.051	397.5
304.281	417.5
304.511	405.5
304.741	415.5
304.971	410.5
305.201	401.5
305.431	431.5
305.661	404.5
305.891	398.5
306.121	402.5
306.352	396.5
306.582	404.5
306.812	410.5
307.042	403.5
307.272	397.5
307.502	409.5
307.731	413.5
307.961	403.5
308.191	417.5
308.421	419.5
308.651	438.5
308.881	399.5
309.111	414.5
309.341	416.5
309.571	416.5
309.8	427.5
310.03	429.5
310.26	438.5
310.49	449.5
310.72	424.5
310.949	435.5
311.179	445.5
311.409	435.5
311.639	462.5
311.868	459.5
312.098	455.5
312.328	461.5
312.557	468.5
312.787	453.5
313.017	487.5
313.246	476.5
313.476	460.5
313.706	493.5
313.935	501.5
314.165	486.5
314.394	482.5
314.624	507.5
314.853	477.5
315.083	513.5
315.312	508.5
315.542	459.5
315.771	507.5
316.001	502.5
316.23	495.5
316.46	505.5
316.689	521.5
316.919	522.5
317.148	529.5
317.377	540.5
317.607	518.5
317.836	529.5
318.065	515.5
318.295	510.5
318.524	562.5
318.753	549.5
318.983	531.5
319.212	545.5
319.441	573.5
319.67	561.5
319.9	530.5
320.129	547.5
320.358	550.5
320.587	575.5
320.816	592.5
321.046	569.5
321.275	589.5
321.504	570.5
321.733	574.5
321.962	584.5
322.191	594.5
322.42	591.5
322.649	578.5
322.878	614.5
323.108	610.5
323.337	629.5
323.566	620.5
323.795	614.5
324.024	623.5
324.253	634.5
324.482	651.5
324.71	652.5
324.939	646.5
325.168	651.5
325.397	671.5
325.626	658.5
325.855	634.5
326.084	650.5
326.313	660.5
326.542	663.5
326.77	678.5
326.999	691.5
327.228	680.5
327.457	689.5
327.686	698.5
327.914	688.5
328.143	701.5
328.372	665.5
328.6	696.5
328.829	690.5
329.058	715.5
329.287	723.5
329.515	739.5
329.744	729.5
329.972	721.5
330.201	728.5
330.43	736.5
330.658	726.5
330.887	734.5
331.115	740.5
331.344	756.5
331.572	739.5
331.801	785.5
332.03	749.5
332.258	763.5
332.486	787.5
332.715	806.5
332.943	803.5
333.172	763.5
333.4	776.5
333.629	797.5
333.857	817.5
334.085	808.5
334.314	810.5
334.542	815.5
334.771	795.5
334.999	822.5
335.227	826.5
335.455	819.5
335.684	806.5
335.912	848.5
336.14	840.5
336.369	844.5
336.597	829.5
336.825	851.5
337.053	838.5
337.281	846.5
337.51	827.5
337.738	831.5
337.966	814.5
338.194	840.5
338.422	829.5
338.65	822.5
338.878	808.5
339.106	819.5
339.334	833.5
339.562	825.5
339.79	823.5
340.018	841.5
340.246	790.5
340.474	796.5
340.702	800.5
340.93	819.5
341.158	823.5
341.386	825.5
341.614	826.5
341.842	824.5
342.07	834.5
342.298	792.5
342.526	819.5
342.754	829.5
342.981	819.5
343.209	827.5
343.437	861.5
343.665	862.5
343.893	873.5
344.12	858.5
344.348	842.5
344.576	851.5
344.804	862.5
345.031	823.5
345.259	818.5
345.487	800.5
345.714	811.5
345.942	822.5
346.17	833.5
346.397	850.5
346.625	819.5
346.853	790.5
347.08	801.5
347.308	794.5
347.535	794.5
347.763	805.5
347.99	808.5
348.218	797.5
348.445	809.5
348.673	799.5
348.9	801.5
349.128	801.5
349.355	815.5
349.583	792.5
349.81	791.5
350.037	772.5
350.265	806.5
350.492	811.5
350.72	787.5
350.947	823.5
351.174	786.5
351.402	817.5
351.629	798.5
351.856	797.5
352.083	775.5
352.311	784.5
352.538	771.5
352.765	778.5
352.992	778.5
353.22	778.5
353.447	763.5
353.674	744.5
353.901	769.5
354.128	783.5
354.355	799.5
354.583	760.5
354.81	777.5
355.037	776.5
355.264	772.5
355.491	778.5
355.718	787.5
355.945	773.5
356.172	792.5
356.399	784.5
356.626	802.5
356.853	784.5
357.08	773.5
357.307	767.5
357.534	784.5
357.761	777.5
357.988	768.5
358.215	745.5
358.441	755.5
358.668	797.5
358.895	781.5
359.122	770.5
359.349	777.5
359.576	759.5
359.802	756.5
360.029	781.5
360.256	750.5
360.483	781.5
360.709	774.5
360.936	773.5
361.163	781.5
361.39	752.5
361.616	782.5
361.843	788.5
362.07	771.5
362.296	762.5
362.523	781.5
362.749	761.5
362.976	749.5
363.203	772.5
363.429	768.5
363.656	767.5
363.882	785.5
364.109	781.5
364.335	784.5
364.562	791.5
364.788	794.5
365.015	767.5
365.241	773.5
365.468	792.5
365.694	777.5
365.92	758.5
366.147	745.5
366.373	758.5
366.599	787.5
366.826	759.5
367.052	764.5
367.278	745.5
367.505	761.5
367.731	753.5
367.957	767.5
368.184	756.5
368.41	751.5
368.636	775.5
368.862	780.5
369.089	775.5
369.315	769.5
369.541	756.5
369.767	782.5
369.993	760.5
370.219	774.5
370.445	758.5
370.672	793.5
370.898	770.5
371.124	770.5
371.35	785.5
371.576	763.5
371.802	765.5
372.028	766.5
372.254	752.5
372.48	770.5
372.706	786.5
372.932	766.5
373.158	783.5
373.384	752.5
373.61	759.5
373.835	769.5
374.061	766.5
374.287	775.5
374.513	769.5
374.739	799.5
374.965	763.5
375.191	769.5
375.416	776.5
375.642	766.5
375.868	791.5
376.094	754.5
376.319	757.5
376.545	751.5
376.771	742.5
376.997	728.5
377.222	735.5
377.448	769.5
377.674	754.5
377.899	723.5
378.125	743.5
378.35	733.5
378.576	729.5
378.802	734.5
379.027	724.5
379.253	740.5
379.478	726.5
379.704	722.5
379.929	729.5
380.155	714.5
380.38	684.5
380.606	703.5
380.831	737.5
381.057	721.5
381.282	694.5
381.507	729.5
381.733	727.5
381.958	714.5
382.184	734.5
382.409	722.5
382.634	759.5
382.86	729.5
383.085	768.5
383.31	777.5
383.535	729.5
383.761	712.5
383.986	737.5
384.211	728.5
384.436	763.5
384.662	769.5
384.887	792.5
385.112	744.5
385.337	772.5
385.562	788.5
385.787	755.5
386.013	777.5
386.238	754.5
386.463	785.5
386.688	794.5
386.913	764.5
387.138	765.5
387.363	807.5
387.588	816.5
387.813	807.5
388.038	772.5
388.263	787.5
388.488	765.5
388.713	813.5
388.938	800.5
389.163	793.5
389.387	782.5
389.612	773.5
389.837	774.5
390.062	769.5
390.287	772.5
390.512	792.5
390.736	802.5
390.961	808.5
391.186	788.5
391.411	818.5
391.636	803.5
391.86	814.5
392.085	830.5
392.31	810.5
392.534	802.5
392.759	797.5
392.984	798.5
393.208	786.5
393.433	805.5
393.658	797.5
393.882	807.5
394.107	771.5
394.331	807.5
394.556	810.5
394.78	791.5
395.005	832.5
395.229	805.5
395.454	824.5
395.678	825.5
395.903	822.5
396.127	808.5
396.352	799.5
396.576	811.5
396.801	821.5
397.025	826.5
397.249	827.5
397.474	853.5
397.698	833.5
397.922	863.5
398.147	877.5
398.371	849.5
398.595	862.5
398.82	849.5
399.044	869.5
399.268	914.5
399.492	964.5
399.717	1007.5
399.941	982.5
400.165	984.5
400.389	968.5
400.613	970.5
400.837	922.5
401.062	870.5
401.286	891.5
401.51	899.5
401.734	877.5
401.958	899.5
402.182	893.5
402.406	895.5
402.63	910.5
402.854	902.5
403.078	881.5
403.302	914.5
403.526	927.5
403.75	900.5
403.974	933.5
404.198	890.5
404.422	947.5
404.645	900.5
404.869	898.5
405.093	951.5
405.317	913.5
405.541	926.5
405.765	945.5
405.988	927.5
406.212	969.5
406.436	921.5
406.66	977.5
406.883	945.5
407.107	985.5
407.331	975.5
407.555	1017.5
407.778	978.5
408.002	1001.5
408.226	1023.5
408.449	1012.5
408.673	990.5
408.896	945.5
409.12	990.5
409.344	983.5
409.567	980.5
409.791	981.5
410.014	977.5
410.238	958.5
410.461	978.5
410.685	969.5
410.908	967.5
411.132	957.5
411.355	953.5
411.578	938.5
411.802	945.5
412.025	937.5
412.249	962.5
412.472	954.5
412.695	939.5
412.919	938.5
413.142	938.5
413.365	926.5
413.589	943.5
413.812	935.5
414.035	943.5
414.258	937.5
414.482	933.5
414.705	932.5
414.928	952.5
415.151	951.5
415.374	948.5
415.597	952.5
415.821	931.5
416.044	922.5
416.267	930.5
416.49	946.5
416.713	931.5
416.936	929.5
417.159	934.5
417.382	943.5
417.605	901.5
417.828	945.5
418.051	948.5
418.274	932.5
418.497	878.5
418.72	929.5
418.943	903.5
419.166	984.5
419.389	1039.5
419.611	1002.5
419.834	984.5
420.057	964.5
420.28	923.5
420.503	917.5
420.726	930.5
420.948	932.5
421.171	898.5
421.394	929.5
421.617	935.5
421.839	952.5
422.062	949.5
422.285	953.5
422.507	964.5
422.73	934.5
422.953	964.5
423.175	953.5
423.398	945.5
423.621	953.5
423.843	941.5
424.066	978.5
424.288	950.5
424.511	952.5
424.733	966.5
424.956	956.5
425.178	952.5
425.401	963.5
425.623	962.5
425.846	951.5
426.068	946.5
426.291	940.5
426.513	949.5
426.735	938.5
426.958	979.5
427.18	947.5
427.402	942.5
427.625	961.5
427.847	939.5
428.069	909.5
428.292	935.5
428.514	939.5
428.736	945.5
428.958	959.5
429.181	950.5
429.403	933.5
429.625	964.5
429.847	939.5
430.069	963.5
430.292	947.5
430.514	933.5
430.736	915.5
430.958	941.5
431.18	913.5
431.402	923.5
431.624	945.5
431.846	949.5
432.068	929.5
432.29	965.5
432.512	947.5
432.734	977.5
432.956	939.5
433.178	1006.5
433.4	986.5
433.622	979.5
433.844	975.5
434.066	947.5
434.287	938.5
434.509	942.5
434.731	977.5
434.953	961.5
435.175	996.5
435.397	1021.5
435.618	968.5
435.84	973.5
436.062	946.5
436.284	954.5
436.505	948.5
436.727	977.5
436.949	962.5
437.17	955.5
437.392	932.5
437.614	938.5
437.835	900.5
438.057	921.5
438.278	928.5
438.5	917.5
438.721	929.5
438.943	957.5
439.165	957.5
439.386	957.5
439.608	988.5
439.829	967.5
440.05	958.5
440.272	951.5
440.493	950.5
440.715	984.5
440.936	978.5
441.158	974.5
441.379	970.5
441.6	1019.5
441.822	984.5
442.043	1039.5
442.264	1012.5
442.486	979.5
442.707	990.5
442.928	986.5
443.149	1020.5
443.371	994.5
443.592	1000.5
443.813	1010.5
444.034	991.5
444.255	1015.5
444.476	1006.5
444.698	1032.5
444.919	1031.5
445.14	1145.5
445.361	1075.5
445.582	1040.5
445.803	977.5
446.024	983.5
446.245	985.5
446.466	990.5
446.687	970.5
446.908	978.5
447.129	955.5
447.35	964.5
447.571	941.5
447.792	946.5
448.013	930.5
448.234	930.5
448.455	894.5
448.675	905.5
448.896	914.5
449.117	878.5
449.338	879.5
449.559	899.5
449.779	928.5
450	919.5
450.221	922.5
450.442	948.5
450.662	929.5
450.883	909.5
451.104	897.5
451.324	920.5
451.545	893.5
451.766	896.5
451.986	888.5
452.207	875.5
452.428	877.5
452.648	911.5
452.869	877.5
453.089	866.5
453.31	903.5
453.53	871.5
453.751	850.5
453.971	868.5
454.192	892.5
454.412	865.5
454.633	864.5
454.853	879.5
455.073	849.5
455.294	900.5
455.514	867.5
455.734	855.5
455.955	849.5
456.175	881.5
456.395	851.5
456.616	817.5
456.836	872.5
457.056	888.5
457.276	851.5
457.497	885.5
457.717	870.5
457.937	856.5
458.157	859.5
458.377	847.5
458.598	884.5
458.818	913.5
459.038	890.5
459.258	905.5
459.478	909.5
459.698	924.5
459.918	945.5
460.138	951.5
460.358	955.5
460.578	939.5
460.798	999.5
461.018	1008.5
461.238	969.5
461.458	1014.5
461.678	1008.5
461.898	975.5
462.118	987.5
462.338	1010.5
462.558	1044.5
462.777	1053.5
462.997	1097.5
463.217	1102.5
463.437	1101.5
463.657	1047.5
463.876	1072.5
464.096	1074.5
464.316	1056.5
464.536	1078.5
464.755	1065.5
464.975	1024.5
465.195	1030.5
465.414	996.5
465.634	968.5
465.854	963.5
466.073	983.5
466.293	934.5
466.512	934.5
466.732	958.5
466.951	955.5
467.171	962.5
467.391	971.5
467.61	936.5
467.829	927.5
468.049	937.5
468.268	952.5
468.488	927.5
468.707	945.5
468.927	945.5
469.146	932.5
469.365	947.5
469.585	942.5
469.804	960.5
470.023	957.5
470.243	937.5
470.462	948.5
470.681	966.5
470.901	958.5
471.12	951.5
471.339	942.5
471.558	963.5
471.777	982.5
471.997	985.5
472.216	962.5
472.435	947.5
472.654	939.5
472.873	947.5
473.092	936.5
473.311	949.5
473.53	965.5
473.749	976.5
473.968	958.5
474.187	961.5
474.406	966.5
474.625	949.5
474.844	970.5
475.063	971.5
475.282	985.5
475.501	971.5
475.72	971.5
475.939	1013.5
476.158	1025.5
476.377	1034.5
476.596	1013.5
476.814	1013.5
477.033	994.5
477.252	1009.5
477.471	1055.5
477.69	1056.5
477.908	1060.5
478.127	1062.5
478.346	1056.5
478.564	1088.5
478.783	1130.5
479.002	1122.5
479.22	1118.5
479.439	1115.5
479.658	1099.5
479.876	1088.5
480.095	1102.5
480.313	1119.5
480.532	1151.5
480.751	1096.5
480.969	1101.5
481.188	1080.5
481.406	1105.5
481.624	1095.5
481.843	1113.5
482.061	1112.5
482.28	1107.5
482.498	1113.5
482.717	1119.5
482.935	1130.5
483.153	1126.5
483.372	1170.5
483.59	1157.5
483.808	1147.5
484.027	1130.5
484.245	1154.5
484.463	1154.5
484.681	1153.5
484.9	1141.5
485.118	1150.5
485.336	1159.5
485.554	1157.5
485.772	1147.5
485.99	1147.5
486.209	1167.5
486.427	1146.5
486.645	1167.5
486.863	1172.5
487.081	1187.5
487.299	1170.5
487.517	1176.5
487.735	1214.5
487.953	1231.5
488.171	1224.5
488.389	1181.5
488.607	1189.5
488.825	1202.5
489.043	1158.5
489.261	1192.5
489.479	1179.5
489.696	1155.5
489.914	1205.5
490.132	1151.5
490.35	1200.5
490.568	1229.5
490.786	1216.5
491.003	1211.5
491.221	1237.5
491.439	1227.5
491.657	1235.5
491.874	1216.5
492.092	1259.5
492.31	1264.5
492.527	1283.5
492.745	1242.5
492.963	1225.5
493.18	1243.5
493.398	1217.5
493.615	1256.5
493.833	1246.5
494.05	1277.5
494.268	1244.5
494.485	1249.5
494.703	1254.5
494.92	1255.5
495.138	1289.5
495.355	1269.5
495.573	1265.5
495.79	1275.5
496.008	1281.5
496.225	1282.5
496.442	1264.5
496.66	1305.5
496.877	1301.5
497.094	1296.5
497.312	1326.5
497.529	1316.5
497.746	1315.5
497.963	1367.5
498.181	1365.5
498.398	1382.5
498.615	1416.5
498.832	1461.5
499.049	1462.5
499.267	1537.5
499.484	1561.5
499.701	1616.5
499.918	1695.5
500.135	1755.5
500.352	1805.5
500.569	1795.5
500.786	1838.5
501.003	1793.5
501.22	1745.5
501.437	1665.5
501.654	1601.5
501.871	1587.5
502.088	1515.5
502.305	1486.5
502.522	1446.5
502.739	1411.5
502.956	1365.5
503.172	1364.5
503.389	1325.5
503.606	1310.5
503.823	1295.5
504.04	1322.5
504.256	1283.5
504.473	1293.5
504.69	1281.5
504.907	1285.5
505.123	1268.5
505.34	1224.5
505.557	1218.5
505.773	1209.5
505.99	1226.5
506.207	1160.5
506.423	1171.5
506.64	1176.5
506.856	1141.5
507.073	1145.5
507.289	1126.5
507.506	1147.5
507.722	1113.5
507.939	1129.5
508.155	1128.5
508.372	1112.5
508.588	1081.5
508.805	1109.5
509.021	1079.5
509.238	1130.5
509.454	1102.5
509.67	1079.5
509.887	1075.5
510.103	1071.5
510.319	1055.5
510.536	1056.5
510.752	1050.5
510.968	1071.5
511.184	1065.5
511.401	1069.5
511.617	1064.5
511.833	1075.5
512.049	1005.5
512.265	1037.5
512.481	1037.5
512.698	1059.5
512.914	1049.5
513.13	1042.5
513.346	999.5
513.562	1053.5
513.778	1031.5
513.994	1049.5
514.21	1037.5
514.426	1029.5
514.642	1058.5
514.858	1045.5
515.074	1048.5
515.29	1080.5
515.506	1069.5
515.721	1042.5
515.937	1039.5
516.153	1047.5
516.369	1081.5
516.585	1094.5
