Data from Ni(NO3)2Standard.Agarose3%.GreenCap.LampEnergy5.5.E.O_HRD10591_14-42-14-188.txt Node
Date: Mon Jul 22 14:42:14 EDT 2019
User: cochatt
Spectrometer: HR+D1059
Trigger mode: 1
Integration Time (sec): 1.000000E-1
Scans to average: 1
Electric dark correction enabled: true
Nonlinearity correction enabled: false
Boxcar width: 0
XAxis mode: Wavelengths
Number of Pixels in Spectrum: 2048
>>>>>Begin Spectral Data<<<<<
223.165	-9.88
223.4	-9.88
223.635	-9.88
223.869	-8.88
224.104	-17.88
224.338	-8.88
224.573	-28.88
224.808	-9.88
225.042	-11.88
225.277	-6.88
225.511	-19.88
225.746	19.12
225.98	-0.88
226.215	14.12
226.449	25.12
226.683	19.12
226.918	27.12
227.152	19.12
227.387	24.12
227.621	33.12
227.856	49.12
228.09	52.12
228.324	55.12
228.559	67.12
228.793	58.12
229.027	54.12
229.262	65.12
229.496	61.12
229.73	77.12
229.964	72.12
230.199	82.12
230.433	75.12
230.667	89.12
230.901	90.12
231.136	81.12
231.37	71.12
231.604	79.12
231.838	81.12
232.072	80.12
232.306	91.12
232.541	67.12
232.775	95.12
233.009	89.12
233.243	88.12
233.477	71.12
233.711	94.12
233.945	78.12
234.179	70.12
234.413	92.12
234.647	80.12
234.881	81.12
235.115	87.12
235.349	81.12
235.583	79.12
235.817	67.12
236.051	80.12
236.285	84.12
236.519	85.12
236.753	86.12
236.987	68.12
237.221	83.12
237.455	79.12
237.689	89.12
237.922	86.12
238.156	74.12
238.39	71.12
238.624	91.12
238.858	86.12
239.091	80.12
239.325	79.12
239.559	64.12
239.793	73.12
240.027	82.12
240.26	86.12
240.494	80.12
240.728	98.12
240.961	73.12
241.195	76.12
241.429	86.12
241.662	92.12
241.896	87.12
242.13	83.12
242.363	85.12
242.597	84.12
242.83	79.12
243.064	80.12
243.298	98.12
243.531	80.12
243.765	69.12
243.998	86.12
244.232	90.12
244.465	86.12
244.699	88.12
244.932	69.12
245.166	85.12
245.399	86.12
245.633	87.12
245.866	68.12
246.099	88.12
246.333	92.12
246.566	67.12
246.8	82.12
247.033	80.12
247.266	84.12
247.5	85.12
247.733	94.12
247.966	78.12
248.2	87.12
248.433	85.12
248.666	86.12
248.899	77.12
249.133	75.12
249.366	87.12
249.599	94.12
249.832	65.12
250.066	79.12
250.299	83.12
250.532	91.12
250.765	87.12
250.998	71.12
251.231	70.12
251.465	72.12
251.698	88.12
251.931	93.12
252.164	88.12
252.397	73.12
252.63	85.12
252.863	81.12
253.096	78.12
253.329	93.12
253.562	89.12
253.795	80.12
254.028	89.12
254.261	93.12
254.494	86.12
254.727	83.12
254.96	88.12
255.193	80.12
255.426	89.12
255.659	77.12
255.892	73.12
256.124	85.12
256.357	89.12
256.59	86.12
256.823	80.12
257.056	92.12
257.289	79.12
257.521	95.12
257.754	82.12
257.987	86.12
258.22	84.12
258.452	65.12
258.685	81.12
258.918	87.12
259.151	84.12
259.383	81.12
259.616	76.12
259.849	81.12
260.081	93.12
260.314	81.12
260.547	95.12
260.779	88.12
261.012	76.12
261.244	81.12
261.477	87.12
261.71	84.12
261.942	89.12
262.175	83.12
262.407	79.12
262.64	82.12
262.872	83.12
263.105	92.12
263.337	98.12
263.57	92.12
263.802	100.12
264.035	86.12
264.267	69.12
264.499	87.12
264.732	86.12
264.964	80.12
265.197	78.12
265.429	87.12
265.661	79.12
265.894	80.12
266.126	84.12
266.358	86.12
266.591	90.12
266.823	72.12
267.055	87.12
267.287	84.12
267.52	86.12
267.752	100.12
267.984	89.12
268.216	86.12
268.448	80.12
268.681	93.12
268.913	83.12
269.145	87.12
269.377	83.12
269.609	80.12
269.841	81.12
270.073	90.12
270.306	96.12
270.538	80.12
270.77	81.12
271.002	80.12
271.234	84.12
271.466	88.12
271.698	82.12
271.93	76.12
272.162	87.12
272.394	94.12
272.626	84.12
272.858	91.12
273.09	97.12
273.322	93.12
273.553	89.12
273.785	87.12
274.017	95.12
274.249	92.12
274.481	94.12
274.713	92.12
274.945	75.12
275.176	94.12
275.408	99.12
275.64	88.12
275.872	85.12
276.104	89.12
276.335	78.12
276.567	77.12
276.799	88.12
277.031	84.12
277.262	81.12
277.494	84.12
277.726	91.12
277.957	72.12
278.189	79.12
278.421	74.12
278.652	91.12
278.884	90.12
279.115	92.12
279.347	88.12
279.579	90.12
279.81	87.12
280.042	84.12
280.273	83.12
280.505	79.12
280.736	92.12
280.968	93.12
281.199	78.12
281.431	89.12
281.662	85.12
281.894	80.12
282.125	83.12
282.356	78.12
282.588	99.12
282.819	88.12
283.051	83.12
283.282	92.12
283.513	71.12
283.745	85.12
283.976	90.12
284.207	97.12
284.439	95.12
284.67	96.12
284.901	89.12
285.132	102.12
285.364	102.12
285.595	96.12
285.826	91.12
286.057	92.12
286.288	84.12
286.52	85.12
286.751	85.12
286.982	81.12
287.213	76.12
287.444	85.12
287.675	84.12
287.906	91.12
288.138	76.12
288.369	80.12
288.6	86.12
288.831	91.12
289.062	97.12
289.293	100.12
289.524	80.12
289.755	84.12
289.986	81.12
290.217	101.12
290.448	101.12
290.679	98.12
290.91	98.12
291.141	91.12
291.371	89.12
291.602	93.12
291.833	89.12
292.064	76.12
292.295	75.12
292.526	93.12
292.757	88.12
292.987	80.12
293.218	87.12
293.449	94.12
293.68	90.12
293.91	90.12
294.141	91.12
294.372	95.12
294.603	93.12
294.833	88.12
295.064	85.12
295.295	94.12
295.525	80.12
295.756	69.12
295.987	84.12
296.217	81.12
296.448	88.12
296.679	82.12
296.909	91.12
297.14	90.12
297.37	89.12
297.601	80.12
297.831	83.12
298.062	85.12
298.292	78.12
298.523	95.12
298.753	95.12
298.984	76.12
299.214	92.12
299.445	99.12
299.675	88.12
299.905	84.12
300.136	83.12
300.366	93.12
300.597	82.12
300.827	81.12
301.057	93.12
301.288	99.12
301.518	87.12
301.748	89.12
301.979	79.12
302.209	88.12
302.439	90.12
302.669	93.12
302.9	97.12
303.13	100.12
303.36	95.12
303.59	85.12
303.82	90.12
304.051	92.12
304.281	91.12
304.511	92.12
304.741	88.12
304.971	88.12
305.201	91.12
305.431	82.12
305.661	95.12
305.891	89.12
306.121	82.12
306.352	98.12
306.582	101.12
306.812	91.12
307.042	76.12
307.272	101.12
307.502	89.12
307.731	102.12
307.961	84.12
308.191	83.12
308.421	86.12
308.651	90.12
308.881	98.12
309.111	87.12
309.341	93.12
309.571	92.12
309.8	80.12
310.03	86.12
310.26	83.12
310.49	78.12
310.72	85.12
310.949	95.12
311.179	83.12
311.409	93.12
311.639	93.12
311.868	80.12
312.098	87.12
312.328	79.12
312.557	93.12
312.787	96.12
313.017	88.12
313.246	94.12
313.476	90.12
313.706	85.12
313.935	89.12
314.165	92.12
314.394	81.12
314.624	69.12
314.853	84.12
315.083	78.12
315.312	69.12
315.542	85.12
315.771	87.12
316.001	84.12
316.23	78.12
316.46	81.12
316.689	85.12
316.919	79.12
317.148	99.12
317.377	85.12
317.607	94.12
317.836	93.12
318.065	93.12
318.295	84.12
318.524	83.12
318.753	88.12
318.983	86.12
319.212	80.12
319.441	89.12
319.67	80.12
319.9	86.12
320.129	84.12
320.358	91.12
320.587	100.12
320.816	91.12
321.046	93.12
321.275	91.12
321.504	76.12
321.733	90.12
321.962	99.12
322.191	103.12
322.42	79.12
322.649	97.12
322.878	89.12
323.108	95.12
323.337	82.12
323.566	90.12
323.795	93.12
324.024	74.12
324.253	90.12
324.482	81.12
324.71	90.12
324.939	93.12
325.168	94.12
325.397	87.12
325.626	87.12
325.855	100.12
326.084	84.12
326.313	92.12
326.542	75.12
326.77	83.12
326.999	91.12
327.228	83.12
327.457	92.12
327.686	86.12
327.914	97.12
328.143	92.12
328.372	81.12
328.6	101.12
328.829	85.12
329.058	99.12
329.287	105.12
329.515	81.12
329.744	87.12
329.972	104.12
330.201	85.12
330.43	92.12
330.658	76.12
330.887	83.12
331.115	91.12
331.344	100.12
331.572	87.12
331.801	74.12
332.03	96.12
332.258	99.12
332.486	96.12
332.715	101.12
332.943	91.12
333.172	79.12
333.4	91.12
333.629	93.12
333.857	89.12
334.085	93.12
334.314	94.12
334.542	97.12
334.771	95.12
334.999	81.12
335.227	103.12
335.455	110.12
335.684	94.12
335.912	93.12
336.14	104.12
336.369	78.12
336.597	91.12
336.825	94.12
337.053	82.12
337.281	81.12
337.51	91.12
337.738	85.12
337.966	89.12
338.194	88.12
338.422	97.12
338.65	90.12
338.878	95.12
339.106	84.12
339.334	92.12
339.562	92.12
339.79	95.12
340.018	90.12
340.246	85.12
340.474	87.12
340.702	103.12
340.93	92.12
341.158	91.12
341.386	93.12
341.614	88.12
341.842	85.12
342.07	102.12
342.298	96.12
342.526	80.12
342.754	96.12
342.981	91.12
343.209	99.12
343.437	88.12
343.665	89.12
343.893	96.12
344.12	86.12
344.348	86.12
344.576	86.12
344.804	107.12
345.031	106.12
345.259	76.12
345.487	86.12
345.714	81.12
345.942	81.12
346.17	81.12
346.397	78.12
346.625	83.12
346.853	87.12
347.08	78.12
347.308	89.12
347.535	86.12
347.763	94.12
347.99	85.12
348.218	96.12
348.445	95.12
348.673	87.12
348.9	102.12
349.128	103.12
349.355	88.12
349.583	101.12
349.81	78.12
350.037	82.12
350.265	84.12
350.492	89.12
350.72	90.12
350.947	83.12
351.174	92.12
351.402	83.12
351.629	100.12
351.856	95.12
352.083	80.12
352.311	90.12
352.538	86.12
352.765	82.12
352.992	79.12
353.22	105.12
353.447	87.12
353.674	87.12
353.901	76.12
354.128	96.12
354.355	88.12
354.583	99.12
354.81	80.12
355.037	79.12
355.264	80.12
355.491	88.12
355.718	94.12
355.945	90.12
356.172	96.12
356.399	82.12
356.626	89.12
356.853	79.12
357.08	85.12
357.307	92.12
357.534	86.12
357.761	97.12
357.988	91.12
358.215	92.12
358.441	96.12
358.668	93.12
358.895	78.12
359.122	90.12
359.349	77.12
359.576	84.12
359.802	80.12
360.029	80.12
360.256	92.12
360.483	82.12
360.709	87.12
360.936	83.12
361.163	81.12
361.39	76.12
361.616	92.12
361.843	102.12
362.07	89.12
362.296	81.12
362.523	78.12
362.749	89.12
362.976	91.12
363.203	90.12
363.429	85.12
363.656	81.12
363.882	69.12
364.109	78.12
364.335	82.12
364.562	79.12
364.788	91.12
365.015	88.12
365.241	83.12
365.468	91.12
365.694	85.12
365.92	80.12
366.147	81.12
366.373	72.12
366.599	90.12
366.826	94.12
367.052	65.12
367.278	99.12
367.505	78.12
367.731	89.12
367.957	89.12
368.184	80.12
368.41	71.12
368.636	87.12
368.862	83.12
369.089	92.12
369.315	100.12
369.541	81.12
369.767	85.12
369.993	108.12
370.219	92.12
370.445	97.12
370.672	86.12
370.898	87.12
371.124	95.12
371.35	95.12
371.576	87.12
371.802	88.12
372.028	92.12
372.254	85.12
372.48	98.12
372.706	84.12
372.932	86.12
373.158	79.12
373.384	86.12
373.61	95.12
373.835	75.12
374.061	86.12
374.287	81.12
374.513	78.12
374.739	80.12
374.965	98.12
375.191	79.12
375.416	92.12
375.642	72.12
375.868	77.12
376.094	83.12
376.319	83.12
376.545	84.12
376.771	89.12
376.997	77.12
377.222	91.12
377.448	75.12
377.674	80.12
377.899	86.12
378.125	69.12
378.35	87.12
378.576	88.12
378.802	81.12
379.027	84.12
379.253	79.12
379.478	81.12
379.704	80.12
379.929	84.12
380.155	92.12
380.38	87.12
380.606	87.12
380.831	85.12
381.057	88.12
381.282	79.12
381.507	96.12
381.733	88.12
381.958	78.12
382.184	91.12
382.409	88.12
382.634	102.12
382.86	83.12
383.085	103.12
383.31	91.12
383.535	83.12
383.761	84.12
383.986	73.12
384.211	90.12
384.436	79.12
384.662	80.12
384.887	88.12
385.112	91.12
385.337	87.12
385.562	93.12
385.787	84.12
386.013	97.12
386.238	81.12
386.463	75.12
386.688	77.12
386.913	86.12
387.138	82.12
387.363	90.12
387.588	86.12
387.813	91.12
388.038	80.12
388.263	82.12
388.488	88.12
388.713	88.12
388.938	93.12
389.163	106.12
389.387	98.12
389.612	99.12
389.837	99.12
390.062	101.12
390.287	93.12
390.512	100.12
390.736	75.12
390.961	90.12
391.186	84.12
391.411	91.12
391.636	82.12
391.86	90.12
392.085	92.12
392.31	90.12
392.534	82.12
392.759	91.12
392.984	84.12
393.208	84.12
393.433	75.12
393.658	92.12
393.882	84.12
394.107	91.12
394.331	75.12
394.556	88.12
394.78	82.12
395.005	85.12
395.229	87.12
395.454	80.12
395.678	91.12
395.903	85.12
396.127	96.12
396.352	90.12
396.576	82.12
396.801	71.12
397.025	92.12
397.249	98.12
397.474	99.12
397.698	102.12
397.922	91.12
398.147	87.12
398.371	82.12
398.595	85.12
398.82	108.12
399.044	79.12
399.268	100.12
399.492	91.12
399.717	79.12
399.941	86.12
400.165	92.12
400.389	88.12
400.613	86.12
400.837	97.12
401.062	79.12
401.286	94.12
401.51	78.12
401.734	77.12
401.958	88.12
402.182	83.12
402.406	93.12
402.63	91.12
402.854	80.12
403.078	88.12
403.302	88.12
403.526	91.12
403.75	87.12
403.974	93.12
404.198	78.12
404.422	89.12
404.645	85.12
404.869	87.12
405.093	101.12
405.317	100.12
405.541	89.12
405.765	78.12
405.988	93.12
406.212	88.12
406.436	82.12
406.66	91.12
406.883	88.12
407.107	80.12
407.331	88.12
407.555	81.12
407.778	93.12
408.002	97.12
408.226	81.12
408.449	96.12
408.673	91.12
408.896	88.12
409.12	92.12
409.344	94.12
409.567	93.12
409.791	82.12
410.014	87.12
410.238	103.12
410.461	96.12
410.685	87.12
410.908	87.12
411.132	78.12
411.355	75.12
411.578	92.12
411.802	90.12
412.025	86.12
412.249	85.12
412.472	92.12
412.695	103.12
412.919	91.12
413.142	87.12
413.365	82.12
413.589	92.12
413.812	87.12
414.035	89.12
414.258	92.12
414.482	87.12
414.705	93.12
414.928	105.12
415.151	92.12
415.374	87.12
415.597	89.12
415.821	88.12
416.044	87.12
416.267	91.12
416.49	78.12
416.713	97.12
416.936	89.12
417.159	89.12
417.382	94.12
417.605	89.12
417.828	77.12
418.051	86.12
418.274	72.12
418.497	86.12
418.72	87.12
418.943	88.12
419.166	75.12
419.389	85.12
419.611	89.12
419.834	91.12
420.057	97.12
420.28	88.12
420.503	78.12
420.726	90.12
420.948	94.12
421.171	90.12
421.394	82.12
421.617	93.12
421.839	81.12
422.062	89.12
422.285	88.12
422.507	92.12
422.73	92.12
422.953	93.12
423.175	98.12
423.398	92.12
423.621	87.12
423.843	83.12
424.066	89.12
424.288	79.12
424.511	80.12
424.733	90.12
424.956	81.12
425.178	92.12
425.401	85.12
425.623	89.12
425.846	92.12
426.068	85.12
426.291	101.12
426.513	88.12
426.735	89.12
426.958	95.12
427.18	80.12
427.402	79.12
427.625	89.12
427.847	87.12
428.069	70.12
428.292	87.12
428.514	90.12
428.736	89.12
428.958	91.12
429.181	85.12
429.403	94.12
429.625	81.12
429.847	87.12
430.069	78.12
430.292	95.12
430.514	81.12
430.736	84.12
430.958	99.12
431.18	94.12
431.402	89.12
431.624	87.12
431.846	92.12
432.068	81.12
432.29	95.12
432.512	102.12
432.734	73.12
432.956	76.12
433.178	91.12
433.4	81.12
433.622	96.12
433.844	90.12
434.066	90.12
434.287	88.12
434.509	89.12
434.731	88.12
434.953	90.12
435.175	88.12
435.397	96.12
435.618	74.12
435.84	76.12
436.062	75.12
436.284	86.12
436.505	73.12
436.727	78.12
436.949	85.12
437.17	73.12
437.392	88.12
437.614	94.12
437.835	98.12
438.057	105.12
438.278	71.12
438.5	87.12
438.721	91.12
438.943	85.12
439.165	85.12
439.386	75.12
439.608	77.12
439.829	69.12
440.05	81.12
440.272	90.12
440.493	93.12
440.715	90.12
440.936	85.12
441.158	85.12
441.379	80.12
441.6	92.12
441.822	101.12
442.043	83.12
442.264	100.12
442.486	88.12
442.707	102.12
442.928	91.12
443.149	98.12
443.371	78.12
443.592	84.12
443.813	91.12
444.034	79.12
444.255	101.12
444.476	76.12
444.698	84.12
444.919	76.12
445.14	204.12
445.361	139.12
445.582	89.12
445.803	91.12
446.024	86.12
446.245	84.12
446.466	93.12
446.687	87.12
446.908	84.12
447.129	80.12
447.35	84.12
447.571	98.12
447.792	92.12
448.013	97.12
448.234	86.12
448.455	85.12
448.675	86.12
448.896	100.12
449.117	94.12
449.338	80.12
449.559	79.12
449.779	90.12
450	107.12
450.221	100.12
450.442	84.12
450.662	87.12
450.883	88.12
451.104	92.12
451.324	80.12
451.545	84.12
451.766	87.12
451.986	105.12
452.207	91.12
452.428	93.12
452.648	82.12
452.869	94.12
453.089	88.12
453.31	85.12
453.53	92.12
453.751	92.12
453.971	88.12
454.192	106.12
454.412	87.12
454.633	92.12
454.853	87.12
455.073	79.12
455.294	73.12
455.514	84.12
455.734	92.12
455.955	75.12
456.175	87.12
456.395	76.12
456.616	94.12
456.836	83.12
457.056	92.12
457.276	72.12
457.497	73.12
457.717	94.12
457.937	92.12
458.157	86.12
458.377	104.12
458.598	89.12
458.818	85.12
459.038	88.12
459.258	82.12
459.478	93.12
459.698	91.12
459.918	90.12
460.138	89.12
460.358	91.12
460.578	88.12
460.798	94.12
461.018	84.12
461.238	94.12
461.458	97.12
461.678	93.12
461.898	85.12
462.118	90.12
462.338	94.12
462.558	81.12
462.777	97.12
462.997	86.12
463.217	88.12
463.437	87.12
463.657	90.12
463.876	92.12
464.096	96.12
464.316	93.12
464.536	81.12
464.755	91.12
464.975	91.12
465.195	91.12
465.414	97.12
465.634	76.12
465.854	88.12
466.073	80.12
466.293	83.12
466.512	88.12
466.732	89.12
466.951	78.12
467.171	81.12
467.391	81.12
467.61	87.12
467.829	83.12
468.049	84.12
468.268	71.12
468.488	84.12
468.707	81.12
468.927	92.12
469.146	86.12
469.365	102.12
469.585	85.12
469.804	82.12
470.023	95.12
470.243	86.12
470.462	96.12
470.681	93.12
470.901	92.12
471.12	88.12
471.339	99.12
471.558	94.12
471.777	83.12
471.997	73.12
472.216	81.12
472.435	93.12
472.654	95.12
472.873	85.12
473.092	81.12
473.311	89.12
473.53	89.12
473.749	86.12
473.968	95.12
474.187	87.12
474.406	96.12
474.625	103.12
474.844	101.12
475.063	99.12
475.282	90.12
475.501	86.12
475.72	96.12
475.939	86.12
476.158	89.12
476.377	94.12
476.596	88.12
476.814	95.12
477.033	87.12
477.252	94.12
477.471	96.12
477.69	101.12
477.908	87.12
478.127	96.12
478.346	87.12
478.564	100.12
478.783	94.12
479.002	93.12
479.22	92.12
479.439	102.12
479.658	94.12
479.876	94.12
480.095	103.12
480.313	101.12
480.532	106.12
480.751	85.12
480.969	89.12
481.188	101.12
481.406	97.12
481.624	89.12
481.843	81.12
482.061	95.12
482.28	79.12
482.498	96.12
482.717	83.12
482.935	97.12
483.153	87.12
483.372	92.12
483.59	100.12
483.808	92.12
484.027	97.12
484.245	94.12
484.463	72.12
484.681	104.12
484.9	91.12
485.118	99.12
485.336	92.12
485.554	92.12
485.772	92.12
485.99	94.12
486.209	79.12
486.427	99.12
486.645	89.12
486.863	90.12
487.081	103.12
487.299	93.12
487.517	117.12
487.735	77.12
487.953	96.12
488.171	79.12
488.389	88.12
488.607	105.12
488.825	90.12
489.043	99.12
489.261	96.12
489.479	100.12
489.696	97.12
489.914	96.12
490.132	102.12
490.35	100.12
490.568	98.12
490.786	84.12
491.003	104.12
491.221	91.12
491.439	101.12
491.657	97.12
491.874	103.12
492.092	92.12
492.31	98.12
492.527	104.12
492.745	91.12
492.963	92.12
493.18	105.12
493.398	100.12
493.615	98.12
493.833	96.12
494.05	89.12
494.268	89.12
494.485	96.12
494.703	89.12
494.92	110.12
495.138	96.12
495.355	101.12
495.573	97.12
495.79	107.12
496.008	92.12
496.225	89.12
496.442	86.12
496.66	103.12
496.877	107.12
497.094	96.12
497.312	89.12
497.529	97.12
497.746	92.12
497.963	108.12
498.181	98.12
498.398	94.12
498.615	99.12
498.832	91.12
499.049	100.12
499.267	100.12
499.484	116.12
499.701	112.12
499.918	106.12
500.135	104.12
500.352	106.12
500.569	108.12
500.786	122.12
501.003	118.12
501.22	92.12
501.437	100.12
501.654	108.12
501.871	107.12
502.088	104.12
502.305	91.12
502.522	107.12
502.739	99.12
502.956	80.12
503.172	100.12
503.389	100.12
503.606	111.12
503.823	98.12
504.04	87.12
504.256	93.12
504.473	101.12
504.69	101.12
504.907	88.12
505.123	86.12
505.34	77.12
505.557	93.12
505.773	86.12
505.99	91.12
506.207	94.12
506.423	98.12
506.64	102.12
506.856	78.12
507.073	82.12
507.289	91.12
507.506	95.12
507.722	92.12
507.939	97.12
508.155	85.12
508.372	91.12
508.588	104.12
508.805	99.12
509.021	89.12
509.238	78.12
509.454	90.12
509.67	87.12
509.887	84.12
510.103	84.12
510.319	87.12
510.536	96.12
510.752	88.12
510.968	104.12
511.184	79.12
511.401	95.12
511.617	96.12
511.833	104.12
512.049	95.12
512.265	101.12
512.481	98.12
512.698	93.12
512.914	83.12
513.13	104.12
513.346	88.12
513.562	96.12
513.778	98.12
513.994	90.12
514.21	85.12
514.426	89.12
514.642	85.12
514.858	85.12
515.074	88.12
515.29	95.12
515.506	85.12
515.721	87.12
515.937	86.12
516.153	101.12
516.369	90.12
516.585	104.12
516.801	92.12
517.016	95.12
517.232	94.12
517.448	83.12
517.664	79.12
517.879	78.12
