Data from Ni(NO3)2@0.125M.TitratingCurve.Agarose3%dH2O.NegLispCup.LampEnergy10.LIBS07252019_HRD10591_18-11-10-569.txt Node
Date: Thu Jul 25 18:11:10 EDT 2019
User: cochatt
Spectrometer: HR+D1059
Trigger mode: 1
Integration Time (sec): 1.000000E-1
Scans to average: 1
Electric dark correction enabled: true
Nonlinearity correction enabled: false
Boxcar width: 0
XAxis mode: Wavelengths
Number of Pixels in Spectrum: 2048
>>>>>Begin Spectral Data<<<<<
223.165	-19.19
223.4	-19.19
223.635	-19.19
223.869	-11.19
224.104	-18.19
224.338	-15.19
224.573	-14.19
224.808	-13.19
225.042	-6.19
225.277	-5.19
225.511	4.81
225.746	-3.19
225.98	12.81
226.215	11.81
226.449	11.81
226.683	12.81
226.918	19.81
227.152	31.81
227.387	38.81
227.621	36.81
227.856	33.81
228.09	51.81
228.324	43.81
228.559	54.81
228.793	86.81
229.027	117.81
229.262	134.81
229.496	132.81
229.73	135.81
229.964	140.81
230.199	150.81
230.433	138.81
230.667	148.81
230.901	160.81
231.136	155.81
231.37	160.81
231.604	157.81
231.838	160.81
232.072	169.81
232.306	184.81
232.541	168.81
232.775	164.81
233.009	171.81
233.243	183.81
233.477	171.81
233.711	158.81
233.945	172.81
234.179	161.81
234.413	172.81
234.647	154.81
234.881	166.81
235.115	174.81
235.349	180.81
235.583	176.81
235.817	169.81
236.051	178.81
236.285	183.81
236.519	186.81
236.753	169.81
236.987	186.81
237.221	172.81
237.455	184.81
237.689	180.81
237.922	183.81
238.156	193.81
238.39	173.81
238.624	198.81
238.858	192.81
239.091	185.81
239.325	203.81
239.559	210.81
239.793	218.81
240.027	202.81
240.26	213.81
240.494	221.81
240.728	200.81
240.961	232.81
241.195	212.81
241.429	221.81
241.662	218.81
241.896	204.81
242.13	225.81
242.363	225.81
242.597	221.81
242.83	203.81
243.064	227.81
243.298	221.81
243.531	226.81
243.765	248.81
243.998	252.81
244.232	258.81
244.465	240.81
244.699	211.81
244.932	243.81
245.166	252.81
245.399	245.81
245.633	261.81
245.866	245.81
246.099	257.81
246.333	261.81
246.566	256.81
246.8	277.81
247.033	269.81
247.266	270.81
247.5	261.81
247.733	273.81
247.966	285.81
248.2	307.81
248.433	297.81
248.666	291.81
248.899	298.81
249.133	281.81
249.366	292.81
249.599	300.81
249.832	304.81
250.066	287.81
250.299	308.81
250.532	308.81
250.765	298.81
250.998	314.81
251.231	307.81
251.465	306.81
251.698	301.81
251.931	318.81
252.164	313.81
252.397	314.81
252.63	324.81
252.863	334.81
253.096	338.81
253.329	331.81
253.562	325.81
253.795	342.81
254.028	331.81
254.261	317.81
254.494	344.81
254.727	350.81
254.96	324.81
255.193	348.81
255.426	356.81
255.659	343.81
255.892	355.81
256.124	358.81
256.357	358.81
256.59	354.81
256.823	351.81
257.056	384.81
257.289	357.81
257.521	373.81
257.754	349.81
257.987	382.81
258.22	361.81
258.452	372.81
258.685	361.81
258.918	368.81
259.151	374.81
259.383	387.81
259.616	363.81
259.849	388.81
260.081	396.81
260.314	376.81
260.547	389.81
260.779	394.81
261.012	402.81
261.244	393.81
261.477	387.81
261.71	390.81
261.942	373.81
262.175	391.81
262.407	400.81
262.64	396.81
262.872	417.81
263.105	413.81
263.337	412.81
263.57	393.81
263.802	414.81
264.035	414.81
264.267	438.81
264.499	416.81
264.732	417.81
264.964	410.81
265.197	422.81
265.429	414.81
265.661	416.81
265.894	416.81
266.126	419.81
266.358	449.81
266.591	448.81
266.823	451.81
267.055	450.81
267.287	445.81
267.52	440.81
267.752	435.81
267.984	455.81
268.216	465.81
268.448	454.81
268.681	455.81
268.913	454.81
269.145	460.81
269.377	455.81
269.609	465.81
269.841	467.81
270.073	462.81
270.306	442.81
270.538	482.81
270.77	446.81
271.002	464.81
271.234	470.81
271.466	486.81
271.698	473.81
271.93	484.81
272.162	478.81
272.394	469.81
272.626	469.81
272.858	482.81
273.09	517.81
273.322	482.81
273.553	490.81
273.785	472.81
274.017	485.81
274.249	510.81
274.481	506.81
274.713	496.81
274.945	497.81
275.176	497.81
275.408	498.81
275.64	504.81
275.872	514.81
276.104	501.81
276.335	510.81
276.567	538.81
276.799	528.81
277.031	530.81
277.262	509.81
277.494	530.81
277.726	548.81
277.957	515.81
278.189	539.81
278.421	530.81
278.652	547.81
278.884	548.81
279.115	541.81
279.347	557.81
279.579	534.81
279.81	554.81
280.042	546.81
280.273	553.81
280.505	564.81
280.736	564.81
280.968	564.81
281.199	558.81
281.431	557.81
281.662	570.81
281.894	570.81
282.125	584.81
282.356	591.81
282.588	567.81
282.819	571.81
283.051	580.81
283.282	582.81
283.513	600.81
283.745	579.81
283.976	586.81
284.207	607.81
284.439	583.81
284.67	611.81
284.901	595.81
285.132	612.81
285.364	591.81
285.595	609.81
285.826	588.81
286.057	604.81
286.288	605.81
286.52	594.81
286.751	609.81
286.982	612.81
287.213	624.81
287.444	612.81
287.675	608.81
287.906	631.81
288.138	638.81
288.369	617.81
288.6	622.81
288.831	649.81
289.062	636.81
289.293	646.81
289.524	641.81
289.755	641.81
289.986	626.81
290.217	649.81
290.448	645.81
290.679	658.81
290.91	635.81
291.141	644.81
291.371	664.81
291.602	635.81
291.833	640.81
292.064	640.81
292.295	660.81
292.526	667.81
292.757	647.81
292.987	662.81
293.218	638.81
293.449	672.81
293.68	670.81
293.91	653.81
294.141	665.81
294.372	652.81
294.603	653.81
294.833	667.81
295.064	651.81
295.295	668.81
295.525	674.81
295.756	645.81
295.987	653.81
296.217	663.81
296.448	654.81
296.679	676.81
296.909	668.81
297.14	664.81
297.37	688.81
297.601	709.81
297.831	697.81
298.062	684.81
298.292	690.81
298.523	708.81
298.753	691.81
298.984	709.81
299.214	696.81
299.445	702.81
299.675	697.81
299.905	714.81
300.136	694.81
300.366	710.81
300.597	705.81
300.827	736.81
301.057	736.81
301.288	748.81
301.518	759.81
301.748	740.81
301.979	739.81
302.209	753.81
302.439	745.81
302.669	742.81
302.9	734.81
303.13	733.81
303.36	721.81
303.59	745.81
303.82	708.81
304.051	716.81
304.281	747.81
304.511	744.81
304.741	722.81
304.971	738.81
305.201	743.81
305.431	726.81
305.661	710.81
305.891	730.81
306.121	702.81
306.352	697.81
306.582	726.81
306.812	680.81
307.042	737.81
307.272	718.81
307.502	730.81
307.731	718.81
307.961	719.81
308.191	722.81
308.421	710.81
308.651	697.81
308.881	718.81
309.111	722.81
309.341	701.81
309.571	718.81
309.8	724.81
310.03	760.81
310.26	715.81
310.49	741.81
310.72	739.81
310.949	726.81
311.179	722.81
311.409	719.81
311.639	717.81
311.868	728.81
312.098	739.81
312.328	774.81
312.557	767.81
312.787	792.81
313.017	779.81
313.246	748.81
313.476	797.81
313.706	780.81
313.935	766.81
314.165	793.81
314.394	784.81
314.624	784.81
314.853	791.81
315.083	804.81
315.312	764.81
315.542	755.81
315.771	774.81
316.001	782.81
316.23	789.81
316.46	766.81
316.689	771.81
316.919	764.81
317.148	770.81
317.377	747.81
317.607	764.81
317.836	768.81
318.065	776.81
318.295	754.81
318.524	761.81
318.753	774.81
318.983	772.81
319.212	754.81
319.441	772.81
319.67	787.81
319.9	739.81
320.129	765.81
320.358	748.81
320.587	785.81
320.816	766.81
321.046	769.81
321.275	769.81
321.504	782.81
321.733	797.81
321.962	779.81
322.191	789.81
322.42	790.81
322.649	779.81
322.878	770.81
323.108	782.81
323.337	786.81
323.566	794.81
323.795	787.81
324.024	788.81
324.253	777.81
324.482	814.81
324.71	807.81
324.939	821.81
325.168	796.81
325.397	820.81
325.626	826.81
325.855	809.81
326.084	840.81
326.313	854.81
326.542	845.81
326.77	854.81
326.999	882.81
327.228	842.81
327.457	850.81
327.686	845.81
327.914	851.81
328.143	844.81
328.372	849.81
328.6	864.81
328.829	841.81
329.058	832.81
329.287	861.81
329.515	841.81
329.744	833.81
329.972	852.81
330.201	864.81
330.43	857.81
330.658	865.81
330.887	846.81
331.115	873.81
331.344	901.81
331.572	898.81
331.801	921.81
332.03	960.81
332.258	965.81
332.486	1010.81
332.715	1010.81
332.943	1056.81
333.172	1106.81
333.4	1160.81
333.629	1170.81
333.857	1180.81
334.085	1168.81
334.314	1152.81
334.542	1140.81
334.771	1088.81
334.999	1072.81
335.227	1061.81
335.455	1060.81
335.684	1056.81
335.912	1044.81
336.14	1035.81
336.369	1022.81
336.597	1031.81
336.825	1031.81
337.053	1039.81
337.281	1017.81
337.51	970.81
337.738	976.81
337.966	973.81
338.194	980.81
338.422	888.81
338.65	922.81
338.878	935.81
339.106	948.81
339.334	928.81
339.562	912.81
339.79	874.81
340.018	877.81
340.246	866.81
340.474	860.81
340.702	868.81
340.93	916.81
341.158	920.81
341.386	912.81
341.614	892.81
341.842	888.81
342.07	877.81
342.298	912.81
342.526	906.81
342.754	881.81
342.981	892.81
343.209	880.81
343.437	953.81
343.665	1012.81
343.893	1094.81
344.12	1128.81
344.348	1094.81
344.576	1022.81
344.804	977.81
345.031	930.81
345.259	909.81
345.487	885.81
345.714	896.81
345.942	894.81
346.17	888.81
346.397	876.81
346.625	882.81
346.853	873.81
347.08	873.81
347.308	871.81
347.535	888.81
347.763	856.81
347.99	871.81
348.218	856.81
348.445	854.81
348.673	873.81
348.9	857.81
349.128	872.81
349.355	850.81
349.583	876.81
349.81	842.81
350.037	816.81
350.265	826.81
350.492	848.81
350.72	841.81
350.947	831.81
351.174	835.81
351.402	857.81
351.629	854.81
351.856	823.81
352.083	819.81
352.311	845.81
352.538	824.81
352.765	823.81
352.992	846.81
353.22	820.81
353.447	790.81
353.674	793.81
353.901	809.81
354.128	818.81
354.355	821.81
354.583	816.81
354.81	846.81
355.037	859.81
355.264	818.81
355.491	837.81
355.718	821.81
355.945	826.81
356.172	834.81
356.399	848.81
356.626	835.81
356.853	857.81
357.08	826.81
357.307	836.81
357.534	844.81
357.761	820.81
357.988	827.81
358.215	820.81
358.441	818.81
358.668	827.81
358.895	836.81
359.122	837.81
359.349	865.81
359.576	854.81
359.802	840.81
360.029	854.81
360.256	852.81
360.483	857.81
360.709	837.81
360.936	844.81
361.163	834.81
361.39	820.81
361.616	845.81
361.843	821.81
362.07	851.81
362.296	844.81
362.523	855.81
362.749	822.81
362.976	841.81
363.203	816.81
363.429	844.81
363.656	811.81
363.882	836.81
364.109	822.81
364.335	810.81
364.562	838.81
364.788	848.81
365.015	804.81
365.241	849.81
365.468	836.81
365.694	820.81
365.92	833.81
366.147	804.81
366.373	804.81
366.599	834.81
366.826	811.81
367.052	820.81
367.278	827.81
367.505	816.81
367.731	849.81
367.957	827.81
368.184	833.81
368.41	823.81
368.636	858.81
368.862	882.81
369.089	846.81
369.315	850.81
369.541	852.81
369.767	865.81
369.993	855.81
370.219	829.81
370.445	855.81
370.672	884.81
370.898	873.81
371.124	890.81
371.35	908.81
371.576	896.81
371.802	915.81
372.028	928.81
372.254	896.81
372.48	945.81
372.706	928.81
372.932	934.81
373.158	937.81
373.384	912.81
373.61	933.81
373.835	908.81
374.061	894.81
374.287	918.81
374.513	948.81
374.739	966.81
374.965	990.81
375.191	1000.81
375.416	1013.81
375.642	957.81
375.868	947.81
376.094	938.81
376.319	941.81
376.545	907.81
376.771	914.81
376.997	926.81
377.222	936.81
377.448	897.81
377.674	920.81
377.899	892.81
378.125	892.81
378.35	891.81
378.576	924.81
378.802	899.81
379.027	902.81
379.253	935.81
379.478	907.81
379.704	890.81
379.929	901.81
380.155	913.81
380.38	914.81
380.606	901.81
380.831	896.81
381.057	915.81
381.282	902.81
381.507	908.81
381.733	935.81
381.958	920.81
382.184	910.81
382.409	931.81
382.634	941.81
382.86	955.81
383.085	949.81
383.31	995.81
383.535	1012.81
383.761	1008.81
383.986	1025.81
384.211	1036.81
384.436	1075.81
384.662	1106.81
384.887	1099.81
385.112	1098.81
385.337	1109.81
385.562	1100.81
385.787	1117.81
386.013	1122.81
386.238	1116.81
386.463	1114.81
386.688	1094.81
386.913	1105.81
387.138	1102.81
387.363	1066.81
387.588	1057.81
387.813	1066.81
388.038	1097.81
388.263	1083.81
388.488	1072.81
388.713	1065.81
388.938	1060.81
389.163	1061.81
389.387	1034.81
389.612	1041.81
389.837	1058.81
390.062	1050.81
390.287	1053.81
390.512	1062.81
390.736	1099.81
390.961	1101.81
391.186	1129.81
391.411	1146.81
391.636	1163.81
391.86	1216.81
392.085	1243.81
392.31	1196.81
392.534	1232.81
392.759	1192.81
392.984	1162.81
393.208	1182.81
393.433	1140.81
393.658	1149.81
393.882	1154.81
394.107	1167.81
394.331	1156.81
394.556	1144.81
394.78	1194.81
395.005	1194.81
395.229	1173.81
395.454	1193.81
395.678	1237.81
395.903	1249.81
396.127	1228.81
396.352	1173.81
396.576	1141.81
396.801	1153.81
397.025	1144.81
397.249	1210.81
397.474	1194.81
397.698	1199.81
397.922	1222.81
398.147	1198.81
398.371	1233.81
398.595	1268.81
398.82	1364.81
399.044	1468.81
399.268	1612.81
399.492	1842.81
399.717	2140.81
399.941	2120.81
400.165	1874.81
400.389	1636.81
400.613	1529.81
400.837	1452.81
401.062	1418.81
401.286	1364.81
401.51	1372.81
401.734	1353.81
401.958	1353.81
402.182	1404.81
402.406	1438.81
402.63	1447.81
402.854	1475.81
403.078	1526.81
403.302	1551.81
403.526	1610.81
403.75	1621.81
403.974	1651.81
404.198	1626.81
404.422	1647.81
404.645	1607.81
404.869	1620.81
405.093	1568.81
405.317	1541.81
405.541	1512.81
405.765	1536.81
405.988	1481.81
406.212	1489.81
406.436	1512.81
406.66	1535.81
406.883	1544.81
407.107	1670.81
407.331	1776.81
407.555	1838.81
407.778	1804.81
408.002	1712.81
408.226	1680.81
408.449	1624.81
408.673	1578.81
408.896	1546.81
409.12	1533.81
409.344	1605.81
409.567	1573.81
409.791	1564.81
410.014	1570.81
410.238	1539.81
410.461	1552.81
410.685	1543.81
410.908	1491.81
411.132	1484.81
411.355	1462.81
411.578	1419.81
411.802	1400.81
412.025	1412.81
412.249	1442.81
412.472	1427.81
412.695	1395.81
412.919	1370.81
413.142	1377.81
413.365	1373.81
413.589	1394.81
413.812	1340.81
414.035	1341.81
414.258	1360.81
414.482	1355.81
414.705	1410.81
414.928	1412.81
415.151	1429.81
415.374	1368.81
415.597	1388.81
415.821	1332.81
416.044	1339.81
416.267	1309.81
416.49	1313.81
416.713	1332.81
416.936	1332.81
417.159	1326.81
417.382	1317.81
417.605	1320.81
417.828	1339.81
418.051	1328.81
418.274	1392.81
418.497	1351.81
418.72	1429.81
418.943	1418.81
419.166	1461.81
419.389	1613.81
419.611	1560.81
419.834	1468.81
420.057	1425.81
420.28	1400.81
420.503	1337.81
420.726	1334.81
420.948	1330.81
421.171	1359.81
421.394	1350.81
421.617	1354.81
421.839	1364.81
422.062	1368.81
422.285	1357.81
422.507	1396.81
422.73	1414.81
422.953	1400.81
423.175	1416.81
423.398	1433.81
423.621	1473.81
423.843	1460.81
424.066	1476.81
424.288	1446.81
424.511	1413.81
424.733	1425.81
424.956	1404.81
425.178	1354.81
425.401	1357.81
425.623	1357.81
425.846	1336.81
426.068	1323.81
426.291	1279.81
426.513	1314.81
426.735	1268.81
426.958	1288.81
427.18	1253.81
427.402	1218.81
427.625	1229.81
427.847	1188.81
428.069	1213.81
428.292	1224.81
428.514	1192.81
428.736	1188.81
428.958	1204.81
429.181	1142.81
429.403	1210.81
429.625	1148.81
429.847	1186.81
430.069	1189.81
430.292	1146.81
430.514	1188.81
430.736	1163.81
430.958	1159.81
431.18	1158.81
431.402	1180.81
431.624	1200.81
431.846	1217.81
432.068	1222.81
432.29	1226.81
432.512	1208.81
432.734	1226.81
432.956	1221.81
433.178	1225.81
433.4	1221.81
433.622	1217.81
433.844	1200.81
434.066	1211.81
434.287	1235.81
434.509	1309.81
434.731	1314.81
434.953	1388.81
435.175	1372.81
435.397	1360.81
435.618	1297.81
435.84	1266.81
436.062	1222.81
436.284	1220.81
436.505	1200.81
436.727	1210.81
436.949	1230.81
437.17	1199.81
437.392	1204.81
437.614	1172.81
437.835	1157.81
438.057	1167.81
438.278	1150.81
438.5	1151.81
438.721	1143.81
438.943	1146.81
439.165	1152.81
439.386	1155.81
439.608	1200.81
439.829	1199.81
440.05	1173.81
440.272	1225.81
440.493	1214.81
440.715	1227.81
440.936	1237.81
441.158	1247.81
441.379	1288.81
441.6	1349.81
441.822	1378.81
442.043	1378.81
442.264	1367.81
442.486	1333.81
442.707	1316.81
442.928	1314.81
443.149	1329.81
443.371	1332.81
443.592	1360.81
443.813	1352.81
444.034	1363.81
444.255	1420.81
444.476	1494.81
444.698	1561.81
444.919	1652.81
445.14	1716.81
445.361	1554.81
445.582	1388.81
445.803	1328.81
446.024	1291.81
446.245	1245.81
446.466	1252.81
446.687	1204.81
446.908	1222.81
447.129	1194.81
447.35	1145.81
447.571	1162.81
447.792	1152.81
448.013	1139.81
448.234	1097.81
448.455	1129.81
448.675	1106.81
448.896	1079.81
449.117	1080.81
449.338	1093.81
449.559	1076.81
449.779	1044.81
450	1091.81
450.221	1090.81
450.442	1113.81
450.662	1084.81
450.883	1108.81
451.104	1172.81
451.324	1165.81
451.545	1130.81
451.766	1120.81
451.986	1092.81
452.207	1093.81
452.428	1142.81
452.648	1106.81
452.869	1088.81
453.089	1064.81
453.31	1098.81
453.53	1100.81
453.751	1067.81
453.971	1044.81
454.192	1042.81
454.412	1021.81
454.633	1040.81
454.853	1041.81
455.073	1030.81
455.294	1031.81
455.514	1030.81
455.734	1043.81
455.955	1017.81
456.175	1046.81
456.395	1004.81
456.616	1018.81
456.836	1014.81
457.056	1011.81
457.276	974.81
457.497	1024.81
457.717	1008.81
457.937	1021.81
458.157	1056.81
458.377	1048.81
458.598	1068.81
458.818	1092.81
459.038	1129.81
459.258	1165.81
459.478	1219.81
459.698	1242.81
459.918	1256.81
460.138	1334.81
460.358	1412.81
460.578	1442.81
460.798	1466.81
461.018	1470.81
461.238	1412.81
461.458	1436.81
461.678	1402.81
461.898	1473.81
462.118	1442.81
462.338	1520.81
462.558	1563.81
462.777	1591.81
462.997	1765.81
463.217	1965.81
463.437	2004.81
463.657	1784.81
463.876	1697.81
464.096	1724.81
464.316	1696.81
464.536	1734.81
464.755	1620.81
464.975	1558.81
465.195	1482.81
465.414	1406.81
465.634	1305.81
465.854	1316.81
466.073	1248.81
466.293	1209.81
466.512	1194.81
466.732	1176.81
466.951	1181.81
467.171	1156.81
467.391	1192.81
467.61	1164.81
467.829	1147.81
468.049	1151.81
468.268	1100.81
468.488	1085.81
468.707	1087.81
468.927	1076.81
469.146	1102.81
469.365	1081.81
469.585	1097.81
469.804	1138.81
470.023	1166.81
470.243	1166.81
470.462	1202.81
470.681	1208.81
470.901	1204.81
471.12	1152.81
471.339	1124.81
471.558	1127.81
471.777	1114.81
471.997	1104.81
472.216	1104.81
472.435	1116.81
472.654	1066.81
472.873	1069.81
473.092	1048.81
473.311	1076.81
473.53	1076.81
473.749	1064.81
473.968	1045.81
474.187	1040.81
474.406	1050.81
474.625	1050.81
474.844	1077.81
475.063	1079.81
475.282	1103.81
475.501	1093.81
475.72	1112.81
475.939	1088.81
476.158	1094.81
476.377	1102.81
476.596	1113.81
476.814	1107.81
477.033	1128.81
477.252	1177.81
477.471	1176.81
477.69	1202.81
477.908	1212.81
478.127	1252.81
478.346	1294.81
478.564	1315.81
478.783	1292.81
479.002	1369.81
479.22	1364.81
479.439	1334.81
479.658	1357.81
479.876	1359.81
480.095	1412.81
480.313	1448.81
480.532	1474.81
480.751	1468.81
480.969	1395.81
481.188	1328.81
481.406	1324.81
481.624	1257.81
481.843	1254.81
482.061	1245.81
482.28	1233.81
482.498	1237.81
482.717	1228.81
482.935	1222.81
483.153	1253.81
483.372	1243.81
483.59	1243.81
483.808	1218.81
484.027	1232.81
484.245	1257.81
484.463	1267.81
484.681	1294.81
484.9	1280.81
485.118	1297.81
485.336	1298.81
485.554	1295.81
485.772	1288.81
485.99	1324.81
486.209	1324.81
486.427	1349.81
486.645	1288.81
486.863	1293.81
487.081	1282.81
487.299	1284.81
487.517	1289.81
487.735	1312.81
487.953	1302.81
488.171	1275.81
488.389	1308.81
488.607	1269.81
488.825	1227.81
489.043	1229.81
489.261	1311.81
489.479	1294.81
489.696	1308.81
489.914	1273.81
490.132	1311.81
490.35	1308.81
490.568	1279.81
490.786	1301.81
491.003	1313.81
491.221	1300.81
491.439	1280.81
491.657	1260.81
491.874	1283.81
492.092	1316.81
492.31	1304.81
492.527	1290.81
492.745	1314.81
492.963	1325.81
493.18	1341.81
493.398	1313.81
493.615	1328.81
493.833	1334.81
494.05	1346.81
494.268	1353.81
