Data from Ni(NO3)2@0.5M.TitratingCurve.Agarose3%dH2O.NegLispCup.LampEnergy10.LIBS07252019_HRD10591_17-58-06-566.txt Node
Date: Thu Jul 25 17:58:06 EDT 2019
User: cochatt
Spectrometer: HR+D1059
Trigger mode: 1
Integration Time (sec): 1.000000E-1
Scans to average: 1
Electric dark correction enabled: true
Nonlinearity correction enabled: false
Boxcar width: 0
XAxis mode: Wavelengths
Number of Pixels in Spectrum: 2048
>>>>>Begin Spectral Data<<<<<
223.165	-14.75
223.4	-14.75
223.635	-14.75
223.869	-5.75
224.104	-18.75
224.338	-22.75
224.573	-11.75
224.808	-18.75
225.042	-0.75
225.277	2.25
225.511	-25.75
225.746	21.25
225.98	2.25
226.215	16.25
226.449	10.25
226.683	17.25
226.918	22.25
227.152	27.25
227.387	44.25
227.621	41.25
227.856	37.25
228.09	39.25
228.324	58.25
228.559	45.25
228.793	84.25
229.027	147.25
229.262	167.25
229.496	146.25
229.73	151.25
229.964	179.25
230.199	195.25
230.433	211.25
230.667	207.25
230.901	196.25
231.136	184.25
231.37	190.25
231.604	200.25
231.838	219.25
232.072	215.25
232.306	206.25
232.541	195.25
232.775	184.25
233.009	187.25
233.243	191.25
233.477	177.25
233.711	176.25
233.945	185.25
234.179	197.25
234.413	203.25
234.647	186.25
234.881	202.25
235.115	186.25
235.349	182.25
235.583	195.25
235.817	174.25
236.051	180.25
236.285	198.25
236.519	181.25
236.753	171.25
236.987	198.25
237.221	204.25
237.455	194.25
237.689	181.25
237.922	225.25
238.156	180.25
238.39	194.25
238.624	198.25
238.858	206.25
239.091	214.25
239.325	212.25
239.559	223.25
239.793	249.25
240.027	244.25
240.26	227.25
240.494	211.25
240.728	235.25
240.961	220.25
241.195	227.25
241.429	231.25
241.662	238.25
241.896	251.25
242.13	253.25
242.363	237.25
242.597	232.25
242.83	228.25
243.064	224.25
243.298	225.25
243.531	250.25
243.765	248.25
243.998	262.25
244.232	252.25
244.465	256.25
244.699	244.25
244.932	251.25
245.166	243.25
245.399	255.25
245.633	267.25
245.866	245.25
246.099	252.25
246.333	266.25
246.566	275.25
246.8	289.25
247.033	264.25
247.266	279.25
247.5	274.25
247.733	296.25
247.966	311.25
248.2	287.25
248.433	301.25
248.666	288.25
248.899	294.25
249.133	309.25
249.366	302.25
249.599	311.25
249.832	313.25
250.066	324.25
250.299	323.25
250.532	328.25
250.765	317.25
250.998	339.25
251.231	364.25
251.465	376.25
251.698	365.25
251.931	358.25
252.164	363.25
252.397	356.25
252.63	359.25
252.863	356.25
253.096	348.25
253.329	367.25
253.562	376.25
253.795	364.25
254.028	370.25
254.261	379.25
254.494	377.25
254.727	385.25
254.96	395.25
255.193	380.25
255.426	403.25
255.659	373.25
255.892	394.25
256.124	403.25
256.357	401.25
256.59	411.25
256.823	394.25
257.056	399.25
257.289	418.25
257.521	430.25
257.754	427.25
257.987	414.25
258.22	425.25
258.452	438.25
258.685	437.25
258.918	431.25
259.151	454.25
259.383	456.25
259.616	430.25
259.849	433.25
260.081	435.25
260.314	440.25
260.547	463.25
260.779	463.25
261.012	450.25
261.244	468.25
261.477	463.25
261.71	475.25
261.942	469.25
262.175	464.25
262.407	464.25
262.64	468.25
262.872	457.25
263.105	473.25
263.337	472.25
263.57	469.25
263.802	499.25
264.035	472.25
264.267	481.25
264.499	505.25
264.732	478.25
264.964	503.25
265.197	491.25
265.429	491.25
265.661	491.25
265.894	519.25
266.126	513.25
266.358	537.25
266.591	516.25
266.823	535.25
267.055	524.25
267.287	508.25
267.52	494.25
267.752	519.25
267.984	533.25
268.216	513.25
268.448	551.25
268.681	545.25
268.913	521.25
269.145	500.25
269.377	528.25
269.609	539.25
269.841	535.25
270.073	524.25
270.306	538.25
270.538	528.25
270.77	535.25
271.002	536.25
271.234	548.25
271.466	565.25
271.698	555.25
271.93	569.25
272.162	579.25
272.394	572.25
272.626	601.25
272.858	557.25
273.09	579.25
273.322	571.25
273.553	596.25
273.785	603.25
274.017	584.25
274.249	594.25
274.481	590.25
274.713	587.25
274.945	599.25
275.176	597.25
275.408	586.25
275.64	602.25
275.872	592.25
276.104	613.25
276.335	598.25
276.567	605.25
276.799	597.25
277.031	605.25
277.262	613.25
277.494	614.25
277.726	612.25
277.957	632.25
278.189	611.25
278.421	618.25
278.652	593.25
278.884	637.25
279.115	604.25
279.347	613.25
279.579	652.25
279.81	628.25
280.042	618.25
280.273	633.25
280.505	646.25
280.736	641.25
280.968	639.25
281.199	639.25
281.431	639.25
281.662	644.25
281.894	643.25
282.125	657.25
282.356	636.25
282.588	631.25
282.819	661.25
283.051	633.25
283.282	644.25
283.513	687.25
283.745	655.25
283.976	665.25
284.207	659.25
284.439	665.25
284.67	688.25
284.901	686.25
285.132	672.25
285.364	682.25
285.595	693.25
285.826	679.25
286.057	667.25
286.288	703.25
286.52	706.25
286.751	708.25
286.982	670.25
287.213	686.25
287.444	705.25
287.675	692.25
287.906	686.25
288.138	680.25
288.369	698.25
288.6	703.25
288.831	682.25
289.062	672.25
289.293	709.25
289.524	708.25
289.755	710.25
289.986	675.25
290.217	702.25
290.448	697.25
290.679	708.25
290.91	699.25
291.141	715.25
291.371	681.25
291.602	726.25
291.833	716.25
292.064	719.25
292.295	722.25
292.526	728.25
292.757	709.25
292.987	698.25
293.218	716.25
293.449	705.25
293.68	736.25
293.91	683.25
294.141	719.25
294.372	727.25
294.603	710.25
294.833	728.25
295.064	732.25
295.295	729.25
295.525	746.25
295.756	727.25
295.987	703.25
296.217	731.25
296.448	731.25
296.679	735.25
296.909	742.25
297.14	724.25
297.37	755.25
297.601	747.25
297.831	742.25
298.062	759.25
298.292	715.25
298.523	768.25
298.753	757.25
298.984	755.25
299.214	783.25
299.445	782.25
299.675	746.25
299.905	742.25
300.136	749.25
300.366	787.25
300.597	817.25
300.827	777.25
301.057	789.25
301.288	813.25
301.518	842.25
301.748	819.25
301.979	806.25
302.209	796.25
302.439	815.25
302.669	831.25
302.9	820.25
303.13	789.25
303.36	805.25
303.59	806.25
303.82	822.25
304.051	827.25
304.281	829.25
304.511	828.25
304.741	798.25
304.971	832.25
305.201	835.25
305.431	849.25
305.661	843.25
305.891	864.25
306.121	824.25
306.352	848.25
306.582	809.25
306.812	821.25
307.042	830.25
307.272	816.25
307.502	817.25
307.731	840.25
307.961	848.25
308.191	842.25
308.421	861.25
308.651	838.25
308.881	860.25
309.111	849.25
309.341	832.25
309.571	858.25
309.8	849.25
310.03	853.25
310.26	888.25
310.49	915.25
310.72	876.25
310.949	840.25
311.179	861.25
311.409	920.25
311.639	861.25
311.868	893.25
312.098	876.25
312.328	877.25
312.557	909.25
312.787	917.25
313.017	884.25
313.246	903.25
313.476	908.25
313.706	927.25
313.935	930.25
314.165	925.25
314.394	921.25
314.624	944.25
314.853	914.25
315.083	914.25
315.312	943.25
315.542	936.25
315.771	925.25
316.001	932.25
316.23	950.25
316.46	925.25
316.689	947.25
316.919	941.25
317.148	953.25
317.377	960.25
317.607	949.25
317.836	926.25
318.065	959.25
318.295	971.25
318.524	987.25
318.753	977.25
318.983	985.25
319.212	973.25
319.441	985.25
319.67	1006.25
319.9	999.25
320.129	1007.25
320.358	984.25
320.587	989.25
320.816	999.25
321.046	987.25
321.275	1006.25
321.504	1024.25
321.733	1025.25
321.962	1017.25
322.191	1035.25
322.42	1021.25
322.649	1036.25
322.878	1018.25
323.108	1049.25
323.337	1037.25
323.566	1064.25
323.795	1072.25
324.024	1032.25
324.253	1040.25
324.482	1064.25
324.71	1085.25
324.939	1085.25
325.168	1048.25
325.397	1051.25
325.626	1072.25
325.855	1109.25
326.084	1123.25
326.313	1078.25
326.542	1081.25
326.77	1092.25
326.999	1081.25
327.228	1106.25
327.457	1120.25
327.686	1095.25
327.914	1101.25
328.143	1148.25
328.372	1100.25
328.6	1112.25
328.829	1100.25
329.058	1111.25
329.287	1134.25
329.515	1121.25
329.744	1113.25
329.972	1139.25
330.201	1140.25
330.43	1156.25
330.658	1107.25
330.887	1156.25
331.115	1152.25
331.344	1160.25
331.572	1155.25
331.801	1190.25
332.03	1215.25
332.258	1203.25
332.486	1151.25
332.715	1177.25
332.943	1186.25
333.172	1204.25
333.4	1215.25
333.629	1195.25
333.857	1230.25
334.085	1245.25
334.314	1219.25
334.542	1203.25
334.771	1243.25
334.999	1228.25
335.227	1246.25
335.455	1248.25
335.684	1283.25
335.912	1257.25
336.14	1231.25
336.369	1235.25
336.597	1269.25
336.825	1293.25
337.053	1295.25
337.281	1269.25
337.51	1292.25
337.738	1255.25
337.966	1267.25
338.194	1285.25
338.422	1257.25
338.65	1215.25
338.878	1244.25
339.106	1225.25
339.334	1258.25
339.562	1240.25
339.79	1209.25
340.018	1201.25
340.246	1188.25
340.474	1203.25
340.702	1184.25
340.93	1227.25
341.158	1221.25
341.386	1244.25
341.614	1271.25
341.842	1239.25
342.07	1210.25
342.298	1221.25
342.526	1228.25
342.754	1252.25
342.981	1208.25
343.209	1217.25
343.437	1270.25
343.665	1262.25
343.893	1256.25
344.12	1248.25
344.348	1240.25
344.576	1243.25
344.804	1321.25
345.031	1257.25
345.259	1248.25
345.487	1241.25
345.714	1264.25
345.942	1239.25
346.17	1293.25
346.397	1216.25
346.625	1191.25
346.853	1207.25
347.08	1185.25
347.308	1199.25
347.535	1228.25
347.763	1222.25
347.99	1197.25
348.218	1180.25
348.445	1175.25
348.673	1173.25
348.9	1187.25
349.128	1197.25
349.355	1208.25
349.583	1268.25
349.81	1179.25
350.037	1182.25
350.265	1184.25
350.492	1160.25
350.72	1174.25
350.947	1181.25
351.174	1215.25
351.402	1216.25
351.629	1230.25
351.856	1214.25
352.083	1207.25
352.311	1203.25
352.538	1231.25
352.765	1198.25
352.992	1185.25
353.22	1150.25
353.447	1135.25
353.674	1165.25
353.901	1153.25
354.128	1172.25
354.355	1148.25
354.583	1139.25
354.81	1150.25
355.037	1149.25
355.264	1152.25
355.491	1131.25
355.718	1145.25
355.945	1157.25
356.172	1174.25
356.399	1169.25
356.626	1181.25
356.853	1229.25
357.08	1161.25
357.307	1156.25
357.534	1153.25
357.761	1164.25
357.988	1156.25
358.215	1163.25
358.441	1149.25
358.668	1121.25
358.895	1160.25
359.122	1151.25
359.349	1155.25
359.576	1155.25
359.802	1144.25
360.029	1190.25
360.256	1138.25
360.483	1156.25
360.709	1154.25
360.936	1167.25
361.163	1161.25
361.39	1196.25
361.616	1171.25
361.843	1203.25
362.07	1231.25
362.296	1239.25
362.523	1180.25
362.749	1194.25
362.976	1158.25
363.203	1188.25
363.429	1148.25
363.656	1134.25
363.882	1151.25
364.109	1147.25
364.335	1131.25
364.562	1157.25
364.788	1193.25
365.015	1179.25
365.241	1189.25
365.468	1193.25
365.694	1162.25
365.92	1156.25
366.147	1147.25
366.373	1183.25
366.599	1163.25
366.826	1165.25
367.052	1145.25
367.278	1187.25
367.505	1189.25
367.731	1193.25
367.957	1198.25
368.184	1184.25
368.41	1204.25
368.636	1173.25
368.862	1169.25
369.089	1190.25
369.315	1182.25
369.541	1188.25
369.767	1209.25
369.993	1167.25
370.219	1176.25
370.445	1195.25
370.672	1199.25
370.898	1194.25
371.124	1205.25
371.35	1235.25
371.576	1236.25
371.802	1223.25
372.028	1179.25
372.254	1208.25
372.48	1226.25
372.706	1252.25
372.932	1211.25
373.158	1209.25
373.384	1250.25
373.61	1231.25
373.835	1227.25
374.061	1195.25
374.287	1226.25
374.513	1208.25
374.739	1227.25
374.965	1243.25
375.191	1217.25
375.416	1233.25
375.642	1209.25
375.868	1227.25
376.094	1222.25
376.319	1197.25
376.545	1200.25
376.771	1233.25
376.997	1177.25
377.222	1218.25
377.448	1207.25
377.674	1200.25
377.899	1231.25
378.125	1204.25
378.35	1193.25
378.576	1177.25
378.802	1173.25
379.027	1190.25
379.253	1194.25
379.478	1181.25
379.704	1165.25
379.929	1184.25
380.155	1195.25
380.38	1163.25
380.606	1193.25
380.831	1181.25
381.057	1207.25
381.282	1161.25
381.507	1191.25
381.733	1207.25
381.958	1195.25
382.184	1191.25
382.409	1232.25
382.634	1204.25
382.86	1187.25
383.085	1221.25
383.31	1213.25
383.535	1223.25
383.761	1245.25
383.986	1225.25
384.211	1236.25
384.436	1236.25
384.662	1252.25
384.887	1231.25
385.112	1247.25
385.337	1245.25
385.562	1241.25
385.787	1258.25
386.013	1301.25
386.238	1293.25
386.463	1240.25
386.688	1254.25
386.913	1270.25
387.138	1237.25
387.363	1256.25
387.588	1293.25
387.813	1267.25
388.038	1262.25
388.263	1287.25
388.488	1268.25
388.713	1262.25
388.938	1303.25
389.163	1256.25
389.387	1286.25
389.612	1287.25
389.837	1290.25
390.062	1284.25
390.287	1285.25
390.512	1288.25
390.736	1321.25
390.961	1295.25
391.186	1272.25
391.411	1323.25
391.636	1301.25
391.86	1335.25
392.085	1349.25
392.31	1341.25
392.534	1296.25
392.759	1313.25
392.984	1303.25
393.208	1334.25
393.433	1321.25
393.658	1333.25
393.882	1278.25
394.107	1347.25
394.331	1367.25
394.556	1341.25
394.78	1318.25
395.005	1298.25
395.229	1324.25
395.454	1334.25
395.678	1301.25
395.903	1341.25
396.127	1366.25
396.352	1328.25
396.576	1325.25
396.801	1311.25
397.025	1353.25
397.249	1351.25
397.474	1366.25
397.698	1383.25
397.922	1374.25
398.147	1390.25
398.371	1380.25
398.595	1383.25
398.82	1417.25
399.044	1453.25
399.268	1456.25
399.492	1470.25
399.717	1511.25
399.941	1535.25
400.165	1527.25
400.389	1529.25
400.613	1496.25
400.837	1456.25
401.062	1462.25
401.286	1443.25
401.51	1419.25
401.734	1414.25
401.958	1443.25
402.182	1426.25
402.406	1409.25
402.63	1450.25
402.854	1405.25
403.078	1419.25
403.302	1425.25
403.526	1438.25
403.75	1416.25
403.974	1429.25
404.198	1429.25
404.422	1466.25
404.645	1425.25
404.869	1438.25
405.093	1448.25
405.317	1453.25
405.541	1468.25
405.765	1454.25
405.988	1467.25
406.212	1508.25
406.436	1470.25
406.66	1465.25
406.883	1472.25
407.107	1513.25
407.331	1499.25
407.555	1543.25
407.778	1558.25
408.002	1559.25
408.226	1580.25
408.449	1535.25
408.673	1515.25
408.896	1486.25
409.12	1493.25
409.344	1523.25
409.567	1504.25
409.791	1484.25
410.014	1513.25
410.238	1459.25
410.461	1489.25
410.685	1472.25
410.908	1430.25
411.132	1454.25
411.355	1444.25
411.578	1456.25
411.802	1457.25
412.025	1477.25
412.249	1489.25
412.472	1465.25
412.695	1453.25
412.919	1455.25
413.142	1456.25
413.365	1456.25
413.589	1453.25
413.812	1463.25
414.035	1412.25
414.258	1432.25
414.482	1432.25
414.705	1432.25
414.928	1434.25
415.151	1439.25
415.374	1417.25
415.597	1446.25
415.821	1425.25
416.044	1413.25
416.267	1396.25
416.49	1391.25
416.713	1379.25
416.936	1407.25
417.159	1400.25
417.382	1379.25
417.605	1363.25
417.828	1372.25
418.051	1374.25
418.274	1368.25
418.497	1375.25
418.72	1387.25
418.943	1340.25
419.166	1441.25
419.389	1512.25
419.611	1493.25
419.834	1472.25
420.057	1425.25
420.28	1417.25
420.503	1366.25
420.726	1351.25
420.948	1350.25
421.171	1380.25
421.394	1356.25
421.617	1360.25
421.839	1344.25
422.062	1353.25
422.285	1325.25
422.507	1379.25
422.73	1337.25
422.953	1382.25
423.175	1390.25
423.398	1393.25
423.621	1374.25
423.843	1364.25
424.066	1371.25
424.288	1369.25
424.511	1364.25
424.733	1356.25
424.956	1368.25
425.178	1387.25
425.401	1395.25
425.623	1409.25
425.846	1361.25
426.068	1358.25
426.291	1392.25
426.513	1358.25
426.735	1336.25
426.958	1352.25
427.18	1346.25
427.402	1347.25
427.625	1361.25
427.847	1359.25
428.069	1361.25
428.292	1361.25
428.514	1339.25
428.736	1326.25
428.958	1392.25
429.181	1328.25
429.403	1352.25
429.625	1404.25
429.847	1373.25
430.069	1350.25
430.292	1357.25
430.514	1323.25
430.736	1335.25
430.958	1379.25
431.18	1365.25
431.402	1362.25
431.624	1349.25
431.846	1350.25
432.068	1324.25
432.29	1361.25
432.512	1347.25
432.734	1371.25
432.956	1351.25
433.178	1421.25
433.4	1413.25
433.622	1413.25
433.844	1424.25
434.066	1413.25
434.287	1405.25
434.509	1392.25
434.731	1397.25
434.953	1375.25
435.175	1389.25
435.397	1431.25
435.618	1392.25
435.84	1371.25
436.062	1375.25
436.284	1377.25
436.505	1348.25
436.727	1382.25
436.949	1347.25
437.17	1355.25
437.392	1338.25
437.614	1358.25
437.835	1307.25
438.057	1337.25
438.278	1303.25
438.5	1347.25
438.721	1329.25
438.943	1364.25
439.165	1335.25
439.386	1352.25
439.608	1351.25
439.829	1347.25
440.05	1323.25
440.272	1351.25
440.493	1359.25
440.715	1412.25
440.936	1350.25
441.158	1371.25
441.379	1375.25
441.6	1389.25
441.822	1403.25
442.043	1358.25
442.264	1391.25
442.486	1385.25
442.707	1375.25
442.928	1396.25
443.149	1403.25
443.371	1416.25
443.592	1475.25
443.813	1448.25
444.034	1419.25
444.255	1425.25
444.476	1421.25
444.698	1415.25
444.919	1423.25
445.14	1527.25
445.361	1500.25
445.582	1408.25
445.803	1386.25
446.024	1352.25
446.245	1367.25
446.466	1380.25
446.687	1357.25
446.908	1363.25
447.129	1320.25
447.35	1322.25
447.571	1320.25
447.792	1270.25
448.013	1302.25
448.234	1291.25
448.455	1292.25
448.675	1293.25
448.896	1289.25
449.117	1273.25
449.338	1248.25
449.559	1238.25
449.779	1272.25
450	1254.25
450.221	1247.25
450.442	1277.25
450.662	1213.25
450.883	1272.25
451.104	1286.25
451.324	1261.25
451.545	1276.25
451.766	1253.25
451.986	1254.25
452.207	1252.25
452.428	1243.25
452.648	1247.25
452.869	1234.25
453.089	1230.25
453.31	1274.25
453.53	1228.25
453.751	1235.25
453.971	1222.25
454.192	1288.25
454.412	1255.25
454.633	1236.25
454.853	1224.25
455.073	1249.25
455.294	1243.25
455.514	1236.25
455.734	1255.25
455.955	1249.25
456.175	1264.25
456.395	1210.25
456.616	1198.25
456.836	1227.25
457.056	1208.25
457.276	1198.25
457.497	1239.25
457.717	1250.25
457.937	1237.25
458.157	1247.25
458.377	1207.25
458.598	1232.25
458.818	1283.25
459.038	1288.25
459.258	1248.25
459.478	1374.25
459.698	1426.25
459.918	1436.25
460.138	1377.25
460.358	1453.25
460.578	1406.25
460.798	1427.25
461.018	1479.25
461.238	1409.25
461.458	1396.25
461.678	1380.25
461.898	1392.25
462.118	1413.25
462.338	1440.25
462.558	1462.25
462.777	1484.25
462.997	1524.25
463.217	1518.25
463.437	1541.25
463.657	1553.25
463.876	1509.25
464.096	1495.25
464.316	1469.25
464.536	1468.25
464.755	1440.25
464.975	1415.25
465.195	1380.25
465.414	1411.25
465.634	1348.25
465.854	1372.25
466.073	1337.25
466.293	1320.25
466.512	1303.25
466.732	1321.25
466.951	1304.25
467.171	1315.25
467.391	1301.25
467.61	1282.25
467.829	1269.25
468.049	1331.25
468.268	1256.25
468.488	1291.25
468.707	1307.25
468.927	1317.25
469.146	1271.25
469.365	1327.25
469.585	1319.25
469.804	1308.25
470.023	1310.25
470.243	1319.25
470.462	1301.25
470.681	1316.25
470.901	1312.25
471.12	1303.25
471.339	1299.25
471.558	1367.25
471.777	1307.25
471.997	1277.25
472.216	1322.25
472.435	1316.25
472.654	1334.25
472.873	1337.25
473.092	1324.25
473.311	1286.25
473.53	1351.25
473.749	1353.25
473.968	1317.25
474.187	1342.25
474.406	1307.25
474.625	1345.25
474.844	1342.25
475.063	1335.25
475.282	1340.25
475.501	1371.25
475.72	1376.25
475.939	1390.25
476.158	1399.25
476.377	1397.25
476.596	1392.25
476.814	1397.25
477.033	1395.25
477.252	1401.25
477.471	1441.25
477.69	1441.25
477.908	1422.25
478.127	1456.25
478.346	1487.25
478.564	1499.25
478.783	1522.25
479.002	1551.25
479.22	1606.25
479.439	1538.25
479.658	1524.25
479.876	1513.25
480.095	1563.25
480.313	1553.25
480.532	1567.25
480.751	1568.25
480.969	1532.25
481.188	1503.25
481.406	1560.25
481.624	1553.25
481.843	1521.25
482.061	1556.25
482.28	1548.25
482.498	1520.25
482.717	1544.25
482.935	1590.25
483.153	1611.25
483.372	1639.25
483.59	1661.25
483.808	1572.25
484.027	1583.25
484.245	1572.25
484.463	1564.25
484.681	1565.25
484.9	1587.25
485.118	1604.25
485.336	1589.25
485.554	1557.25
485.772	1574.25
485.99	1615.25
486.209	1592.25
486.427	1611.25
486.645	1568.25
486.863	1604.25
487.081	1597.25
487.299	1619.25
487.517	1608.25
487.735	1605.25
487.953	1660.25
488.171	1644.25
488.389	1641.25
488.607	1612.25
488.825	1647.25
489.043	1593.25
489.261	1602.25
489.479	1629.25
489.696	1614.25
489.914	1599.25
490.132	1608.25
490.35	1591.25
490.568	1614.25
490.786	1664.25
491.003	1638.25
491.221	1662.25
