Data from Ni(NO3)2@0.0625M.TitratingCurve.Agarose3%dH2O.NegLispCup.LampEnergy10.LIBS07252019_HRD10591_18-13-04-569.txt Node
Date: Thu Jul 25 18:13:04 EDT 2019
User: cochatt
Spectrometer: HR+D1059
Trigger mode: 1
Integration Time (sec): 1.000000E-1
Scans to average: 1
Electric dark correction enabled: true
Nonlinearity correction enabled: false
Boxcar width: 0
XAxis mode: Wavelengths
Number of Pixels in Spectrum: 2048
>>>>>Begin Spectral Data<<<<<
223.165	-23.12
223.4	-23.12
223.635	-23.12
223.869	-31.12
224.104	-15.12
224.338	-10.12
224.573	-18.12
224.808	-15.12
225.042	-10.12
225.277	12.88
225.511	8.88
225.746	-2.12
225.98	4.88
226.215	6.88
226.449	8.88
226.683	31.88
226.918	29.88
227.152	20.88
227.387	36.88
227.621	37.88
227.856	41.88
228.09	31.88
228.324	56.88
228.559	58.88
228.793	72.88
229.027	82.88
229.262	124.88
229.496	98.88
229.73	116.88
229.964	122.88
230.199	117.88
230.433	126.88
230.667	129.88
230.901	103.88
231.136	122.88
231.37	112.88
231.604	122.88
231.838	132.88
232.072	124.88
232.306	136.88
232.541	140.88
232.775	143.88
233.009	133.88
233.243	130.88
233.477	130.88
233.711	128.88
233.945	143.88
234.179	128.88
234.413	118.88
234.647	132.88
234.881	134.88
235.115	129.88
235.349	131.88
235.583	134.88
235.817	146.88
236.051	133.88
236.285	124.88
236.519	153.88
236.753	141.88
236.987	141.88
237.221	128.88
237.455	149.88
237.689	146.88
237.922	149.88
238.156	139.88
238.39	137.88
238.624	149.88
238.858	154.88
239.091	150.88
239.325	149.88
239.559	129.88
239.793	156.88
240.027	165.88
240.26	148.88
240.494	136.88
240.728	155.88
240.961	152.88
241.195	148.88
241.429	169.88
241.662	169.88
241.896	154.88
242.13	156.88
242.363	160.88
242.597	154.88
242.83	159.88
243.064	157.88
243.298	168.88
243.531	186.88
243.765	181.88
243.998	179.88
244.232	163.88
244.465	182.88
244.699	177.88
244.932	176.88
245.166	172.88
245.399	195.88
245.633	189.88
245.866	179.88
246.099	172.88
246.333	183.88
246.566	193.88
246.8	180.88
247.033	182.88
247.266	184.88
247.5	190.88
247.733	192.88
247.966	191.88
248.2	200.88
248.433	186.88
248.666	183.88
248.899	173.88
249.133	196.88
249.366	197.88
249.599	204.88
249.832	189.88
250.066	213.88
250.299	210.88
250.532	200.88
250.765	204.88
250.998	199.88
251.231	208.88
251.465	214.88
251.698	210.88
251.931	221.88
252.164	207.88
252.397	211.88
252.63	216.88
252.863	217.88
253.096	214.88
253.329	215.88
253.562	216.88
253.795	224.88
254.028	220.88
254.261	213.88
254.494	248.88
254.727	221.88
254.96	223.88
255.193	230.88
255.426	219.88
255.659	220.88
255.892	236.88
256.124	230.88
256.357	229.88
256.59	245.88
256.823	244.88
257.056	228.88
257.289	235.88
257.521	244.88
257.754	240.88
257.987	241.88
258.22	252.88
258.452	248.88
258.685	243.88
258.918	238.88
259.151	241.88
259.383	250.88
259.616	242.88
259.849	223.88
260.081	260.88
260.314	269.88
260.547	265.88
260.779	269.88
261.012	251.88
261.244	247.88
261.477	242.88
261.71	255.88
261.942	278.88
262.175	272.88
262.407	274.88
262.64	288.88
262.872	265.88
263.105	277.88
263.337	261.88
263.57	265.88
263.802	284.88
264.035	292.88
264.267	270.88
264.499	294.88
264.732	292.88
264.964	272.88
265.197	305.88
265.429	276.88
265.661	268.88
265.894	280.88
266.126	290.88
266.358	280.88
266.591	275.88
266.823	285.88
267.055	290.88
267.287	290.88
267.52	292.88
267.752	311.88
267.984	291.88
268.216	313.88
268.448	290.88
268.681	288.88
268.913	297.88
269.145	280.88
269.377	281.88
269.609	298.88
269.841	301.88
270.073	311.88
270.306	304.88
270.538	305.88
270.77	310.88
271.002	318.88
271.234	295.88
271.466	282.88
271.698	310.88
271.93	305.88
272.162	295.88
272.394	305.88
272.626	320.88
272.858	298.88
273.09	335.88
273.322	318.88
273.553	317.88
273.785	312.88
274.017	307.88
274.249	318.88
274.481	314.88
274.713	322.88
274.945	321.88
275.176	330.88
275.408	319.88
275.64	317.88
275.872	333.88
276.104	323.88
276.335	313.88
276.567	334.88
276.799	338.88
277.031	329.88
277.262	322.88
277.494	342.88
277.726	333.88
277.957	356.88
278.189	338.88
278.421	352.88
278.652	347.88
278.884	350.88
279.115	336.88
279.347	355.88
279.579	349.88
279.81	384.88
280.042	345.88
280.273	348.88
280.505	374.88
280.736	368.88
280.968	356.88
281.199	361.88
281.431	368.88
281.662	358.88
281.894	363.88
282.125	380.88
282.356	373.88
282.588	362.88
282.819	374.88
283.051	388.88
283.282	364.88
283.513	371.88
283.745	372.88
283.976	386.88
284.207	356.88
284.439	378.88
284.67	379.88
284.901	393.88
285.132	388.88
285.364	380.88
285.595	385.88
285.826	373.88
286.057	390.88
286.288	377.88
286.52	398.88
286.751	414.88
286.982	386.88
287.213	373.88
287.444	407.88
287.675	402.88
287.906	410.88
288.138	408.88
288.369	405.88
288.6	413.88
288.831	410.88
289.062	404.88
289.293	407.88
289.524	408.88
289.755	418.88
289.986	422.88
290.217	419.88
290.448	386.88
290.679	429.88
290.91	407.88
291.141	418.88
291.371	415.88
291.602	410.88
291.833	423.88
292.064	420.88
292.295	417.88
292.526	405.88
292.757	410.88
292.987	430.88
293.218	416.88
293.449	412.88
293.68	417.88
293.91	412.88
294.141	396.88
294.372	422.88
294.603	421.88
294.833	434.88
295.064	428.88
295.295	419.88
295.525	418.88
295.756	422.88
295.987	422.88
296.217	432.88
296.448	429.88
296.679	442.88
296.909	433.88
297.14	445.88
297.37	445.88
297.601	458.88
297.831	450.88
298.062	442.88
298.292	457.88
298.523	478.88
298.753	452.88
298.984	454.88
299.214	453.88
299.445	453.88
299.675	451.88
299.905	459.88
300.136	462.88
300.366	456.88
300.597	464.88
300.827	462.88
301.057	463.88
301.288	474.88
301.518	471.88
301.748	474.88
301.979	477.88
302.209	465.88
302.439	484.88
302.669	470.88
302.9	448.88
303.13	460.88
303.36	452.88
303.59	469.88
303.82	441.88
304.051	465.88
304.281	493.88
304.511	477.88
304.741	457.88
304.971	472.88
305.201	474.88
305.431	464.88
305.661	456.88
305.891	461.88
306.121	441.88
306.352	462.88
306.582	460.88
306.812	469.88
307.042	458.88
307.272	459.88
307.502	465.88
307.731	471.88
307.961	447.88
308.191	458.88
308.421	443.88
308.651	469.88
308.881	490.88
309.111	459.88
309.341	462.88
309.571	460.88
309.8	450.88
310.03	438.88
310.26	444.88
310.49	446.88
310.72	469.88
310.949	470.88
311.179	469.88
311.409	460.88
311.639	470.88
311.868	482.88
312.098	473.88
312.328	476.88
312.557	478.88
312.787	454.88
313.017	466.88
313.246	498.88
313.476	494.88
313.706	494.88
313.935	500.88
314.165	482.88
314.394	500.88
314.624	478.88
314.853	491.88
315.083	484.88
315.312	473.88
315.542	478.88
315.771	499.88
316.001	485.88
316.23	490.88
316.46	464.88
316.689	481.88
316.919	498.88
317.148	501.88
317.377	529.88
317.607	471.88
317.836	490.88
318.065	477.88
318.295	475.88
318.524	480.88
318.753	484.88
318.983	500.88
319.212	487.88
319.441	487.88
319.67	465.88
319.9	482.88
320.129	467.88
320.358	474.88
320.587	481.88
320.816	497.88
321.046	489.88
321.275	500.88
321.504	485.88
321.733	482.88
321.962	498.88
322.191	493.88
322.42	485.88
322.649	489.88
322.878	470.88
323.108	489.88
323.337	498.88
323.566	492.88
323.795	496.88
324.024	501.88
324.253	499.88
324.482	499.88
324.71	507.88
324.939	510.88
325.168	524.88
325.397	499.88
325.626	523.88
325.855	523.88
326.084	527.88
326.313	524.88
326.542	539.88
326.77	555.88
326.999	537.88
327.228	550.88
327.457	534.88
327.686	550.88
327.914	522.88
328.143	532.88
328.372	526.88
328.6	534.88
328.829	540.88
329.058	537.88
329.287	514.88
329.515	534.88
329.744	547.88
329.972	546.88
330.201	544.88
330.43	533.88
330.658	545.88
330.887	539.88
331.115	534.88
331.344	572.88
331.572	586.88
331.801	578.88
332.03	574.88
332.258	606.88
332.486	629.88
332.715	644.88
332.943	667.88
333.172	690.88
333.4	726.88
333.629	740.88
333.857	737.88
334.085	739.88
334.314	716.88
334.542	694.88
334.771	671.88
334.999	690.88
335.227	674.88
335.455	683.88
335.684	671.88
335.912	649.88
336.14	649.88
336.369	664.88
336.597	657.88
336.825	642.88
337.053	654.88
337.281	644.88
337.51	628.88
337.738	601.88
337.966	597.88
338.194	581.88
338.422	609.88
338.65	602.88
338.878	568.88
339.106	601.88
339.334	599.88
339.562	578.88
339.79	542.88
340.018	569.88
340.246	544.88
340.474	553.88
340.702	579.88
340.93	577.88
341.158	556.88
341.386	605.88
341.614	557.88
341.842	554.88
342.07	548.88
342.298	568.88
342.526	550.88
342.754	569.88
342.981	571.88
343.209	582.88
343.437	581.88
343.665	640.88
343.893	682.88
344.12	713.88
344.348	665.88
344.576	656.88
344.804	594.88
345.031	604.88
345.259	595.88
345.487	550.88
345.714	552.88
345.942	544.88
346.17	555.88
346.397	538.88
346.625	550.88
346.853	553.88
347.08	541.88
347.308	570.88
347.535	550.88
347.763	542.88
347.99	562.88
348.218	560.88
348.445	558.88
348.673	554.88
348.9	552.88
349.128	536.88
349.355	537.88
349.583	553.88
349.81	537.88
350.037	528.88
350.265	531.88
350.492	531.88
350.72	532.88
350.947	514.88
351.174	542.88
351.402	531.88
351.629	548.88
351.856	528.88
352.083	520.88
352.311	536.88
352.538	535.88
352.765	561.88
352.992	524.88
353.22	522.88
353.447	517.88
353.674	533.88
353.901	524.88
354.128	538.88
354.355	515.88
354.583	523.88
354.81	515.88
355.037	541.88
355.264	523.88
355.491	518.88
355.718	520.88
355.945	522.88
356.172	552.88
356.399	533.88
356.626	523.88
356.853	543.88
357.08	517.88
357.307	539.88
357.534	548.88
357.761	539.88
357.988	535.88
358.215	536.88
358.441	512.88
358.668	538.88
358.895	522.88
359.122	536.88
359.349	520.88
359.576	534.88
359.802	558.88
360.029	542.88
360.256	536.88
360.483	524.88
360.709	551.88
360.936	518.88
361.163	525.88
361.39	540.88
361.616	536.88
361.843	530.88
362.07	518.88
362.296	536.88
362.523	530.88
362.749	536.88
362.976	530.88
363.203	518.88
363.429	514.88
363.656	527.88
363.882	520.88
364.109	527.88
364.335	541.88
364.562	538.88
364.788	532.88
365.015	509.88
365.241	553.88
365.468	522.88
365.694	515.88
365.92	544.88
366.147	516.88
366.373	518.88
366.599	514.88
366.826	538.88
367.052	524.88
367.278	532.88
367.505	536.88
367.731	544.88
367.957	530.88
368.184	548.88
368.41	549.88
368.636	546.88
368.862	538.88
369.089	564.88
369.315	553.88
369.541	547.88
369.767	533.88
369.993	561.88
370.219	569.88
370.445	579.88
370.672	555.88
370.898	548.88
371.124	570.88
371.35	581.88
371.576	573.88
371.802	570.88
372.028	595.88
372.254	584.88
372.48	557.88
372.706	595.88
372.932	598.88
373.158	582.88
373.384	585.88
373.61	578.88
373.835	572.88
374.061	591.88
374.287	598.88
374.513	587.88
374.739	607.88
374.965	648.88
375.191	632.88
375.416	629.88
375.642	640.88
375.868	600.88
376.094	592.88
376.319	590.88
376.545	587.88
376.771	564.88
376.997	569.88
377.222	576.88
377.448	572.88
377.674	555.88
377.899	571.88
378.125	572.88
378.35	570.88
378.576	592.88
378.802	580.88
379.027	578.88
379.253	577.88
379.478	558.88
379.704	552.88
379.929	580.88
380.155	584.88
380.38	593.88
380.606	574.88
380.831	567.88
381.057	595.88
381.282	570.88
381.507	587.88
381.733	592.88
381.958	609.88
382.184	572.88
382.409	588.88
382.634	578.88
382.86	587.88
383.085	613.88
383.31	624.88
383.535	638.88
383.761	628.88
383.986	626.88
384.211	661.88
384.436	683.88
384.662	684.88
384.887	693.88
385.112	702.88
385.337	698.88
385.562	690.88
385.787	697.88
386.013	692.88
386.238	712.88
386.463	683.88
386.688	701.88
386.913	662.88
387.138	679.88
387.363	688.88
387.588	676.88
387.813	678.88
388.038	670.88
388.263	651.88
388.488	702.88
388.713	688.88
388.938	669.88
389.163	668.88
389.387	655.88
389.612	633.88
389.837	668.88
390.062	668.88
390.287	665.88
390.512	666.88
390.736	669.88
390.961	718.88
391.186	713.88
391.411	728.88
391.636	752.88
391.86	764.88
392.085	782.88
392.31	776.88
392.534	747.88
392.759	741.88
392.984	696.88
393.208	728.88
393.433	725.88
393.658	721.88
393.882	717.88
394.107	743.88
394.331	742.88
394.556	741.88
394.78	773.88
395.005	748.88
395.229	739.88
395.454	768.88
395.678	772.88
395.903	791.88
396.127	747.88
396.352	730.88
396.576	737.88
396.801	721.88
397.025	726.88
397.249	723.88
397.474	747.88
397.698	747.88
397.922	744.88
398.147	748.88
398.371	773.88
398.595	800.88
398.82	843.88
399.044	896.88
399.268	994.88
399.492	1160.88
399.717	1326.88
399.941	1321.88
400.165	1145.88
400.389	1042.88
400.613	939.88
400.837	894.88
401.062	876.88
401.286	840.88
401.51	824.88
401.734	845.88
401.958	865.88
402.182	876.88
402.406	883.88
402.63	923.88
402.854	907.88
403.078	926.88
403.302	987.88
403.526	977.88
403.75	1010.88
403.974	1014.88
404.198	1043.88
404.422	1060.88
404.645	1008.88
404.869	994.88
405.093	971.88
405.317	960.88
405.541	968.88
405.765	952.88
405.988	948.88
406.212	952.88
406.436	920.88
406.66	979.88
406.883	982.88
407.107	1009.88
407.331	1066.88
407.555	1118.88
407.778	1088.88
408.002	1099.88
408.226	1053.88
408.449	1026.88
408.673	1014.88
408.896	971.88
409.12	989.88
409.344	1001.88
409.567	996.88
409.791	1010.88
410.014	1011.88
410.238	973.88
410.461	964.88
410.685	964.88
410.908	930.88
411.132	914.88
411.355	892.88
411.578	879.88
411.802	879.88
412.025	923.88
412.249	910.88
412.472	900.88
412.695	886.88
412.919	859.88
413.142	880.88
413.365	853.88
413.589	868.88
413.812	854.88
414.035	839.88
414.258	838.88
414.482	847.88
414.705	904.88
414.928	898.88
415.151	866.88
415.374	857.88
415.597	857.88
415.821	845.88
416.044	823.88
416.267	852.88
416.49	822.88
416.713	834.88
416.936	840.88
417.159	858.88
417.382	836.88
417.605	841.88
417.828	859.88
418.051	874.88
418.274	862.88
418.497	855.88
418.72	884.88
418.943	884.88
419.166	909.88
419.389	981.88
419.611	974.88
419.834	931.88
420.057	927.88
420.28	872.88
420.503	840.88
420.726	851.88
420.948	842.88
421.171	840.88
421.394	862.88
421.617	859.88
421.839	844.88
422.062	864.88
422.285	840.88
422.507	865.88
422.73	899.88
422.953	892.88
423.175	919.88
423.398	903.88
423.621	937.88
423.843	945.88
424.066	953.88
424.288	929.88
424.511	911.88
424.733	885.88
424.956	870.88
425.178	839.88
425.401	846.88
425.623	874.88
425.846	872.88
426.068	849.88
426.291	830.88
426.513	814.88
426.735	793.88
426.958	797.88
427.18	812.88
427.402	787.88
427.625	783.88
427.847	749.88
428.069	776.88
428.292	784.88
428.514	765.88
428.736	763.88
428.958	741.88
429.181	736.88
429.403	726.88
429.625	771.88
429.847	745.88
430.069	735.88
430.292	770.88
430.514	742.88
430.736	732.88
430.958	734.88
431.18	726.88
431.402	727.88
431.624	729.88
431.846	755.88
432.068	768.88
432.29	799.88
432.512	764.88
432.734	745.88
432.956	752.88
433.178	762.88
433.4	787.88
433.622	768.88
433.844	794.88
434.066	780.88
434.287	785.88
434.509	811.88
434.731	851.88
434.953	900.88
435.175	899.88
435.397	870.88
435.618	826.88
435.84	811.88
436.062	792.88
436.284	768.88
436.505	755.88
436.727	768.88
436.949	778.88
437.17	779.88
437.392	773.88
437.614	753.88
437.835	736.88
438.057	735.88
438.278	708.88
438.5	729.88
438.721	745.88
438.943	768.88
439.165	752.88
439.386	747.88
439.608	764.88
439.829	792.88
440.05	770.88
440.272	749.88
440.493	784.88
440.715	758.88
440.936	787.88
441.158	802.88
441.379	835.88
441.6	889.88
441.822	898.88
442.043	892.88
442.264	866.88
442.486	847.88
442.707	860.88
442.928	876.88
443.149	830.88
443.371	859.88
443.592	893.88
443.813	874.88
444.034	856.88
444.255	919.88
444.476	947.88
444.698	989.88
444.919	1059.88
445.14	1115.88
445.361	971.88
445.582	881.88
445.803	840.88
446.024	818.88
446.245	796.88
446.466	806.88
446.687	790.88
446.908	791.88
447.129	749.88
447.35	739.88
447.571	732.88
447.792	729.88
448.013	724.88
448.234	728.88
448.455	696.88
448.675	693.88
448.896	691.88
449.117	703.88
449.338	693.88
449.559	706.88
449.779	699.88
450	698.88
450.221	714.88
450.442	700.88
450.662	722.88
450.883	724.88
451.104	759.88
451.324	738.88
451.545	728.88
451.766	738.88
451.986	723.88
452.207	738.88
452.428	719.88
452.648	728.88
452.869	734.88
453.089	716.88
453.31	722.88
453.53	717.88
453.751	721.88
453.971	684.88
454.192	646.88
454.412	690.88
454.633	684.88
454.853	676.88
455.073	659.88
455.294	666.88
455.514	652.88
455.734	676.88
455.955	652.88
456.175	678.88
456.395	671.88
456.616	683.88
456.836	676.88
457.056	663.88
457.276	656.88
457.497	676.88
457.717	652.88
457.937	654.88
458.157	674.88
458.377	678.88
458.598	698.88
458.818	701.88
459.038	752.88
459.258	759.88
459.478	766.88
459.698	784.88
459.918	829.88
460.138	864.88
460.358	898.88
460.578	906.88
460.798	923.88
461.018	932.88
461.238	917.88
461.458	936.88
461.678	909.88
461.898	914.88
462.118	924.88
462.338	987.88
462.558	998.88
462.777	1032.88
462.997	1120.88
463.217	1249.88
463.437	1269.88
463.657	1140.88
463.876	1077.88
464.096	1070.88
464.316	1114.88
464.536	1058.88
464.755	1072.88
464.975	989.88
465.195	964.88
465.414	912.88
465.634	850.88
465.854	793.88
466.073	796.88
466.293	784.88
466.512	785.88
466.732	754.88
466.951	759.88
467.171	758.88
467.391	721.88
467.61	754.88
467.829	768.88
468.049	753.88
468.268	727.88
468.488	696.88
468.707	685.88
468.927	733.88
469.146	728.88
469.365	709.88
469.585	747.88
469.804	749.88
470.023	771.88
470.243	758.88
470.462	768.88
470.681	780.88
470.901	775.88
471.12	793.88
471.339	748.88
471.558	746.88
471.777	740.88
471.997	730.88
472.216	709.88
472.435	700.88
472.654	701.88
472.873	687.88
473.092	706.88
473.311	686.88
473.53	700.88
473.749	692.88
473.968	676.88
474.187	682.88
474.406	715.88
474.625	714.88
474.844	709.88
475.063	674.88
475.282	695.88
475.501	712.88
475.72	700.88
475.939	708.88
476.158	720.88
476.377	732.88
476.596	709.88
476.814	756.88
477.033	694.88
477.252	745.88
477.471	768.88
477.69	776.88
477.908	803.88
478.127	821.88
478.346	809.88
478.564	804.88
478.783	846.88
479.002	858.88
479.22	885.88
479.439	867.88
479.658	851.88
479.876	838.88
480.095	888.88
480.313	936.88
480.532	955.88
480.751	922.88
480.969	887.88
481.188	852.88
481.406	820.88
481.624	819.88
481.843	802.88
482.061	762.88
482.28	774.88
482.498	800.88
482.717	816.88
482.935	804.88
483.153	760.88
483.372	804.88
483.59	816.88
483.808	771.88
484.027	785.88
484.245	807.88
484.463	808.88
484.681	812.88
484.9	840.88
485.118	833.88
485.336	807.88
485.554	832.88
485.772	824.88
485.99	849.88
486.209	861.88
486.427	843.88
486.645	865.88
486.863	853.88
487.081	825.88
487.299	847.88
487.517	830.88
487.735	828.88
487.953	809.88
488.171	854.88
488.389	827.88
488.607	820.88
488.825	813.88
489.043	805.88
489.261	808.88
489.479	816.88
489.696	825.88
489.914	834.88
490.132	852.88
490.35	814.88
490.568	846.88
490.786	794.88
491.003	825.88
491.221	829.88
491.439	817.88
491.657	846.88
491.874	844.88
492.092	846.88
492.31	841.88
492.527	868.88
492.745	844.88
492.963	860.88
493.18	844.88
493.398	877.88
493.615	890.88
493.833	889.88
494.05	885.88
494.268	876.88
494.485	881.88
494.703	881.88
494.92	888.88
495.138	894.88
495.355	885.88
495.573	869.88
495.79	910.88
496.008	915.88
496.225	874.88
496.442	923.88
496.66	904.88
496.877	908.88
497.094	929.88
497.312	971.88
497.529	972.88
497.746	970.88
497.963	982.88
498.181	1024.88
498.398	1093.88
498.615	1153.88
498.832	1231.88
499.049	1316.88
499.267	1460.88
499.484	1570.88
499.701	1730.88
499.918	1959.88
500.135	2296.88
500.352	2701.88
500.569	2792.88
500.786	2802.88
501.003	2562.88
