Data from Ni(NO3)2Standard.Agarose3%.GreenCap.LampEnergy5.5.E.O_HRD10591_14-40-50-187.txt Node
Date: Mon Jul 22 14:40:50 EDT 2019
User: cochatt
Spectrometer: HR+D1059
Trigger mode: 1
Integration Time (sec): 1.000000E-1
Scans to average: 1
Electric dark correction enabled: true
Nonlinearity correction enabled: false
Boxcar width: 0
XAxis mode: Wavelengths
Number of Pixels in Spectrum: 2048
>>>>>Begin Spectral Data<<<<<
223.165	-22.69
223.4	-22.69
223.635	-22.69
223.869	-19.69
224.104	-19.69
224.338	-17.69
224.573	-9.69
224.808	-5.69
225.042	0.31
225.277	-4.69
225.511	4.31
225.746	-2.69
225.98	2.31
226.215	2.31
226.449	11.31
226.683	21.31
226.918	28.31
227.152	32.31
227.387	20.31
227.621	23.31
227.856	46.31
228.09	45.31
228.324	56.31
228.559	52.31
228.793	52.31
229.027	55.31
229.262	69.31
229.496	54.31
229.73	62.31
229.964	59.31
230.199	80.31
230.433	64.31
230.667	70.31
230.901	89.31
231.136	76.31
231.37	69.31
231.604	78.31
231.838	84.31
232.072	85.31
232.306	79.31
232.541	75.31
232.775	76.31
233.009	71.31
233.243	83.31
233.477	86.31
233.711	82.31
233.945	80.31
234.179	62.31
234.413	83.31
234.647	75.31
234.881	79.31
235.115	70.31
235.349	67.31
235.583	74.31
235.817	69.31
236.051	79.31
236.285	65.31
236.519	77.31
236.753	58.31
236.987	69.31
237.221	78.31
237.455	71.31
237.689	78.31
237.922	70.31
238.156	67.31
238.39	73.31
238.624	68.31
238.858	79.31
239.091	88.31
239.325	81.31
239.559	72.31
239.793	73.31
240.027	90.31
240.26	63.31
240.494	72.31
240.728	77.31
240.961	79.31
241.195	78.31
241.429	77.31
241.662	66.31
241.896	71.31
242.13	76.31
242.363	71.31
242.597	76.31
242.83	73.31
243.064	61.31
243.298	79.31
243.531	68.31
243.765	72.31
243.998	80.31
244.232	84.31
244.465	85.31
244.699	70.31
244.932	76.31
245.166	70.31
245.399	66.31
245.633	67.31
245.866	68.31
246.099	67.31
246.333	87.31
246.566	80.31
246.8	74.31
247.033	73.31
247.266	84.31
247.5	80.31
247.733	72.31
247.966	72.31
248.2	75.31
248.433	76.31
248.666	71.31
248.899	76.31
249.133	88.31
249.366	86.31
249.599	85.31
249.832	77.31
250.066	82.31
250.299	74.31
250.532	84.31
250.765	74.31
250.998	67.31
251.231	65.31
251.465	63.31
251.698	62.31
251.931	74.31
252.164	78.31
252.397	82.31
252.63	74.31
252.863	73.31
253.096	78.31
253.329	70.31
253.562	70.31
253.795	80.31
254.028	94.31
254.261	75.31
254.494	77.31
254.727	81.31
254.96	77.31
255.193	84.31
255.426	68.31
255.659	69.31
255.892	81.31
256.124	87.31
256.357	93.31
256.59	68.31
256.823	83.31
257.056	82.31
257.289	83.31
257.521	80.31
257.754	81.31
257.987	88.31
258.22	79.31
258.452	80.31
258.685	74.31
258.918	71.31
259.151	78.31
259.383	78.31
259.616	77.31
259.849	62.31
260.081	85.31
260.314	67.31
260.547	73.31
260.779	67.31
261.012	69.31
261.244	74.31
261.477	83.31
261.71	74.31
261.942	67.31
262.175	72.31
262.407	71.31
262.64	76.31
262.872	90.31
263.105	92.31
263.337	82.31
263.57	73.31
263.802	78.31
264.035	83.31
264.267	65.31
264.499	71.31
264.732	72.31
264.964	63.31
265.197	79.31
265.429	80.31
265.661	82.31
265.894	74.31
266.126	90.31
266.358	73.31
266.591	71.31
266.823	72.31
267.055	68.31
267.287	69.31
267.52	82.31
267.752	88.31
267.984	79.31
268.216	72.31
268.448	82.31
268.681	79.31
268.913	88.31
269.145	87.31
269.377	79.31
269.609	75.31
269.841	80.31
270.073	68.31
270.306	74.31
270.538	71.31
270.77	89.31
271.002	79.31
271.234	80.31
271.466	79.31
271.698	79.31
271.93	64.31
272.162	82.31
272.394	86.31
272.626	69.31
272.858	72.31
273.09	79.31
273.322	84.31
273.553	76.31
273.785	78.31
274.017	89.31
274.249	79.31
274.481	85.31
274.713	88.31
274.945	77.31
275.176	87.31
275.408	75.31
275.64	76.31
275.872	78.31
276.104	86.31
276.335	81.31
276.567	78.31
276.799	76.31
277.031	73.31
277.262	89.31
277.494	81.31
277.726	78.31
277.957	76.31
278.189	90.31
278.421	87.31
278.652	92.31
278.884	94.31
279.115	78.31
279.347	80.31
279.579	90.31
279.81	89.31
280.042	86.31
280.273	67.31
280.505	66.31
280.736	59.31
280.968	87.31
281.199	73.31
281.431	87.31
281.662	95.31
281.894	67.31
282.125	81.31
282.356	82.31
282.588	82.31
282.819	95.31
283.051	84.31
283.282	87.31
283.513	87.31
283.745	80.31
283.976	89.31
284.207	82.31
284.439	85.31
284.67	80.31
284.901	75.31
285.132	87.31
285.364	83.31
285.595	83.31
285.826	93.31
286.057	87.31
286.288	77.31
286.52	79.31
286.751	80.31
286.982	89.31
287.213	69.31
287.444	84.31
287.675	90.31
287.906	71.31
288.138	87.31
288.369	78.31
288.6	66.31
288.831	68.31
289.062	97.31
289.293	89.31
289.524	72.31
289.755	84.31
289.986	105.31
290.217	81.31
290.448	72.31
290.679	65.31
290.91	78.31
291.141	76.31
291.371	88.31
291.602	72.31
291.833	74.31
292.064	70.31
292.295	92.31
292.526	81.31
292.757	89.31
292.987	96.31
293.218	83.31
293.449	79.31
293.68	86.31
293.91	93.31
294.141	73.31
294.372	82.31
294.603	84.31
294.833	85.31
295.064	72.31
295.295	81.31
295.525	76.31
295.756	80.31
295.987	80.31
296.217	82.31
296.448	86.31
296.679	96.31
296.909	81.31
297.14	70.31
297.37	94.31
297.601	84.31
297.831	93.31
298.062	80.31
298.292	83.31
298.523	88.31
298.753	82.31
298.984	69.31
299.214	82.31
299.445	78.31
299.675	72.31
299.905	99.31
300.136	92.31
300.366	83.31
300.597	82.31
300.827	76.31
301.057	80.31
301.288	80.31
301.518	81.31
301.748	72.31
301.979	89.31
302.209	85.31
302.439	97.31
302.669	85.31
302.9	89.31
303.13	83.31
303.36	73.31
303.59	94.31
303.82	79.31
304.051	86.31
304.281	80.31
304.511	73.31
304.741	71.31
304.971	81.31
305.201	81.31
305.431	90.31
305.661	80.31
305.891	74.31
306.121	82.31
306.352	83.31
306.582	78.31
306.812	73.31
307.042	83.31
307.272	73.31
307.502	86.31
307.731	86.31
307.961	81.31
308.191	87.31
308.421	80.31
308.651	75.31
308.881	80.31
309.111	82.31
309.341	79.31
309.571	80.31
309.8	80.31
310.03	93.31
310.26	85.31
310.49	93.31
310.72	81.31
310.949	81.31
311.179	77.31
311.409	87.31
311.639	81.31
311.868	86.31
312.098	93.31
312.328	82.31
312.557	74.31
312.787	81.31
313.017	73.31
313.246	83.31
313.476	79.31
313.706	82.31
313.935	78.31
314.165	82.31
314.394	84.31
314.624	92.31
314.853	92.31
315.083	74.31
315.312	88.31
315.542	71.31
315.771	78.31
316.001	80.31
316.23	66.31
316.46	79.31
316.689	79.31
316.919	82.31
317.148	73.31
317.377	88.31
317.607	92.31
317.836	84.31
318.065	68.31
318.295	76.31
318.524	79.31
318.753	98.31
318.983	88.31
319.212	107.31
319.441	96.31
319.67	69.31
319.9	81.31
320.129	83.31
320.358	87.31
320.587	98.31
320.816	87.31
321.046	74.31
321.275	90.31
321.504	85.31
321.733	75.31
321.962	100.31
322.191	84.31
322.42	82.31
322.649	88.31
322.878	81.31
323.108	93.31
323.337	88.31
323.566	85.31
323.795	82.31
324.024	101.31
324.253	86.31
324.482	81.31
324.71	90.31
324.939	73.31
325.168	89.31
325.397	80.31
325.626	88.31
325.855	96.31
326.084	68.31
326.313	98.31
326.542	85.31
326.77	79.31
326.999	89.31
327.228	81.31
327.457	84.31
327.686	92.31
327.914	86.31
328.143	98.31
328.372	84.31
328.6	100.31
328.829	85.31
329.058	70.31
329.287	81.31
329.515	79.31
329.744	73.31
329.972	81.31
330.201	73.31
330.43	85.31
330.658	86.31
330.887	67.31
331.115	74.31
331.344	93.31
331.572	102.31
331.801	88.31
332.03	91.31
332.258	83.31
332.486	89.31
332.715	84.31
332.943	72.31
333.172	81.31
333.4	74.31
333.629	86.31
333.857	76.31
334.085	85.31
334.314	82.31
334.542	79.31
334.771	70.31
334.999	88.31
335.227	82.31
335.455	77.31
335.684	87.31
335.912	87.31
336.14	80.31
336.369	73.31
336.597	83.31
336.825	89.31
337.053	93.31
337.281	82.31
337.51	85.31
337.738	73.31
337.966	87.31
338.194	84.31
338.422	83.31
338.65	87.31
338.878	90.31
339.106	82.31
339.334	83.31
339.562	78.31
339.79	95.31
340.018	81.31
340.246	85.31
340.474	95.31
340.702	99.31
340.93	82.31
341.158	68.31
341.386	84.31
341.614	93.31
341.842	87.31
342.07	87.31
342.298	82.31
342.526	57.31
342.754	82.31
342.981	98.31
343.209	84.31
343.437	85.31
343.665	76.31
343.893	76.31
344.12	94.31
344.348	88.31
344.576	88.31
344.804	85.31
345.031	79.31
345.259	82.31
345.487	88.31
345.714	83.31
345.942	91.31
346.17	86.31
346.397	91.31
346.625	82.31
346.853	86.31
347.08	78.31
347.308	77.31
347.535	76.31
347.763	92.31
347.99	88.31
348.218	92.31
348.445	86.31
348.673	81.31
348.9	92.31
349.128	98.31
349.355	81.31
349.583	80.31
349.81	60.31
350.037	87.31
350.265	81.31
350.492	70.31
350.72	81.31
350.947	87.31
351.174	85.31
351.402	83.31
351.629	80.31
351.856	70.31
352.083	77.31
352.311	76.31
352.538	77.31
352.765	90.31
352.992	79.31
353.22	71.31
353.447	68.31
353.674	81.31
353.901	77.31
354.128	86.31
354.355	83.31
354.583	73.31
354.81	81.31
355.037	87.31
355.264	97.31
355.491	78.31
355.718	68.31
355.945	77.31
356.172	92.31
356.399	78.31
356.626	78.31
356.853	86.31
357.08	69.31
357.307	85.31
357.534	98.31
357.761	91.31
357.988	66.31
358.215	74.31
358.441	82.31
358.668	77.31
358.895	95.31
359.122	74.31
359.349	86.31
359.576	81.31
359.802	80.31
360.029	88.31
360.256	89.31
360.483	86.31
360.709	76.31
360.936	98.31
361.163	96.31
361.39	82.31
361.616	84.31
361.843	85.31
362.07	66.31
362.296	86.31
362.523	78.31
362.749	83.31
362.976	90.31
363.203	81.31
363.429	94.31
363.656	89.31
363.882	70.31
364.109	85.31
364.335	73.31
364.562	86.31
364.788	67.31
365.015	86.31
365.241	82.31
365.468	77.31
365.694	73.31
365.92	80.31
366.147	74.31
366.373	82.31
366.599	89.31
366.826	78.31
367.052	82.31
367.278	83.31
367.505	73.31
367.731	78.31
367.957	84.31
368.184	77.31
368.41	75.31
368.636	62.31
368.862	82.31
369.089	83.31
369.315	72.31
369.541	69.31
369.767	83.31
369.993	85.31
370.219	103.31
370.445	87.31
370.672	80.31
370.898	82.31
371.124	72.31
371.35	74.31
371.576	73.31
371.802	75.31
372.028	84.31
372.254	85.31
372.48	81.31
372.706	89.31
372.932	83.31
373.158	74.31
373.384	85.31
373.61	77.31
373.835	83.31
374.061	87.31
374.287	86.31
374.513	77.31
374.739	75.31
374.965	82.31
375.191	89.31
375.416	87.31
375.642	83.31
375.868	70.31
376.094	84.31
376.319	87.31
376.545	79.31
376.771	78.31
376.997	71.31
377.222	70.31
377.448	80.31
377.674	89.31
377.899	81.31
378.125	88.31
378.35	92.31
378.576	69.31
378.802	85.31
379.027	80.31
379.253	82.31
379.478	77.31
379.704	93.31
379.929	82.31
380.155	76.31
380.38	73.31
380.606	81.31
380.831	90.31
381.057	93.31
381.282	84.31
381.507	76.31
381.733	88.31
381.958	86.31
382.184	75.31
382.409	82.31
382.634	81.31
382.86	84.31
383.085	96.31
383.31	80.31
383.535	84.31
383.761	69.31
383.986	69.31
384.211	73.31
384.436	81.31
384.662	74.31
384.887	81.31
385.112	73.31
385.337	73.31
385.562	79.31
385.787	80.31
386.013	94.31
386.238	67.31
386.463	87.31
386.688	86.31
386.913	85.31
387.138	78.31
387.363	81.31
387.588	73.31
387.813	93.31
388.038	80.31
388.263	74.31
388.488	77.31
388.713	80.31
388.938	78.31
389.163	94.31
389.387	89.31
389.612	91.31
389.837	78.31
390.062	84.31
390.287	83.31
390.512	93.31
390.736	96.31
390.961	85.31
391.186	78.31
391.411	74.31
391.636	77.31
391.86	67.31
392.085	82.31
392.31	78.31
392.534	77.31
392.759	81.31
392.984	79.31
393.208	82.31
393.433	66.31
393.658	83.31
393.882	89.31
394.107	77.31
394.331	86.31
394.556	86.31
394.78	75.31
395.005	81.31
395.229	83.31
395.454	97.31
395.678	76.31
395.903	78.31
396.127	81.31
396.352	84.31
396.576	84.31
396.801	72.31
397.025	87.31
397.249	85.31
397.474	78.31
397.698	94.31
397.922	73.31
398.147	82.31
398.371	77.31
398.595	79.31
398.82	73.31
399.044	81.31
399.268	78.31
399.492	95.31
399.717	84.31
399.941	90.31
400.165	74.31
400.389	82.31
400.613	86.31
400.837	69.31
401.062	89.31
401.286	88.31
401.51	72.31
401.734	85.31
401.958	89.31
402.182	87.31
402.406	78.31
402.63	81.31
402.854	82.31
403.078	90.31
403.302	88.31
403.526	86.31
403.75	83.31
403.974	71.31
404.198	79.31
404.422	70.31
404.645	82.31
404.869	81.31
405.093	85.31
405.317	73.31
405.541	79.31
405.765	78.31
405.988	72.31
406.212	83.31
406.436	78.31
406.66	81.31
406.883	89.31
407.107	91.31
407.331	83.31
407.555	82.31
407.778	71.31
408.002	86.31
408.226	74.31
408.449	75.31
408.673	80.31
408.896	81.31
409.12	80.31
409.344	81.31
409.567	93.31
409.791	87.31
410.014	87.31
410.238	71.31
410.461	79.31
410.685	86.31
410.908	87.31
411.132	80.31
411.355	84.31
411.578	63.31
411.802	72.31
412.025	72.31
412.249	68.31
412.472	96.31
412.695	96.31
412.919	86.31
413.142	90.31
413.365	93.31
413.589	62.31
413.812	68.31
414.035	88.31
414.258	69.31
414.482	74.31
414.705	91.31
414.928	76.31
415.151	90.31
415.374	84.31
415.597	83.31
415.821	69.31
416.044	93.31
416.267	84.31
416.49	80.31
416.713	82.31
416.936	69.31
417.159	88.31
417.382	80.31
417.605	94.31
417.828	69.31
418.051	82.31
418.274	73.31
418.497	91.31
418.72	70.31
418.943	73.31
419.166	84.31
419.389	95.31
419.611	83.31
419.834	81.31
420.057	87.31
420.28	84.31
420.503	88.31
420.726	89.31
420.948	87.31
421.171	79.31
421.394	77.31
421.617	73.31
421.839	71.31
422.062	89.31
422.285	79.31
422.507	85.31
422.73	76.31
422.953	88.31
423.175	75.31
423.398	90.31
423.621	86.31
423.843	81.31
424.066	73.31
424.288	87.31
424.511	88.31
424.733	70.31
424.956	82.31
425.178	90.31
425.401	77.31
425.623	86.31
425.846	79.31
426.068	88.31
426.291	93.31
426.513	79.31
426.735	85.31
426.958	69.31
427.18	86.31
427.402	84.31
427.625	64.31
427.847	79.31
428.069	85.31
428.292	88.31
428.514	87.31
428.736	77.31
428.958	81.31
429.181	87.31
429.403	88.31
429.625	95.31
429.847	76.31
430.069	93.31
430.292	78.31
430.514	80.31
430.736	90.31
430.958	73.31
431.18	87.31
431.402	97.31
431.624	90.31
431.846	76.31
432.068	72.31
432.29	80.31
432.512	91.31
432.734	61.31
432.956	85.31
433.178	94.31
433.4	65.31
433.622	80.31
433.844	94.31
434.066	81.31
434.287	83.31
434.509	80.31
434.731	79.31
434.953	92.31
435.175	76.31
435.397	74.31
435.618	84.31
435.84	72.31
436.062	87.31
436.284	81.31
436.505	83.31
436.727	97.31
436.949	80.31
437.17	72.31
437.392	74.31
437.614	72.31
437.835	85.31
438.057	64.31
438.278	82.31
438.5	74.31
438.721	76.31
438.943	76.31
439.165	68.31
439.386	70.31
439.608	87.31
439.829	80.31
440.05	84.31
440.272	81.31
440.493	83.31
440.715	84.31
440.936	76.31
441.158	90.31
441.379	85.31
441.6	74.31
441.822	73.31
442.043	85.31
442.264	99.31
442.486	74.31
442.707	72.31
442.928	88.31
443.149	86.31
443.371	68.31
443.592	86.31
443.813	77.31
444.034	72.31
444.255	83.31
444.476	84.31
444.698	97.31
444.919	84.31
445.14	193.31
445.361	146.31
445.582	100.31
445.803	81.31
446.024	102.31
446.245	86.31
446.466	78.31
446.687	78.31
446.908	88.31
447.129	96.31
447.35	71.31
447.571	78.31
447.792	88.31
448.013	91.31
448.234	80.31
448.455	86.31
448.675	99.31
448.896	71.31
449.117	84.31
449.338	82.31
449.559	69.31
449.779	82.31
450	84.31
450.221	86.31
450.442	81.31
450.662	83.31
450.883	91.31
451.104	80.31
451.324	77.31
451.545	82.31
451.766	87.31
451.986	92.31
452.207	74.31
452.428	77.31
452.648	85.31
452.869	84.31
453.089	77.31
453.31	84.31
453.53	82.31
453.751	81.31
453.971	75.31
454.192	78.31
454.412	92.31
454.633	99.31
454.853	81.31
455.073	94.31
455.294	72.31
455.514	79.31
455.734	81.31
455.955	70.31
456.175	64.31
456.395	89.31
456.616	76.31
456.836	80.31
457.056	95.31
457.276	79.31
457.497	77.31
457.717	72.31
457.937	72.31
458.157	78.31
458.377	100.31
458.598	84.31
458.818	84.31
459.038	80.31
459.258	84.31
459.478	93.31
459.698	100.31
459.918	87.31
460.138	86.31
460.358	85.31
460.578	85.31
460.798	81.31
461.018	91.31
461.238	79.31
461.458	89.31
461.678	76.31
461.898	88.31
462.118	94.31
462.338	89.31
462.558	84.31
462.777	78.31
462.997	74.31
463.217	92.31
463.437	89.31
463.657	88.31
463.876	94.31
464.096	85.31
464.316	86.31
464.536	77.31
464.755	92.31
464.975	96.31
465.195	68.31
465.414	95.31
465.634	94.31
465.854	97.31
466.073	78.31
466.293	74.31
466.512	86.31
466.732	76.31
466.951	94.31
467.171	82.31
467.391	76.31
467.61	82.31
467.829	92.31
468.049	79.31
468.268	77.31
468.488	69.31
468.707	73.31
468.927	82.31
469.146	78.31
469.365	67.31
469.585	90.31
469.804	80.31
470.023	69.31
470.243	81.31
470.462	87.31
470.681	100.31
470.901	84.31
471.12	87.31
471.339	93.31
471.558	82.31
471.777	88.31
471.997	97.31
472.216	85.31
472.435	90.31
472.654	80.31
472.873	82.31
473.092	92.31
473.311	87.31
473.53	78.31
473.749	77.31
473.968	85.31
474.187	77.31
474.406	81.31
474.625	76.31
474.844	78.31
475.063	95.31
475.282	93.31
475.501	73.31
475.72	96.31
475.939	64.31
476.158	86.31
476.377	94.31
476.596	73.31
476.814	80.31
477.033	86.31
477.252	84.31
477.471	93.31
477.69	95.31
477.908	88.31
478.127	80.31
478.346	87.31
478.564	100.31
478.783	89.31
479.002	92.31
479.22	85.31
479.439	77.31
479.658	83.31
479.876	94.31
480.095	87.31
480.313	78.31
480.532	85.31
480.751	89.31
480.969	89.31
481.188	99.31
481.406	84.31
481.624	90.31
481.843	101.31
482.061	90.31
482.28	91.31
482.498	79.31
482.717	72.31
482.935	82.31
483.153	79.31
483.372	76.31
483.59	94.31
483.808	95.31
484.027	80.31
484.245	87.31
484.463	79.31
484.681	108.31
484.9	97.31
485.118	93.31
485.336	89.31
485.554	82.31
485.772	95.31
485.99	82.31
486.209	102.31
486.427	75.31
486.645	89.31
486.863	90.31
487.081	94.31
487.299	84.31
487.517	93.31
487.735	88.31
487.953	87.31
488.171	85.31
488.389	94.31
488.607	70.31
488.825	74.31
489.043	87.31
489.261	106.31
489.479	104.31
489.696	92.31
489.914	82.31
490.132	94.31
490.35	95.31
490.568	85.31
490.786	93.31
491.003	93.31
491.221	81.31
491.439	89.31
491.657	87.31
491.874	85.31
492.092	87.31
492.31	96.31
492.527	88.31
492.745	91.31
492.963	111.31
493.18	92.31
493.398	84.31
493.615	99.31
493.833	85.31
494.05	93.31
494.268	87.31
494.485	79.31
494.703	100.31
494.92	88.31
495.138	83.31
495.355	96.31
495.573	81.31
495.79	81.31
496.008	94.31
496.225	93.31
496.442	93.31
496.66	104.31
496.877	102.31
497.094	108.31
497.312	92.31
497.529	91.31
497.746	85.31
497.963	98.31
498.181	86.31
498.398	89.31
498.615	93.31
498.832	92.31
499.049	104.31
499.267	111.31
499.484	97.31
499.701	99.31
499.918	106.31
500.135	117.31
500.352	102.31
500.569	112.31
500.786	104.31
501.003	104.31
501.22	98.31
501.437	95.31
501.654	105.31
501.871	89.31
502.088	105.31
502.305	94.31
502.522	93.31
502.739	97.31
502.956	92.31
503.172	96.31
503.389	103.31
503.606	86.31
503.823	90.31
504.04	88.31
504.256	96.31
504.473	92.31
504.69	99.31
504.907	97.31
505.123	89.31
505.34	104.31
505.557	85.31
505.773	82.31
505.99	86.31
506.207	90.31
506.423	90.31
506.64	96.31
506.856	85.31
507.073	92.31
507.289	90.31
507.506	85.31
507.722	93.31
507.939	86.31
508.155	82.31
508.372	108.31
508.588	97.31
508.805	90.31
509.021	85.31
509.238	84.31
509.454	88.31
509.67	92.31
509.887	72.31
510.103	85.31
510.319	71.31
510.536	96.31
510.752	86.31
510.968	79.31
511.184	87.31
511.401	103.31
511.617	84.31
511.833	97.31
512.049	94.31
512.265	87.31
512.481	92.31
512.698	92.31
512.914	85.31
513.13	88.31
513.346	74.31
513.562	100.31
513.778	79.31
513.994	80.31
514.21	98.31
514.426	87.31
514.642	88.31
514.858	94.31
515.074	93.31
515.29	82.31
515.506	80.31
515.721	97.31
515.937	89.31
516.153	96.31
516.369	91.31
516.585	99.31
516.801	95.31
517.016	101.31
517.232	77.31
517.448	89.31
517.664	93.31
517.879	94.31
518.095	95.31
518.311	102.31
518.527	88.31
518.742	90.31
518.958	101.31
