Data from Ni(NO3)2Standard.Agarose3%.GreenCap.LampEnergy5.5.E.O_HRD10591_14-40-06-188.txt Node
Date: Mon Jul 22 14:40:06 EDT 2019
User: cochatt
Spectrometer: HR+D1059
Trigger mode: 1
Integration Time (sec): 1.000000E-1
Scans to average: 1
Electric dark correction enabled: true
Nonlinearity correction enabled: false
Boxcar width: 0
XAxis mode: Wavelengths
Number of Pixels in Spectrum: 2048
>>>>>Begin Spectral Data<<<<<
223.165	-11.44
223.4	-11.44
223.635	-11.44
223.869	-10.44
224.104	-19.44
224.338	-16.44
224.573	-16.44
224.808	-11.44
225.042	-10.44
225.277	-3.44
225.511	-1.44
225.746	11.56
225.98	-2.44
226.215	15.56
226.449	15.56
226.683	24.56
226.918	25.56
227.152	10.56
227.387	31.56
227.621	31.56
227.856	58.56
228.09	44.56
228.324	51.56
228.559	62.56
228.793	51.56
229.027	61.56
229.262	70.56
229.496	65.56
229.73	69.56
229.964	74.56
230.199	80.56
230.433	76.56
230.667	65.56
230.901	68.56
231.136	83.56
231.37	81.56
231.604	78.56
231.838	91.56
232.072	87.56
232.306	94.56
232.541	89.56
232.775	74.56
233.009	90.56
233.243	95.56
233.477	68.56
233.711	77.56
233.945	89.56
234.179	87.56
234.413	71.56
234.647	79.56
234.881	90.56
235.115	61.56
235.349	69.56
235.583	84.56
235.817	84.56
236.051	87.56
236.285	80.56
236.519	89.56
236.753	87.56
236.987	97.56
237.221	72.56
237.455	69.56
237.689	76.56
237.922	81.56
238.156	82.56
238.39	73.56
238.624	71.56
238.858	70.56
239.091	63.56
239.325	74.56
239.559	75.56
239.793	75.56
240.027	72.56
240.26	72.56
240.494	84.56
240.728	81.56
240.961	89.56
241.195	81.56
241.429	67.56
241.662	78.56
241.896	75.56
242.13	78.56
242.363	68.56
242.597	60.56
242.83	78.56
243.064	81.56
243.298	77.56
243.531	86.56
243.765	86.56
243.998	81.56
244.232	74.56
244.465	71.56
244.699	79.56
244.932	74.56
245.166	79.56
245.399	75.56
245.633	87.56
245.866	88.56
246.099	73.56
246.333	84.56
246.566	85.56
246.8	90.56
247.033	73.56
247.266	81.56
247.5	79.56
247.733	85.56
247.966	85.56
248.2	82.56
248.433	88.56
248.666	85.56
248.899	97.56
249.133	85.56
249.366	79.56
249.599	77.56
249.832	80.56
250.066	89.56
250.299	71.56
250.532	65.56
250.765	72.56
250.998	85.56
251.231	84.56
251.465	76.56
251.698	78.56
251.931	92.56
252.164	82.56
252.397	74.56
252.63	81.56
252.863	86.56
253.096	91.56
253.329	89.56
253.562	84.56
253.795	72.56
254.028	83.56
254.261	72.56
254.494	78.56
254.727	70.56
254.96	69.56
255.193	81.56
255.426	77.56
255.659	92.56
255.892	81.56
256.124	83.56
256.357	84.56
256.59	76.56
256.823	86.56
257.056	78.56
257.289	82.56
257.521	77.56
257.754	89.56
257.987	77.56
258.22	83.56
258.452	78.56
258.685	73.56
258.918	86.56
259.151	94.56
259.383	80.56
259.616	79.56
259.849	70.56
260.081	75.56
260.314	78.56
260.547	86.56
260.779	81.56
261.012	85.56
261.244	85.56
261.477	92.56
261.71	79.56
261.942	85.56
262.175	94.56
262.407	83.56
262.64	80.56
262.872	83.56
263.105	84.56
263.337	101.56
263.57	82.56
263.802	91.56
264.035	70.56
264.267	94.56
264.499	87.56
264.732	85.56
264.964	82.56
265.197	92.56
265.429	90.56
265.661	80.56
265.894	77.56
266.126	86.56
266.358	75.56
266.591	81.56
266.823	84.56
267.055	89.56
267.287	92.56
267.52	86.56
267.752	75.56
267.984	85.56
268.216	99.56
268.448	95.56
268.681	83.56
268.913	82.56
269.145	89.56
269.377	77.56
269.609	83.56
269.841	83.56
270.073	73.56
270.306	80.56
270.538	87.56
270.77	83.56
271.002	84.56
271.234	77.56
271.466	83.56
271.698	99.56
271.93	80.56
272.162	97.56
272.394	70.56
272.626	81.56
272.858	83.56
273.09	87.56
273.322	87.56
273.553	85.56
273.785	84.56
274.017	93.56
274.249	78.56
274.481	83.56
274.713	72.56
274.945	84.56
275.176	81.56
275.408	87.56
275.64	92.56
275.872	90.56
276.104	90.56
276.335	77.56
276.567	87.56
276.799	87.56
277.031	86.56
277.262	73.56
277.494	101.56
277.726	91.56
277.957	88.56
278.189	94.56
278.421	83.56
278.652	100.56
278.884	96.56
279.115	74.56
279.347	96.56
279.579	98.56
279.81	88.56
280.042	82.56
280.273	94.56
280.505	74.56
280.736	81.56
280.968	92.56
281.199	83.56
281.431	82.56
281.662	92.56
281.894	78.56
282.125	79.56
282.356	74.56
282.588	88.56
282.819	97.56
283.051	80.56
283.282	91.56
283.513	94.56
283.745	82.56
283.976	82.56
284.207	90.56
284.439	93.56
284.67	97.56
284.901	91.56
285.132	78.56
285.364	84.56
285.595	81.56
285.826	92.56
286.057	92.56
286.288	77.56
286.52	83.56
286.751	70.56
286.982	78.56
287.213	92.56
287.444	79.56
287.675	85.56
287.906	82.56
288.138	84.56
288.369	82.56
288.6	89.56
288.831	103.56
289.062	96.56
289.293	83.56
289.524	82.56
289.755	89.56
289.986	87.56
290.217	90.56
290.448	84.56
290.679	91.56
290.91	88.56
291.141	93.56
291.371	88.56
291.602	92.56
291.833	76.56
292.064	81.56
292.295	102.56
292.526	92.56
292.757	87.56
292.987	82.56
293.218	93.56
293.449	87.56
293.68	98.56
293.91	86.56
294.141	82.56
294.372	96.56
294.603	82.56
294.833	88.56
295.064	91.56
295.295	89.56
295.525	94.56
295.756	76.56
295.987	83.56
296.217	86.56
296.448	93.56
296.679	75.56
296.909	86.56
297.14	72.56
297.37	86.56
297.601	89.56
297.831	90.56
298.062	82.56
298.292	87.56
298.523	84.56
298.753	85.56
298.984	85.56
299.214	84.56
299.445	93.56
299.675	79.56
299.905	88.56
300.136	92.56
300.366	105.56
300.597	74.56
300.827	101.56
301.057	92.56
301.288	89.56
301.518	93.56
301.748	88.56
301.979	85.56
302.209	92.56
302.439	82.56
302.669	80.56
302.9	92.56
303.13	80.56
303.36	89.56
303.59	91.56
303.82	84.56
304.051	92.56
304.281	88.56
304.511	87.56
304.741	90.56
304.971	83.56
305.201	90.56
305.431	82.56
305.661	92.56
305.891	82.56
306.121	83.56
306.352	96.56
306.582	88.56
306.812	93.56
307.042	100.56
307.272	91.56
307.502	90.56
307.731	77.56
307.961	84.56
308.191	86.56
308.421	87.56
308.651	89.56
308.881	93.56
309.111	91.56
309.341	106.56
309.571	78.56
309.8	85.56
310.03	98.56
310.26	95.56
310.49	99.56
310.72	83.56
310.949	87.56
311.179	87.56
311.409	93.56
311.639	82.56
311.868	94.56
312.098	91.56
312.328	96.56
312.557	100.56
312.787	101.56
313.017	81.56
313.246	84.56
313.476	88.56
313.706	82.56
313.935	82.56
314.165	80.56
314.394	83.56
314.624	91.56
314.853	92.56
315.083	83.56
315.312	87.56
315.542	85.56
315.771	90.56
316.001	84.56
316.23	82.56
316.46	80.56
316.689	86.56
316.919	86.56
317.148	90.56
317.377	95.56
317.607	86.56
317.836	81.56
318.065	77.56
318.295	95.56
318.524	92.56
318.753	90.56
318.983	76.56
319.212	102.56
319.441	97.56
319.67	90.56
319.9	86.56
320.129	93.56
320.358	85.56
320.587	78.56
320.816	80.56
321.046	84.56
321.275	85.56
321.504	92.56
321.733	93.56
321.962	104.56
322.191	87.56
322.42	94.56
322.649	95.56
322.878	81.56
323.108	82.56
323.337	88.56
323.566	90.56
323.795	95.56
324.024	96.56
324.253	91.56
324.482	93.56
324.71	77.56
324.939	74.56
325.168	77.56
325.397	96.56
325.626	88.56
325.855	79.56
326.084	85.56
326.313	93.56
326.542	90.56
326.77	88.56
326.999	91.56
327.228	85.56
327.457	85.56
327.686	86.56
327.914	78.56
328.143	101.56
328.372	81.56
328.6	100.56
328.829	90.56
329.058	94.56
329.287	93.56
329.515	96.56
329.744	79.56
329.972	84.56
330.201	82.56
330.43	71.56
330.658	85.56
330.887	101.56
331.115	90.56
331.344	85.56
331.572	105.56
331.801	82.56
332.03	86.56
332.258	75.56
332.486	90.56
332.715	97.56
332.943	85.56
333.172	90.56
333.4	89.56
333.629	96.56
333.857	87.56
334.085	96.56
334.314	85.56
334.542	87.56
334.771	85.56
334.999	87.56
335.227	109.56
335.455	98.56
335.684	100.56
335.912	82.56
336.14	93.56
336.369	89.56
336.597	85.56
336.825	90.56
337.053	101.56
337.281	101.56
337.51	85.56
337.738	98.56
337.966	77.56
338.194	89.56
338.422	84.56
338.65	77.56
338.878	91.56
339.106	88.56
339.334	96.56
339.562	77.56
339.79	94.56
340.018	84.56
340.246	93.56
340.474	96.56
340.702	101.56
340.93	104.56
341.158	90.56
341.386	74.56
341.614	87.56
341.842	86.56
342.07	80.56
342.298	91.56
342.526	78.56
342.754	90.56
342.981	91.56
343.209	93.56
343.437	94.56
343.665	90.56
343.893	97.56
344.12	96.56
344.348	87.56
344.576	89.56
344.804	94.56
345.031	100.56
345.259	96.56
345.487	76.56
345.714	89.56
345.942	82.56
346.17	84.56
346.397	88.56
346.625	71.56
346.853	92.56
347.08	72.56
347.308	93.56
347.535	85.56
347.763	96.56
347.99	87.56
348.218	88.56
348.445	79.56
348.673	89.56
348.9	88.56
349.128	95.56
349.355	96.56
349.583	84.56
349.81	89.56
350.037	88.56
350.265	86.56
350.492	82.56
350.72	94.56
350.947	91.56
351.174	93.56
351.402	97.56
351.629	84.56
351.856	101.56
352.083	96.56
352.311	93.56
352.538	76.56
352.765	89.56
352.992	79.56
353.22	81.56
353.447	84.56
353.674	97.56
353.901	83.56
354.128	76.56
354.355	78.56
354.583	63.56
354.81	85.56
355.037	83.56
355.264	84.56
355.491	84.56
355.718	83.56
355.945	87.56
356.172	86.56
356.399	93.56
356.626	88.56
356.853	87.56
357.08	98.56
357.307	86.56
357.534	80.56
357.761	87.56
357.988	87.56
358.215	92.56
358.441	83.56
358.668	101.56
358.895	85.56
359.122	85.56
359.349	83.56
359.576	76.56
359.802	83.56
360.029	79.56
360.256	88.56
360.483	97.56
360.709	87.56
360.936	99.56
361.163	92.56
361.39	83.56
361.616	78.56
361.843	98.56
362.07	72.56
362.296	89.56
362.523	88.56
362.749	83.56
362.976	88.56
363.203	82.56
363.429	93.56
363.656	75.56
363.882	98.56
364.109	100.56
364.335	100.56
364.562	92.56
364.788	85.56
365.015	97.56
365.241	93.56
365.468	90.56
365.694	92.56
365.92	93.56
366.147	85.56
366.373	87.56
366.599	88.56
366.826	83.56
367.052	87.56
367.278	80.56
367.505	77.56
367.731	99.56
367.957	96.56
368.184	81.56
368.41	97.56
368.636	89.56
368.862	83.56
369.089	83.56
369.315	86.56
369.541	86.56
369.767	83.56
369.993	89.56
370.219	66.56
370.445	90.56
370.672	90.56
370.898	92.56
371.124	97.56
371.35	88.56
371.576	87.56
371.802	90.56
372.028	98.56
372.254	85.56
372.48	72.56
372.706	88.56
372.932	90.56
373.158	88.56
373.384	84.56
373.61	83.56
373.835	88.56
374.061	82.56
374.287	95.56
374.513	83.56
374.739	78.56
374.965	81.56
375.191	90.56
375.416	84.56
375.642	85.56
375.868	83.56
376.094	87.56
376.319	85.56
376.545	90.56
376.771	89.56
376.997	87.56
377.222	64.56
377.448	87.56
377.674	101.56
377.899	83.56
378.125	89.56
378.35	89.56
378.576	84.56
378.802	89.56
379.027	72.56
379.253	93.56
379.478	80.56
379.704	93.56
379.929	90.56
380.155	90.56
380.38	84.56
380.606	77.56
380.831	80.56
381.057	91.56
381.282	84.56
381.507	77.56
381.733	77.56
381.958	68.56
382.184	83.56
382.409	85.56
382.634	72.56
382.86	94.56
383.085	99.56
383.31	83.56
383.535	76.56
383.761	92.56
383.986	85.56
384.211	78.56
384.436	92.56
384.662	94.56
384.887	79.56
385.112	79.56
385.337	79.56
385.562	97.56
385.787	88.56
386.013	89.56
386.238	95.56
386.463	82.56
386.688	73.56
386.913	79.56
387.138	103.56
387.363	89.56
387.588	93.56
387.813	84.56
388.038	98.56
388.263	81.56
388.488	88.56
388.713	72.56
388.938	91.56
389.163	92.56
389.387	94.56
389.612	88.56
389.837	93.56
390.062	85.56
390.287	89.56
390.512	81.56
390.736	84.56
390.961	82.56
391.186	97.56
391.411	95.56
391.636	85.56
391.86	94.56
392.085	89.56
392.31	90.56
392.534	86.56
392.759	90.56
392.984	87.56
393.208	83.56
393.433	85.56
393.658	82.56
393.882	90.56
394.107	84.56
394.331	78.56
394.556	92.56
394.78	80.56
395.005	99.56
395.229	100.56
395.454	91.56
395.678	97.56
395.903	89.56
396.127	95.56
396.352	73.56
396.576	80.56
396.801	79.56
397.025	89.56
397.249	83.56
397.474	91.56
397.698	74.56
397.922	96.56
398.147	80.56
398.371	86.56
398.595	85.56
398.82	83.56
399.044	106.56
399.268	100.56
399.492	85.56
399.717	102.56
399.941	82.56
400.165	103.56
400.389	92.56
400.613	73.56
400.837	88.56
401.062	100.56
401.286	106.56
401.51	82.56
401.734	92.56
401.958	85.56
402.182	84.56
402.406	98.56
402.63	95.56
402.854	92.56
403.078	87.56
403.302	93.56
403.526	87.56
403.75	87.56
403.974	90.56
404.198	82.56
404.422	89.56
404.645	96.56
404.869	78.56
405.093	85.56
405.317	91.56
405.541	83.56
405.765	84.56
405.988	78.56
406.212	94.56
406.436	109.56
406.66	77.56
406.883	96.56
407.107	86.56
407.331	87.56
407.555	83.56
407.778	79.56
408.002	84.56
408.226	89.56
408.449	82.56
408.673	94.56
408.896	93.56
409.12	85.56
409.344	98.56
409.567	95.56
409.791	94.56
410.014	103.56
410.238	97.56
410.461	89.56
410.685	97.56
410.908	91.56
411.132	77.56
411.355	99.56
411.578	94.56
411.802	76.56
412.025	87.56
412.249	106.56
412.472	80.56
412.695	94.56
412.919	91.56
413.142	91.56
413.365	98.56
413.589	85.56
413.812	95.56
414.035	92.56
414.258	91.56
414.482	81.56
414.705	98.56
414.928	94.56
415.151	89.56
415.374	91.56
415.597	83.56
415.821	84.56
416.044	99.56
416.267	77.56
416.49	73.56
416.713	92.56
416.936	102.56
417.159	92.56
417.382	88.56
417.605	90.56
417.828	93.56
418.051	96.56
418.274	90.56
418.497	97.56
418.72	95.56
418.943	77.56
419.166	95.56
419.389	90.56
419.611	83.56
419.834	89.56
420.057	80.56
420.28	91.56
420.503	90.56
420.726	92.56
420.948	93.56
421.171	80.56
421.394	101.56
421.617	92.56
421.839	83.56
422.062	89.56
422.285	80.56
422.507	82.56
422.73	92.56
422.953	93.56
423.175	90.56
423.398	93.56
423.621	99.56
423.843	85.56
424.066	88.56
424.288	78.56
424.511	96.56
424.733	88.56
424.956	86.56
425.178	88.56
425.401	90.56
425.623	90.56
425.846	77.56
426.068	72.56
426.291	81.56
426.513	93.56
426.735	83.56
426.958	83.56
427.18	83.56
427.402	82.56
427.625	80.56
427.847	83.56
428.069	95.56
428.292	87.56
428.514	76.56
428.736	97.56
428.958	79.56
429.181	97.56
429.403	85.56
429.625	100.56
429.847	80.56
430.069	88.56
430.292	84.56
430.514	86.56
430.736	90.56
430.958	81.56
431.18	87.56
431.402	107.56
431.624	99.56
431.846	74.56
432.068	98.56
432.29	79.56
432.512	97.56
432.734	78.56
432.956	101.56
433.178	104.56
433.4	101.56
433.622	92.56
433.844	85.56
434.066	94.56
434.287	84.56
434.509	89.56
434.731	89.56
434.953	91.56
435.175	86.56
435.397	86.56
435.618	96.56
435.84	100.56
436.062	90.56
436.284	71.56
436.505	84.56
436.727	101.56
436.949	93.56
437.17	82.56
437.392	85.56
437.614	97.56
437.835	84.56
438.057	81.56
438.278	77.56
438.5	97.56
438.721	84.56
438.943	88.56
439.165	92.56
439.386	87.56
439.608	87.56
439.829	91.56
440.05	81.56
440.272	80.56
440.493	67.56
440.715	87.56
440.936	88.56
441.158	73.56
441.379	91.56
441.6	95.56
441.822	82.56
442.043	79.56
442.264	83.56
442.486	99.56
442.707	93.56
442.928	94.56
443.149	85.56
443.371	89.56
443.592	86.56
443.813	80.56
444.034	84.56
444.255	82.56
444.476	75.56
444.698	96.56
444.919	108.56
445.14	197.56
445.361	157.56
445.582	89.56
445.803	89.56
446.024	82.56
446.245	88.56
446.466	92.56
446.687	93.56
446.908	83.56
447.129	86.56
447.35	103.56
447.571	75.56
447.792	94.56
448.013	85.56
448.234	84.56
448.455	101.56
448.675	98.56
448.896	72.56
449.117	85.56
449.338	87.56
449.559	87.56
449.779	86.56
450	79.56
450.221	78.56
450.442	86.56
450.662	100.56
450.883	95.56
451.104	89.56
451.324	101.56
451.545	82.56
451.766	88.56
451.986	78.56
452.207	90.56
452.428	84.56
452.648	78.56
452.869	85.56
453.089	88.56
453.31	87.56
453.53	94.56
453.751	91.56
453.971	87.56
454.192	87.56
454.412	89.56
454.633	94.56
454.853	99.56
455.073	81.56
455.294	93.56
455.514	94.56
455.734	90.56
455.955	68.56
456.175	86.56
456.395	76.56
456.616	81.56
456.836	84.56
457.056	97.56
457.276	84.56
457.497	91.56
457.717	85.56
457.937	69.56
458.157	74.56
458.377	83.56
458.598	80.56
458.818	83.56
459.038	90.56
459.258	94.56
459.478	91.56
459.698	84.56
459.918	89.56
460.138	90.56
460.358	93.56
460.578	90.56
460.798	96.56
461.018	101.56
461.238	94.56
461.458	90.56
461.678	95.56
461.898	91.56
462.118	88.56
462.338	97.56
462.558	80.56
462.777	101.56
462.997	101.56
463.217	93.56
463.437	100.56
463.657	92.56
463.876	76.56
464.096	103.56
464.316	89.56
464.536	89.56
464.755	92.56
464.975	86.56
465.195	88.56
465.414	83.56
465.634	93.56
465.854	97.56
466.073	107.56
466.293	90.56
466.512	93.56
466.732	90.56
466.951	94.56
467.171	80.56
467.391	98.56
467.61	85.56
467.829	96.56
468.049	100.56
468.268	103.56
468.488	93.56
468.707	100.56
468.927	79.56
469.146	88.56
469.365	88.56
469.585	91.56
469.804	87.56
470.023	86.56
470.243	98.56
470.462	93.56
470.681	81.56
470.901	81.56
471.12	69.56
471.339	97.56
471.558	92.56
471.777	91.56
471.997	91.56
472.216	87.56
472.435	86.56
472.654	83.56
472.873	86.56
473.092	79.56
473.311	93.56
473.53	94.56
473.749	83.56
473.968	91.56
474.187	96.56
474.406	96.56
474.625	86.56
474.844	111.56
475.063	88.56
475.282	92.56
475.501	82.56
475.72	93.56
475.939	83.56
476.158	82.56
476.377	94.56
476.596	88.56
476.814	92.56
477.033	98.56
477.252	90.56
477.471	92.56
477.69	97.56
477.908	89.56
478.127	87.56
478.346	106.56
478.564	87.56
478.783	107.56
479.002	92.56
479.22	90.56
479.439	99.56
479.658	91.56
479.876	89.56
480.095	97.56
480.313	100.56
480.532	91.56
480.751	97.56
480.969	94.56
481.188	86.56
481.406	103.56
481.624	103.56
481.843	92.56
482.061	94.56
482.28	92.56
482.498	81.56
482.717	90.56
482.935	82.56
483.153	105.56
483.372	90.56
483.59	93.56
483.808	93.56
484.027	84.56
484.245	92.56
484.463	76.56
484.681	107.56
484.9	91.56
485.118	83.56
485.336	101.56
485.554	97.56
485.772	94.56
485.99	117.56
486.209	91.56
486.427	95.56
486.645	109.56
486.863	87.56
487.081	84.56
487.299	99.56
487.517	95.56
487.735	88.56
487.953	110.56
488.171	93.56
488.389	88.56
488.607	93.56
488.825	85.56
489.043	96.56
489.261	92.56
489.479	98.56
489.696	78.56
489.914	101.56
490.132	87.56
490.35	83.56
490.568	85.56
490.786	94.56
491.003	89.56
491.221	88.56
491.439	103.56
491.657	98.56
491.874	89.56
492.092	93.56
492.31	95.56
492.527	93.56
492.745	98.56
492.963	94.56
493.18	100.56
493.398	101.56
493.615	90.56
493.833	103.56
494.05	96.56
494.268	102.56
494.485	106.56
494.703	100.56
494.92	95.56
495.138	102.56
495.355	110.56
495.573	102.56
495.79	104.56
496.008	96.56
496.225	90.56
496.442	97.56
496.66	93.56
496.877	100.56
497.094	104.56
497.312	102.56
497.529	93.56
497.746	95.56
497.963	92.56
498.181	95.56
498.398	98.56
498.615	88.56
498.832	99.56
499.049	115.56
499.267	94.56
499.484	107.56
499.701	108.56
499.918	109.56
500.135	113.56
500.352	108.56
500.569	107.56
500.786	103.56
501.003	112.56
501.22	115.56
501.437	110.56
501.654	105.56
501.871	102.56
502.088	110.56
502.305	100.56
502.522	109.56
502.739	110.56
502.956	105.56
503.172	95.56
503.389	98.56
503.606	92.56
503.823	83.56
504.04	78.56
504.256	92.56
504.473	108.56
504.69	98.56
504.907	101.56
505.123	95.56
505.34	93.56
505.557	102.56
505.773	98.56
505.99	90.56
506.207	100.56
506.423	93.56
506.64	98.56
506.856	114.56
507.073	102.56
507.289	94.56
507.506	92.56
507.722	98.56
507.939	99.56
508.155	101.56
508.372	97.56
508.588	106.56
508.805	85.56
509.021	86.56
509.238	94.56
509.454	91.56
509.67	92.56
509.887	90.56
510.103	97.56
510.319	88.56
510.536	87.56
510.752	96.56
510.968	94.56
511.184	84.56
511.401	89.56
511.617	76.56
511.833	85.56
512.049	104.56
512.265	86.56
512.481	73.56
512.698	93.56
512.914	95.56
513.13	87.56
513.346	94.56
513.562	100.56
513.778	88.56
513.994	101.56
514.21	87.56
514.426	82.56
514.642	111.56
514.858	108.56
515.074	83.56
515.29	107.56
515.506	88.56
515.721	83.56
515.937	89.56
516.153	101.56
516.369	95.56
516.585	99.56
516.801	95.56
517.016	90.56
517.232	95.56
517.448	90.56
517.664	83.56
