Data from Ni(NO3)2Standard.Agarose3%.GreenCap.LampEnergy5.5.E.O_HRD10591_14-42-58-188.txt Node
Date: Mon Jul 22 14:42:58 EDT 2019
User: cochatt
Spectrometer: HR+D1059
Trigger mode: 1
Integration Time (sec): 1.000000E-1
Scans to average: 1
Electric dark correction enabled: true
Nonlinearity correction enabled: false
Boxcar width: 0
XAxis mode: Wavelengths
Number of Pixels in Spectrum: 2048
>>>>>Begin Spectral Data<<<<<
223.165	-19.88
223.4	-19.88
223.635	-19.88
223.869	-19.88
224.104	-25.88
224.338	-6.88
224.573	-9.88
224.808	-13.88
225.042	-13.88
225.277	4.12
225.511	-4.88
225.746	2.12
225.98	13.12
226.215	7.12
226.449	13.12
226.683	25.12
226.918	22.12
227.152	28.12
227.387	33.12
227.621	38.12
227.856	37.12
228.09	52.12
228.324	48.12
228.559	57.12
228.793	63.12
229.027	62.12
229.262	60.12
229.496	62.12
229.73	65.12
229.964	60.12
230.199	79.12
230.433	74.12
230.667	79.12
230.901	70.12
231.136	82.12
231.37	82.12
231.604	81.12
231.838	79.12
232.072	74.12
232.306	80.12
232.541	93.12
232.775	75.12
233.009	77.12
233.243	87.12
233.477	101.12
233.711	91.12
233.945	85.12
234.179	74.12
234.413	78.12
234.647	69.12
234.881	80.12
235.115	90.12
235.349	73.12
235.583	89.12
235.817	66.12
236.051	70.12
236.285	81.12
236.519	62.12
236.753	85.12
236.987	70.12
237.221	79.12
237.455	77.12
237.689	75.12
237.922	73.12
238.156	74.12
238.39	68.12
238.624	78.12
238.858	76.12
239.091	79.12
239.325	73.12
239.559	80.12
239.793	55.12
240.027	82.12
240.26	82.12
240.494	80.12
240.728	69.12
240.961	80.12
241.195	70.12
241.429	85.12
241.662	73.12
241.896	65.12
242.13	74.12
242.363	81.12
242.597	75.12
242.83	79.12
243.064	90.12
243.298	73.12
243.531	70.12
243.765	72.12
243.998	74.12
244.232	93.12
244.465	82.12
244.699	78.12
244.932	76.12
245.166	71.12
245.399	77.12
245.633	84.12
245.866	99.12
246.099	97.12
246.333	68.12
246.566	64.12
246.8	86.12
247.033	77.12
247.266	77.12
247.5	86.12
247.733	70.12
247.966	78.12
248.2	77.12
248.433	87.12
248.666	68.12
248.899	91.12
249.133	80.12
249.366	92.12
249.599	79.12
249.832	77.12
250.066	69.12
250.299	79.12
250.532	91.12
250.765	77.12
250.998	88.12
251.231	82.12
251.465	70.12
251.698	82.12
251.931	83.12
252.164	94.12
252.397	73.12
252.63	80.12
252.863	84.12
253.096	90.12
253.329	78.12
253.562	81.12
253.795	75.12
254.028	92.12
254.261	80.12
254.494	72.12
254.727	80.12
254.96	84.12
255.193	83.12
255.426	79.12
255.659	77.12
255.892	88.12
256.124	90.12
256.357	57.12
256.59	76.12
256.823	77.12
257.056	70.12
257.289	71.12
257.521	87.12
257.754	84.12
257.987	71.12
258.22	63.12
258.452	86.12
258.685	85.12
258.918	83.12
259.151	81.12
259.383	84.12
259.616	70.12
259.849	83.12
260.081	85.12
260.314	77.12
260.547	82.12
260.779	72.12
261.012	72.12
261.244	84.12
261.477	91.12
261.71	78.12
261.942	76.12
262.175	73.12
262.407	68.12
262.64	76.12
262.872	85.12
263.105	69.12
263.337	83.12
263.57	90.12
263.802	77.12
264.035	75.12
264.267	86.12
264.499	72.12
264.732	93.12
264.964	76.12
265.197	68.12
265.429	80.12
265.661	84.12
265.894	86.12
266.126	86.12
266.358	84.12
266.591	84.12
266.823	81.12
267.055	72.12
267.287	86.12
267.52	87.12
267.752	86.12
267.984	76.12
268.216	88.12
268.448	73.12
268.681	89.12
268.913	82.12
269.145	78.12
269.377	79.12
269.609	91.12
269.841	69.12
270.073	82.12
270.306	76.12
270.538	77.12
270.77	78.12
271.002	86.12
271.234	83.12
271.466	91.12
271.698	81.12
271.93	92.12
272.162	69.12
272.394	95.12
272.626	80.12
272.858	82.12
273.09	88.12
273.322	69.12
273.553	76.12
273.785	82.12
274.017	85.12
274.249	86.12
274.481	82.12
274.713	73.12
274.945	78.12
275.176	81.12
275.408	83.12
275.64	87.12
275.872	87.12
276.104	85.12
276.335	76.12
276.567	92.12
276.799	74.12
277.031	98.12
277.262	84.12
277.494	86.12
277.726	75.12
277.957	82.12
278.189	83.12
278.421	76.12
278.652	77.12
278.884	81.12
279.115	84.12
279.347	72.12
279.579	72.12
279.81	77.12
280.042	83.12
280.273	80.12
280.505	73.12
280.736	82.12
280.968	80.12
281.199	70.12
281.431	93.12
281.662	93.12
281.894	75.12
282.125	105.12
282.356	95.12
282.588	89.12
282.819	70.12
283.051	65.12
283.282	71.12
283.513	78.12
283.745	83.12
283.976	89.12
284.207	80.12
284.439	87.12
284.67	94.12
284.901	94.12
285.132	76.12
285.364	82.12
285.595	83.12
285.826	80.12
286.057	70.12
286.288	78.12
286.52	91.12
286.751	86.12
286.982	89.12
287.213	88.12
287.444	78.12
287.675	75.12
287.906	84.12
288.138	83.12
288.369	78.12
288.6	85.12
288.831	76.12
289.062	101.12
289.293	76.12
289.524	91.12
289.755	78.12
289.986	82.12
290.217	84.12
290.448	64.12
290.679	89.12
290.91	91.12
291.141	68.12
291.371	86.12
291.602	86.12
291.833	75.12
292.064	94.12
292.295	94.12
292.526	104.12
292.757	87.12
292.987	81.12
293.218	83.12
293.449	81.12
293.68	94.12
293.91	94.12
294.141	96.12
294.372	88.12
294.603	71.12
294.833	88.12
295.064	92.12
295.295	88.12
295.525	78.12
295.756	90.12
295.987	77.12
296.217	89.12
296.448	83.12
296.679	89.12
296.909	87.12
297.14	80.12
297.37	85.12
297.601	82.12
297.831	80.12
298.062	95.12
298.292	94.12
298.523	85.12
298.753	87.12
298.984	80.12
299.214	89.12
299.445	73.12
299.675	79.12
299.905	79.12
300.136	91.12
300.366	78.12
300.597	80.12
300.827	72.12
301.057	72.12
301.288	99.12
301.518	73.12
301.748	73.12
301.979	92.12
302.209	89.12
302.439	89.12
302.669	88.12
302.9	88.12
303.13	72.12
303.36	86.12
303.59	83.12
303.82	90.12
304.051	86.12
304.281	88.12
304.511	89.12
304.741	89.12
304.971	96.12
305.201	87.12
305.431	83.12
305.661	71.12
305.891	78.12
306.121	88.12
306.352	78.12
306.582	84.12
306.812	88.12
307.042	86.12
307.272	80.12
307.502	89.12
307.731	82.12
307.961	78.12
308.191	99.12
308.421	94.12
308.651	101.12
308.881	81.12
309.111	71.12
309.341	91.12
309.571	91.12
309.8	79.12
310.03	98.12
310.26	72.12
310.49	98.12
310.72	90.12
310.949	94.12
311.179	86.12
311.409	85.12
311.639	86.12
311.868	103.12
312.098	85.12
312.328	83.12
312.557	84.12
312.787	85.12
313.017	91.12
313.246	94.12
313.476	70.12
313.706	95.12
313.935	66.12
314.165	75.12
314.394	81.12
314.624	88.12
314.853	87.12
315.083	86.12
315.312	86.12
315.542	89.12
315.771	89.12
316.001	85.12
316.23	88.12
316.46	81.12
316.689	88.12
316.919	82.12
317.148	90.12
317.377	99.12
317.607	89.12
317.836	86.12
318.065	85.12
318.295	84.12
318.524	85.12
318.753	72.12
318.983	89.12
319.212	93.12
319.441	82.12
319.67	87.12
319.9	88.12
320.129	93.12
320.358	90.12
320.587	94.12
320.816	84.12
321.046	89.12
321.275	78.12
321.504	90.12
321.733	85.12
321.962	87.12
322.191	89.12
322.42	83.12
322.649	86.12
322.878	76.12
323.108	92.12
323.337	78.12
323.566	84.12
323.795	75.12
324.024	80.12
324.253	74.12
324.482	88.12
324.71	102.12
324.939	89.12
325.168	88.12
325.397	107.12
325.626	84.12
325.855	82.12
326.084	88.12
326.313	71.12
326.542	91.12
326.77	88.12
326.999	75.12
327.228	87.12
327.457	84.12
327.686	87.12
327.914	78.12
328.143	86.12
328.372	78.12
328.6	82.12
328.829	83.12
329.058	90.12
329.287	84.12
329.515	82.12
329.744	76.12
329.972	84.12
330.201	85.12
330.43	91.12
330.658	84.12
330.887	87.12
331.115	96.12
331.344	94.12
331.572	100.12
331.801	86.12
332.03	76.12
332.258	86.12
332.486	89.12
332.715	83.12
332.943	94.12
333.172	85.12
333.4	76.12
333.629	96.12
333.857	85.12
334.085	80.12
334.314	83.12
334.542	83.12
334.771	84.12
334.999	91.12
335.227	86.12
335.455	96.12
335.684	90.12
335.912	85.12
336.14	83.12
336.369	90.12
336.597	84.12
336.825	83.12
337.053	89.12
337.281	83.12
337.51	90.12
337.738	88.12
337.966	88.12
338.194	94.12
338.422	84.12
338.65	76.12
338.878	89.12
339.106	86.12
339.334	82.12
339.562	81.12
339.79	79.12
340.018	79.12
340.246	53.12
340.474	89.12
340.702	77.12
340.93	96.12
341.158	80.12
341.386	79.12
341.614	81.12
341.842	101.12
342.07	87.12
342.298	88.12
342.526	86.12
342.754	85.12
342.981	79.12
343.209	85.12
343.437	91.12
343.665	84.12
343.893	102.12
344.12	77.12
344.348	85.12
344.576	77.12
344.804	84.12
345.031	72.12
345.259	91.12
345.487	86.12
345.714	76.12
345.942	90.12
346.17	90.12
346.397	94.12
346.625	78.12
346.853	84.12
347.08	72.12
347.308	95.12
347.535	79.12
347.763	94.12
347.99	98.12
348.218	75.12
348.445	82.12
348.673	88.12
348.9	85.12
349.128	73.12
349.355	98.12
349.583	82.12
349.81	94.12
350.037	81.12
350.265	87.12
350.492	97.12
350.72	88.12
350.947	80.12
351.174	105.12
351.402	76.12
351.629	79.12
351.856	93.12
352.083	72.12
352.311	87.12
352.538	79.12
352.765	78.12
352.992	97.12
353.22	87.12
353.447	85.12
353.674	90.12
353.901	92.12
354.128	81.12
354.355	86.12
354.583	79.12
354.81	70.12
355.037	98.12
355.264	88.12
355.491	92.12
355.718	76.12
355.945	93.12
356.172	75.12
356.399	98.12
356.626	76.12
356.853	85.12
357.08	88.12
357.307	94.12
357.534	78.12
357.761	76.12
357.988	90.12
358.215	76.12
358.441	79.12
358.668	85.12
358.895	69.12
359.122	78.12
359.349	91.12
359.576	76.12
359.802	92.12
360.029	87.12
360.256	74.12
360.483	87.12
360.709	69.12
360.936	90.12
361.163	93.12
361.39	93.12
361.616	76.12
361.843	89.12
362.07	88.12
362.296	85.12
362.523	69.12
362.749	83.12
362.976	76.12
363.203	94.12
363.429	60.12
363.656	84.12
363.882	74.12
364.109	91.12
364.335	78.12
364.562	85.12
364.788	80.12
365.015	87.12
365.241	74.12
365.468	80.12
365.694	81.12
365.92	89.12
366.147	76.12
366.373	73.12
366.599	83.12
366.826	70.12
367.052	98.12
367.278	91.12
367.505	103.12
367.731	100.12
367.957	85.12
368.184	89.12
368.41	67.12
368.636	86.12
368.862	78.12
369.089	70.12
369.315	76.12
369.541	74.12
369.767	90.12
369.993	87.12
370.219	88.12
370.445	73.12
370.672	86.12
370.898	89.12
371.124	76.12
371.35	79.12
371.576	84.12
371.802	91.12
372.028	84.12
372.254	87.12
372.48	79.12
372.706	93.12
372.932	107.12
373.158	90.12
373.384	89.12
373.61	86.12
373.835	97.12
374.061	70.12
374.287	101.12
374.513	79.12
374.739	86.12
374.965	93.12
375.191	97.12
375.416	78.12
375.642	87.12
375.868	77.12
376.094	74.12
376.319	69.12
376.545	71.12
376.771	92.12
376.997	67.12
377.222	87.12
377.448	97.12
377.674	83.12
377.899	85.12
378.125	77.12
378.35	77.12
378.576	75.12
378.802	77.12
379.027	93.12
379.253	85.12
379.478	86.12
379.704	94.12
379.929	86.12
380.155	88.12
380.38	104.12
380.606	79.12
380.831	89.12
381.057	87.12
381.282	80.12
381.507	97.12
381.733	79.12
381.958	87.12
382.184	79.12
382.409	83.12
382.634	84.12
382.86	72.12
383.085	72.12
383.31	90.12
383.535	86.12
383.761	84.12
383.986	78.12
384.211	82.12
384.436	73.12
384.662	96.12
384.887	79.12
385.112	86.12
385.337	101.12
385.562	81.12
385.787	76.12
386.013	104.12
386.238	83.12
386.463	87.12
386.688	83.12
386.913	92.12
387.138	74.12
387.363	93.12
387.588	84.12
387.813	85.12
388.038	89.12
388.263	85.12
388.488	89.12
388.713	76.12
388.938	89.12
389.163	92.12
389.387	94.12
389.612	77.12
389.837	79.12
390.062	95.12
390.287	88.12
390.512	99.12
390.736	82.12
390.961	88.12
391.186	82.12
391.411	78.12
391.636	80.12
391.86	90.12
392.085	87.12
392.31	82.12
392.534	80.12
392.759	86.12
392.984	95.12
393.208	92.12
393.433	99.12
393.658	84.12
393.882	84.12
394.107	92.12
394.331	81.12
394.556	78.12
394.78	84.12
395.005	81.12
395.229	80.12
395.454	86.12
395.678	88.12
395.903	76.12
396.127	78.12
396.352	90.12
396.576	84.12
396.801	90.12
397.025	94.12
397.249	85.12
397.474	82.12
397.698	76.12
397.922	92.12
398.147	80.12
398.371	78.12
398.595	79.12
398.82	70.12
399.044	82.12
399.268	85.12
399.492	73.12
399.717	99.12
399.941	81.12
400.165	74.12
400.389	88.12
400.613	82.12
400.837	79.12
401.062	81.12
401.286	85.12
401.51	85.12
401.734	83.12
401.958	79.12
402.182	87.12
402.406	97.12
402.63	92.12
402.854	85.12
403.078	80.12
403.302	77.12
403.526	85.12
403.75	84.12
403.974	99.12
404.198	79.12
404.422	81.12
404.645	83.12
404.869	71.12
405.093	72.12
405.317	69.12
405.541	100.12
405.765	72.12
405.988	85.12
406.212	80.12
406.436	80.12
406.66	76.12
406.883	79.12
407.107	82.12
407.331	97.12
407.555	89.12
407.778	99.12
408.002	90.12
408.226	70.12
408.449	82.12
408.673	86.12
408.896	91.12
409.12	91.12
409.344	92.12
409.567	90.12
409.791	72.12
410.014	84.12
410.238	90.12
410.461	81.12
410.685	90.12
410.908	92.12
411.132	104.12
411.355	84.12
411.578	84.12
411.802	71.12
412.025	90.12
412.249	89.12
412.472	80.12
412.695	76.12
412.919	89.12
413.142	82.12
413.365	82.12
413.589	73.12
413.812	83.12
414.035	75.12
414.258	92.12
414.482	98.12
414.705	77.12
414.928	94.12
415.151	77.12
415.374	82.12
415.597	80.12
415.821	71.12
416.044	82.12
416.267	87.12
416.49	72.12
416.713	83.12
416.936	81.12
417.159	83.12
417.382	87.12
417.605	78.12
417.828	82.12
418.051	86.12
418.274	89.12
418.497	101.12
418.72	87.12
418.943	65.12
419.166	82.12
419.389	89.12
419.611	87.12
419.834	88.12
420.057	88.12
420.28	90.12
420.503	85.12
420.726	72.12
420.948	76.12
421.171	92.12
421.394	86.12
421.617	86.12
421.839	90.12
422.062	89.12
422.285	85.12
422.507	84.12
422.73	87.12
422.953	75.12
423.175	87.12
423.398	90.12
423.621	104.12
423.843	80.12
424.066	81.12
424.288	84.12
424.511	90.12
424.733	86.12
424.956	92.12
425.178	71.12
425.401	76.12
425.623	101.12
425.846	74.12
426.068	94.12
426.291	88.12
426.513	71.12
426.735	84.12
426.958	93.12
427.18	93.12
427.402	90.12
427.625	95.12
427.847	89.12
428.069	82.12
428.292	71.12
428.514	82.12
428.736	74.12
428.958	93.12
429.181	99.12
429.403	87.12
429.625	84.12
429.847	84.12
430.069	96.12
430.292	70.12
430.514	88.12
430.736	71.12
430.958	76.12
431.18	80.12
431.402	83.12
431.624	76.12
431.846	93.12
432.068	79.12
432.29	90.12
432.512	97.12
432.734	80.12
432.956	75.12
433.178	95.12
433.4	82.12
433.622	99.12
433.844	81.12
434.066	92.12
434.287	75.12
434.509	74.12
434.731	84.12
434.953	96.12
435.175	100.12
435.397	97.12
435.618	73.12
435.84	89.12
436.062	78.12
436.284	79.12
436.505	88.12
436.727	83.12
436.949	85.12
437.17	84.12
437.392	77.12
437.614	81.12
437.835	84.12
438.057	79.12
438.278	91.12
438.5	75.12
438.721	89.12
438.943	77.12
439.165	84.12
439.386	72.12
439.608	89.12
439.829	82.12
440.05	80.12
440.272	69.12
440.493	88.12
440.715	99.12
440.936	95.12
441.158	95.12
441.379	80.12
441.6	97.12
441.822	85.12
442.043	95.12
442.264	83.12
442.486	83.12
442.707	93.12
442.928	90.12
443.149	82.12
443.371	76.12
443.592	88.12
443.813	87.12
444.034	91.12
444.255	98.12
444.476	88.12
444.698	89.12
444.919	75.12
445.14	212.12
445.361	135.12
445.582	93.12
445.803	78.12
446.024	94.12
446.245	88.12
446.466	91.12
446.687	73.12
446.908	99.12
447.129	89.12
447.35	81.12
447.571	81.12
447.792	82.12
448.013	89.12
448.234	100.12
448.455	85.12
448.675	90.12
448.896	97.12
449.117	78.12
449.338	87.12
449.559	84.12
449.779	81.12
450	72.12
450.221	69.12
450.442	82.12
450.662	84.12
450.883	94.12
451.104	78.12
451.324	88.12
451.545	72.12
451.766	85.12
451.986	72.12
452.207	75.12
452.428	88.12
452.648	70.12
452.869	84.12
453.089	80.12
453.31	90.12
453.53	75.12
453.751	79.12
453.971	78.12
454.192	89.12
454.412	84.12
454.633	77.12
454.853	86.12
455.073	80.12
455.294	97.12
455.514	84.12
455.734	85.12
455.955	74.12
456.175	89.12
456.395	89.12
456.616	94.12
456.836	89.12
457.056	79.12
457.276	82.12
457.497	79.12
457.717	78.12
457.937	80.12
458.157	88.12
458.377	68.12
458.598	92.12
458.818	83.12
459.038	86.12
459.258	82.12
459.478	82.12
459.698	97.12
459.918	75.12
460.138	85.12
460.358	81.12
460.578	76.12
460.798	90.12
461.018	86.12
461.238	74.12
461.458	97.12
461.678	92.12
461.898	100.12
462.118	83.12
462.338	87.12
462.558	98.12
462.777	80.12
462.997	90.12
463.217	84.12
463.437	93.12
463.657	90.12
463.876	91.12
464.096	86.12
464.316	81.12
464.536	94.12
464.755	87.12
464.975	85.12
465.195	91.12
465.414	77.12
465.634	88.12
465.854	77.12
466.073	89.12
466.293	68.12
466.512	92.12
466.732	93.12
466.951	89.12
467.171	84.12
467.391	77.12
467.61	98.12
467.829	83.12
468.049	88.12
468.268	77.12
468.488	82.12
468.707	80.12
468.927	95.12
469.146	76.12
469.365	80.12
469.585	84.12
469.804	92.12
470.023	78.12
470.243	93.12
470.462	89.12
470.681	85.12
470.901	94.12
471.12	78.12
471.339	76.12
471.558	68.12
471.777	76.12
471.997	88.12
472.216	78.12
472.435	91.12
472.654	93.12
472.873	86.12
473.092	85.12
473.311	81.12
473.53	75.12
473.749	88.12
473.968	86.12
474.187	83.12
474.406	96.12
474.625	84.12
474.844	82.12
475.063	80.12
475.282	73.12
475.501	77.12
475.72	93.12
475.939	94.12
476.158	85.12
476.377	74.12
476.596	75.12
476.814	90.12
477.033	76.12
477.252	86.12
477.471	86.12
477.69	86.12
477.908	96.12
478.127	88.12
478.346	88.12
478.564	88.12
478.783	91.12
479.002	89.12
479.22	77.12
479.439	90.12
479.658	86.12
479.876	83.12
480.095	88.12
480.313	104.12
480.532	100.12
480.751	90.12
480.969	89.12
481.188	92.12
481.406	99.12
481.624	85.12
481.843	79.12
482.061	88.12
482.28	88.12
482.498	83.12
482.717	86.12
482.935	95.12
483.153	86.12
483.372	92.12
483.59	81.12
483.808	93.12
484.027	86.12
484.245	99.12
484.463	94.12
484.681	106.12
484.9	90.12
485.118	86.12
485.336	94.12
485.554	78.12
485.772	85.12
485.99	104.12
486.209	95.12
486.427	92.12
486.645	82.12
486.863	86.12
487.081	82.12
487.299	85.12
487.517	93.12
487.735	89.12
487.953	104.12
488.171	97.12
488.389	94.12
488.607	101.12
488.825	87.12
489.043	94.12
489.261	99.12
489.479	99.12
489.696	84.12
489.914	81.12
490.132	93.12
490.35	78.12
490.568	90.12
490.786	75.12
491.003	81.12
491.221	101.12
491.439	92.12
491.657	94.12
491.874	102.12
492.092	99.12
492.31	76.12
492.527	105.12
492.745	64.12
492.963	96.12
493.18	85.12
493.398	86.12
493.615	112.12
493.833	93.12
494.05	93.12
494.268	95.12
494.485	81.12
494.703	83.12
494.92	86.12
495.138	90.12
495.355	98.12
495.573	105.12
495.79	84.12
496.008	84.12
496.225	84.12
496.442	91.12
496.66	87.12
496.877	88.12
497.094	108.12
497.312	101.12
497.529	90.12
497.746	86.12
497.963	91.12
498.181	87.12
498.398	88.12
498.615	96.12
498.832	92.12
499.049	104.12
499.267	103.12
499.484	107.12
499.701	105.12
499.918	105.12
500.135	115.12
500.352	108.12
500.569	109.12
500.786	114.12
501.003	105.12
501.22	118.12
501.437	104.12
501.654	101.12
501.871	102.12
502.088	90.12
502.305	100.12
502.522	90.12
502.739	114.12
502.956	83.12
503.172	88.12
503.389	88.12
503.606	86.12
503.823	91.12
504.04	90.12
504.256	103.12
504.473	109.12
504.69	95.12
504.907	94.12
505.123	86.12
505.34	108.12
505.557	81.12
505.773	91.12
505.99	90.12
506.207	82.12
506.423	85.12
506.64	92.12
506.856	89.12
507.073	94.12
507.289	99.12
507.506	102.12
507.722	90.12
507.939	81.12
508.155	85.12
508.372	88.12
508.588	95.12
508.805	99.12
509.021	97.12
509.238	95.12
509.454	84.12
509.67	100.12
509.887	97.12
510.103	90.12
510.319	97.12
510.536	88.12
510.752	86.12
510.968	82.12
511.184	88.12
511.401	91.12
511.617	114.12
511.833	87.12
512.049	88.12
512.265	82.12
512.481	92.12
512.698	87.12
512.914	92.12
513.13	81.12
513.346	88.12
513.562	87.12
513.778	75.12
513.994	95.12
514.21	92.12
514.426	72.12
514.642	84.12
514.858	80.12
515.074	97.12
515.29	100.12
515.506	113.12
515.721	81.12
515.937	86.12
516.153	88.12
516.369	91.12
516.585	84.12
516.801	89.12
517.016	85.12
517.232	87.12
517.448	89.12
517.664	87.12
517.879	91.12
518.095	92.12
518.311	96.12
518.527	82.12
