Data from Ni(NO3)2@0.125M.TitratingCurve.Agarose3%dH2O.NegLispCup.LampEnergy10.LIBS07252019_HRD10591_18-09-33-567.txt Node
Date: Thu Jul 25 18:09:33 EDT 2019
User: cochatt
Spectrometer: HR+D1059
Trigger mode: 1
Integration Time (sec): 1.000000E-1
Scans to average: 1
Electric dark correction enabled: true
Nonlinearity correction enabled: false
Boxcar width: 0
XAxis mode: Wavelengths
Number of Pixels in Spectrum: 2048
>>>>>Begin Spectral Data<<<<<
223.165	-16.56
223.4	-16.56
223.635	-16.56
223.869	-19.56
224.104	-27.56
224.338	-8.56
224.573	-19.56
224.808	-13.56
225.042	-8.56
225.277	-8.56
225.511	-8.56
225.746	-1.56
225.98	9.44
226.215	21.44
226.449	11.44
226.683	27.44
226.918	30.44
227.152	32.44
227.387	35.44
227.621	47.44
227.856	47.44
228.09	38.44
228.324	45.44
228.559	51.44
228.793	71.44
229.027	92.44
229.262	99.44
229.496	100.44
229.73	94.44
229.964	98.44
230.199	111.44
230.433	102.44
230.667	115.44
230.901	111.44
231.136	109.44
231.37	119.44
231.604	129.44
231.838	119.44
232.072	138.44
232.306	149.44
232.541	128.44
232.775	123.44
233.009	133.44
233.243	130.44
233.477	123.44
233.711	133.44
233.945	128.44
234.179	123.44
234.413	137.44
234.647	135.44
234.881	123.44
235.115	151.44
235.349	127.44
235.583	158.44
235.817	146.44
236.051	131.44
236.285	130.44
236.519	147.44
236.753	134.44
236.987	131.44
237.221	138.44
237.455	140.44
237.689	136.44
237.922	135.44
238.156	150.44
238.39	145.44
238.624	144.44
238.858	150.44
239.091	145.44
239.325	144.44
239.559	157.44
239.793	134.44
240.027	146.44
240.26	154.44
240.494	149.44
240.728	165.44
240.961	178.44
241.195	162.44
241.429	155.44
241.662	160.44
241.896	159.44
242.13	172.44
242.363	163.44
242.597	168.44
242.83	179.44
243.064	166.44
243.298	152.44
243.531	174.44
243.765	189.44
243.998	171.44
244.232	167.44
244.465	173.44
244.699	179.44
244.932	174.44
245.166	173.44
245.399	191.44
245.633	186.44
245.866	202.44
246.099	184.44
246.333	176.44
246.566	172.44
246.8	193.44
247.033	168.44
247.266	192.44
247.5	193.44
247.733	188.44
247.966	188.44
248.2	208.44
248.433	192.44
248.666	187.44
248.899	204.44
249.133	222.44
249.366	220.44
249.599	215.44
249.832	209.44
250.066	213.44
250.299	200.44
250.532	214.44
250.765	220.44
250.998	200.44
251.231	214.44
251.465	230.44
251.698	229.44
251.931	214.44
252.164	221.44
252.397	211.44
252.63	216.44
252.863	251.44
253.096	251.44
253.329	228.44
253.562	239.44
253.795	240.44
254.028	241.44
254.261	238.44
254.494	235.44
254.727	246.44
254.96	232.44
255.193	249.44
255.426	261.44
255.659	252.44
255.892	260.44
256.124	267.44
256.357	249.44
256.59	238.44
256.823	255.44
257.056	262.44
257.289	257.44
257.521	257.44
257.754	259.44
257.987	255.44
258.22	255.44
258.452	245.44
258.685	262.44
258.918	255.44
259.151	263.44
259.383	270.44
259.616	265.44
259.849	271.44
260.081	261.44
260.314	280.44
260.547	269.44
260.779	280.44
261.012	271.44
261.244	273.44
261.477	285.44
261.71	278.44
261.942	281.44
262.175	280.44
262.407	290.44
262.64	279.44
262.872	268.44
263.105	283.44
263.337	288.44
263.57	301.44
263.802	284.44
264.035	290.44
264.267	295.44
264.499	302.44
264.732	291.44
264.964	300.44
265.197	280.44
265.429	304.44
265.661	328.44
265.894	310.44
266.126	315.44
266.358	307.44
266.591	303.44
266.823	313.44
267.055	301.44
267.287	318.44
267.52	297.44
267.752	306.44
267.984	312.44
268.216	314.44
268.448	305.44
268.681	305.44
268.913	312.44
269.145	327.44
269.377	325.44
269.609	316.44
269.841	313.44
270.073	308.44
270.306	327.44
270.538	334.44
270.77	315.44
271.002	332.44
271.234	312.44
271.466	331.44
271.698	341.44
271.93	358.44
272.162	323.44
272.394	324.44
272.626	320.44
272.858	327.44
273.09	347.44
273.322	353.44
273.553	312.44
273.785	328.44
274.017	340.44
274.249	339.44
274.481	352.44
274.713	324.44
274.945	329.44
275.176	355.44
275.408	337.44
275.64	345.44
275.872	353.44
276.104	344.44
276.335	346.44
276.567	364.44
276.799	356.44
277.031	363.44
277.262	356.44
277.494	335.44
277.726	339.44
277.957	378.44
278.189	365.44
278.421	368.44
278.652	360.44
278.884	363.44
279.115	353.44
279.347	352.44
279.579	377.44
279.81	377.44
280.042	388.44
280.273	380.44
280.505	371.44
280.736	360.44
280.968	369.44
281.199	369.44
281.431	377.44
281.662	415.44
281.894	392.44
282.125	380.44
282.356	401.44
282.588	390.44
282.819	400.44
283.051	417.44
283.282	379.44
283.513	379.44
283.745	378.44
283.976	394.44
284.207	405.44
284.439	402.44
284.67	424.44
284.901	429.44
285.132	427.44
285.364	409.44
285.595	421.44
285.826	413.44
286.057	405.44
286.288	426.44
286.52	411.44
286.751	419.44
286.982	436.44
287.213	399.44
287.444	412.44
287.675	416.44
287.906	413.44
288.138	429.44
288.369	457.44
288.6	445.44
288.831	438.44
289.062	420.44
289.293	435.44
289.524	420.44
289.755	429.44
289.986	451.44
290.217	427.44
290.448	432.44
290.679	444.44
290.91	431.44
291.141	427.44
291.371	441.44
291.602	428.44
291.833	439.44
292.064	431.44
292.295	446.44
292.526	431.44
292.757	436.44
292.987	460.44
293.218	435.44
293.449	450.44
293.68	456.44
293.91	422.44
294.141	434.44
294.372	420.44
294.603	436.44
294.833	461.44
295.064	454.44
295.295	439.44
295.525	400.44
295.756	449.44
295.987	463.44
296.217	459.44
296.448	460.44
296.679	471.44
296.909	461.44
297.14	458.44
297.37	489.44
297.601	464.44
297.831	459.44
298.062	491.44
298.292	476.44
298.523	500.44
298.753	492.44
298.984	485.44
299.214	475.44
299.445	475.44
299.675	491.44
299.905	493.44
300.136	468.44
300.366	507.44
300.597	494.44
300.827	500.44
301.057	498.44
301.288	509.44
301.518	498.44
301.748	497.44
301.979	500.44
302.209	512.44
302.439	509.44
302.669	507.44
302.9	493.44
303.13	483.44
303.36	504.44
303.59	482.44
303.82	514.44
304.051	472.44
304.281	497.44
304.511	495.44
304.741	507.44
304.971	491.44
305.201	509.44
305.431	483.44
305.661	489.44
305.891	494.44
306.121	485.44
306.352	490.44
306.582	483.44
306.812	483.44
307.042	472.44
307.272	468.44
307.502	486.44
307.731	479.44
307.961	477.44
308.191	497.44
308.421	492.44
308.651	487.44
308.881	480.44
309.111	482.44
309.341	477.44
309.571	470.44
309.8	460.44
310.03	494.44
310.26	487.44
310.49	491.44
310.72	478.44
310.949	496.44
311.179	494.44
311.409	499.44
311.639	476.44
311.868	505.44
312.098	514.44
312.328	523.44
312.557	509.44
312.787	492.44
313.017	512.44
313.246	525.44
313.476	543.44
313.706	517.44
313.935	536.44
314.165	540.44
314.394	528.44
314.624	534.44
314.853	529.44
315.083	494.44
315.312	523.44
315.542	527.44
315.771	512.44
316.001	493.44
316.23	520.44
316.46	509.44
316.689	496.44
316.919	497.44
317.148	502.44
317.377	513.44
317.607	486.44
317.836	508.44
318.065	487.44
318.295	517.44
318.524	511.44
318.753	492.44
318.983	518.44
319.212	517.44
319.441	511.44
319.67	501.44
319.9	495.44
320.129	507.44
320.358	511.44
320.587	491.44
320.816	500.44
321.046	524.44
321.275	503.44
321.504	492.44
321.733	492.44
321.962	541.44
322.191	496.44
322.42	507.44
322.649	528.44
322.878	521.44
323.108	489.44
323.337	522.44
323.566	522.44
323.795	537.44
324.024	534.44
324.253	533.44
324.482	525.44
324.71	524.44
324.939	539.44
325.168	533.44
325.397	548.44
325.626	577.44
325.855	567.44
326.084	576.44
326.313	564.44
326.542	592.44
326.77	581.44
326.999	560.44
327.228	560.44
327.457	570.44
327.686	581.44
327.914	560.44
328.143	564.44
328.372	559.44
328.6	569.44
328.829	569.44
329.058	558.44
329.287	565.44
329.515	551.44
329.744	559.44
329.972	580.44
330.201	577.44
330.43	582.44
330.658	583.44
330.887	581.44
331.115	599.44
331.344	590.44
331.572	616.44
331.801	602.44
332.03	631.44
332.258	651.44
332.486	655.44
332.715	676.44
332.943	704.44
333.172	765.44
333.4	801.44
333.629	811.44
333.857	790.44
334.085	789.44
334.314	769.44
334.542	740.44
334.771	737.44
334.999	716.44
335.227	725.44
335.455	758.44
335.684	715.44
335.912	709.44
336.14	698.44
336.369	681.44
336.597	678.44
336.825	710.44
337.053	701.44
337.281	686.44
337.51	662.44
337.738	660.44
337.966	638.44
338.194	633.44
338.422	647.44
338.65	643.44
338.878	630.44
339.106	626.44
339.334	642.44
339.562	632.44
339.79	613.44
340.018	596.44
340.246	590.44
340.474	620.44
340.702	604.44
340.93	622.44
341.158	605.44
341.386	635.44
341.614	631.44
341.842	619.44
342.07	594.44
342.298	589.44
342.526	610.44
342.754	601.44
342.981	597.44
343.209	619.44
343.437	654.44
343.665	675.44
343.893	725.44
344.12	772.44
344.348	722.44
344.576	663.44
344.804	677.44
345.031	637.44
345.259	630.44
345.487	618.44
345.714	591.44
345.942	593.44
346.17	619.44
346.397	596.44
346.625	587.44
346.853	588.44
347.08	600.44
347.308	591.44
347.535	625.44
347.763	612.44
347.99	621.44
348.218	596.44
348.445	595.44
348.673	603.44
348.9	609.44
349.128	597.44
349.355	588.44
349.583	564.44
349.81	562.44
350.037	571.44
350.265	561.44
350.492	546.44
350.72	565.44
350.947	557.44
351.174	557.44
351.402	567.44
351.629	568.44
351.856	592.44
352.083	560.44
352.311	570.44
352.538	558.44
352.765	579.44
352.992	552.44
353.22	549.44
353.447	568.44
353.674	562.44
353.901	558.44
354.128	532.44
354.355	560.44
354.583	559.44
354.81	581.44
355.037	564.44
355.264	560.44
355.491	565.44
355.718	588.44
355.945	587.44
356.172	581.44
356.399	546.44
356.626	592.44
356.853	591.44
357.08	566.44
357.307	569.44
357.534	555.44
357.761	565.44
357.988	562.44
358.215	551.44
358.441	560.44
358.668	559.44
358.895	572.44
359.122	534.44
359.349	560.44
359.576	570.44
359.802	570.44
360.029	548.44
360.256	570.44
360.483	565.44
360.709	549.44
360.936	571.44
361.163	556.44
361.39	569.44
361.616	529.44
361.843	558.44
362.07	569.44
362.296	557.44
362.523	563.44
362.749	533.44
362.976	575.44
363.203	558.44
363.429	541.44
363.656	539.44
363.882	547.44
364.109	574.44
364.335	539.44
364.562	559.44
364.788	557.44
365.015	571.44
365.241	566.44
365.468	549.44
365.694	550.44
365.92	562.44
366.147	550.44
366.373	540.44
366.599	554.44
366.826	551.44
367.052	541.44
367.278	566.44
367.505	581.44
367.731	558.44
367.957	545.44
368.184	566.44
368.41	574.44
368.636	563.44
368.862	573.44
369.089	581.44
369.315	546.44
369.541	574.44
369.767	593.44
369.993	595.44
370.219	611.44
370.445	586.44
370.672	589.44
370.898	609.44
371.124	610.44
371.35	605.44
371.576	606.44
371.802	606.44
372.028	586.44
372.254	598.44
372.48	613.44
372.706	626.44
372.932	643.44
373.158	628.44
373.384	614.44
373.61	603.44
373.835	621.44
374.061	601.44
374.287	616.44
374.513	624.44
374.739	639.44
374.965	642.44
375.191	685.44
375.416	683.44
375.642	660.44
375.868	663.44
376.094	640.44
376.319	613.44
376.545	622.44
376.771	625.44
376.997	598.44
377.222	597.44
377.448	590.44
377.674	614.44
377.899	607.44
378.125	581.44
378.35	599.44
378.576	594.44
378.802	599.44
379.027	599.44
379.253	614.44
379.478	597.44
379.704	591.44
379.929	587.44
380.155	580.44
380.38	588.44
380.606	612.44
380.831	609.44
381.057	588.44
381.282	585.44
381.507	607.44
381.733	611.44
381.958	611.44
382.184	607.44
382.409	630.44
382.634	639.44
382.86	615.44
383.085	637.44
383.31	645.44
383.535	647.44
383.761	671.44
383.986	677.44
384.211	704.44
384.436	719.44
384.662	709.44
384.887	721.44
385.112	711.44
385.337	735.44
385.562	735.44
385.787	722.44
386.013	734.44
386.238	737.44
386.463	740.44
386.688	730.44
386.913	704.44
387.138	733.44
387.363	709.44
387.588	709.44
387.813	706.44
388.038	711.44
388.263	724.44
388.488	713.44
388.713	707.44
388.938	712.44
389.163	713.44
389.387	726.44
389.612	693.44
389.837	698.44
390.062	686.44
390.287	727.44
390.512	714.44
390.736	686.44
390.961	693.44
391.186	723.44
391.411	755.44
391.636	788.44
391.86	803.44
392.085	832.44
392.31	827.44
392.534	812.44
392.759	767.44
392.984	768.44
393.208	749.44
393.433	759.44
393.658	759.44
393.882	768.44
394.107	811.44
394.331	790.44
394.556	777.44
394.78	767.44
395.005	805.44
395.229	797.44
395.454	814.44
395.678	827.44
395.903	822.44
396.127	817.44
396.352	800.44
396.576	748.44
396.801	756.44
397.025	770.44
397.249	800.44
397.474	824.44
397.698	791.44
397.922	812.44
398.147	797.44
398.371	815.44
398.595	847.44
398.82	870.44
399.044	917.44
399.268	1045.44
399.492	1228.44
399.717	1413.44
399.941	1429.44
400.165	1223.44
400.389	1107.44
400.613	994.44
400.837	947.44
401.062	935.44
401.286	897.44
401.51	894.44
401.734	899.44
401.958	922.44
402.182	935.44
402.406	910.44
402.63	962.44
402.854	975.44
403.078	986.44
403.302	1032.44
403.526	1043.44
403.75	1073.44
403.974	1118.44
404.198	1074.44
404.422	1106.44
404.645	1077.44
404.869	1039.44
405.093	1026.44
405.317	1025.44
405.541	1031.44
405.765	985.44
405.988	1004.44
406.212	1021.44
406.436	993.44
406.66	989.44
406.883	1023.44
407.107	1130.44
407.331	1181.44
407.555	1213.44
407.778	1204.44
408.002	1170.44
408.226	1110.44
408.449	1105.44
408.673	1088.44
408.896	1060.44
409.12	1045.44
409.344	1060.44
409.567	1085.44
409.791	1072.44
410.014	1078.44
410.238	1046.44
410.461	1032.44
410.685	1056.44
410.908	998.44
411.132	962.44
411.355	950.44
411.578	942.44
411.802	947.44
412.025	948.44
412.249	962.44
412.472	963.44
412.695	932.44
412.919	932.44
413.142	910.44
413.365	953.44
413.589	950.44
413.812	915.44
414.035	899.44
414.258	896.44
414.482	927.44
414.705	951.44
414.928	925.44
415.151	934.44
415.374	913.44
415.597	911.44
415.821	890.44
416.044	899.44
416.267	894.44
416.49	902.44
416.713	859.44
416.936	875.44
417.159	907.44
417.382	914.44
417.605	893.44
417.828	889.44
418.051	925.44
418.274	927.44
418.497	909.44
418.72	936.44
418.943	947.44
419.166	1014.44
419.389	1081.44
419.611	1044.44
419.834	987.44
420.057	965.44
420.28	931.44
420.503	893.44
420.726	876.44
420.948	895.44
421.171	904.44
421.394	892.44
421.617	899.44
421.839	905.44
422.062	935.44
422.285	920.44
422.507	948.44
422.73	968.44
422.953	955.44
423.175	958.44
423.398	987.44
423.621	997.44
423.843	1022.44
424.066	996.44
424.288	971.44
424.511	966.44
424.733	964.44
424.956	955.44
425.178	941.44
425.401	927.44
425.623	939.44
425.846	886.44
426.068	883.44
426.291	903.44
426.513	867.44
426.735	845.44
426.958	878.44
427.18	837.44
427.402	828.44
427.625	826.44
427.847	823.44
428.069	840.44
428.292	841.44
428.514	801.44
428.736	833.44
428.958	826.44
429.181	806.44
429.403	796.44
429.625	787.44
429.847	771.44
430.069	792.44
430.292	794.44
430.514	783.44
430.736	782.44
430.958	803.44
431.18	805.44
431.402	789.44
431.624	797.44
431.846	792.44
432.068	827.44
432.29	845.44
432.512	824.44
432.734	848.44
432.956	823.44
433.178	838.44
433.4	860.44
433.622	844.44
433.844	834.44
434.066	832.44
434.287	865.44
434.509	868.44
434.731	895.44
434.953	951.44
435.175	934.44
435.397	952.44
435.618	889.44
435.84	862.44
436.062	830.44
436.284	823.44
436.505	827.44
436.727	848.44
436.949	853.44
437.17	832.44
437.392	830.44
437.614	833.44
437.835	816.44
438.057	785.44
438.278	767.44
438.5	775.44
438.721	807.44
438.943	815.44
439.165	811.44
439.386	804.44
439.608	815.44
439.829	825.44
440.05	824.44
440.272	863.44
440.493	841.44
440.715	863.44
440.936	862.44
441.158	883.44
441.379	913.44
441.6	968.44
441.822	971.44
442.043	929.44
442.264	944.44
442.486	918.44
442.707	933.44
442.928	925.44
443.149	959.44
443.371	927.44
443.592	939.44
443.813	974.44
444.034	953.44
444.255	996.44
444.476	1037.44
444.698	1115.44
444.919	1163.44
445.14	1239.44
445.361	1091.44
445.582	990.44
445.803	955.44
446.024	902.44
446.245	888.44
446.466	864.44
446.687	843.44
446.908	872.44
447.129	831.44
447.35	806.44
447.571	799.44
447.792	829.44
448.013	823.44
448.234	790.44
448.455	791.44
448.675	789.44
448.896	776.44
449.117	765.44
449.338	765.44
449.559	777.44
449.779	794.44
450	765.44
450.221	753.44
450.442	775.44
450.662	791.44
450.883	802.44
451.104	822.44
451.324	819.44
451.545	798.44
451.766	774.44
451.986	785.44
452.207	771.44
452.428	795.44
452.648	777.44
452.869	782.44
453.089	755.44
453.31	787.44
453.53	749.44
453.751	755.44
453.971	741.44
454.192	751.44
454.412	730.44
454.633	730.44
454.853	734.44
455.073	724.44
455.294	726.44
455.514	718.44
455.734	750.44
455.955	702.44
456.175	723.44
456.395	696.44
456.616	727.44
456.836	722.44
457.056	713.44
457.276	697.44
457.497	706.44
457.717	719.44
457.937	705.44
458.157	720.44
458.377	720.44
458.598	765.44
458.818	769.44
459.038	782.44
459.258	837.44
459.478	834.44
459.698	872.44
459.918	904.44
460.138	941.44
460.358	966.44
460.578	1010.44
460.798	993.44
461.018	1007.44
461.238	976.44
461.458	991.44
461.678	1009.44
461.898	981.44
462.118	998.44
462.338	1061.44
462.558	1073.44
462.777	1113.44
462.997	1226.44
463.217	1355.44
463.437	1402.44
463.657	1319.44
463.876	1187.44
464.096	1186.44
464.316	1189.44
464.536	1184.44
464.755	1164.44
464.975	1121.44
465.195	1017.44
465.414	978.44
465.634	901.44
465.854	891.44
466.073	877.44
466.293	865.44
466.512	839.44
466.732	844.44
466.951	811.44
467.171	809.44
467.391	778.44
467.61	821.44
467.829	793.44
468.049	811.44
468.268	800.44
468.488	770.44
468.707	747.44
468.927	771.44
469.146	741.44
469.365	784.44
469.585	795.44
469.804	817.44
470.023	812.44
470.243	831.44
470.462	856.44
470.681	841.44
470.901	813.44
471.12	827.44
471.339	785.44
471.558	801.44
471.777	817.44
471.997	781.44
472.216	776.44
472.435	749.44
472.654	733.44
472.873	727.44
473.092	755.44
473.311	732.44
473.53	745.44
473.749	742.44
473.968	759.44
474.187	757.44
474.406	766.44
474.625	740.44
474.844	739.44
475.063	749.44
475.282	748.44
475.501	745.44
475.72	771.44
475.939	769.44
476.158	786.44
476.377	785.44
476.596	764.44
476.814	795.44
477.033	778.44
477.252	820.44
477.471	837.44
477.69	842.44
477.908	882.44
478.127	888.44
478.346	918.44
478.564	891.44
478.783	913.44
479.002	940.44
479.22	970.44
479.439	954.44
479.658	925.44
479.876	919.44
480.095	955.44
480.313	989.44
480.532	1032.44
480.751	1000.44
480.969	985.44
481.188	924.44
481.406	877.44
481.624	876.44
481.843	856.44
482.061	847.44
482.28	839.44
482.498	855.44
482.717	833.44
482.935	829.44
483.153	865.44
483.372	885.44
483.59	891.44
483.808	867.44
484.027	853.44
484.245	855.44
484.463	876.44
484.681	863.44
484.9	897.44
485.118	888.44
485.336	908.44
485.554	904.44
485.772	916.44
485.99	920.44
486.209	949.44
486.427	919.44
486.645	892.44
486.863	953.44
487.081	924.44
487.299	911.44
487.517	935.44
487.735	913.44
487.953	902.44
488.171	891.44
488.389	868.44
488.607	934.44
488.825	886.44
489.043	872.44
489.261	905.44
489.479	907.44
489.696	920.44
489.914	872.44
490.132	903.44
490.35	920.44
490.568	897.44
490.786	906.44
491.003	919.44
491.221	914.44
491.439	919.44
491.657	921.44
491.874	899.44
492.092	919.44
492.31	932.44
492.527	935.44
492.745	977.44
492.963	916.44
493.18	983.44
493.398	926.44
493.615	969.44
493.833	964.44
494.05	967.44
494.268	979.44
494.485	977.44
494.703	943.44
494.92	986.44
495.138	945.44
495.355	950.44
495.573	992.44
495.79	959.44
496.008	975.44
496.225	978.44
496.442	969.44
496.66	988.44
496.877	1031.44
497.094	1024.44
497.312	1038.44
497.529	1057.44
497.746	1067.44
497.963	1133.44
498.181	1135.44
498.398	1165.44
498.615	1260.44
498.832	1363.44
499.049	1459.44
499.267	1555.44
499.484	1751.44
499.701	1948.44
499.918	2136.44
500.135	2471.44
500.352	2949.44
500.569	3143.44
