Data from Ni(NO3)2@0.25M.TitratingCurve.Agarose3%dH2O.NegLispCup.LampEnergy10.LIBS07252019_HRD10591_18-02-56-565.txt Node
Date: Thu Jul 25 18:02:56 EDT 2019
User: cochatt
Spectrometer: HR+D1059
Trigger mode: 1
Integration Time (sec): 1.000000E-1
Scans to average: 1
Electric dark correction enabled: true
Nonlinearity correction enabled: false
Boxcar width: 0
XAxis mode: Wavelengths
Number of Pixels in Spectrum: 2048
>>>>>Begin Spectral Data<<<<<
223.165	-18.5
223.4	-18.5
223.635	-18.5
223.869	-5.5
224.104	-27.5
224.338	-21.5
224.573	-10.5
224.808	-6.5
225.042	-10.5
225.277	-11.5
225.511	3.5
225.746	12.5
225.98	5.5
226.215	9.5
226.449	15.5
226.683	18.5
226.918	26.5
227.152	20.5
227.387	22.5
227.621	28.5
227.856	45.5
228.09	57.5
228.324	42.5
228.559	59.5
228.793	77.5
229.027	97.5
229.262	94.5
229.496	116.5
229.73	114.5
229.964	106.5
230.199	132.5
230.433	141.5
230.667	118.5
230.901	125.5
231.136	131.5
231.37	128.5
231.604	143.5
231.838	130.5
232.072	119.5
232.306	129.5
232.541	137.5
232.775	133.5
233.009	130.5
233.243	117.5
233.477	125.5
233.711	125.5
233.945	121.5
234.179	120.5
234.413	119.5
234.647	121.5
234.881	126.5
235.115	120.5
235.349	131.5
235.583	125.5
235.817	126.5
236.051	124.5
236.285	112.5
236.519	130.5
236.753	103.5
236.987	122.5
237.221	123.5
237.455	121.5
237.689	125.5
237.922	134.5
238.156	127.5
238.39	129.5
238.624	137.5
238.858	137.5
239.091	131.5
239.325	134.5
239.559	127.5
239.793	148.5
240.027	129.5
240.26	123.5
240.494	129.5
240.728	137.5
240.961	143.5
241.195	153.5
241.429	151.5
241.662	145.5
241.896	164.5
242.13	155.5
242.363	139.5
242.597	142.5
242.83	151.5
243.064	145.5
243.298	143.5
243.531	156.5
243.765	163.5
243.998	135.5
244.232	165.5
244.465	156.5
244.699	167.5
244.932	164.5
245.166	170.5
245.399	177.5
245.633	162.5
245.866	162.5
246.099	174.5
246.333	161.5
246.566	168.5
246.8	168.5
247.033	170.5
247.266	181.5
247.5	182.5
247.733	188.5
247.966	204.5
248.2	205.5
248.433	207.5
248.666	199.5
248.899	209.5
249.133	217.5
249.366	223.5
249.599	231.5
249.832	228.5
250.066	236.5
250.299	231.5
250.532	249.5
250.765	246.5
250.998	248.5
251.231	273.5
251.465	283.5
251.698	289.5
251.931	265.5
252.164	302.5
252.397	295.5
252.63	294.5
252.863	302.5
253.096	277.5
253.329	301.5
253.562	302.5
253.795	317.5
254.028	313.5
254.261	332.5
254.494	325.5
254.727	331.5
254.96	333.5
255.193	327.5
255.426	351.5
255.659	361.5
255.892	369.5
256.124	358.5
256.357	374.5
256.59	372.5
256.823	371.5
257.056	385.5
257.289	382.5
257.521	377.5
257.754	384.5
257.987	404.5
258.22	377.5
258.452	398.5
258.685	418.5
258.918	419.5
259.151	403.5
259.383	421.5
259.616	441.5
259.849	427.5
260.081	420.5
260.314	436.5
260.547	435.5
260.779	433.5
261.012	445.5
261.244	446.5
261.477	453.5
261.71	440.5
261.942	459.5
262.175	437.5
262.407	455.5
262.64	445.5
262.872	465.5
263.105	469.5
263.337	462.5
263.57	463.5
263.802	497.5
264.035	468.5
264.267	491.5
264.499	481.5
264.732	468.5
264.964	463.5
265.197	492.5
265.429	485.5
265.661	494.5
265.894	477.5
266.126	489.5
266.358	509.5
266.591	490.5
266.823	496.5
267.055	492.5
267.287	521.5
267.52	487.5
267.752	511.5
267.984	490.5
268.216	499.5
268.448	509.5
268.681	478.5
268.913	485.5
269.145	498.5
269.377	494.5
269.609	504.5
269.841	511.5
270.073	517.5
270.306	510.5
270.538	505.5
270.77	518.5
271.002	516.5
271.234	509.5
271.466	523.5
271.698	513.5
271.93	530.5
272.162	519.5
272.394	530.5
272.626	523.5
272.858	540.5
273.09	531.5
273.322	539.5
273.553	522.5
273.785	537.5
274.017	522.5
274.249	535.5
274.481	545.5
274.713	511.5
274.945	522.5
275.176	520.5
275.408	558.5
275.64	559.5
275.872	538.5
276.104	545.5
276.335	533.5
276.567	531.5
276.799	541.5
277.031	517.5
277.262	534.5
277.494	533.5
277.726	525.5
277.957	529.5
278.189	549.5
278.421	544.5
278.652	515.5
278.884	558.5
279.115	553.5
279.347	557.5
279.579	543.5
279.81	546.5
280.042	517.5
280.273	547.5
280.505	536.5
280.736	547.5
280.968	552.5
281.199	544.5
281.431	548.5
281.662	549.5
281.894	547.5
282.125	535.5
282.356	550.5
282.588	552.5
282.819	530.5
283.051	531.5
283.282	524.5
283.513	513.5
283.745	550.5
283.976	552.5
284.207	543.5
284.439	546.5
284.67	548.5
284.901	564.5
285.132	555.5
285.364	563.5
285.595	554.5
285.826	541.5
286.057	550.5
286.288	537.5
286.52	570.5
286.751	553.5
286.982	554.5
287.213	563.5
287.444	558.5
287.675	554.5
287.906	539.5
288.138	555.5
288.369	556.5
288.6	556.5
288.831	549.5
289.062	534.5
289.293	544.5
289.524	541.5
289.755	549.5
289.986	547.5
290.217	536.5
290.448	550.5
290.679	565.5
290.91	541.5
291.141	543.5
291.371	546.5
291.602	551.5
291.833	552.5
292.064	567.5
292.295	550.5
292.526	556.5
292.757	533.5
292.987	547.5
293.218	538.5
293.449	541.5
293.68	557.5
293.91	553.5
294.141	541.5
294.372	548.5
294.603	539.5
294.833	567.5
295.064	545.5
295.295	525.5
295.525	547.5
295.756	541.5
295.987	553.5
296.217	574.5
296.448	549.5
296.679	534.5
296.909	540.5
297.14	548.5
297.37	559.5
297.601	557.5
297.831	552.5
298.062	531.5
298.292	545.5
298.523	554.5
298.753	549.5
298.984	571.5
299.214	583.5
299.445	565.5
299.675	565.5
299.905	556.5
300.136	557.5
300.366	534.5
300.597	568.5
300.827	591.5
301.057	581.5
301.288	586.5
301.518	585.5
301.748	581.5
301.979	599.5
302.209	598.5
302.439	598.5
302.669	585.5
302.9	590.5
303.13	588.5
303.36	615.5
303.59	594.5
303.82	615.5
304.051	590.5
304.281	640.5
304.511	604.5
304.741	615.5
304.971	627.5
305.201	645.5
305.431	620.5
305.661	615.5
305.891	617.5
306.121	619.5
306.352	625.5
306.582	625.5
306.812	612.5
307.042	638.5
307.272	617.5
307.502	637.5
307.731	650.5
307.961	667.5
308.191	629.5
308.421	652.5
308.651	667.5
308.881	652.5
309.111	668.5
309.341	651.5
309.571	683.5
309.8	669.5
310.03	650.5
310.26	674.5
310.49	677.5
310.72	676.5
310.949	697.5
311.179	722.5
311.409	694.5
311.639	722.5
311.868	717.5
312.098	716.5
312.328	710.5
312.557	715.5
312.787	705.5
313.017	742.5
313.246	761.5
313.476	761.5
313.706	761.5
313.935	781.5
314.165	773.5
314.394	768.5
314.624	791.5
314.853	771.5
315.083	792.5
315.312	788.5
315.542	806.5
315.771	796.5
316.001	821.5
316.23	834.5
316.46	823.5
316.689	851.5
316.919	810.5
317.148	815.5
317.377	863.5
317.607	876.5
317.836	885.5
318.065	894.5
318.295	886.5
318.524	874.5
318.753	892.5
318.983	901.5
319.212	904.5
319.441	918.5
319.67	935.5
319.9	921.5
320.129	938.5
320.358	955.5
320.587	950.5
320.816	942.5
321.046	999.5
321.275	971.5
321.504	973.5
321.733	989.5
321.962	1002.5
322.191	1005.5
322.42	1013.5
322.649	1014.5
322.878	1031.5
323.108	1037.5
323.337	1052.5
323.566	1062.5
323.795	1067.5
324.024	1068.5
324.253	1073.5
324.482	1095.5
324.71	1101.5
324.939	1101.5
325.168	1118.5
325.397	1096.5
325.626	1089.5
325.855	1129.5
326.084	1138.5
326.313	1133.5
326.542	1155.5
326.77	1169.5
326.999	1152.5
327.228	1162.5
327.457	1181.5
327.686	1201.5
327.914	1194.5
328.143	1223.5
328.372	1198.5
328.6	1247.5
328.829	1245.5
329.058	1207.5
329.287	1198.5
329.515	1247.5
329.744	1248.5
329.972	1240.5
330.201	1231.5
330.43	1225.5
330.658	1244.5
330.887	1271.5
331.115	1279.5
331.344	1305.5
331.572	1285.5
331.801	1298.5
332.03	1285.5
332.258	1295.5
332.486	1321.5
332.715	1313.5
332.943	1285.5
333.172	1323.5
333.4	1314.5
333.629	1321.5
333.857	1333.5
334.085	1331.5
334.314	1367.5
334.542	1336.5
334.771	1378.5
334.999	1346.5
335.227	1350.5
335.455	1350.5
335.684	1373.5
335.912	1353.5
336.14	1377.5
336.369	1370.5
336.597	1364.5
336.825	1375.5
337.053	1408.5
337.281	1419.5
337.51	1370.5
337.738	1396.5
337.966	1419.5
338.194	1385.5
338.422	1355.5
338.65	1392.5
338.878	1391.5
339.106	1395.5
339.334	1369.5
339.562	1405.5
339.79	1369.5
340.018	1379.5
340.246	1389.5
340.474	1415.5
340.702	1398.5
340.93	1381.5
341.158	1425.5
341.386	1395.5
341.614	1381.5
341.842	1379.5
342.07	1370.5
342.298	1383.5
342.526	1392.5
342.754	1405.5
342.981	1386.5
343.209	1421.5
343.437	1413.5
343.665	1420.5
343.893	1384.5
344.12	1388.5
344.348	1433.5
344.576	1399.5
344.804	1439.5
345.031	1420.5
345.259	1429.5
345.487	1405.5
345.714	1390.5
345.942	1393.5
346.17	1381.5
346.397	1373.5
346.625	1382.5
346.853	1398.5
347.08	1387.5
347.308	1374.5
347.535	1390.5
347.763	1371.5
347.99	1411.5
348.218	1357.5
348.445	1363.5
348.673	1397.5
348.9	1380.5
349.128	1389.5
349.355	1352.5
349.583	1365.5
349.81	1384.5
350.037	1359.5
350.265	1358.5
350.492	1385.5
350.72	1385.5
350.947	1355.5
351.174	1362.5
351.402	1395.5
351.629	1352.5
351.856	1369.5
352.083	1352.5
352.311	1347.5
352.538	1329.5
352.765	1360.5
352.992	1337.5
353.22	1317.5
353.447	1351.5
353.674	1358.5
353.901	1354.5
354.128	1346.5
354.355	1342.5
354.583	1352.5
354.81	1340.5
355.037	1350.5
355.264	1393.5
355.491	1345.5
355.718	1363.5
355.945	1354.5
356.172	1311.5
356.399	1358.5
356.626	1372.5
356.853	1366.5
357.08	1364.5
357.307	1355.5
357.534	1337.5
357.761	1374.5
357.988	1372.5
358.215	1373.5
358.441	1352.5
358.668	1330.5
358.895	1368.5
359.122	1326.5
359.349	1361.5
359.576	1331.5
359.802	1372.5
360.029	1334.5
360.256	1353.5
360.483	1329.5
360.709	1346.5
360.936	1343.5
361.163	1334.5
361.39	1371.5
361.616	1336.5
361.843	1347.5
362.07	1388.5
362.296	1342.5
362.523	1336.5
362.749	1369.5
362.976	1326.5
363.203	1309.5
363.429	1298.5
363.656	1329.5
363.882	1343.5
364.109	1320.5
364.335	1340.5
364.562	1341.5
364.788	1322.5
365.015	1317.5
365.241	1307.5
365.468	1285.5
365.694	1352.5
365.92	1337.5
366.147	1315.5
366.373	1334.5
366.599	1320.5
366.826	1320.5
367.052	1318.5
367.278	1285.5
367.505	1321.5
367.731	1305.5
367.957	1326.5
368.184	1340.5
368.41	1347.5
368.636	1320.5
368.862	1295.5
369.089	1298.5
369.315	1329.5
369.541	1345.5
369.767	1304.5
369.993	1349.5
370.219	1316.5
370.445	1320.5
370.672	1317.5
370.898	1303.5
371.124	1307.5
371.35	1331.5
371.576	1307.5
371.802	1335.5
372.028	1289.5
372.254	1339.5
372.48	1291.5
372.706	1321.5
372.932	1269.5
373.158	1300.5
373.384	1299.5
373.61	1298.5
373.835	1268.5
374.061	1260.5
374.287	1294.5
374.513	1268.5
374.739	1308.5
374.965	1291.5
375.191	1269.5
375.416	1275.5
375.642	1301.5
375.868	1258.5
376.094	1229.5
376.319	1258.5
376.545	1233.5
376.771	1236.5
376.997	1228.5
377.222	1230.5
377.448	1229.5
377.674	1222.5
377.899	1173.5
378.125	1243.5
378.35	1234.5
378.576	1238.5
378.802	1220.5
379.027	1211.5
379.253	1193.5
379.478	1195.5
379.704	1211.5
379.929	1230.5
380.155	1250.5
380.38	1218.5
380.606	1191.5
380.831	1184.5
381.057	1242.5
381.282	1211.5
381.507	1189.5
381.733	1223.5
381.958	1229.5
382.184	1215.5
382.409	1217.5
382.634	1211.5
382.86	1210.5
383.085	1214.5
383.31	1197.5
383.535	1204.5
383.761	1193.5
383.986	1205.5
384.211	1234.5
384.436	1229.5
384.662	1239.5
384.887	1252.5
385.112	1211.5
385.337	1227.5
385.562	1222.5
385.787	1220.5
386.013	1227.5
386.238	1251.5
386.463	1241.5
386.688	1245.5
386.913	1228.5
387.138	1225.5
387.363	1243.5
387.588	1229.5
387.813	1206.5
388.038	1224.5
388.263	1243.5
388.488	1233.5
388.713	1229.5
388.938	1238.5
389.163	1201.5
389.387	1187.5
389.612	1219.5
389.837	1247.5
390.062	1175.5
390.287	1242.5
390.512	1216.5
390.736	1222.5
390.961	1238.5
391.186	1249.5
391.411	1214.5
391.636	1205.5
391.86	1250.5
392.085	1222.5
392.31	1223.5
392.534	1213.5
392.759	1242.5
392.984	1243.5
393.208	1222.5
393.433	1202.5
393.658	1231.5
393.882	1196.5
394.107	1227.5
394.331	1238.5
394.556	1240.5
394.78	1222.5
395.005	1226.5
395.229	1236.5
395.454	1259.5
395.678	1218.5
395.903	1221.5
396.127	1235.5
396.352	1241.5
396.576	1278.5
396.801	1236.5
397.025	1254.5
397.249	1269.5
397.474	1280.5
397.698	1257.5
397.922	1285.5
398.147	1265.5
398.371	1244.5
398.595	1283.5
398.82	1254.5
399.044	1281.5
399.268	1288.5
399.492	1321.5
399.717	1311.5
399.941	1334.5
400.165	1331.5
400.389	1321.5
400.613	1324.5
400.837	1303.5
401.062	1315.5
401.286	1361.5
401.51	1367.5
401.734	1271.5
401.958	1343.5
402.182	1305.5
402.406	1331.5
402.63	1331.5
402.854	1332.5
403.078	1325.5
403.302	1340.5
403.526	1329.5
403.75	1325.5
403.974	1366.5
404.198	1329.5
404.422	1341.5
404.645	1354.5
404.869	1363.5
405.093	1365.5
405.317	1361.5
405.541	1336.5
405.765	1350.5
405.988	1354.5
406.212	1367.5
406.436	1382.5
406.66	1407.5
406.883	1355.5
407.107	1383.5
407.331	1445.5
407.555	1428.5
407.778	1384.5
408.002	1417.5
408.226	1416.5
408.449	1469.5
408.673	1406.5
408.896	1428.5
409.12	1396.5
409.344	1446.5
409.567	1423.5
409.791	1427.5
410.014	1405.5
410.238	1438.5
410.461	1411.5
410.685	1389.5
410.908	1406.5
411.132	1396.5
411.355	1352.5
411.578	1365.5
411.802	1376.5
412.025	1404.5
412.249	1386.5
412.472	1388.5
412.695	1389.5
412.919	1375.5
413.142	1399.5
413.365	1397.5
413.589	1388.5
413.812	1376.5
414.035	1387.5
414.258	1372.5
414.482	1394.5
414.705	1385.5
414.928	1417.5
415.151	1395.5
415.374	1409.5
415.597	1354.5
415.821	1382.5
416.044	1364.5
416.267	1373.5
416.49	1390.5
416.713	1378.5
416.936	1413.5
417.159	1381.5
417.382	1331.5
417.605	1364.5
417.828	1370.5
418.051	1389.5
418.274	1361.5
418.497	1324.5
418.72	1343.5
418.943	1363.5
419.166	1417.5
419.389	1561.5
419.611	1486.5
419.834	1423.5
420.057	1434.5
420.28	1380.5
420.503	1347.5
420.726	1319.5
420.948	1358.5
421.171	1371.5
421.394	1369.5
421.617	1380.5
421.839	1388.5
422.062	1416.5
422.285	1369.5
422.507	1366.5
422.73	1405.5
422.953	1357.5
423.175	1401.5
423.398	1387.5
423.621	1421.5
423.843	1429.5
424.066	1441.5
424.288	1447.5
424.511	1418.5
424.733	1399.5
424.956	1400.5
425.178	1399.5
425.401	1413.5
425.623	1449.5
425.846	1392.5
426.068	1400.5
426.291	1418.5
426.513	1434.5
426.735	1414.5
426.958	1409.5
427.18	1397.5
427.402	1400.5
427.625	1454.5
427.847	1439.5
428.069	1442.5
428.292	1439.5
428.514	1429.5
428.736	1431.5
428.958	1442.5
429.181	1442.5
429.403	1425.5
429.625	1434.5
429.847	1448.5
430.069	1441.5
430.292	1412.5
430.514	1435.5
430.736	1405.5
430.958	1451.5
431.18	1408.5
431.402	1464.5
431.624	1422.5
431.846	1415.5
432.068	1426.5
432.29	1447.5
432.512	1409.5
432.734	1467.5
432.956	1487.5
433.178	1475.5
433.4	1450.5
433.622	1486.5
433.844	1498.5
434.066	1453.5
434.287	1465.5
434.509	1439.5
434.731	1419.5
434.953	1431.5
435.175	1488.5
435.397	1483.5
435.618	1469.5
435.84	1470.5
436.062	1452.5
436.284	1461.5
436.505	1477.5
436.727	1462.5
436.949	1462.5
437.17	1440.5
437.392	1441.5
437.614	1447.5
437.835	1428.5
438.057	1453.5
438.278	1391.5
438.5	1443.5
438.721	1461.5
438.943	1461.5
439.165	1430.5
439.386	1442.5
439.608	1457.5
439.829	1473.5
440.05	1450.5
440.272	1454.5
440.493	1462.5
440.715	1445.5
440.936	1450.5
441.158	1432.5
441.379	1470.5
441.6	1481.5
441.822	1441.5
442.043	1449.5
442.264	1426.5
442.486	1479.5
442.707	1471.5
442.928	1473.5
443.149	1453.5
443.371	1484.5
443.592	1471.5
443.813	1466.5
444.034	1436.5
444.255	1489.5
444.476	1467.5
444.698	1495.5
444.919	1489.5
445.14	1599.5
445.361	1518.5
445.582	1465.5
445.803	1426.5
446.024	1459.5
446.245	1438.5
446.466	1417.5
446.687	1401.5
446.908	1429.5
447.129	1404.5
447.35	1433.5
447.571	1418.5
447.792	1407.5
448.013	1373.5
448.234	1378.5
448.455	1388.5
448.675	1379.5
448.896	1381.5
449.117	1397.5
449.338	1396.5
449.559	1382.5
449.779	1358.5
450	1397.5
450.221	1350.5
450.442	1384.5
450.662	1361.5
450.883	1349.5
451.104	1363.5
451.324	1379.5
451.545	1334.5
451.766	1350.5
451.986	1345.5
452.207	1326.5
452.428	1326.5
452.648	1317.5
452.869	1284.5
453.089	1329.5
453.31	1355.5
453.53	1349.5
453.751	1332.5
453.971	1343.5
454.192	1366.5
454.412	1322.5
454.633	1325.5
454.853	1335.5
455.073	1315.5
455.294	1339.5
455.514	1363.5
455.734	1366.5
455.955	1333.5
456.175	1339.5
456.395	1318.5
456.616	1285.5
456.836	1325.5
457.056	1353.5
457.276	1317.5
457.497	1339.5
457.717	1343.5
457.937	1309.5
458.157	1358.5
458.377	1329.5
458.598	1364.5
458.818	1339.5
459.038	1305.5
459.258	1311.5
459.478	1361.5
459.698	1416.5
459.918	1405.5
460.138	1410.5
460.358	1381.5
460.578	1419.5
460.798	1427.5
461.018	1429.5
461.238	1433.5
461.458	1447.5
461.678	1417.5
461.898	1382.5
462.118	1415.5
462.338	1429.5
462.558	1434.5
462.777	1416.5
462.997	1451.5
463.217	1447.5
463.437	1535.5
463.657	1503.5
463.876	1448.5
464.096	1481.5
464.316	1483.5
464.536	1446.5
464.755	1446.5
464.975	1406.5
465.195	1458.5
465.414	1421.5
465.634	1433.5
465.854	1432.5
466.073	1395.5
466.293	1386.5
466.512	1397.5
466.732	1446.5
466.951	1421.5
467.171	1398.5
467.391	1387.5
467.61	1406.5
467.829	1397.5
468.049	1434.5
468.268	1410.5
468.488	1405.5
468.707	1421.5
468.927	1444.5
469.146	1395.5
469.365	1411.5
469.585	1412.5
469.804	1434.5
470.023	1431.5
470.243	1426.5
470.462	1420.5
470.681	1421.5
470.901	1441.5
471.12	1453.5
471.339	1453.5
471.558	1424.5
471.777	1428.5
471.997	1426.5
472.216	1419.5
472.435	1459.5
472.654	1451.5
472.873	1417.5
473.092	1452.5
473.311	1486.5
473.53	1488.5
473.749	1475.5
473.968	1481.5
474.187	1533.5
474.406	1503.5
474.625	1507.5
474.844	1514.5
475.063	1490.5
475.282	1503.5
475.501	1526.5
475.72	1535.5
475.939	1583.5
476.158	1546.5
476.377	1559.5
476.596	1561.5
476.814	1587.5
477.033	1581.5
477.252	1609.5
477.471	1620.5
477.69	1635.5
477.908	1661.5
478.127	1644.5
478.346	1627.5
478.564	1699.5
478.783	1679.5
479.002	1674.5
479.22	1723.5
479.439	1691.5
479.658	1678.5
479.876	1681.5
480.095	1687.5
480.313	1726.5
480.532	1763.5
480.751	1769.5
480.969	1751.5
481.188	1726.5
481.406	1726.5
481.624	1759.5
481.843	1710.5
482.061	1770.5
482.28	1756.5
482.498	1761.5
482.717	1738.5
482.935	1797.5
483.153	1835.5
483.372	1785.5
483.59	1796.5
483.808	1841.5
484.027	1862.5
484.245	1830.5
484.463	1830.5
484.681	1856.5
484.9	1816.5
485.118	1816.5
485.336	1796.5
485.554	1806.5
485.772	1838.5
485.99	1838.5
486.209	1839.5
486.427	1833.5
486.645	1834.5
486.863	1871.5
487.081	1828.5
487.299	1867.5
487.517	1851.5
487.735	1890.5
487.953	1909.5
488.171	1928.5
488.389	1875.5
488.607	1903.5
488.825	1811.5
489.043	1850.5
489.261	1873.5
489.479	1872.5
489.696	1877.5
489.914	1880.5
490.132	1862.5
490.35	1866.5
490.568	1878.5
490.786	1905.5
491.003	1928.5
491.221	1945.5
491.439	1931.5
491.657	1947.5
491.874	1955.5
492.092	1917.5
492.31	1983.5
492.527	1997.5
492.745	1916.5
492.963	1973.5
493.18	1957.5
493.398	1941.5
493.615	1918.5
493.833	1919.5
494.05	1938.5
494.268	1963.5
494.485	1930.5
494.703	1926.5
494.92	1927.5
495.138	1945.5
495.355	1971.5
495.573	1964.5
495.79	1924.5
496.008	1962.5
496.225	1948.5
496.442	1972.5
496.66	1996.5
496.877	1977.5
497.094	1990.5
497.312	1997.5
497.529	2021.5
497.746	2004.5
497.963	1964.5
498.181	2017.5
498.398	2046.5
498.615	2075.5
498.832	2081.5
499.049	2071.5
499.267	2070.5
499.484	2099.5
499.701	2155.5
499.918	2171.5
500.135	2170.5
500.352	2174.5
500.569	2216.5
500.786	2169.5
501.003	2164.5
501.22	2164.5
501.437	2089.5
501.654	2061.5
501.871	2063.5
502.088	2052.5
502.305	2032.5
502.522	2047.5
502.739	2064.5
502.956	1977.5
503.172	2001.5
503.389	1958.5
503.606	1963.5
503.823	1923.5
504.04	1914.5
504.256	1921.5
504.473	1918.5
504.69	1875.5
504.907	1925.5
505.123	1902.5
505.34	1915.5
505.557	1867.5
505.773	1868.5
505.99	1878.5
506.207	1822.5
506.423	1795.5
506.64	1871.5
506.856	1793.5
507.073	1792.5
507.289	1785.5
507.506	1777.5
