Data from Ni(NO3)2@0.5M.TitratingCurve.Agarose3%dH2O.NegLispCup.LampEnergy10.LIBS07252019_HRD10591_17-59-04-564.txt Node
Date: Thu Jul 25 17:59:04 EDT 2019
User: cochatt
Spectrometer: HR+D1059
Trigger mode: 1
Integration Time (sec): 1.000000E-1
Scans to average: 1
Electric dark correction enabled: true
Nonlinearity correction enabled: false
Boxcar width: 0
XAxis mode: Wavelengths
Number of Pixels in Spectrum: 2048
>>>>>Begin Spectral Data<<<<<
223.165	-6.69
223.4	-6.69
223.635	-6.69
223.869	-13.69
224.104	-23.69
224.338	-6.69
224.573	-26.69
224.808	-3.69
225.042	-5.69
225.277	-17.69
225.511	4.31
225.746	-1.69
225.98	-3.69
226.215	5.31
226.449	23.31
226.683	22.31
226.918	36.31
227.152	18.31
227.387	27.31
227.621	37.31
227.856	49.31
228.09	56.31
228.324	50.31
228.559	49.31
228.793	86.31
229.027	141.31
229.262	157.31
229.496	167.31
229.73	172.31
229.964	205.31
230.199	247.31
230.433	237.31
230.667	229.31
230.901	212.31
231.136	197.31
231.37	193.31
231.604	209.31
231.838	253.31
232.072	268.31
232.306	233.31
232.541	217.31
232.775	184.31
233.009	183.31
233.243	165.31
233.477	187.31
233.711	182.31
233.945	207.31
234.179	197.31
234.413	193.31
234.647	209.31
234.881	209.31
235.115	211.31
235.349	187.31
235.583	201.31
235.817	187.31
236.051	190.31
236.285	187.31
236.519	182.31
236.753	184.31
236.987	196.31
237.221	188.31
237.455	201.31
237.689	203.31
237.922	205.31
238.156	210.31
238.39	209.31
238.624	205.31
238.858	212.31
239.091	227.31
239.325	227.31
239.559	236.31
239.793	274.31
240.027	270.31
240.26	215.31
240.494	212.31
240.728	205.31
240.961	216.31
241.195	209.31
241.429	235.31
241.662	251.31
241.896	267.31
242.13	270.31
242.363	253.31
242.597	217.31
242.83	240.31
243.064	246.31
243.298	240.31
243.531	236.31
243.765	249.31
243.998	266.31
244.232	299.31
244.465	278.31
244.699	256.31
244.932	263.31
245.166	257.31
245.399	269.31
245.633	275.31
245.866	261.31
246.099	274.31
246.333	273.31
246.566	283.31
246.8	266.31
247.033	280.31
247.266	262.31
247.5	273.31
247.733	292.31
247.966	285.31
248.2	307.31
248.433	316.31
248.666	292.31
248.899	287.31
249.133	312.31
249.366	286.31
249.599	310.31
249.832	300.31
250.066	321.31
250.299	315.31
250.532	307.31
250.765	329.31
250.998	353.31
251.231	370.31
251.465	394.31
251.698	356.31
251.931	332.31
252.164	320.31
252.397	364.31
252.63	358.31
252.863	356.31
253.096	333.31
253.329	359.31
253.562	345.31
253.795	353.31
254.028	357.31
254.261	363.31
254.494	367.31
254.727	362.31
254.96	377.31
255.193	365.31
255.426	377.31
255.659	360.31
255.892	371.31
256.124	369.31
256.357	358.31
256.59	385.31
256.823	374.31
257.056	383.31
257.289	375.31
257.521	388.31
257.754	389.31
257.987	375.31
258.22	381.31
258.452	384.31
258.685	396.31
258.918	404.31
259.151	413.31
259.383	410.31
259.616	383.31
259.849	403.31
260.081	400.31
260.314	426.31
260.547	411.31
260.779	427.31
261.012	437.31
261.244	443.31
261.477	420.31
261.71	426.31
261.942	416.31
262.175	410.31
262.407	425.31
262.64	413.31
262.872	445.31
263.105	443.31
263.337	439.31
263.57	440.31
263.802	445.31
264.035	439.31
264.267	441.31
264.499	445.31
264.732	492.31
264.964	431.31
265.197	465.31
265.429	469.31
265.661	460.31
265.894	479.31
266.126	455.31
266.358	463.31
266.591	477.31
266.823	455.31
267.055	472.31
267.287	486.31
267.52	476.31
267.752	478.31
267.984	495.31
268.216	486.31
268.448	487.31
268.681	495.31
268.913	485.31
269.145	507.31
269.377	485.31
269.609	513.31
269.841	513.31
270.073	490.31
270.306	511.31
270.538	521.31
270.77	519.31
271.002	534.31
271.234	514.31
271.466	519.31
271.698	514.31
271.93	516.31
272.162	513.31
272.394	503.31
272.626	515.31
272.858	529.31
273.09	520.31
273.322	540.31
273.553	521.31
273.785	522.31
274.017	554.31
274.249	563.31
274.481	554.31
274.713	537.31
274.945	546.31
275.176	537.31
275.408	563.31
275.64	561.31
275.872	573.31
276.104	548.31
276.335	560.31
276.567	578.31
276.799	562.31
277.031	576.31
277.262	567.31
277.494	567.31
277.726	588.31
277.957	584.31
278.189	586.31
278.421	592.31
278.652	595.31
278.884	570.31
279.115	595.31
279.347	572.31
279.579	555.31
279.81	623.31
280.042	606.31
280.273	599.31
280.505	609.31
280.736	601.31
280.968	596.31
281.199	613.31
281.431	628.31
281.662	605.31
281.894	597.31
282.125	643.31
282.356	636.31
282.588	615.31
282.819	625.31
283.051	618.31
283.282	616.31
283.513	646.31
283.745	632.31
283.976	620.31
284.207	635.31
284.439	654.31
284.67	629.31
284.901	645.31
285.132	644.31
285.364	645.31
285.595	624.31
285.826	643.31
286.057	647.31
286.288	647.31
286.52	665.31
286.751	682.31
286.982	682.31
287.213	636.31
287.444	635.31
287.675	644.31
287.906	665.31
288.138	667.31
288.369	682.31
288.6	682.31
288.831	669.31
289.062	673.31
289.293	675.31
289.524	680.31
289.755	677.31
289.986	674.31
290.217	673.31
290.448	698.31
290.679	678.31
290.91	687.31
291.141	669.31
291.371	685.31
291.602	691.31
291.833	682.31
292.064	674.31
292.295	680.31
292.526	707.31
292.757	674.31
292.987	685.31
293.218	673.31
293.449	702.31
293.68	713.31
293.91	715.31
294.141	698.31
294.372	701.31
294.603	732.31
294.833	698.31
295.064	689.31
295.295	684.31
295.525	710.31
295.756	698.31
295.987	690.31
296.217	710.31
296.448	705.31
296.679	699.31
296.909	709.31
297.14	716.31
297.37	721.31
297.601	742.31
297.831	729.31
298.062	741.31
298.292	743.31
298.523	731.31
298.753	751.31
298.984	737.31
299.214	748.31
299.445	744.31
299.675	748.31
299.905	755.31
300.136	759.31
300.366	823.31
300.597	813.31
300.827	809.31
301.057	747.31
301.288	774.31
301.518	811.31
301.748	782.31
301.979	811.31
302.209	789.31
302.439	805.31
302.669	793.31
302.9	792.31
303.13	761.31
303.36	812.31
303.59	782.31
303.82	788.31
304.051	795.31
304.281	794.31
304.511	784.31
304.741	817.31
304.971	827.31
305.201	876.31
305.431	861.31
305.661	872.31
305.891	816.31
306.121	846.31
306.352	817.31
306.582	799.31
306.812	801.31
307.042	804.31
307.272	794.31
307.502	780.31
307.731	818.31
307.961	823.31
308.191	803.31
308.421	852.31
308.651	833.31
308.881	806.31
309.111	817.31
309.341	811.31
309.571	819.31
309.8	845.31
310.03	874.31
310.26	882.31
310.49	891.31
310.72	848.31
310.949	817.31
311.179	831.31
311.409	819.31
311.639	857.31
311.868	843.31
312.098	840.31
312.328	825.31
312.557	870.31
312.787	830.31
313.017	842.31
313.246	864.31
313.476	863.31
313.706	909.31
313.935	879.31
314.165	877.31
314.394	866.31
314.624	883.31
314.853	839.31
315.083	857.31
315.312	872.31
315.542	884.31
315.771	890.31
316.001	852.31
316.23	892.31
316.46	869.31
316.689	894.31
316.919	888.31
317.148	885.31
317.377	884.31
317.607	890.31
317.836	883.31
318.065	889.31
318.295	915.31
318.524	908.31
318.753	925.31
318.983	915.31
319.212	909.31
319.441	938.31
319.67	909.31
319.9	905.31
320.129	924.31
320.358	934.31
320.587	900.31
320.816	928.31
321.046	901.31
321.275	909.31
321.504	949.31
321.733	948.31
321.962	936.31
322.191	927.31
322.42	912.31
322.649	961.31
322.878	953.31
323.108	941.31
323.337	961.31
323.566	979.31
323.795	960.31
324.024	939.31
324.253	981.31
324.482	964.31
324.71	979.31
324.939	971.31
325.168	982.31
325.397	972.31
325.626	971.31
325.855	984.31
326.084	971.31
326.313	976.31
326.542	1005.31
326.77	1003.31
326.999	1002.31
327.228	1001.31
327.457	1001.31
327.686	969.31
327.914	986.31
328.143	996.31
328.372	1000.31
328.6	1027.31
328.829	982.31
329.058	981.31
329.287	1018.31
329.515	1030.31
329.744	1011.31
329.972	1020.31
330.201	1022.31
330.43	1021.31
330.658	1027.31
330.887	1053.31
331.115	1055.31
331.344	1041.31
331.572	1052.31
331.801	1099.31
332.03	1082.31
332.258	1083.31
332.486	1083.31
332.715	1099.31
332.943	1112.31
333.172	1137.31
333.4	1138.31
333.629	1119.31
333.857	1141.31
334.085	1169.31
334.314	1180.31
334.542	1149.31
334.771	1171.31
334.999	1156.31
335.227	1202.31
335.455	1191.31
335.684	1177.31
335.912	1155.31
336.14	1174.31
336.369	1178.31
336.597	1185.31
336.825	1206.31
337.053	1193.31
337.281	1191.31
337.51	1195.31
337.738	1181.31
337.966	1146.31
338.194	1164.31
338.422	1196.31
338.65	1147.31
338.878	1159.31
339.106	1155.31
339.334	1201.31
339.562	1174.31
339.79	1115.31
340.018	1126.31
340.246	1097.31
340.474	1106.31
340.702	1116.31
340.93	1152.31
341.158	1107.31
341.386	1182.31
341.614	1249.31
341.842	1192.31
342.07	1148.31
342.298	1107.31
342.526	1094.31
342.754	1111.31
342.981	1128.31
343.209	1114.31
343.437	1171.31
343.665	1171.31
343.893	1153.31
344.12	1191.31
344.348	1185.31
344.576	1173.31
344.804	1213.31
345.031	1156.31
345.259	1151.31
345.487	1145.31
345.714	1204.31
345.942	1168.31
346.17	1179.31
346.397	1156.31
346.625	1095.31
346.853	1085.31
347.08	1076.31
347.308	1079.31
347.535	1098.31
347.763	1071.31
347.99	1057.31
348.218	1046.31
348.445	1031.31
348.673	1061.31
348.9	1044.31
349.128	1081.31
349.355	1131.31
349.583	1122.31
349.81	1058.31
350.037	1055.31
350.265	1076.31
350.492	1047.31
350.72	1041.31
350.947	1071.31
351.174	1081.31
351.402	1149.31
351.629	1125.31
351.856	1095.31
352.083	1096.31
352.311	1097.31
352.538	1147.31
352.765	1169.31
352.992	1066.31
353.22	1031.31
353.447	1026.31
353.674	1019.31
353.901	987.31
354.128	990.31
354.355	996.31
354.583	1012.31
354.81	994.31
355.037	1047.31
355.264	1045.31
355.491	1043.31
355.718	1010.31
355.945	1012.31
356.172	1030.31
356.399	1031.31
356.626	1076.31
356.853	1092.31
357.08	1046.31
357.307	1043.31
357.534	1061.31
357.761	1042.31
357.988	1050.31
358.215	1006.31
358.441	1026.31
358.668	1021.31
358.895	1033.31
359.122	1024.31
359.349	1014.31
359.576	1033.31
359.802	1072.31
360.029	1059.31
360.256	1036.31
360.483	1047.31
360.709	1025.31
360.936	1047.31
361.163	1053.31
361.39	1056.31
361.616	1030.31
361.843	1114.31
362.07	1145.31
362.296	1100.31
362.523	1064.31
362.749	1019.31
362.976	1027.31
363.203	1012.31
363.429	1013.31
363.656	1039.31
363.882	1075.31
364.109	1028.31
364.335	1057.31
364.562	1019.31
364.788	1035.31
365.015	1044.31
365.241	1021.31
365.468	1058.31
365.694	1035.31
365.92	1002.31
366.147	1030.31
366.373	1030.31
366.599	1041.31
366.826	1033.31
367.052	1031.31
367.278	1053.31
367.505	1072.31
367.731	1058.31
367.957	1031.31
368.184	1053.31
368.41	1073.31
368.636	1062.31
368.862	1082.31
369.089	1068.31
369.315	1064.31
369.541	1071.31
369.767	1088.31
369.993	1090.31
370.219	1041.31
370.445	1079.31
370.672	1089.31
370.898	1092.31
371.124	1087.31
371.35	1128.31
371.576	1092.31
371.802	1115.31
372.028	1100.31
372.254	1113.31
372.48	1109.31
372.706	1112.31
372.932	1117.31
373.158	1143.31
373.384	1145.31
373.61	1116.31
373.835	1130.31
374.061	1115.31
374.287	1133.31
374.513	1127.31
374.739	1150.31
374.965	1121.31
375.191	1107.31
375.416	1173.31
375.642	1099.31
375.868	1130.31
376.094	1112.31
376.319	1120.31
376.545	1111.31
376.771	1125.31
376.997	1107.31
377.222	1098.31
377.448	1120.31
377.674	1115.31
377.899	1105.31
378.125	1131.31
378.35	1138.31
378.576	1115.31
378.802	1077.31
379.027	1113.31
379.253	1095.31
379.478	1069.31
379.704	1095.31
379.929	1079.31
380.155	1094.31
380.38	1126.31
380.606	1112.31
380.831	1062.31
381.057	1111.31
381.282	1089.31
381.507	1116.31
381.733	1105.31
381.958	1129.31
382.184	1115.31
382.409	1114.31
382.634	1139.31
382.86	1118.31
383.085	1159.31
383.31	1183.31
383.535	1141.31
383.761	1142.31
383.986	1161.31
384.211	1163.31
384.436	1175.31
384.662	1200.31
384.887	1191.31
385.112	1159.31
385.337	1218.31
385.562	1195.31
385.787	1257.31
386.013	1267.31
386.238	1272.31
386.463	1259.31
386.688	1243.31
386.913	1243.31
387.138	1225.31
387.363	1246.31
387.588	1241.31
387.813	1232.31
388.038	1263.31
388.263	1227.31
388.488	1247.31
388.713	1257.31
388.938	1287.31
389.163	1224.31
389.387	1251.31
389.612	1252.31
389.837	1243.31
390.062	1230.31
390.287	1273.31
390.512	1259.31
390.736	1275.31
390.961	1280.31
391.186	1283.31
391.411	1293.31
391.636	1297.31
391.86	1277.31
392.085	1330.31
392.31	1315.31
392.534	1315.31
392.759	1323.31
392.984	1275.31
393.208	1304.31
393.433	1331.31
393.658	1316.31
393.882	1292.31
394.107	1308.31
394.331	1323.31
394.556	1305.31
394.78	1289.31
395.005	1320.31
395.229	1299.31
395.454	1334.31
395.678	1338.31
395.903	1357.31
396.127	1331.31
396.352	1329.31
396.576	1345.31
396.801	1356.31
397.025	1363.31
397.249	1347.31
397.474	1360.31
397.698	1381.31
397.922	1403.31
398.147	1426.31
398.371	1437.31
398.595	1466.31
398.82	1455.31
399.044	1495.31
399.268	1549.31
399.492	1612.31
399.717	1648.31
399.941	1667.31
400.165	1647.31
400.389	1619.31
400.613	1565.31
400.837	1507.31
401.062	1524.31
401.286	1516.31
401.51	1491.31
401.734	1449.31
401.958	1481.31
402.182	1453.31
402.406	1465.31
402.63	1471.31
402.854	1439.31
403.078	1493.31
403.302	1442.31
403.526	1507.31
403.75	1467.31
403.974	1488.31
404.198	1467.31
404.422	1507.31
404.645	1511.31
404.869	1500.31
405.093	1513.31
405.317	1497.31
405.541	1552.31
405.765	1516.31
405.988	1513.31
406.212	1555.31
406.436	1596.31
406.66	1613.31
406.883	1598.31
407.107	1621.31
407.331	1658.31
407.555	1677.31
407.778	1707.31
408.002	1682.31
408.226	1703.31
408.449	1654.31
408.673	1619.31
408.896	1621.31
409.12	1573.31
409.344	1605.31
409.567	1559.31
409.791	1584.31
410.014	1561.31
410.238	1574.31
410.461	1549.31
410.685	1548.31
410.908	1529.31
411.132	1541.31
411.355	1492.31
411.578	1515.31
411.802	1540.31
412.025	1520.31
412.249	1512.31
412.472	1523.31
412.695	1493.31
412.919	1492.31
413.142	1513.31
413.365	1503.31
413.589	1503.31
413.812	1495.31
414.035	1487.31
414.258	1473.31
414.482	1524.31
414.705	1482.31
414.928	1482.31
415.151	1450.31
415.374	1465.31
415.597	1438.31
415.821	1443.31
416.044	1448.31
416.267	1420.31
416.49	1419.31
416.713	1393.31
416.936	1448.31
417.159	1418.31
417.382	1367.31
417.605	1390.31
417.828	1429.31
418.051	1436.31
418.274	1407.31
418.497	1410.31
418.72	1415.31
418.943	1395.31
419.166	1504.31
419.389	1549.31
419.611	1538.31
419.834	1524.31
420.057	1433.31
420.28	1425.31
420.503	1395.31
420.726	1425.31
420.948	1394.31
421.171	1388.31
421.394	1355.31
421.617	1420.31
421.839	1394.31
422.062	1459.31
422.285	1376.31
422.507	1383.31
422.73	1404.31
422.953	1387.31
423.175	1409.31
423.398	1415.31
423.621	1383.31
423.843	1379.31
424.066	1403.31
424.288	1405.31
424.511	1373.31
424.733	1388.31
424.956	1379.31
425.178	1379.31
425.401	1391.31
425.623	1386.31
425.846	1368.31
426.068	1383.31
426.291	1357.31
426.513	1372.31
426.735	1378.31
426.958	1365.31
427.18	1359.31
427.402	1385.31
427.625	1384.31
427.847	1323.31
428.069	1329.31
428.292	1389.31
428.514	1360.31
428.736	1309.31
428.958	1375.31
429.181	1318.31
429.403	1339.31
429.625	1323.31
429.847	1332.31
430.069	1342.31
430.292	1341.31
430.514	1315.31
430.736	1321.31
430.958	1336.31
431.18	1344.31
431.402	1335.31
431.624	1330.31
431.846	1347.31
432.068	1343.31
432.29	1377.31
432.512	1366.31
432.734	1363.31
432.956	1368.31
433.178	1397.31
433.4	1417.31
433.622	1441.31
433.844	1447.31
434.066	1428.31
434.287	1447.31
434.509	1411.31
434.731	1422.31
434.953	1419.31
435.175	1469.31
435.397	1496.31
435.618	1461.31
435.84	1403.31
436.062	1372.31
436.284	1378.31
436.505	1368.31
436.727	1369.31
436.949	1379.31
437.17	1377.31
437.392	1364.31
437.614	1320.31
437.835	1325.31
438.057	1308.31
438.278	1296.31
438.5	1303.31
438.721	1335.31
438.943	1336.31
439.165	1305.31
439.386	1293.31
439.608	1329.31
439.829	1323.31
440.05	1338.31
440.272	1363.31
440.493	1368.31
440.715	1381.31
440.936	1366.31
441.158	1380.31
441.379	1403.31
441.6	1443.31
441.822	1430.31
442.043	1430.31
442.264	1393.31
442.486	1405.31
442.707	1403.31
442.928	1402.31
443.149	1455.31
443.371	1466.31
443.592	1534.31
443.813	1484.31
444.034	1416.31
444.255	1452.31
444.476	1485.31
444.698	1509.31
444.919	1560.31
445.14	1626.31
445.361	1571.31
445.582	1519.31
445.803	1427.31
446.024	1369.31
446.245	1349.31
446.466	1367.31
446.687	1316.31
446.908	1388.31
447.129	1316.31
447.35	1335.31
447.571	1331.31
447.792	1259.31
448.013	1288.31
448.234	1272.31
448.455	1244.31
448.675	1288.31
448.896	1263.31
449.117	1248.31
449.338	1220.31
449.559	1235.31
449.779	1250.31
450	1228.31
450.221	1245.31
450.442	1249.31
450.662	1247.31
450.883	1268.31
451.104	1303.31
451.324	1234.31
451.545	1231.31
451.766	1232.31
451.986	1232.31
452.207	1202.31
452.428	1211.31
452.648	1239.31
452.869	1194.31
453.089	1252.31
453.31	1250.31
453.53	1204.31
453.751	1160.31
453.971	1216.31
454.192	1258.31
454.412	1264.31
454.633	1205.31
454.853	1223.31
455.073	1190.31
455.294	1212.31
455.514	1213.31
455.734	1288.31
455.955	1267.31
456.175	1278.31
456.395	1228.31
456.616	1173.31
456.836	1215.31
457.056	1225.31
457.276	1149.31
457.497	1234.31
457.717	1229.31
457.937	1242.31
458.157	1237.31
458.377	1236.31
458.598	1244.31
458.818	1267.31
459.038	1250.31
459.258	1343.31
459.478	1445.31
459.698	1514.31
459.918	1489.31
460.138	1512.31
460.358	1467.31
460.578	1488.31
460.798	1567.31
461.018	1571.31
461.238	1481.31
461.458	1465.31
461.678	1431.31
461.898	1485.31
462.118	1467.31
462.338	1529.31
462.558	1578.31
462.777	1641.31
462.997	1722.31
463.217	1698.31
463.437	1797.31
463.657	1703.31
463.876	1644.31
464.096	1622.31
464.316	1610.31
464.536	1619.31
464.755	1547.31
464.975	1480.31
465.195	1495.31
465.414	1440.31
465.634	1415.31
465.854	1389.31
466.073	1354.31
466.293	1361.31
466.512	1335.31
466.732	1350.31
466.951	1344.31
467.171	1335.31
467.391	1325.31
467.61	1315.31
467.829	1334.31
468.049	1291.31
468.268	1274.31
468.488	1278.31
468.707	1307.31
468.927	1322.31
469.146	1341.31
469.365	1358.31
469.585	1299.31
469.804	1299.31
470.023	1308.31
470.243	1324.31
470.462	1324.31
470.681	1330.31
470.901	1320.31
471.12	1324.31
471.339	1336.31
471.558	1317.31
471.777	1310.31
471.997	1307.31
472.216	1298.31
472.435	1315.31
472.654	1282.31
472.873	1272.31
473.092	1273.31
473.311	1286.31
473.53	1306.31
473.749	1302.31
473.968	1291.31
474.187	1292.31
474.406	1300.31
474.625	1340.31
474.844	1310.31
475.063	1339.31
475.282	1356.31
475.501	1327.31
475.72	1329.31
475.939	1317.31
476.158	1327.31
476.377	1345.31
476.596	1376.31
476.814	1346.31
477.033	1377.31
477.252	1366.31
477.471	1375.31
477.69	1417.31
477.908	1453.31
478.127	1461.31
478.346	1470.31
478.564	1497.31
478.783	1469.31
479.002	1577.31
479.22	1651.31
479.439	1576.31
479.658	1550.31
479.876	1583.31
480.095	1547.31
480.313	1558.31
480.532	1561.31
480.751	1570.31
480.969	1539.31
481.188	1525.31
481.406	1548.31
481.624	1525.31
481.843	1551.31
482.061	1484.31
482.28	1526.31
482.498	1541.31
482.717	1521.31
482.935	1555.31
483.153	1567.31
483.372	1591.31
483.59	1624.31
483.808	1549.31
484.027	1533.31
484.245	1567.31
484.463	1572.31
484.681	1571.31
484.9	1560.31
485.118	1539.31
485.336	1559.31
485.554	1569.31
485.772	1569.31
485.99	1582.31
486.209	1569.31
486.427	1568.31
486.645	1572.31
486.863	1580.31
487.081	1616.31
487.299	1612.31
487.517	1586.31
487.735	1650.31
487.953	1612.31
488.171	1657.31
488.389	1559.31
488.607	1597.31
488.825	1554.31
489.043	1570.31
489.261	1580.31
489.479	1588.31
489.696	1586.31
489.914	1581.31
490.132	1552.31
490.35	1588.31
490.568	1556.31
490.786	1604.31
491.003	1594.31
491.221	1586.31
491.439	1592.31
491.657	1593.31
