Data from Ni(NO3)2@0.25M.TitratingCurve.Agarose3%dH2O.NegLispCup.LampEnergy10.LIBS07252019_HRD10591_18-03-05-565.txt Node
Date: Thu Jul 25 18:03:05 EDT 2019
User: cochatt
Spectrometer: HR+D1059
Trigger mode: 1
Integration Time (sec): 1.000000E-1
Scans to average: 1
Electric dark correction enabled: true
Nonlinearity correction enabled: false
Boxcar width: 0
XAxis mode: Wavelengths
Number of Pixels in Spectrum: 2048
>>>>>Begin Spectral Data<<<<<
223.165	-25.75
223.4	-25.75
223.635	-25.75
223.869	-25.75
224.104	-26.75
224.338	-6.75
224.573	-10.75
224.808	-16.75
225.042	-16.75
225.277	0.25
225.511	-4.75
225.746	8.25
225.98	5.25
226.215	11.25
226.449	26.25
226.683	26.25
226.918	27.25
227.152	29.25
227.387	35.25
227.621	20.25
227.856	38.25
228.09	37.25
228.324	60.25
228.559	65.25
228.793	55.25
229.027	87.25
229.262	86.25
229.496	76.25
229.73	95.25
229.964	94.25
230.199	95.25
230.433	99.25
230.667	114.25
230.901	115.25
231.136	96.25
231.37	100.25
231.604	101.25
231.838	105.25
232.072	111.25
232.306	129.25
232.541	100.25
232.775	109.25
233.009	121.25
233.243	117.25
233.477	109.25
233.711	106.25
233.945	113.25
234.179	99.25
234.413	94.25
234.647	99.25
234.881	101.25
235.115	99.25
235.349	104.25
235.583	94.25
235.817	106.25
236.051	94.25
236.285	98.25
236.519	103.25
236.753	112.25
236.987	97.25
237.221	110.25
237.455	119.25
237.689	110.25
237.922	120.25
238.156	89.25
238.39	107.25
238.624	97.25
238.858	105.25
239.091	115.25
239.325	129.25
239.559	101.25
239.793	113.25
240.027	117.25
240.26	114.25
240.494	113.25
240.728	102.25
240.961	105.25
241.195	114.25
241.429	119.25
241.662	117.25
241.896	114.25
242.13	122.25
242.363	110.25
242.597	114.25
242.83	109.25
243.064	120.25
243.298	114.25
243.531	115.25
243.765	133.25
243.998	128.25
244.232	117.25
244.465	125.25
244.699	131.25
244.932	129.25
245.166	139.25
245.399	140.25
245.633	134.25
245.866	135.25
246.099	134.25
246.333	138.25
246.566	135.25
246.8	133.25
247.033	149.25
247.266	147.25
247.5	143.25
247.733	136.25
247.966	155.25
248.2	170.25
248.433	175.25
248.666	150.25
248.899	160.25
249.133	168.25
249.366	175.25
249.599	186.25
249.832	193.25
250.066	179.25
250.299	205.25
250.532	179.25
250.765	197.25
250.998	213.25
251.231	210.25
251.465	210.25
251.698	192.25
251.931	226.25
252.164	213.25
252.397	216.25
252.63	222.25
252.863	220.25
253.096	222.25
253.329	232.25
253.562	248.25
253.795	242.25
254.028	237.25
254.261	254.25
254.494	265.25
254.727	241.25
254.96	240.25
255.193	258.25
255.426	254.25
255.659	261.25
255.892	272.25
256.124	282.25
256.357	261.25
256.59	290.25
256.823	282.25
257.056	314.25
257.289	305.25
257.521	292.25
257.754	294.25
257.987	305.25
258.22	320.25
258.452	311.25
258.685	309.25
258.918	314.25
259.151	313.25
259.383	299.25
259.616	324.25
259.849	322.25
260.081	336.25
260.314	350.25
260.547	326.25
260.779	339.25
261.012	321.25
261.244	328.25
261.477	346.25
261.71	343.25
261.942	338.25
262.175	341.25
262.407	343.25
262.64	339.25
262.872	347.25
263.105	336.25
263.337	349.25
263.57	362.25
263.802	368.25
264.035	372.25
264.267	349.25
264.499	350.25
264.732	343.25
264.964	357.25
265.197	368.25
265.429	371.25
265.661	374.25
265.894	375.25
266.126	374.25
266.358	373.25
266.591	367.25
266.823	369.25
267.055	354.25
267.287	385.25
267.52	370.25
267.752	383.25
267.984	367.25
268.216	375.25
268.448	392.25
268.681	386.25
268.913	376.25
269.145	377.25
269.377	370.25
269.609	363.25
269.841	373.25
270.073	403.25
270.306	383.25
270.538	381.25
270.77	361.25
271.002	405.25
271.234	394.25
271.466	400.25
271.698	426.25
271.93	389.25
272.162	396.25
272.394	402.25
272.626	383.25
272.858	379.25
273.09	402.25
273.322	388.25
273.553	397.25
273.785	395.25
274.017	409.25
274.249	387.25
274.481	401.25
274.713	396.25
274.945	394.25
275.176	413.25
275.408	410.25
275.64	398.25
275.872	406.25
276.104	410.25
276.335	409.25
276.567	404.25
276.799	395.25
277.031	409.25
277.262	409.25
277.494	411.25
277.726	414.25
277.957	389.25
278.189	383.25
278.421	425.25
278.652	400.25
278.884	416.25
279.115	420.25
279.347	439.25
279.579	412.25
279.81	397.25
280.042	408.25
280.273	412.25
280.505	440.25
280.736	423.25
280.968	387.25
281.199	413.25
281.431	437.25
281.662	420.25
281.894	425.25
282.125	399.25
282.356	415.25
282.588	399.25
282.819	406.25
283.051	391.25
283.282	390.25
283.513	408.25
283.745	396.25
283.976	430.25
284.207	420.25
284.439	409.25
284.67	411.25
284.901	408.25
285.132	421.25
285.364	408.25
285.595	410.25
285.826	396.25
286.057	396.25
286.288	414.25
286.52	429.25
286.751	399.25
286.982	422.25
287.213	434.25
287.444	422.25
287.675	419.25
287.906	419.25
288.138	407.25
288.369	397.25
288.6	418.25
288.831	430.25
289.062	408.25
289.293	419.25
289.524	409.25
289.755	404.25
289.986	409.25
290.217	404.25
290.448	411.25
290.679	413.25
290.91	413.25
291.141	415.25
291.371	401.25
291.602	409.25
291.833	421.25
292.064	402.25
292.295	392.25
292.526	411.25
292.757	403.25
292.987	402.25
293.218	415.25
293.449	424.25
293.68	386.25
293.91	411.25
294.141	414.25
294.372	398.25
294.603	409.25
294.833	391.25
295.064	405.25
295.295	418.25
295.525	414.25
295.756	400.25
295.987	415.25
296.217	385.25
296.448	414.25
296.679	403.25
296.909	419.25
297.14	425.25
297.37	404.25
297.601	416.25
297.831	428.25
298.062	418.25
298.292	406.25
298.523	421.25
298.753	411.25
298.984	433.25
299.214	421.25
299.445	415.25
299.675	440.25
299.905	421.25
300.136	440.25
300.366	416.25
300.597	441.25
300.827	439.25
301.057	453.25
301.288	436.25
301.518	452.25
301.748	426.25
301.979	443.25
302.209	447.25
302.439	459.25
302.669	439.25
302.9	446.25
303.13	445.25
303.36	447.25
303.59	445.25
303.82	454.25
304.051	471.25
304.281	445.25
304.511	463.25
304.741	463.25
304.971	487.25
305.201	472.25
305.431	491.25
305.661	475.25
305.891	472.25
306.121	473.25
306.352	470.25
306.582	484.25
306.812	466.25
307.042	481.25
307.272	450.25
307.502	482.25
307.731	498.25
307.961	478.25
308.191	455.25
308.421	472.25
308.651	483.25
308.881	490.25
309.111	471.25
309.341	482.25
309.571	472.25
309.8	504.25
310.03	512.25
310.26	513.25
310.49	512.25
310.72	504.25
310.949	495.25
311.179	536.25
311.409	522.25
311.639	559.25
311.868	537.25
312.098	533.25
312.328	553.25
312.557	550.25
312.787	538.25
313.017	576.25
313.246	595.25
313.476	579.25
313.706	595.25
313.935	563.25
314.165	569.25
314.394	593.25
314.624	586.25
314.853	568.25
315.083	592.25
315.312	600.25
315.542	601.25
315.771	606.25
316.001	605.25
316.23	604.25
316.46	617.25
316.689	638.25
316.919	638.25
317.148	642.25
317.377	647.25
317.607	635.25
317.836	626.25
318.065	623.25
318.295	650.25
318.524	651.25
318.753	669.25
318.983	660.25
319.212	672.25
319.441	688.25
319.67	680.25
319.9	705.25
320.129	693.25
320.358	698.25
320.587	701.25
320.816	706.25
321.046	712.25
321.275	702.25
321.504	719.25
321.733	741.25
321.962	721.25
322.191	756.25
322.42	740.25
322.649	762.25
322.878	759.25
323.108	784.25
323.337	775.25
323.566	770.25
323.795	795.25
324.024	815.25
324.253	805.25
324.482	803.25
324.71	819.25
324.939	807.25
325.168	823.25
325.397	827.25
325.626	861.25
325.855	839.25
326.084	863.25
326.313	894.25
326.542	881.25
326.77	872.25
326.999	874.25
327.228	881.25
327.457	907.25
327.686	901.25
327.914	895.25
328.143	922.25
328.372	911.25
328.6	897.25
328.829	886.25
329.058	897.25
329.287	935.25
329.515	952.25
329.744	937.25
329.972	945.25
330.201	975.25
330.43	959.25
330.658	965.25
330.887	979.25
331.115	994.25
331.344	966.25
331.572	997.25
331.801	965.25
332.03	1007.25
332.258	1012.25
332.486	1008.25
332.715	1001.25
332.943	1033.25
333.172	1051.25
333.4	1041.25
333.629	1048.25
333.857	1029.25
334.085	1056.25
334.314	1097.25
334.542	1089.25
334.771	1091.25
334.999	1099.25
335.227	1077.25
335.455	1134.25
335.684	1099.25
335.912	1112.25
336.14	1114.25
336.369	1099.25
336.597	1105.25
336.825	1138.25
337.053	1117.25
337.281	1131.25
337.51	1115.25
337.738	1118.25
337.966	1136.25
338.194	1110.25
338.422	1106.25
338.65	1051.25
338.878	1093.25
339.106	1087.25
339.334	1098.25
339.562	1102.25
339.79	1088.25
340.018	1103.25
340.246	1103.25
340.474	1080.25
340.702	1109.25
340.93	1091.25
341.158	1092.25
341.386	1090.25
341.614	1129.25
341.842	1123.25
342.07	1131.25
342.298	1110.25
342.526	1112.25
342.754	1087.25
342.981	1089.25
343.209	1104.25
343.437	1125.25
343.665	1103.25
343.893	1137.25
344.12	1133.25
344.348	1125.25
344.576	1129.25
344.804	1128.25
345.031	1149.25
345.259	1113.25
345.487	1100.25
345.714	1098.25
345.942	1090.25
346.17	1129.25
346.397	1128.25
346.625	1083.25
346.853	1076.25
347.08	1066.25
347.308	1123.25
347.535	1108.25
347.763	1099.25
347.99	1047.25
348.218	1057.25
348.445	1065.25
348.673	1069.25
348.9	1094.25
349.128	1081.25
349.355	1078.25
349.583	1088.25
349.81	1066.25
350.037	1069.25
350.265	1059.25
350.492	1052.25
350.72	1055.25
350.947	1053.25
351.174	1059.25
351.402	1092.25
351.629	1064.25
351.856	1058.25
352.083	1044.25
352.311	1042.25
352.538	1054.25
352.765	1057.25
352.992	1016.25
353.22	1013.25
353.447	1058.25
353.674	1027.25
353.901	1050.25
354.128	1043.25
354.355	1026.25
354.583	1060.25
354.81	1049.25
355.037	1034.25
355.264	1060.25
355.491	1045.25
355.718	1033.25
355.945	1064.25
356.172	1043.25
356.399	1050.25
356.626	1050.25
356.853	1027.25
357.08	1023.25
357.307	1034.25
357.534	1029.25
357.761	1021.25
357.988	1024.25
358.215	1013.25
358.441	1034.25
358.668	1027.25
358.895	1006.25
359.122	1009.25
359.349	1012.25
359.576	1013.25
359.802	1018.25
360.029	1036.25
360.256	1018.25
360.483	1034.25
360.709	1029.25
360.936	1029.25
361.163	1027.25
361.39	1025.25
361.616	1031.25
361.843	1024.25
362.07	1040.25
362.296	1018.25
362.523	1016.25
362.749	1038.25
362.976	1034.25
363.203	1013.25
363.429	1022.25
363.656	1022.25
363.882	1049.25
364.109	1010.25
364.335	1013.25
364.562	1012.25
364.788	1033.25
365.015	996.25
365.241	998.25
365.468	997.25
365.694	1014.25
365.92	1023.25
366.147	1000.25
366.373	996.25
366.599	998.25
366.826	1024.25
367.052	1017.25
367.278	991.25
367.505	997.25
367.731	1002.25
367.957	1010.25
368.184	1027.25
368.41	1021.25
368.636	1011.25
368.862	1007.25
369.089	994.25
369.315	1016.25
369.541	1009.25
369.767	1024.25
369.993	1007.25
370.219	989.25
370.445	1000.25
370.672	995.25
370.898	954.25
371.124	995.25
371.35	1012.25
371.576	1006.25
371.802	992.25
372.028	1037.25
372.254	1009.25
372.48	1009.25
372.706	1003.25
372.932	993.25
373.158	964.25
373.384	1031.25
373.61	1000.25
373.835	990.25
374.061	1023.25
374.287	994.25
374.513	989.25
374.739	984.25
374.965	1011.25
375.191	1012.25
375.416	1022.25
375.642	992.25
375.868	991.25
376.094	1014.25
376.319	1003.25
376.545	1013.25
376.771	965.25
376.997	987.25
377.222	960.25
377.448	927.25
377.674	955.25
377.899	959.25
378.125	935.25
378.35	942.25
378.576	933.25
378.802	935.25
379.027	957.25
379.253	942.25
379.478	941.25
379.704	959.25
379.929	960.25
380.155	949.25
380.38	953.25
380.606	943.25
380.831	923.25
381.057	936.25
381.282	930.25
381.507	924.25
381.733	952.25
381.958	938.25
382.184	966.25
382.409	964.25
382.634	945.25
382.86	939.25
383.085	931.25
383.31	942.25
383.535	959.25
383.761	954.25
383.986	960.25
384.211	985.25
384.436	965.25
384.662	968.25
384.887	1006.25
385.112	941.25
385.337	996.25
385.562	971.25
385.787	987.25
386.013	1010.25
386.238	997.25
386.463	984.25
386.688	1001.25
386.913	956.25
387.138	985.25
387.363	1018.25
387.588	979.25
387.813	1017.25
388.038	977.25
388.263	993.25
388.488	1016.25
388.713	960.25
388.938	1000.25
389.163	995.25
389.387	1015.25
389.612	984.25
389.837	974.25
390.062	1005.25
390.287	977.25
390.512	1000.25
390.736	990.25
390.961	1024.25
391.186	994.25
391.411	1039.25
391.636	1019.25
391.86	1009.25
392.085	1027.25
392.31	1031.25
392.534	1040.25
392.759	1017.25
392.984	1020.25
393.208	1034.25
393.433	1026.25
393.658	1026.25
393.882	1025.25
394.107	1023.25
394.331	1031.25
394.556	1034.25
394.78	1021.25
395.005	1018.25
395.229	1011.25
395.454	1046.25
395.678	1070.25
395.903	1037.25
396.127	1077.25
396.352	1044.25
396.576	1036.25
396.801	1013.25
397.025	1074.25
397.249	1047.25
397.474	1061.25
397.698	1075.25
397.922	1063.25
398.147	1096.25
398.371	1101.25
398.595	1111.25
398.82	1113.25
399.044	1127.25
399.268	1174.25
399.492	1180.25
399.717	1190.25
399.941	1214.25
400.165	1234.25
400.389	1209.25
400.613	1219.25
400.837	1173.25
401.062	1179.25
401.286	1161.25
401.51	1161.25
401.734	1116.25
401.958	1149.25
402.182	1181.25
402.406	1154.25
402.63	1153.25
402.854	1143.25
403.078	1131.25
403.302	1167.25
403.526	1168.25
403.75	1143.25
403.974	1189.25
404.198	1152.25
404.422	1194.25
404.645	1191.25
404.869	1188.25
405.093	1184.25
405.317	1177.25
405.541	1169.25
405.765	1182.25
405.988	1194.25
406.212	1218.25
406.436	1188.25
406.66	1217.25
406.883	1208.25
407.107	1253.25
407.331	1237.25
407.555	1289.25
407.778	1282.25
408.002	1275.25
408.226	1266.25
408.449	1306.25
408.673	1278.25
408.896	1262.25
409.12	1299.25
409.344	1273.25
409.567	1254.25
409.791	1256.25
410.014	1250.25
410.238	1262.25
410.461	1247.25
410.685	1256.25
410.908	1247.25
411.132	1241.25
411.355	1259.25
411.578	1219.25
411.802	1210.25
412.025	1210.25
412.249	1251.25
412.472	1247.25
412.695	1234.25
412.919	1222.25
413.142	1213.25
413.365	1201.25
413.589	1253.25
413.812	1226.25
414.035	1211.25
414.258	1236.25
414.482	1192.25
414.705	1207.25
414.928	1222.25
415.151	1258.25
415.374	1249.25
415.597	1199.25
415.821	1187.25
416.044	1197.25
416.267	1192.25
416.49	1233.25
416.713	1195.25
416.936	1205.25
417.159	1202.25
417.382	1232.25
417.605	1183.25
417.828	1176.25
418.051	1199.25
418.274	1160.25
418.497	1126.25
418.72	1181.25
418.943	1175.25
419.166	1282.25
419.389	1345.25
419.611	1319.25
419.834	1285.25
420.057	1271.25
420.28	1249.25
420.503	1208.25
420.726	1214.25
420.948	1169.25
421.171	1207.25
421.394	1198.25
421.617	1201.25
421.839	1226.25
422.062	1224.25
422.285	1191.25
422.507	1225.25
422.73	1221.25
422.953	1270.25
423.175	1240.25
423.398	1235.25
423.621	1195.25
423.843	1234.25
424.066	1247.25
424.288	1254.25
424.511	1253.25
424.733	1235.25
424.956	1282.25
425.178	1257.25
425.401	1249.25
425.623	1282.25
425.846	1253.25
426.068	1235.25
426.291	1208.25
426.513	1238.25
426.735	1242.25
426.958	1259.25
427.18	1268.25
427.402	1249.25
427.625	1269.25
427.847	1289.25
428.069	1247.25
428.292	1265.25
428.514	1210.25
428.736	1250.25
428.958	1288.25
429.181	1250.25
429.403	1255.25
429.625	1240.25
429.847	1225.25
430.069	1276.25
430.292	1281.25
430.514	1225.25
430.736	1282.25
430.958	1269.25
431.18	1288.25
431.402	1289.25
431.624	1285.25
431.846	1282.25
432.068	1253.25
432.29	1265.25
432.512	1281.25
432.734	1290.25
432.956	1290.25
433.178	1300.25
433.4	1312.25
433.622	1280.25
433.844	1286.25
434.066	1273.25
434.287	1311.25
434.509	1257.25
434.731	1283.25
434.953	1289.25
435.175	1290.25
435.397	1325.25
435.618	1317.25
435.84	1316.25
436.062	1284.25
436.284	1323.25
436.505	1285.25
436.727	1297.25
436.949	1307.25
437.17	1279.25
437.392	1262.25
437.614	1288.25
437.835	1239.25
438.057	1239.25
438.278	1250.25
438.5	1250.25
438.721	1239.25
438.943	1270.25
439.165	1275.25
439.386	1281.25
439.608	1265.25
439.829	1319.25
440.05	1307.25
440.272	1296.25
440.493	1293.25
440.715	1290.25
440.936	1301.25
441.158	1340.25
441.379	1292.25
441.6	1305.25
441.822	1333.25
442.043	1330.25
442.264	1295.25
442.486	1301.25
442.707	1303.25
442.928	1299.25
443.149	1329.25
443.371	1283.25
443.592	1370.25
443.813	1298.25
444.034	1318.25
444.255	1322.25
444.476	1341.25
444.698	1358.25
444.919	1395.25
445.14	1459.25
445.361	1377.25
445.582	1355.25
445.803	1289.25
446.024	1289.25
446.245	1316.25
446.466	1307.25
446.687	1301.25
446.908	1279.25
447.129	1270.25
447.35	1255.25
447.571	1262.25
447.792	1228.25
448.013	1249.25
448.234	1214.25
448.455	1217.25
448.675	1192.25
448.896	1208.25
449.117	1209.25
449.338	1195.25
449.559	1217.25
449.779	1200.25
450	1203.25
450.221	1238.25
450.442	1197.25
450.662	1237.25
450.883	1222.25
451.104	1220.25
451.324	1203.25
451.545	1195.25
451.766	1204.25
451.986	1207.25
452.207	1232.25
452.428	1178.25
452.648	1169.25
452.869	1198.25
453.089	1152.25
453.31	1214.25
453.53	1169.25
453.751	1157.25
453.971	1143.25
454.192	1160.25
454.412	1164.25
454.633	1153.25
454.853	1180.25
455.073	1165.25
455.294	1184.25
455.514	1169.25
455.734	1185.25
455.955	1151.25
456.175	1190.25
456.395	1155.25
456.616	1142.25
456.836	1160.25
457.056	1167.25
457.276	1141.25
457.497	1207.25
457.717	1159.25
457.937	1174.25
458.157	1194.25
458.377	1185.25
458.598	1199.25
458.818	1184.25
459.038	1190.25
459.258	1222.25
459.478	1227.25
459.698	1255.25
459.918	1285.25
460.138	1265.25
460.358	1265.25
460.578	1295.25
460.798	1322.25
461.018	1359.25
461.238	1317.25
461.458	1320.25
461.678	1293.25
461.898	1360.25
462.118	1333.25
462.338	1361.25
462.558	1339.25
462.777	1398.25
462.997	1441.25
463.217	1422.25
463.437	1424.25
463.657	1385.25
463.876	1421.25
464.096	1405.25
464.316	1347.25
464.536	1393.25
464.755	1370.25
464.975	1351.25
465.195	1392.25
465.414	1330.25
465.634	1335.25
465.854	1284.25
466.073	1321.25
466.293	1269.25
466.512	1277.25
466.732	1227.25
466.951	1303.25
467.171	1283.25
467.391	1278.25
467.61	1253.25
467.829	1252.25
468.049	1251.25
468.268	1254.25
468.488	1232.25
468.707	1234.25
468.927	1255.25
469.146	1252.25
469.365	1248.25
469.585	1240.25
469.804	1274.25
470.023	1253.25
470.243	1283.25
470.462	1279.25
470.681	1268.25
470.901	1272.25
471.12	1292.25
471.339	1271.25
471.558	1262.25
471.777	1284.25
471.997	1280.25
472.216	1331.25
472.435	1257.25
472.654	1249.25
472.873	1242.25
473.092	1299.25
473.311	1305.25
473.53	1298.25
473.749	1284.25
473.968	1293.25
474.187	1276.25
474.406	1290.25
474.625	1309.25
474.844	1339.25
475.063	1333.25
475.282	1319.25
475.501	1343.25
475.72	1375.25
475.939	1341.25
476.158	1376.25
476.377	1371.25
476.596	1338.25
476.814	1397.25
477.033	1368.25
477.252	1385.25
477.471	1386.25
477.69	1416.25
477.908	1427.25
478.127	1464.25
478.346	1442.25
478.564	1469.25
478.783	1427.25
479.002	1489.25
479.22	1492.25
479.439	1511.25
479.658	1501.25
479.876	1464.25
480.095	1487.25
480.313	1481.25
480.532	1512.25
480.751	1512.25
480.969	1517.25
481.188	1485.25
481.406	1517.25
481.624	1514.25
481.843	1471.25
482.061	1503.25
482.28	1482.25
482.498	1489.25
482.717	1505.25
482.935	1514.25
483.153	1537.25
483.372	1568.25
483.59	1566.25
483.808	1539.25
484.027	1565.25
484.245	1535.25
484.463	1542.25
484.681	1563.25
484.9	1539.25
485.118	1571.25
485.336	1547.25
485.554	1595.25
485.772	1548.25
485.99	1556.25
486.209	1574.25
486.427	1559.25
486.645	1587.25
486.863	1605.25
487.081	1571.25
487.299	1539.25
487.517	1599.25
487.735	1614.25
487.953	1653.25
488.171	1627.25
488.389	1617.25
488.607	1657.25
488.825	1611.25
489.043	1566.25
489.261	1624.25
489.479	1586.25
489.696	1626.25
489.914	1604.25
490.132	1619.25
490.35	1635.25
490.568	1623.25
490.786	1679.25
491.003	1670.25
491.221	1658.25
491.439	1657.25
491.657	1655.25
491.874	1671.25
492.092	1719.25
492.31	1707.25
492.527	1735.25
492.745	1694.25
492.963	1712.25
