Data from Ni(NO3)2@0.5M.TitratingCurve.Agarose3%dH2O.NegLispCup.LampEnergy10.LIBS07252019_HRD10591_17-59-19-564.txt Node
Date: Thu Jul 25 17:59:19 EDT 2019
User: cochatt
Spectrometer: HR+D1059
Trigger mode: 1
Integration Time (sec): 1.000000E-1
Scans to average: 1
Electric dark correction enabled: true
Nonlinearity correction enabled: false
Boxcar width: 0
XAxis mode: Wavelengths
Number of Pixels in Spectrum: 2048
>>>>>Begin Spectral Data<<<<<
223.165	-7.75
223.4	-7.75
223.635	-7.75
223.869	-18.75
224.104	-28.75
224.338	-11.75
224.573	-28.75
224.808	-9.75
225.042	-4.75
225.277	-2.75
225.511	5.25
225.746	9.25
225.98	6.25
226.215	9.25
226.449	15.25
226.683	14.25
226.918	28.25
227.152	25.25
227.387	31.25
227.621	51.25
227.856	52.25
228.09	61.25
228.324	59.25
228.559	61.25
228.793	71.25
229.027	115.25
229.262	115.25
229.496	117.25
229.73	129.25
229.964	117.25
230.199	145.25
230.433	145.25
230.667	150.25
230.901	143.25
231.136	132.25
231.37	143.25
231.604	155.25
231.838	140.25
232.072	165.25
232.306	129.25
232.541	137.25
232.775	125.25
233.009	139.25
233.243	130.25
233.477	135.25
233.711	130.25
233.945	137.25
234.179	124.25
234.413	125.25
234.647	146.25
234.881	133.25
235.115	135.25
235.349	127.25
235.583	131.25
235.817	122.25
236.051	121.25
236.285	131.25
236.519	129.25
236.753	135.25
236.987	137.25
237.221	137.25
237.455	141.25
237.689	126.25
237.922	138.25
238.156	148.25
238.39	136.25
238.624	139.25
238.858	152.25
239.091	140.25
239.325	131.25
239.559	141.25
239.793	160.25
240.027	158.25
240.26	160.25
240.494	152.25
240.728	151.25
240.961	146.25
241.195	151.25
241.429	139.25
241.662	159.25
241.896	153.25
242.13	169.25
242.363	141.25
242.597	158.25
242.83	157.25
243.064	136.25
243.298	155.25
243.531	153.25
243.765	174.25
243.998	183.25
244.232	165.25
244.465	173.25
244.699	159.25
244.932	150.25
245.166	187.25
245.399	171.25
245.633	150.25
245.866	167.25
246.099	169.25
246.333	175.25
246.566	183.25
246.8	177.25
247.033	163.25
247.266	168.25
247.5	171.25
247.733	180.25
247.966	167.25
248.2	166.25
248.433	190.25
248.666	180.25
248.899	187.25
249.133	198.25
249.366	183.25
249.599	193.25
249.832	175.25
250.066	188.25
250.299	172.25
250.532	180.25
250.765	185.25
250.998	210.25
251.231	215.25
251.465	218.25
251.698	209.25
251.931	214.25
252.164	203.25
252.397	196.25
252.63	197.25
252.863	207.25
253.096	215.25
253.329	199.25
253.562	215.25
253.795	196.25
254.028	184.25
254.261	219.25
254.494	213.25
254.727	204.25
254.96	210.25
255.193	208.25
255.426	189.25
255.659	215.25
255.892	213.25
256.124	220.25
256.357	223.25
256.59	219.25
256.823	231.25
257.056	208.25
257.289	214.25
257.521	239.25
257.754	222.25
257.987	219.25
258.22	230.25
258.452	218.25
258.685	230.25
258.918	249.25
259.151	222.25
259.383	246.25
259.616	216.25
259.849	225.25
260.081	241.25
260.314	229.25
260.547	247.25
260.779	225.25
261.012	235.25
261.244	233.25
261.477	237.25
261.71	266.25
261.942	247.25
262.175	267.25
262.407	223.25
262.64	255.25
262.872	255.25
263.105	261.25
263.337	249.25
263.57	250.25
263.802	247.25
264.035	267.25
264.267	261.25
264.499	262.25
264.732	256.25
264.964	257.25
265.197	263.25
265.429	262.25
265.661	261.25
265.894	275.25
266.126	259.25
266.358	257.25
266.591	265.25
266.823	263.25
267.055	270.25
267.287	284.25
267.52	259.25
267.752	274.25
267.984	292.25
268.216	287.25
268.448	273.25
268.681	281.25
268.913	267.25
269.145	274.25
269.377	276.25
269.609	284.25
269.841	279.25
270.073	285.25
270.306	272.25
270.538	273.25
270.77	285.25
271.002	283.25
271.234	295.25
271.466	274.25
271.698	272.25
271.93	280.25
272.162	287.25
272.394	296.25
272.626	289.25
272.858	296.25
273.09	283.25
273.322	302.25
273.553	283.25
273.785	293.25
274.017	309.25
274.249	289.25
274.481	308.25
274.713	303.25
274.945	302.25
275.176	300.25
275.408	304.25
275.64	289.25
275.872	302.25
276.104	296.25
276.335	296.25
276.567	300.25
276.799	318.25
277.031	309.25
277.262	305.25
277.494	323.25
277.726	303.25
277.957	293.25
278.189	310.25
278.421	315.25
278.652	315.25
278.884	313.25
279.115	320.25
279.347	314.25
279.579	349.25
279.81	331.25
280.042	323.25
280.273	336.25
280.505	320.25
280.736	337.25
280.968	347.25
281.199	335.25
281.431	324.25
281.662	323.25
281.894	329.25
282.125	334.25
282.356	347.25
282.588	332.25
282.819	324.25
283.051	343.25
283.282	320.25
283.513	356.25
283.745	334.25
283.976	342.25
284.207	321.25
284.439	336.25
284.67	351.25
284.901	370.25
285.132	358.25
285.364	344.25
285.595	343.25
285.826	363.25
286.057	365.25
286.288	349.25
286.52	343.25
286.751	339.25
286.982	341.25
287.213	346.25
287.444	353.25
287.675	355.25
287.906	367.25
288.138	354.25
288.369	335.25
288.6	352.25
288.831	358.25
289.062	362.25
289.293	371.25
289.524	364.25
289.755	369.25
289.986	380.25
290.217	358.25
290.448	348.25
290.679	373.25
290.91	379.25
291.141	360.25
291.371	369.25
291.602	372.25
291.833	371.25
292.064	358.25
292.295	357.25
292.526	380.25
292.757	371.25
292.987	366.25
293.218	352.25
293.449	369.25
293.68	376.25
293.91	379.25
294.141	384.25
294.372	374.25
294.603	382.25
294.833	374.25
295.064	377.25
295.295	375.25
295.525	380.25
295.756	370.25
295.987	360.25
296.217	375.25
296.448	385.25
296.679	382.25
296.909	376.25
297.14	385.25
297.37	400.25
297.601	391.25
297.831	382.25
298.062	374.25
298.292	384.25
298.523	407.25
298.753	392.25
298.984	395.25
299.214	411.25
299.445	400.25
299.675	410.25
299.905	429.25
300.136	414.25
300.366	429.25
300.597	416.25
300.827	418.25
301.057	415.25
301.288	444.25
301.518	426.25
301.748	411.25
301.979	425.25
302.209	401.25
302.439	405.25
302.669	401.25
302.9	415.25
303.13	417.25
303.36	430.25
303.59	422.25
303.82	457.25
304.051	451.25
304.281	411.25
304.511	407.25
304.741	427.25
304.971	417.25
305.201	420.25
305.431	420.25
305.661	429.25
305.891	446.25
306.121	443.25
306.352	415.25
306.582	416.25
306.812	444.25
307.042	420.25
307.272	407.25
307.502	429.25
307.731	415.25
307.961	417.25
308.191	408.25
308.421	424.25
308.651	428.25
308.881	436.25
309.111	445.25
309.341	426.25
309.571	439.25
309.8	447.25
310.03	469.25
310.26	473.25
310.49	442.25
310.72	440.25
310.949	419.25
311.179	423.25
311.409	425.25
311.639	439.25
311.868	423.25
312.098	439.25
312.328	445.25
312.557	427.25
312.787	433.25
313.017	457.25
313.246	463.25
313.476	459.25
313.706	454.25
313.935	456.25
314.165	453.25
314.394	443.25
314.624	466.25
314.853	477.25
315.083	454.25
315.312	476.25
315.542	451.25
315.771	454.25
316.001	449.25
316.23	455.25
316.46	456.25
316.689	471.25
316.919	453.25
317.148	466.25
317.377	465.25
317.607	455.25
317.836	471.25
318.065	474.25
318.295	469.25
318.524	452.25
318.753	465.25
318.983	464.25
319.212	448.25
319.441	469.25
319.67	461.25
319.9	488.25
320.129	470.25
320.358	484.25
320.587	487.25
320.816	476.25
321.046	478.25
321.275	480.25
321.504	475.25
321.733	469.25
321.962	487.25
322.191	464.25
322.42	479.25
322.649	484.25
322.878	503.25
323.108	480.25
323.337	497.25
323.566	504.25
323.795	480.25
324.024	498.25
324.253	498.25
324.482	480.25
324.71	509.25
324.939	501.25
325.168	505.25
325.397	485.25
325.626	499.25
325.855	508.25
326.084	522.25
326.313	521.25
326.542	507.25
326.77	525.25
326.999	493.25
327.228	497.25
327.457	522.25
327.686	492.25
327.914	520.25
328.143	483.25
328.372	499.25
328.6	515.25
328.829	519.25
329.058	502.25
329.287	495.25
329.515	537.25
329.744	508.25
329.972	505.25
330.201	543.25
330.43	526.25
330.658	549.25
330.887	509.25
331.115	534.25
331.344	539.25
331.572	538.25
331.801	540.25
332.03	542.25
332.258	544.25
332.486	571.25
332.715	555.25
332.943	568.25
333.172	585.25
333.4	591.25
333.629	596.25
333.857	588.25
334.085	607.25
334.314	601.25
334.542	601.25
334.771	624.25
334.999	604.25
335.227	593.25
335.455	601.25
335.684	596.25
335.912	598.25
336.14	601.25
336.369	601.25
336.597	592.25
336.825	594.25
337.053	614.25
337.281	615.25
337.51	588.25
337.738	587.25
337.966	604.25
338.194	589.25
338.422	575.25
338.65	567.25
338.878	584.25
339.106	568.25
339.334	596.25
339.562	602.25
339.79	580.25
340.018	577.25
340.246	559.25
340.474	565.25
340.702	559.25
340.93	558.25
341.158	576.25
341.386	592.25
341.614	591.25
341.842	573.25
342.07	568.25
342.298	543.25
342.526	570.25
342.754	555.25
342.981	547.25
343.209	572.25
343.437	572.25
343.665	611.25
343.893	603.25
344.12	606.25
344.348	593.25
344.576	571.25
344.804	607.25
345.031	585.25
345.259	568.25
345.487	571.25
345.714	587.25
345.942	588.25
346.17	585.25
346.397	574.25
346.625	581.25
346.853	563.25
347.08	560.25
347.308	543.25
347.535	543.25
347.763	549.25
347.99	521.25
348.218	538.25
348.445	544.25
348.673	541.25
348.9	544.25
349.128	551.25
349.355	537.25
349.583	561.25
349.81	546.25
350.037	538.25
350.265	540.25
350.492	542.25
350.72	527.25
350.947	538.25
351.174	540.25
351.402	560.25
351.629	553.25
351.856	561.25
352.083	533.25
352.311	578.25
352.538	580.25
352.765	559.25
352.992	529.25
353.22	533.25
353.447	529.25
353.674	538.25
353.901	515.25
354.128	526.25
354.355	537.25
354.583	495.25
354.81	544.25
355.037	536.25
355.264	535.25
355.491	534.25
355.718	530.25
355.945	501.25
356.172	521.25
356.399	546.25
356.626	555.25
356.853	551.25
357.08	545.25
357.307	543.25
357.534	538.25
357.761	552.25
357.988	509.25
358.215	525.25
358.441	535.25
358.668	522.25
358.895	490.25
359.122	533.25
359.349	529.25
359.576	540.25
359.802	527.25
360.029	543.25
360.256	529.25
360.483	542.25
360.709	521.25
360.936	556.25
361.163	548.25
361.39	524.25
361.616	527.25
361.843	533.25
362.07	607.25
362.296	561.25
362.523	556.25
362.749	545.25
362.976	525.25
363.203	533.25
363.429	519.25
363.656	513.25
363.882	536.25
364.109	529.25
364.335	544.25
364.562	521.25
364.788	553.25
365.015	529.25
365.241	526.25
365.468	527.25
365.694	537.25
365.92	516.25
366.147	534.25
366.373	564.25
366.599	503.25
366.826	527.25
367.052	556.25
367.278	546.25
367.505	543.25
367.731	564.25
367.957	565.25
368.184	555.25
368.41	560.25
368.636	542.25
368.862	530.25
369.089	565.25
369.315	547.25
369.541	565.25
369.767	549.25
369.993	576.25
370.219	541.25
370.445	548.25
370.672	556.25
370.898	584.25
371.124	556.25
371.35	575.25
371.576	589.25
371.802	549.25
372.028	557.25
372.254	575.25
372.48	577.25
372.706	586.25
372.932	578.25
373.158	595.25
373.384	573.25
373.61	569.25
373.835	574.25
374.061	558.25
374.287	593.25
374.513	572.25
374.739	581.25
374.965	587.25
375.191	583.25
375.416	573.25
375.642	581.25
375.868	602.25
376.094	591.25
376.319	590.25
376.545	578.25
376.771	572.25
376.997	558.25
377.222	567.25
377.448	572.25
377.674	583.25
377.899	556.25
378.125	592.25
378.35	568.25
378.576	571.25
378.802	555.25
379.027	556.25
379.253	560.25
379.478	569.25
379.704	557.25
379.929	557.25
380.155	551.25
380.38	583.25
380.606	567.25
380.831	539.25
381.057	565.25
381.282	547.25
381.507	566.25
381.733	583.25
381.958	571.25
382.184	576.25
382.409	569.25
382.634	593.25
382.86	565.25
383.085	576.25
383.31	602.25
383.535	598.25
383.761	632.25
383.986	613.25
384.211	605.25
384.436	618.25
384.662	587.25
384.887	649.25
385.112	633.25
385.337	612.25
385.562	613.25
385.787	619.25
386.013	623.25
386.238	633.25
386.463	627.25
386.688	660.25
386.913	620.25
387.138	625.25
387.363	643.25
387.588	616.25
387.813	631.25
388.038	649.25
388.263	647.25
388.488	665.25
388.713	639.25
388.938	629.25
389.163	628.25
389.387	642.25
389.612	645.25
389.837	619.25
390.062	633.25
390.287	644.25
390.512	645.25
390.736	651.25
390.961	663.25
391.186	636.25
391.411	647.25
391.636	667.25
391.86	695.25
392.085	683.25
392.31	671.25
392.534	686.25
392.759	686.25
392.984	679.25
393.208	666.25
393.433	660.25
393.658	658.25
393.882	635.25
394.107	656.25
394.331	659.25
394.556	667.25
394.78	666.25
395.005	678.25
395.229	666.25
395.454	688.25
395.678	700.25
395.903	672.25
396.127	665.25
396.352	670.25
396.576	697.25
396.801	678.25
397.025	694.25
397.249	700.25
397.474	699.25
397.698	693.25
397.922	702.25
398.147	710.25
398.371	717.25
398.595	732.25
398.82	724.25
399.044	783.25
399.268	803.25
399.492	845.25
399.717	878.25
399.941	868.25
400.165	845.25
400.389	836.25
400.613	793.25
400.837	789.25
401.062	760.25
401.286	760.25
401.51	755.25
401.734	750.25
401.958	741.25
402.182	761.25
402.406	763.25
402.63	773.25
402.854	758.25
403.078	787.25
403.302	778.25
403.526	784.25
403.75	777.25
403.974	785.25
404.198	799.25
404.422	779.25
404.645	781.25
404.869	767.25
405.093	795.25
405.317	769.25
405.541	763.25
405.765	785.25
405.988	791.25
406.212	795.25
406.436	807.25
406.66	817.25
406.883	819.25
407.107	854.25
407.331	837.25
407.555	876.25
407.778	862.25
408.002	864.25
408.226	856.25
408.449	850.25
408.673	816.25
408.896	843.25
409.12	795.25
409.344	813.25
409.567	808.25
409.791	798.25
410.014	821.25
410.238	803.25
410.461	828.25
410.685	784.25
410.908	800.25
411.132	797.25
411.355	761.25
411.578	793.25
411.802	803.25
412.025	824.25
412.249	803.25
412.472	755.25
412.695	775.25
412.919	784.25
413.142	785.25
413.365	765.25
413.589	757.25
413.812	764.25
414.035	770.25
414.258	760.25
414.482	800.25
414.705	778.25
414.928	771.25
415.151	758.25
415.374	774.25
415.597	776.25
415.821	756.25
416.044	752.25
416.267	716.25
416.49	736.25
416.713	741.25
416.936	725.25
417.159	728.25
417.382	745.25
417.605	711.25
417.828	719.25
418.051	748.25
418.274	772.25
418.497	737.25
418.72	736.25
418.943	731.25
419.166	769.25
419.389	832.25
419.611	791.25
419.834	778.25
420.057	758.25
420.28	747.25
420.503	749.25
420.726	717.25
420.948	713.25
421.171	724.25
421.394	730.25
421.617	739.25
421.839	718.25
422.062	724.25
422.285	723.25
422.507	735.25
422.73	729.25
422.953	737.25
423.175	730.25
423.398	729.25
423.621	746.25
423.843	741.25
424.066	752.25
424.288	740.25
424.511	749.25
424.733	737.25
424.956	752.25
425.178	711.25
425.401	711.25
425.623	742.25
425.846	719.25
426.068	745.25
426.291	729.25
426.513	713.25
426.735	686.25
426.958	727.25
427.18	704.25
427.402	711.25
427.625	715.25
427.847	685.25
428.069	691.25
428.292	709.25
428.514	709.25
428.736	708.25
428.958	709.25
429.181	692.25
429.403	696.25
429.625	697.25
429.847	667.25
430.069	684.25
430.292	691.25
430.514	695.25
430.736	682.25
430.958	682.25
431.18	688.25
431.402	677.25
431.624	698.25
431.846	676.25
432.068	696.25
432.29	715.25
432.512	709.25
432.734	692.25
432.956	690.25
433.178	718.25
433.4	732.25
433.622	744.25
433.844	752.25
434.066	721.25
434.287	701.25
434.509	743.25
434.731	739.25
434.953	738.25
435.175	777.25
435.397	754.25
435.618	717.25
435.84	723.25
436.062	691.25
436.284	708.25
436.505	716.25
436.727	702.25
436.949	697.25
437.17	715.25
437.392	698.25
437.614	700.25
437.835	678.25
438.057	663.25
438.278	680.25
438.5	667.25
438.721	712.25
438.943	704.25
439.165	675.25
439.386	695.25
439.608	703.25
439.829	698.25
440.05	703.25
440.272	730.25
440.493	708.25
440.715	704.25
440.936	727.25
441.158	733.25
441.379	721.25
441.6	760.25
441.822	764.25
442.043	766.25
442.264	758.25
442.486	734.25
442.707	737.25
442.928	733.25
443.149	714.25
443.371	759.25
443.592	785.25
443.813	779.25
444.034	761.25
444.255	744.25
444.476	762.25
444.698	779.25
444.919	816.25
445.14	924.25
445.361	829.25
445.582	783.25
445.803	745.25
446.024	719.25
446.245	724.25
446.466	719.25
446.687	684.25
446.908	696.25
447.129	686.25
447.35	688.25
447.571	706.25
447.792	672.25
448.013	695.25
448.234	661.25
448.455	671.25
448.675	677.25
448.896	652.25
449.117	640.25
449.338	655.25
449.559	661.25
449.779	657.25
450	647.25
450.221	635.25
450.442	654.25
450.662	636.25
450.883	641.25
451.104	671.25
451.324	676.25
451.545	661.25
451.766	640.25
451.986	659.25
452.207	678.25
452.428	652.25
452.648	624.25
452.869	643.25
453.089	664.25
453.31	640.25
453.53	639.25
453.751	613.25
453.971	641.25
454.192	635.25
454.412	644.25
454.633	635.25
454.853	639.25
455.073	622.25
455.294	623.25
455.514	625.25
455.734	633.25
455.955	639.25
456.175	654.25
456.395	636.25
456.616	612.25
456.836	621.25
457.056	623.25
457.276	605.25
457.497	638.25
457.717	617.25
457.937	636.25
458.157	627.25
458.377	637.25
458.598	647.25
458.818	652.25
459.038	671.25
459.258	690.25
459.478	734.25
459.698	784.25
459.918	787.25
460.138	765.25
460.358	786.25
460.578	760.25
460.798	747.25
461.018	789.25
461.238	756.25
461.458	755.25
461.678	770.25
461.898	748.25
462.118	759.25
462.338	793.25
462.558	833.25
462.777	867.25
462.997	869.25
463.217	898.25
463.437	923.25
463.657	913.25
463.876	851.25
464.096	829.25
464.316	816.25
464.536	822.25
464.755	808.25
464.975	781.25
465.195	771.25
465.414	766.25
465.634	752.25
465.854	704.25
466.073	699.25
466.293	695.25
466.512	685.25
466.732	679.25
466.951	699.25
467.171	691.25
467.391	672.25
467.61	677.25
467.829	673.25
468.049	692.25
468.268	675.25
468.488	684.25
468.707	680.25
468.927	679.25
469.146	680.25
469.365	686.25
469.585	679.25
469.804	680.25
470.023	701.25
470.243	707.25
470.462	717.25
470.681	709.25
470.901	685.25
471.12	655.25
471.339	682.25
471.558	681.25
471.777	688.25
471.997	661.25
472.216	670.25
472.435	683.25
472.654	673.25
472.873	663.25
473.092	655.25
473.311	675.25
473.53	680.25
473.749	675.25
473.968	672.25
474.187	678.25
474.406	688.25
474.625	697.25
474.844	678.25
475.063	705.25
475.282	676.25
475.501	685.25
475.72	669.25
475.939	680.25
476.158	698.25
476.377	694.25
476.596	695.25
476.814	701.25
477.033	691.25
477.252	719.25
477.471	740.25
477.69	744.25
477.908	745.25
478.127	749.25
478.346	733.25
478.564	756.25
478.783	779.25
479.002	793.25
479.22	840.25
479.439	820.25
479.658	793.25
479.876	806.25
480.095	796.25
480.313	823.25
480.532	827.25
480.751	803.25
480.969	801.25
481.188	784.25
481.406	796.25
481.624	799.25
481.843	762.25
482.061	790.25
482.28	764.25
482.498	755.25
482.717	781.25
482.935	793.25
483.153	799.25
483.372	844.25
483.59	824.25
483.808	772.25
484.027	800.25
484.245	801.25
484.463	815.25
484.681	809.25
484.9	822.25
485.118	799.25
485.336	793.25
485.554	806.25
485.772	797.25
485.99	819.25
486.209	795.25
486.427	818.25
486.645	806.25
486.863	787.25
487.081	828.25
487.299	817.25
487.517	830.25
487.735	823.25
487.953	833.25
488.171	824.25
488.389	816.25
488.607	825.25
488.825	792.25
489.043	814.25
489.261	796.25
489.479	796.25
489.696	795.25
489.914	776.25
490.132	802.25
490.35	773.25
490.568	823.25
490.786	838.25
491.003	803.25
491.221	803.25
491.439	856.25
491.657	800.25
491.874	814.25
492.092	856.25
492.31	860.25
492.527	859.25
492.745	848.25
492.963	846.25
493.18	848.25
493.398	817.25
493.615	858.25
493.833	839.25
494.05	841.25
494.268	828.25
494.485	851.25
494.703	852.25
494.92	866.25
495.138	862.25
495.355	856.25
495.573	880.25
495.79	864.25
496.008	848.25
496.225	861.25
496.442	888.25
496.66	881.25
496.877	892.25
497.094	909.25
497.312	926.25
497.529	923.25
497.746	897.25
497.963	939.25
498.181	947.25
498.398	1013.25
498.615	1014.25
498.832	1084.25
499.049	1088.25
499.267	1126.25
499.484	1161.25
499.701	1263.25
499.918	1306.25
500.135	1382.25
500.352	1460.25
500.569	1493.25
500.786	1459.25
501.003	1465.25
501.22	1383.25
501.437	1284.25
