Data from Ni(NO3)2@0.5M.TitratingCurve.Agarose3%dH2O.NegLispCup.LampEnergy10.LIBS07252019_HRD10591_17-59-47-564.txt Node
Date: Thu Jul 25 17:59:47 EDT 2019
User: cochatt
Spectrometer: HR+D1059
Trigger mode: 1
Integration Time (sec): 1.000000E-1
Scans to average: 1
Electric dark correction enabled: true
Nonlinearity correction enabled: false
Boxcar width: 0
XAxis mode: Wavelengths
Number of Pixels in Spectrum: 2048
>>>>>Begin Spectral Data<<<<<
223.165	-21.81
223.4	-21.81
223.635	-21.81
223.869	-17.81
224.104	-6.81
224.338	-0.81
224.573	-17.81
224.808	-16.81
225.042	-10.81
225.277	-9.81
225.511	-3.81
225.746	5.19
225.98	1.19
226.215	12.19
226.449	20.19
226.683	23.19
226.918	25.19
227.152	19.19
227.387	36.19
227.621	39.19
227.856	36.19
228.09	48.19
228.324	53.19
228.559	54.19
228.793	59.19
229.027	117.19
229.262	102.19
229.496	117.19
229.73	98.19
229.964	119.19
230.199	148.19
230.433	139.19
230.667	133.19
230.901	126.19
231.136	130.19
231.37	137.19
231.604	133.19
231.838	135.19
232.072	138.19
232.306	130.19
232.541	130.19
232.775	128.19
233.009	116.19
233.243	126.19
233.477	120.19
233.711	127.19
233.945	115.19
234.179	133.19
234.413	131.19
234.647	122.19
234.881	137.19
235.115	115.19
235.349	119.19
235.583	117.19
235.817	115.19
236.051	132.19
236.285	117.19
236.519	94.19
236.753	122.19
236.987	125.19
237.221	119.19
237.455	125.19
237.689	128.19
237.922	128.19
238.156	124.19
238.39	116.19
238.624	138.19
238.858	140.19
239.091	122.19
239.325	134.19
239.559	140.19
239.793	151.19
240.027	142.19
240.26	124.19
240.494	134.19
240.728	138.19
240.961	137.19
241.195	131.19
241.429	133.19
241.662	133.19
241.896	154.19
242.13	153.19
242.363	135.19
242.597	126.19
242.83	136.19
243.064	131.19
243.298	135.19
243.531	145.19
243.765	134.19
243.998	146.19
244.232	166.19
244.465	158.19
244.699	144.19
244.932	141.19
245.166	133.19
245.399	147.19
245.633	143.19
245.866	144.19
246.099	146.19
246.333	169.19
246.566	137.19
246.8	158.19
247.033	162.19
247.266	170.19
247.5	155.19
247.733	153.19
247.966	156.19
248.2	180.19
248.433	171.19
248.666	156.19
248.899	165.19
249.133	142.19
249.366	164.19
249.599	160.19
249.832	187.19
250.066	164.19
250.299	171.19
250.532	172.19
250.765	193.19
250.998	174.19
251.231	178.19
251.465	188.19
251.698	175.19
251.931	170.19
252.164	168.19
252.397	168.19
252.63	179.19
252.863	170.19
253.096	185.19
253.329	167.19
253.562	186.19
253.795	174.19
254.028	186.19
254.261	167.19
254.494	180.19
254.727	203.19
254.96	180.19
255.193	195.19
255.426	185.19
255.659	203.19
255.892	176.19
256.124	203.19
256.357	194.19
256.59	204.19
256.823	201.19
257.056	192.19
257.289	203.19
257.521	190.19
257.754	200.19
257.987	198.19
258.22	190.19
258.452	178.19
258.685	198.19
258.918	203.19
259.151	197.19
259.383	204.19
259.616	202.19
259.849	203.19
260.081	204.19
260.314	206.19
260.547	216.19
260.779	208.19
261.012	195.19
261.244	219.19
261.477	224.19
261.71	207.19
261.942	215.19
262.175	221.19
262.407	194.19
262.64	212.19
262.872	206.19
263.105	219.19
263.337	221.19
263.57	241.19
263.802	231.19
264.035	223.19
264.267	230.19
264.499	238.19
264.732	230.19
264.964	228.19
265.197	213.19
265.429	221.19
265.661	241.19
265.894	219.19
266.126	245.19
266.358	233.19
266.591	235.19
266.823	234.19
267.055	222.19
267.287	229.19
267.52	206.19
267.752	222.19
267.984	255.19
268.216	236.19
268.448	231.19
268.681	229.19
268.913	243.19
269.145	235.19
269.377	244.19
269.609	230.19
269.841	238.19
270.073	262.19
270.306	250.19
270.538	255.19
270.77	245.19
271.002	236.19
271.234	231.19
271.466	253.19
271.698	244.19
271.93	259.19
272.162	250.19
272.394	252.19
272.626	248.19
272.858	249.19
273.09	241.19
273.322	249.19
273.553	249.19
273.785	260.19
274.017	242.19
274.249	242.19
274.481	261.19
274.713	252.19
274.945	261.19
275.176	255.19
275.408	255.19
275.64	259.19
275.872	261.19
276.104	262.19
276.335	261.19
276.567	262.19
276.799	258.19
277.031	269.19
277.262	279.19
277.494	272.19
277.726	269.19
277.957	275.19
278.189	291.19
278.421	263.19
278.652	286.19
278.884	264.19
279.115	272.19
279.347	285.19
279.579	279.19
279.81	283.19
280.042	294.19
280.273	286.19
280.505	300.19
280.736	288.19
280.968	306.19
281.199	286.19
281.431	278.19
281.662	276.19
281.894	300.19
282.125	286.19
282.356	286.19
282.588	272.19
282.819	299.19
283.051	277.19
283.282	268.19
283.513	306.19
283.745	298.19
283.976	295.19
284.207	292.19
284.439	308.19
284.67	295.19
284.901	300.19
285.132	304.19
285.364	301.19
285.595	326.19
285.826	287.19
286.057	293.19
286.288	304.19
286.52	322.19
286.751	301.19
286.982	312.19
287.213	295.19
287.444	316.19
287.675	311.19
287.906	295.19
288.138	312.19
288.369	323.19
288.6	305.19
288.831	312.19
289.062	328.19
289.293	320.19
289.524	300.19
289.755	330.19
289.986	296.19
290.217	321.19
290.448	308.19
290.679	325.19
290.91	318.19
291.141	315.19
291.371	324.19
291.602	323.19
291.833	318.19
292.064	342.19
292.295	312.19
292.526	315.19
292.757	322.19
292.987	320.19
293.218	333.19
293.449	334.19
293.68	316.19
293.91	331.19
294.141	313.19
294.372	327.19
294.603	332.19
294.833	342.19
295.064	341.19
295.295	337.19
295.525	341.19
295.756	345.19
295.987	323.19
296.217	336.19
296.448	324.19
296.679	344.19
296.909	355.19
297.14	315.19
297.37	337.19
297.601	348.19
297.831	332.19
298.062	331.19
298.292	352.19
298.523	358.19
298.753	369.19
298.984	351.19
299.214	343.19
299.445	344.19
299.675	359.19
299.905	355.19
300.136	353.19
300.366	372.19
300.597	374.19
300.827	352.19
301.057	361.19
301.288	364.19
301.518	367.19
301.748	375.19
301.979	383.19
302.209	375.19
302.439	372.19
302.669	354.19
302.9	372.19
303.13	365.19
303.36	352.19
303.59	364.19
303.82	377.19
304.051	374.19
304.281	372.19
304.511	358.19
304.741	371.19
304.971	365.19
305.201	389.19
305.431	359.19
305.661	379.19
305.891	358.19
306.121	372.19
306.352	367.19
306.582	366.19
306.812	350.19
307.042	387.19
307.272	372.19
307.502	357.19
307.731	359.19
307.961	375.19
308.191	359.19
308.421	369.19
308.651	372.19
308.881	360.19
309.111	379.19
309.341	376.19
309.571	374.19
309.8	366.19
310.03	374.19
310.26	405.19
310.49	388.19
310.72	381.19
310.949	365.19
311.179	364.19
311.409	371.19
311.639	389.19
311.868	408.19
312.098	390.19
312.328	375.19
312.557	399.19
312.787	377.19
313.017	387.19
313.246	386.19
313.476	403.19
313.706	395.19
313.935	392.19
314.165	387.19
314.394	410.19
314.624	394.19
314.853	392.19
315.083	399.19
315.312	380.19
315.542	400.19
315.771	393.19
316.001	404.19
316.23	427.19
316.46	384.19
316.689	405.19
316.919	410.19
317.148	386.19
317.377	418.19
317.607	409.19
317.836	395.19
318.065	398.19
318.295	407.19
318.524	393.19
318.753	409.19
318.983	398.19
319.212	394.19
319.441	388.19
319.67	410.19
319.9	405.19
320.129	404.19
320.358	404.19
320.587	409.19
320.816	397.19
321.046	394.19
321.275	405.19
321.504	415.19
321.733	432.19
321.962	406.19
322.191	413.19
322.42	403.19
322.649	417.19
322.878	398.19
323.108	419.19
323.337	409.19
323.566	423.19
323.795	414.19
324.024	431.19
324.253	422.19
324.482	405.19
324.71	436.19
324.939	425.19
325.168	419.19
325.397	444.19
325.626	440.19
325.855	422.19
326.084	453.19
326.313	470.19
326.542	443.19
326.77	438.19
326.999	439.19
327.228	438.19
327.457	442.19
327.686	436.19
327.914	444.19
328.143	449.19
328.372	431.19
328.6	439.19
328.829	444.19
329.058	440.19
329.287	448.19
329.515	454.19
329.744	469.19
329.972	468.19
330.201	455.19
330.43	446.19
330.658	438.19
330.887	450.19
331.115	490.19
331.344	447.19
331.572	472.19
331.801	482.19
332.03	472.19
332.258	505.19
332.486	495.19
332.715	494.19
332.943	515.19
333.172	511.19
333.4	542.19
333.629	551.19
333.857	530.19
334.085	514.19
334.314	529.19
334.542	524.19
334.771	531.19
334.999	548.19
335.227	531.19
335.455	542.19
335.684	536.19
335.912	516.19
336.14	529.19
336.369	526.19
336.597	546.19
336.825	534.19
337.053	521.19
337.281	524.19
337.51	516.19
337.738	518.19
337.966	551.19
338.194	532.19
338.422	534.19
338.65	475.19
338.878	479.19
339.106	495.19
339.334	504.19
339.562	482.19
339.79	478.19
340.018	475.19
340.246	489.19
340.474	484.19
340.702	459.19
340.93	468.19
341.158	488.19
341.386	499.19
341.614	537.19
341.842	506.19
342.07	482.19
342.298	454.19
342.526	475.19
342.754	492.19
342.981	488.19
343.209	484.19
343.437	514.19
343.665	519.19
343.893	533.19
344.12	572.19
344.348	533.19
344.576	514.19
344.804	521.19
345.031	492.19
345.259	504.19
345.487	508.19
345.714	477.19
345.942	490.19
346.17	504.19
346.397	481.19
346.625	454.19
346.853	472.19
347.08	475.19
347.308	491.19
347.535	477.19
347.763	458.19
347.99	451.19
348.218	448.19
348.445	462.19
348.673	443.19
348.9	467.19
349.128	488.19
349.355	459.19
349.583	500.19
349.81	461.19
350.037	444.19
350.265	451.19
350.492	469.19
350.72	462.19
350.947	457.19
351.174	475.19
351.402	466.19
351.629	461.19
351.856	459.19
352.083	470.19
352.311	468.19
352.538	494.19
352.765	488.19
352.992	470.19
353.22	445.19
353.447	463.19
353.674	463.19
353.901	462.19
354.128	466.19
354.355	455.19
354.583	436.19
354.81	469.19
355.037	470.19
355.264	451.19
355.491	442.19
355.718	453.19
355.945	445.19
356.172	452.19
356.399	454.19
356.626	453.19
356.853	478.19
357.08	457.19
357.307	474.19
357.534	450.19
357.761	437.19
357.988	438.19
358.215	460.19
358.441	450.19
358.668	447.19
358.895	466.19
359.122	427.19
359.349	445.19
359.576	463.19
359.802	455.19
360.029	452.19
360.256	456.19
360.483	445.19
360.709	439.19
360.936	457.19
361.163	456.19
361.39	476.19
361.616	482.19
361.843	467.19
362.07	480.19
362.296	488.19
362.523	450.19
362.749	446.19
362.976	442.19
363.203	445.19
363.429	439.19
363.656	452.19
363.882	451.19
364.109	463.19
364.335	453.19
364.562	457.19
364.788	434.19
365.015	451.19
365.241	458.19
365.468	474.19
365.694	450.19
365.92	473.19
366.147	450.19
366.373	457.19
366.599	465.19
366.826	460.19
367.052	446.19
367.278	441.19
367.505	440.19
367.731	464.19
367.957	466.19
368.184	458.19
368.41	460.19
368.636	475.19
368.862	448.19
369.089	482.19
369.315	478.19
369.541	495.19
369.767	473.19
369.993	474.19
370.219	463.19
370.445	474.19
370.672	477.19
370.898	486.19
371.124	485.19
371.35	495.19
371.576	482.19
371.802	483.19
372.028	498.19
372.254	482.19
372.48	482.19
372.706	489.19
372.932	480.19
373.158	472.19
373.384	494.19
373.61	470.19
373.835	482.19
374.061	498.19
374.287	526.19
374.513	494.19
374.739	507.19
374.965	509.19
375.191	525.19
375.416	542.19
375.642	518.19
375.868	508.19
376.094	485.19
376.319	504.19
376.545	478.19
376.771	481.19
376.997	490.19
377.222	488.19
377.448	500.19
377.674	500.19
377.899	484.19
378.125	482.19
378.35	480.19
378.576	480.19
378.802	474.19
379.027	494.19
379.253	485.19
379.478	495.19
379.704	475.19
379.929	475.19
380.155	468.19
380.38	493.19
380.606	500.19
380.831	488.19
381.057	492.19
381.282	476.19
381.507	455.19
381.733	499.19
381.958	487.19
382.184	477.19
382.409	485.19
382.634	507.19
382.86	498.19
383.085	500.19
383.31	501.19
383.535	507.19
383.761	511.19
383.986	532.19
384.211	534.19
384.436	519.19
384.662	517.19
384.887	532.19
385.112	524.19
385.337	544.19
385.562	561.19
385.787	541.19
386.013	550.19
386.238	561.19
386.463	536.19
386.688	571.19
386.913	550.19
387.138	548.19
387.363	559.19
387.588	586.19
387.813	554.19
388.038	572.19
388.263	550.19
388.488	551.19
388.713	543.19
388.938	555.19
389.163	559.19
389.387	554.19
389.612	553.19
389.837	559.19
390.062	574.19
390.287	561.19
390.512	555.19
390.736	553.19
390.961	577.19
391.186	583.19
391.411	564.19
391.636	612.19
391.86	605.19
392.085	595.19
392.31	602.19
392.534	586.19
392.759	580.19
392.984	611.19
393.208	590.19
393.433	568.19
393.658	591.19
393.882	587.19
394.107	586.19
394.331	612.19
394.556	575.19
394.78	590.19
395.005	602.19
395.229	593.19
395.454	603.19
395.678	619.19
395.903	587.19
396.127	586.19
396.352	592.19
396.576	590.19
396.801	593.19
397.025	624.19
397.249	630.19
397.474	623.19
397.698	615.19
397.922	635.19
398.147	620.19
398.371	645.19
398.595	660.19
398.82	665.19
399.044	710.19
399.268	744.19
399.492	795.19
399.717	820.19
399.941	814.19
400.165	811.19
400.389	746.19
400.613	733.19
400.837	685.19
401.062	719.19
401.286	675.19
401.51	666.19
401.734	665.19
401.958	666.19
402.182	672.19
402.406	653.19
402.63	684.19
402.854	680.19
403.078	682.19
403.302	667.19
403.526	706.19
403.75	711.19
403.974	694.19
404.198	677.19
404.422	698.19
404.645	690.19
404.869	692.19
405.093	692.19
405.317	702.19
405.541	699.19
405.765	690.19
405.988	676.19
406.212	704.19
406.436	735.19
406.66	725.19
406.883	710.19
407.107	743.19
407.331	778.19
407.555	813.19
407.778	789.19
408.002	759.19
408.226	764.19
408.449	776.19
408.673	750.19
408.896	762.19
409.12	746.19
409.344	764.19
409.567	709.19
409.791	713.19
410.014	730.19
410.238	725.19
410.461	716.19
410.685	721.19
410.908	709.19
411.132	700.19
411.355	701.19
411.578	704.19
411.802	686.19
412.025	695.19
412.249	685.19
412.472	687.19
412.695	671.19
412.919	679.19
413.142	691.19
413.365	687.19
413.589	659.19
413.812	662.19
414.035	686.19
414.258	659.19
414.482	671.19
414.705	659.19
414.928	666.19
415.151	674.19
415.374	668.19
415.597	694.19
415.821	653.19
416.044	638.19
416.267	648.19
416.49	630.19
416.713	663.19
416.936	641.19
417.159	631.19
417.382	637.19
417.605	640.19
417.828	650.19
418.051	661.19
418.274	648.19
418.497	630.19
418.72	651.19
418.943	655.19
419.166	701.19
419.389	733.19
419.611	717.19
419.834	688.19
420.057	657.19
420.28	646.19
420.503	651.19
420.726	644.19
420.948	636.19
421.171	654.19
421.394	635.19
421.617	668.19
421.839	665.19
422.062	663.19
422.285	642.19
422.507	648.19
422.73	665.19
422.953	657.19
423.175	643.19
423.398	666.19
423.621	667.19
423.843	664.19
424.066	656.19
424.288	650.19
424.511	642.19
424.733	664.19
424.956	662.19
425.178	660.19
425.401	623.19
425.623	636.19
425.846	648.19
426.068	637.19
426.291	620.19
426.513	634.19
426.735	629.19
426.958	603.19
427.18	595.19
427.402	630.19
427.625	634.19
427.847	627.19
428.069	608.19
428.292	621.19
428.514	589.19
428.736	586.19
428.958	613.19
429.181	607.19
429.403	600.19
429.625	590.19
429.847	608.19
430.069	596.19
430.292	618.19
430.514	590.19
430.736	614.19
430.958	636.19
431.18	608.19
431.402	630.19
431.624	593.19
431.846	603.19
432.068	626.19
432.29	620.19
432.512	626.19
432.734	623.19
432.956	612.19
433.178	660.19
433.4	658.19
433.622	640.19
433.844	648.19
434.066	631.19
434.287	633.19
434.509	653.19
434.731	652.19
434.953	661.19
435.175	679.19
435.397	691.19
435.618	656.19
435.84	643.19
436.062	616.19
436.284	634.19
436.505	642.19
436.727	630.19
436.949	616.19
437.17	636.19
437.392	621.19
437.614	603.19
437.835	604.19
438.057	576.19
438.278	588.19
438.5	599.19
438.721	602.19
438.943	608.19
439.165	595.19
439.386	599.19
439.608	617.19
439.829	615.19
440.05	624.19
440.272	616.19
440.493	614.19
440.715	623.19
440.936	643.19
441.158	648.19
441.379	639.19
441.6	666.19
441.822	690.19
442.043	666.19
442.264	651.19
442.486	660.19
442.707	664.19
442.928	634.19
443.149	642.19
443.371	667.19
443.592	721.19
443.813	679.19
444.034	679.19
444.255	705.19
444.476	696.19
444.698	714.19
444.919	734.19
445.14	858.19
445.361	748.19
445.582	704.19
445.803	650.19
446.024	649.19
446.245	627.19
446.466	618.19
446.687	626.19
446.908	644.19
447.129	601.19
447.35	596.19
447.571	583.19
447.792	580.19
448.013	557.19
448.234	596.19
448.455	587.19
448.675	567.19
448.896	578.19
449.117	578.19
449.338	564.19
449.559	577.19
449.779	542.19
450	586.19
450.221	549.19
450.442	574.19
450.662	566.19
450.883	586.19
451.104	593.19
451.324	572.19
451.545	557.19
451.766	549.19
451.986	553.19
452.207	566.19
452.428	558.19
452.648	542.19
452.869	567.19
453.089	555.19
453.31	571.19
453.53	557.19
453.751	537.19
453.971	556.19
454.192	558.19
454.412	557.19
454.633	555.19
454.853	552.19
455.073	541.19
455.294	572.19
455.514	541.19
455.734	539.19
455.955	564.19
456.175	559.19
456.395	530.19
456.616	504.19
456.836	526.19
457.056	539.19
457.276	532.19
457.497	541.19
457.717	546.19
457.937	542.19
458.157	555.19
458.377	546.19
458.598	554.19
458.818	572.19
459.038	570.19
459.258	595.19
459.478	642.19
459.698	688.19
459.918	683.19
460.138	664.19
460.358	667.19
460.578	677.19
460.798	706.19
461.018	718.19
461.238	659.19
461.458	665.19
461.678	675.19
461.898	686.19
462.118	695.19
462.338	711.19
462.558	764.19
462.777	770.19
462.997	791.19
463.217	828.19
463.437	863.19
463.657	832.19
463.876	778.19
464.096	754.19
464.316	732.19
464.536	754.19
464.755	707.19
464.975	712.19
465.195	690.19
465.414	687.19
465.634	646.19
465.854	614.19
466.073	596.19
466.293	612.19
466.512	607.19
466.732	586.19
466.951	622.19
467.171	590.19
467.391	621.19
467.61	599.19
467.829	568.19
468.049	575.19
468.268	592.19
468.488	589.19
468.707	597.19
468.927	597.19
469.146	588.19
469.365	605.19
469.585	598.19
469.804	574.19
470.023	582.19
470.243	599.19
470.462	606.19
470.681	597.19
470.901	613.19
471.12	569.19
471.339	604.19
471.558	576.19
471.777	585.19
471.997	568.19
472.216	565.19
472.435	591.19
472.654	567.19
472.873	583.19
473.092	577.19
473.311	574.19
473.53	573.19
473.749	568.19
473.968	567.19
474.187	572.19
474.406	581.19
474.625	577.19
474.844	570.19
475.063	603.19
475.282	596.19
475.501	595.19
475.72	592.19
475.939	597.19
476.158	590.19
476.377	599.19
476.596	600.19
476.814	612.19
477.033	609.19
477.252	597.19
477.471	615.19
477.69	639.19
477.908	659.19
478.127	664.19
478.346	654.19
478.564	672.19
478.783	672.19
479.002	720.19
479.22	723.19
479.439	702.19
479.658	712.19
479.876	718.19
480.095	674.19
480.313	706.19
480.532	728.19
480.751	719.19
480.969	700.19
481.188	699.19
481.406	700.19
481.624	682.19
481.843	678.19
482.061	677.19
482.28	679.19
482.498	687.19
482.717	687.19
482.935	686.19
483.153	697.19
483.372	714.19
483.59	720.19
483.808	690.19
484.027	700.19
484.245	698.19
484.463	693.19
484.681	720.19
484.9	706.19
485.118	731.19
485.336	704.19
485.554	704.19
485.772	696.19
485.99	688.19
486.209	706.19
486.427	706.19
486.645	713.19
486.863	701.19
487.081	697.19
487.299	725.19
487.517	735.19
487.735	718.19
487.953	730.19
488.171	724.19
488.389	703.19
488.607	706.19
488.825	699.19
489.043	696.19
489.261	680.19
489.479	677.19
489.696	695.19
489.914	713.19
490.132	706.19
490.35	703.19
490.568	714.19
490.786	708.19
491.003	709.19
491.221	725.19
491.439	723.19
491.657	716.19
491.874	726.19
492.092	729.19
492.31	734.19
492.527	755.19
492.745	715.19
492.963	715.19
493.18	750.19
493.398	740.19
493.615	704.19
493.833	728.19
494.05	725.19
494.268	722.19
494.485	723.19
494.703	760.19
494.92	727.19
495.138	720.19
495.355	738.19
495.573	722.19
495.79	752.19
496.008	743.19
496.225	736.19
496.442	758.19
496.66	773.19
496.877	764.19
497.094	763.19
497.312	780.19
497.529	796.19
497.746	823.19
497.963	822.19
498.181	845.19
498.398	856.19
498.615	902.19
498.832	952.19
499.049	1007.19
499.267	1075.19
499.484	1075.19
499.701	1198.19
499.918	1242.19
500.135	1341.19
500.352	1425.19
500.569	1462.19
500.786	1444.19
501.003	1374.19
501.22	1308.19
501.437	1223.19
