Data from Ni(NO3)2@0.125M.TitratingCurve.Agarose3%dH2O.NegLispCup.LampEnergy10.LIBS07252019_HRD10591_18-09-14-578.txt Node
Date: Thu Jul 25 18:09:14 EDT 2019
User: cochatt
Spectrometer: HR+D1059
Trigger mode: 1
Integration Time (sec): 1.000000E-1
Scans to average: 1
Electric dark correction enabled: true
Nonlinearity correction enabled: false
Boxcar width: 0
XAxis mode: Wavelengths
Number of Pixels in Spectrum: 2048
>>>>>Begin Spectral Data<<<<<
223.165	-11.94
223.4	-11.94
223.635	-11.94
223.869	-8.94
224.104	-17.94
224.338	-17.94
224.573	-15.94
224.808	-16.94
225.042	-2.94
225.277	-8.94
225.511	-8.94
225.746	5.06
225.98	6.06
226.215	8.06
226.449	13.06
226.683	25.06
226.918	21.06
227.152	32.06
227.387	34.06
227.621	43.06
227.856	55.06
228.09	60.06
228.324	57.06
228.559	73.06
228.793	77.06
229.027	118.06
229.262	113.06
229.496	111.06
229.73	120.06
229.964	131.06
230.199	130.06
230.433	124.06
230.667	133.06
230.901	137.06
231.136	134.06
231.37	130.06
231.604	137.06
231.838	140.06
232.072	137.06
232.306	143.06
232.541	151.06
232.775	149.06
233.009	141.06
233.243	146.06
233.477	152.06
233.711	143.06
233.945	142.06
234.179	141.06
234.413	133.06
234.647	144.06
234.881	151.06
235.115	155.06
235.349	136.06
235.583	147.06
235.817	149.06
236.051	142.06
236.285	152.06
236.519	163.06
236.753	150.06
236.987	142.06
237.221	152.06
237.455	146.06
237.689	147.06
237.922	164.06
238.156	151.06
238.39	163.06
238.624	149.06
238.858	174.06
239.091	156.06
239.325	153.06
239.559	154.06
239.793	172.06
240.027	165.06
240.26	170.06
240.494	168.06
240.728	193.06
240.961	180.06
241.195	169.06
241.429	191.06
241.662	193.06
241.896	193.06
242.13	186.06
242.363	195.06
242.597	183.06
242.83	195.06
243.064	190.06
243.298	181.06
243.531	199.06
243.765	204.06
243.998	199.06
244.232	191.06
244.465	202.06
244.699	194.06
244.932	199.06
245.166	198.06
245.399	206.06
245.633	195.06
245.866	191.06
246.099	227.06
246.333	220.06
246.566	205.06
246.8	217.06
247.033	219.06
247.266	223.06
247.5	221.06
247.733	215.06
247.966	222.06
248.2	214.06
248.433	222.06
248.666	217.06
248.899	222.06
249.133	236.06
249.366	231.06
249.599	240.06
249.832	244.06
250.066	224.06
250.299	257.06
250.532	221.06
250.765	235.06
250.998	260.06
251.231	250.06
251.465	261.06
251.698	257.06
251.931	259.06
252.164	279.06
252.397	255.06
252.63	276.06
252.863	269.06
253.096	269.06
253.329	255.06
253.562	258.06
253.795	261.06
254.028	276.06
254.261	249.06
254.494	266.06
254.727	256.06
254.96	285.06
255.193	271.06
255.426	271.06
255.659	274.06
255.892	266.06
256.124	270.06
256.357	270.06
256.59	288.06
256.823	281.06
257.056	280.06
257.289	290.06
257.521	287.06
257.754	285.06
257.987	280.06
258.22	294.06
258.452	299.06
258.685	302.06
258.918	299.06
259.151	286.06
259.383	309.06
259.616	281.06
259.849	301.06
260.081	314.06
260.314	311.06
260.547	287.06
260.779	305.06
261.012	292.06
261.244	310.06
261.477	321.06
261.71	321.06
261.942	306.06
262.175	317.06
262.407	302.06
262.64	311.06
262.872	332.06
263.105	324.06
263.337	317.06
263.57	327.06
263.802	327.06
264.035	312.06
264.267	318.06
264.499	329.06
264.732	329.06
264.964	335.06
265.197	355.06
265.429	358.06
265.661	336.06
265.894	329.06
266.126	347.06
266.358	340.06
266.591	327.06
266.823	353.06
267.055	335.06
267.287	339.06
267.52	355.06
267.752	355.06
267.984	354.06
268.216	358.06
268.448	379.06
268.681	346.06
268.913	352.06
269.145	352.06
269.377	357.06
269.609	359.06
269.841	342.06
270.073	337.06
270.306	355.06
270.538	378.06
270.77	361.06
271.002	355.06
271.234	350.06
271.466	390.06
271.698	369.06
271.93	377.06
272.162	371.06
272.394	371.06
272.626	370.06
272.858	377.06
273.09	395.06
273.322	392.06
273.553	364.06
273.785	368.06
274.017	391.06
274.249	391.06
274.481	386.06
274.713	373.06
274.945	394.06
275.176	400.06
275.408	389.06
275.64	389.06
275.872	398.06
276.104	415.06
276.335	378.06
276.567	407.06
276.799	399.06
277.031	406.06
277.262	401.06
277.494	425.06
277.726	388.06
277.957	429.06
278.189	429.06
278.421	404.06
278.652	409.06
278.884	422.06
279.115	413.06
279.347	421.06
279.579	437.06
279.81	423.06
280.042	425.06
280.273	422.06
280.505	423.06
280.736	410.06
280.968	453.06
281.199	434.06
281.431	426.06
281.662	430.06
281.894	440.06
282.125	433.06
282.356	459.06
282.588	450.06
282.819	445.06
283.051	452.06
283.282	441.06
283.513	455.06
283.745	449.06
283.976	463.06
284.207	467.06
284.439	467.06
284.67	433.06
284.901	451.06
285.132	486.06
285.364	461.06
285.595	467.06
285.826	460.06
286.057	465.06
286.288	487.06
286.52	472.06
286.751	485.06
286.982	460.06
287.213	451.06
287.444	481.06
287.675	507.06
287.906	506.06
288.138	505.06
288.369	485.06
288.6	476.06
288.831	499.06
289.062	480.06
289.293	468.06
289.524	485.06
289.755	479.06
289.986	495.06
290.217	476.06
290.448	491.06
290.679	481.06
290.91	491.06
291.141	504.06
291.371	496.06
291.602	481.06
291.833	481.06
292.064	487.06
292.295	503.06
292.526	502.06
292.757	505.06
292.987	502.06
293.218	468.06
293.449	505.06
293.68	492.06
293.91	497.06
294.141	497.06
294.372	507.06
294.603	508.06
294.833	506.06
295.064	503.06
295.295	517.06
295.525	499.06
295.756	511.06
295.987	514.06
296.217	526.06
296.448	518.06
296.679	520.06
296.909	529.06
297.14	517.06
297.37	545.06
297.601	527.06
297.831	559.06
298.062	542.06
298.292	561.06
298.523	559.06
298.753	548.06
298.984	554.06
299.214	551.06
299.445	542.06
299.675	549.06
299.905	545.06
300.136	537.06
300.366	565.06
300.597	556.06
300.827	559.06
301.057	575.06
301.288	572.06
301.518	561.06
301.748	575.06
301.979	584.06
302.209	571.06
302.439	574.06
302.669	573.06
302.9	545.06
303.13	527.06
303.36	546.06
303.59	540.06
303.82	566.06
304.051	552.06
304.281	554.06
304.511	538.06
304.741	550.06
304.971	571.06
305.201	553.06
305.431	553.06
305.661	567.06
305.891	539.06
306.121	556.06
306.352	558.06
306.582	554.06
306.812	548.06
307.042	542.06
307.272	550.06
307.502	521.06
307.731	537.06
307.961	547.06
308.191	547.06
308.421	548.06
308.651	542.06
308.881	550.06
309.111	559.06
309.341	539.06
309.571	531.06
309.8	523.06
310.03	559.06
310.26	541.06
310.49	538.06
310.72	553.06
310.949	560.06
311.179	549.06
311.409	582.06
311.639	545.06
311.868	544.06
312.098	555.06
312.328	569.06
312.557	590.06
312.787	572.06
313.017	566.06
313.246	586.06
313.476	582.06
313.706	580.06
313.935	592.06
314.165	601.06
314.394	603.06
314.624	605.06
314.853	579.06
315.083	599.06
315.312	579.06
315.542	578.06
315.771	580.06
316.001	565.06
316.23	590.06
316.46	568.06
316.689	570.06
316.919	557.06
317.148	577.06
317.377	581.06
317.607	575.06
317.836	581.06
318.065	576.06
318.295	577.06
318.524	565.06
318.753	587.06
318.983	568.06
319.212	570.06
319.441	592.06
319.67	548.06
319.9	575.06
320.129	585.06
320.358	585.06
320.587	587.06
320.816	588.06
321.046	569.06
321.275	583.06
321.504	572.06
321.733	593.06
321.962	583.06
322.191	582.06
322.42	570.06
322.649	597.06
322.878	575.06
323.108	586.06
323.337	601.06
323.566	588.06
323.795	594.06
324.024	603.06
324.253	580.06
324.482	583.06
324.71	611.06
324.939	613.06
325.168	585.06
325.397	591.06
325.626	612.06
325.855	625.06
326.084	645.06
326.313	653.06
326.542	660.06
326.77	671.06
326.999	646.06
327.228	647.06
327.457	644.06
327.686	643.06
327.914	642.06
328.143	637.06
328.372	636.06
328.6	621.06
328.829	651.06
329.058	641.06
329.287	660.06
329.515	671.06
329.744	654.06
329.972	651.06
330.201	650.06
330.43	664.06
330.658	652.06
330.887	627.06
331.115	703.06
331.344	718.06
331.572	695.06
331.801	718.06
332.03	714.06
332.258	732.06
332.486	750.06
332.715	802.06
332.943	791.06
333.172	853.06
333.4	869.06
333.629	895.06
333.857	921.06
334.085	899.06
334.314	873.06
334.542	867.06
334.771	829.06
334.999	816.06
335.227	826.06
335.455	810.06
335.684	819.06
335.912	821.06
336.14	797.06
336.369	809.06
336.597	804.06
336.825	799.06
337.053	783.06
337.281	794.06
337.51	764.06
337.738	768.06
337.966	728.06
338.194	734.06
338.422	737.06
338.65	723.06
338.878	712.06
339.106	718.06
339.334	698.06
339.562	723.06
339.79	699.06
340.018	693.06
340.246	679.06
340.474	687.06
340.702	682.06
340.93	694.06
341.158	689.06
341.386	711.06
341.614	703.06
341.842	713.06
342.07	702.06
342.298	706.06
342.526	668.06
342.754	682.06
342.981	665.06
343.209	707.06
343.437	716.06
343.665	778.06
343.893	843.06
344.12	867.06
344.348	835.06
344.576	773.06
344.804	729.06
345.031	715.06
345.259	695.06
345.487	681.06
345.714	722.06
345.942	685.06
346.17	667.06
346.397	685.06
346.625	689.06
346.853	681.06
347.08	679.06
347.308	655.06
347.535	691.06
347.763	691.06
347.99	698.06
348.218	685.06
348.445	682.06
348.673	705.06
348.9	660.06
349.128	671.06
349.355	674.06
349.583	663.06
349.81	664.06
350.037	661.06
350.265	640.06
350.492	657.06
350.72	629.06
350.947	653.06
351.174	643.06
351.402	641.06
351.629	651.06
351.856	646.06
352.083	619.06
352.311	635.06
352.538	646.06
352.765	632.06
352.992	631.06
353.22	631.06
353.447	641.06
353.674	653.06
353.901	632.06
354.128	652.06
354.355	643.06
354.583	629.06
354.81	650.06
355.037	649.06
355.264	638.06
355.491	625.06
355.718	646.06
355.945	643.06
356.172	645.06
356.399	660.06
356.626	637.06
356.853	661.06
357.08	635.06
357.307	655.06
357.534	636.06
357.761	631.06
357.988	635.06
358.215	629.06
358.441	631.06
358.668	638.06
358.895	647.06
359.122	612.06
359.349	631.06
359.576	638.06
359.802	636.06
360.029	647.06
360.256	645.06
360.483	634.06
360.709	622.06
360.936	648.06
361.163	649.06
361.39	641.06
361.616	632.06
361.843	637.06
362.07	655.06
362.296	665.06
362.523	627.06
362.749	636.06
362.976	611.06
363.203	625.06
363.429	612.06
363.656	641.06
363.882	625.06
364.109	630.06
364.335	649.06
364.562	637.06
364.788	626.06
365.015	653.06
365.241	625.06
365.468	634.06
365.694	636.06
365.92	644.06
366.147	603.06
366.373	621.06
366.599	631.06
366.826	627.06
367.052	623.06
367.278	627.06
367.505	619.06
367.731	651.06
367.957	642.06
368.184	617.06
368.41	620.06
368.636	628.06
368.862	647.06
369.089	650.06
369.315	666.06
369.541	639.06
369.767	656.06
369.993	659.06
370.219	638.06
370.445	662.06
370.672	666.06
370.898	660.06
371.124	683.06
371.35	698.06
371.576	687.06
371.802	707.06
372.028	686.06
372.254	693.06
372.48	675.06
372.706	689.06
372.932	722.06
373.158	714.06
373.384	691.06
373.61	708.06
373.835	702.06
374.061	701.06
374.287	709.06
374.513	687.06
374.739	727.06
374.965	765.06
375.191	775.06
375.416	793.06
375.642	767.06
375.868	732.06
376.094	739.06
376.319	734.06
376.545	708.06
376.771	679.06
376.997	702.06
377.222	727.06
377.448	701.06
377.674	708.06
377.899	689.06
378.125	699.06
378.35	677.06
378.576	695.06
378.802	672.06
379.027	687.06
379.253	645.06
379.478	657.06
379.704	665.06
379.929	702.06
380.155	674.06
380.38	698.06
380.606	675.06
380.831	676.06
381.057	670.06
381.282	683.06
381.507	685.06
381.733	685.06
381.958	711.06
382.184	704.06
382.409	715.06
382.634	724.06
382.86	710.06
383.085	719.06
383.31	730.06
383.535	773.06
383.761	781.06
383.986	777.06
384.211	801.06
384.436	806.06
384.662	813.06
384.887	847.06
385.112	825.06
385.337	809.06
385.562	809.06
385.787	862.06
386.013	859.06
386.238	836.06
386.463	841.06
386.688	842.06
386.913	802.06
387.138	794.06
387.363	798.06
387.588	790.06
387.813	818.06
388.038	810.06
388.263	797.06
388.488	839.06
388.713	819.06
388.938	804.06
389.163	808.06
389.387	791.06
389.612	781.06
389.837	813.06
390.062	777.06
390.287	780.06
390.512	779.06
390.736	809.06
390.961	839.06
391.186	825.06
391.411	878.06
391.636	894.06
391.86	911.06
392.085	950.06
392.31	966.06
392.534	926.06
392.759	870.06
392.984	853.06
393.208	855.06
393.433	837.06
393.658	862.06
393.882	879.06
394.107	876.06
394.331	925.06
394.556	875.06
394.78	879.06
395.005	886.06
395.229	871.06
395.454	927.06
395.678	907.06
395.903	937.06
396.127	903.06
396.352	891.06
396.576	878.06
396.801	851.06
397.025	862.06
397.249	881.06
397.474	907.06
397.698	883.06
397.922	911.06
398.147	890.06
398.371	928.06
398.595	953.06
398.82	977.06
399.044	1067.06
399.268	1171.06
399.492	1406.06
399.717	1610.06
399.941	1591.06
400.165	1443.06
400.389	1222.06
400.613	1139.06
400.837	1065.06
401.062	1049.06
401.286	1029.06
401.51	1009.06
401.734	1012.06
401.958	1014.06
402.182	1052.06
402.406	1059.06
402.63	1054.06
402.854	1114.06
403.078	1121.06
403.302	1181.06
403.526	1195.06
403.75	1215.06
403.974	1244.06
404.198	1209.06
404.422	1243.06
404.645	1198.06
404.869	1211.06
405.093	1191.06
405.317	1177.06
405.541	1175.06
405.765	1148.06
405.988	1154.06
406.212	1132.06
406.436	1147.06
406.66	1161.06
406.883	1195.06
407.107	1257.06
407.331	1310.06
407.555	1371.06
407.778	1352.06
408.002	1325.06
408.226	1322.06
408.449	1225.06
408.673	1209.06
408.896	1227.06
409.12	1213.06
409.344	1172.06
409.567	1191.06
409.791	1190.06
410.014	1216.06
410.238	1194.06
410.461	1207.06
410.685	1189.06
410.908	1157.06
411.132	1113.06
411.355	1093.06
411.578	1100.06
411.802	1078.06
412.025	1101.06
412.249	1150.06
412.472	1086.06
412.695	1046.06
412.919	1044.06
413.142	1032.06
413.365	1076.06
413.589	1038.06
413.812	1049.06
414.035	1021.06
414.258	1027.06
414.482	1044.06
414.705	1085.06
414.928	1078.06
415.151	1071.06
415.374	1033.06
415.597	1055.06
415.821	1010.06
416.044	1057.06
416.267	1014.06
416.49	1023.06
416.713	983.06
416.936	1030.06
417.159	1031.06
417.382	1021.06
417.605	1017.06
417.828	1053.06
418.051	1035.06
418.274	1049.06
418.497	1044.06
418.72	1079.06
418.943	1070.06
419.166	1159.06
419.389	1231.06
419.611	1188.06
419.834	1114.06
420.057	1118.06
420.28	1074.06
420.503	1029.06
420.726	1047.06
420.948	1040.06
421.171	1036.06
421.394	1051.06
421.617	1024.06
421.839	1059.06
422.062	1032.06
422.285	1037.06
422.507	1083.06
422.73	1055.06
422.953	1079.06
423.175	1081.06
423.398	1109.06
423.621	1120.06
423.843	1155.06
424.066	1158.06
424.288	1138.06
424.511	1142.06
424.733	1103.06
424.956	1105.06
425.178	1084.06
425.401	1055.06
425.623	1095.06
425.846	1035.06
426.068	1013.06
426.291	1011.06
426.513	1000.06
426.735	984.06
426.958	979.06
427.18	934.06
427.402	988.06
427.625	966.06
427.847	942.06
428.069	958.06
428.292	940.06
428.514	919.06
428.736	937.06
428.958	945.06
429.181	927.06
429.403	929.06
429.625	903.06
429.847	901.06
430.069	902.06
430.292	909.06
430.514	903.06
430.736	912.06
430.958	878.06
431.18	934.06
431.402	903.06
431.624	927.06
431.846	949.06
432.068	953.06
432.29	959.06
432.512	959.06
432.734	945.06
432.956	909.06
433.178	929.06
433.4	923.06
433.622	942.06
433.844	966.06
434.066	972.06
434.287	975.06
434.509	1006.06
434.731	1037.06
434.953	1069.06
435.175	1088.06
435.397	1053.06
435.618	999.06
435.84	997.06
436.062	957.06
436.284	941.06
436.505	932.06
436.727	958.06
436.949	963.06
437.17	945.06
437.392	959.06
437.614	916.06
437.835	910.06
438.057	912.06
438.278	913.06
438.5	911.06
438.721	921.06
438.943	905.06
439.165	914.06
439.386	938.06
439.608	925.06
439.829	956.06
440.05	931.06
440.272	962.06
440.493	941.06
440.715	999.06
440.936	993.06
441.158	995.06
441.379	1038.06
441.6	1091.06
441.822	1105.06
442.043	1109.06
442.264	1076.06
442.486	1054.06
442.707	1063.06
442.928	1062.06
443.149	1039.06
443.371	1074.06
443.592	1038.06
443.813	1101.06
444.034	1084.06
444.255	1140.06
444.476	1193.06
444.698	1231.06
444.919	1304.06
445.14	1433.06
445.361	1247.06
445.582	1114.06
445.803	1058.06
446.024	1011.06
446.245	983.06
446.466	990.06
446.687	1000.06
446.908	985.06
447.129	926.06
447.35	933.06
447.571	902.06
447.792	893.06
448.013	909.06
448.234	888.06
448.455	889.06
448.675	900.06
448.896	875.06
449.117	876.06
449.338	891.06
449.559	892.06
449.779	853.06
450	889.06
450.221	885.06
450.442	882.06
450.662	894.06
450.883	924.06
451.104	896.06
451.324	891.06
451.545	911.06
451.766	899.06
451.986	866.06
452.207	901.06
452.428	897.06
452.648	885.06
452.869	873.06
453.089	878.06
453.31	868.06
453.53	853.06
453.751	833.06
453.971	869.06
454.192	854.06
454.412	806.06
454.633	806.06
454.853	833.06
455.073	839.06
455.294	856.06
455.514	827.06
455.734	800.06
455.955	819.06
456.175	820.06
456.395	813.06
456.616	799.06
456.836	823.06
457.056	808.06
457.276	811.06
457.497	830.06
457.717	827.06
457.937	814.06
458.157	830.06
458.377	851.06
458.598	845.06
458.818	866.06
459.038	891.06
459.258	912.06
459.478	953.06
459.698	1004.06
459.918	1033.06
460.138	1074.06
460.358	1146.06
460.578	1120.06
460.798	1147.06
461.018	1166.06
461.238	1118.06
461.458	1112.06
461.678	1124.06
461.898	1135.06
462.118	1134.06
462.338	1211.06
462.558	1235.06
462.777	1288.06
462.997	1400.06
463.217	1583.06
463.437	1611.06
463.657	1454.06
463.876	1371.06
464.096	1319.06
464.316	1361.06
464.536	1383.06
464.755	1293.06
464.975	1215.06
465.195	1175.06
465.414	1113.06
465.634	1043.06
465.854	1021.06
466.073	973.06
466.293	950.06
466.512	926.06
466.732	929.06
466.951	913.06
467.171	924.06
467.391	934.06
467.61	929.06
467.829	939.06
468.049	895.06
468.268	858.06
468.488	889.06
468.707	849.06
468.927	876.06
469.146	861.06
469.365	903.06
469.585	891.06
469.804	903.06
470.023	907.06
470.243	948.06
470.462	943.06
470.681	968.06
470.901	976.06
471.12	916.06
471.339	931.06
471.558	900.06
471.777	874.06
471.997	889.06
472.216	913.06
472.435	865.06
472.654	860.06
472.873	830.06
473.092	841.06
473.311	851.06
473.53	885.06
473.749	847.06
473.968	853.06
474.187	839.06
474.406	820.06
474.625	861.06
474.844	850.06
475.063	869.06
475.282	863.06
475.501	850.06
475.72	886.06
475.939	869.06
476.158	894.06
476.377	885.06
476.596	870.06
476.814	902.06
477.033	888.06
477.252	931.06
477.471	927.06
477.69	969.06
477.908	1024.06
478.127	1045.06
478.346	1019.06
478.564	1043.06
478.783	1062.06
479.002	1086.06
479.22	1112.06
479.439	1076.06
479.658	1060.06
479.876	1058.06
480.095	1084.06
480.313	1130.06
480.532	1195.06
480.751	1173.06
480.969	1093.06
481.188	1081.06
481.406	1027.06
481.624	1003.06
481.843	983.06
482.061	997.06
482.28	979.06
482.498	986.06
482.717	945.06
482.935	986.06
483.153	978.06
483.372	988.06
483.59	1003.06
483.808	975.06
484.027	968.06
484.245	995.06
484.463	1001.06
484.681	996.06
484.9	1027.06
485.118	1040.06
485.336	1021.06
485.554	1035.06
485.772	1029.06
485.99	1053.06
486.209	1068.06
486.427	1091.06
486.645	1065.06
486.863	1040.06
487.081	1068.06
487.299	1041.06
487.517	1050.06
487.735	1028.06
487.953	1039.06
488.171	1058.06
488.389	1042.06
488.607	1015.06
488.825	1032.06
489.043	1013.06
489.261	987.06
489.479	1008.06
489.696	1023.06
489.914	1033.06
490.132	1015.06
490.35	1051.06
490.568	1062.06
490.786	1073.06
491.003	1078.06
491.221	1058.06
491.439	1074.06
491.657	1074.06
491.874	1052.06
492.092	1075.06
492.31	1074.06
492.527	1065.06
492.745	1073.06
492.963	1081.06
493.18	1070.06
493.398	1087.06
493.615	1090.06
493.833	1059.06
494.05	1068.06
494.268	1099.06
494.485	1110.06
494.703	1110.06
494.92	1081.06
495.138	1110.06
495.355	1082.06
495.573	1098.06
495.79	1088.06
496.008	1094.06
496.225	1132.06
496.442	1132.06
496.66	1120.06
496.877	1148.06
497.094	1152.06
497.312	1199.06
497.529	1193.06
497.746	1192.06
497.963	1255.06
