Data from Ni(NO3)2@0.5M.TitratingCurve.Agarose3%dH2O.NegLispCup.LampEnergy10.LIBS07252019_HRD10591_17-58-38-564.txt Node
Date: Thu Jul 25 17:58:38 EDT 2019
User: cochatt
Spectrometer: HR+D1059
Trigger mode: 1
Integration Time (sec): 1.000000E-1
Scans to average: 1
Electric dark correction enabled: true
Nonlinearity correction enabled: false
Boxcar width: 0
XAxis mode: Wavelengths
Number of Pixels in Spectrum: 2048
>>>>>Begin Spectral Data<<<<<
223.165	-13.88
223.4	-13.88
223.635	-13.88
223.869	-33.88
224.104	-9.88
224.338	-11.88
224.573	-10.88
224.808	-17.88
225.042	1.12
225.277	-15.88
225.511	-8.88
225.746	14.12
225.98	9.12
226.215	5.12
226.449	16.12
226.683	24.12
226.918	24.12
227.152	29.12
227.387	38.12
227.621	38.12
227.856	31.12
228.09	47.12
228.324	45.12
228.559	58.12
228.793	79.12
229.027	136.12
229.262	156.12
229.496	148.12
229.73	162.12
229.964	158.12
230.199	213.12
230.433	209.12
230.667	193.12
230.901	197.12
231.136	155.12
231.37	182.12
231.604	193.12
231.838	208.12
232.072	233.12
232.306	210.12
232.541	187.12
232.775	166.12
233.009	162.12
233.243	161.12
233.477	173.12
233.711	157.12
233.945	184.12
234.179	188.12
234.413	185.12
234.647	186.12
234.881	188.12
235.115	182.12
235.349	185.12
235.583	177.12
235.817	186.12
236.051	167.12
236.285	169.12
236.519	184.12
236.753	164.12
236.987	178.12
237.221	172.12
237.455	184.12
237.689	187.12
237.922	177.12
238.156	172.12
238.39	188.12
238.624	184.12
238.858	183.12
239.091	196.12
239.325	191.12
239.559	216.12
239.793	238.12
240.027	226.12
240.26	216.12
240.494	189.12
240.728	201.12
240.961	206.12
241.195	200.12
241.429	213.12
241.662	220.12
241.896	244.12
242.13	234.12
242.363	207.12
242.597	211.12
242.83	224.12
243.064	250.12
243.298	221.12
243.531	220.12
243.765	236.12
243.998	238.12
244.232	257.12
244.465	234.12
244.699	235.12
244.932	220.12
245.166	235.12
245.399	224.12
245.633	239.12
245.866	236.12
246.099	243.12
246.333	246.12
246.566	249.12
246.8	240.12
247.033	232.12
247.266	250.12
247.5	262.12
247.733	262.12
247.966	259.12
248.2	276.12
248.433	265.12
248.666	268.12
248.899	262.12
249.133	261.12
249.366	277.12
249.599	276.12
249.832	264.12
250.066	297.12
250.299	281.12
250.532	296.12
250.765	309.12
250.998	277.12
251.231	346.12
251.465	335.12
251.698	327.12
251.931	325.12
252.164	300.12
252.397	317.12
252.63	306.12
252.863	300.12
253.096	301.12
253.329	327.12
253.562	332.12
253.795	322.12
254.028	325.12
254.261	342.12
254.494	342.12
254.727	340.12
254.96	345.12
255.193	345.12
255.426	331.12
255.659	330.12
255.892	340.12
256.124	368.12
256.357	329.12
256.59	334.12
256.823	366.12
257.056	360.12
257.289	353.12
257.521	368.12
257.754	362.12
257.987	361.12
258.22	364.12
258.452	350.12
258.685	368.12
258.918	379.12
259.151	368.12
259.383	365.12
259.616	386.12
259.849	363.12
260.081	378.12
260.314	382.12
260.547	391.12
260.779	379.12
261.012	406.12
261.244	389.12
261.477	404.12
261.71	406.12
261.942	406.12
262.175	383.12
262.407	404.12
262.64	397.12
262.872	414.12
263.105	416.12
263.337	416.12
263.57	397.12
263.802	407.12
264.035	416.12
264.267	430.12
264.499	416.12
264.732	411.12
264.964	426.12
265.197	424.12
265.429	428.12
265.661	424.12
265.894	429.12
266.126	454.12
266.358	425.12
266.591	436.12
266.823	463.12
267.055	435.12
267.287	453.12
267.52	434.12
267.752	429.12
267.984	445.12
268.216	448.12
268.448	462.12
268.681	437.12
268.913	457.12
269.145	474.12
269.377	455.12
269.609	471.12
269.841	459.12
270.073	465.12
270.306	470.12
270.538	468.12
270.77	491.12
271.002	476.12
271.234	467.12
271.466	480.12
271.698	470.12
271.93	473.12
272.162	477.12
272.394	493.12
272.626	480.12
272.858	500.12
273.09	487.12
273.322	490.12
273.553	476.12
273.785	492.12
274.017	505.12
274.249	501.12
274.481	488.12
274.713	498.12
274.945	506.12
275.176	501.12
275.408	508.12
275.64	514.12
275.872	511.12
276.104	527.12
276.335	496.12
276.567	528.12
276.799	532.12
277.031	539.12
277.262	535.12
277.494	552.12
277.726	526.12
277.957	517.12
278.189	513.12
278.421	520.12
278.652	538.12
278.884	549.12
279.115	562.12
279.347	547.12
279.579	534.12
279.81	556.12
280.042	554.12
280.273	549.12
280.505	540.12
280.736	547.12
280.968	534.12
281.199	556.12
281.431	563.12
281.662	558.12
281.894	565.12
282.125	572.12
282.356	562.12
282.588	568.12
282.819	559.12
283.051	554.12
283.282	582.12
283.513	584.12
283.745	576.12
283.976	581.12
284.207	566.12
284.439	580.12
284.67	563.12
284.901	588.12
285.132	586.12
285.364	590.12
285.595	600.12
285.826	597.12
286.057	600.12
286.288	612.12
286.52	582.12
286.751	581.12
286.982	609.12
287.213	602.12
287.444	597.12
287.675	621.12
287.906	614.12
288.138	619.12
288.369	595.12
288.6	608.12
288.831	614.12
289.062	613.12
289.293	621.12
289.524	626.12
289.755	616.12
289.986	614.12
290.217	624.12
290.448	640.12
290.679	632.12
290.91	619.12
291.141	613.12
291.371	627.12
291.602	617.12
291.833	622.12
292.064	652.12
292.295	594.12
292.526	608.12
292.757	610.12
292.987	621.12
293.218	608.12
293.449	634.12
293.68	645.12
293.91	635.12
294.141	636.12
294.372	625.12
294.603	631.12
294.833	660.12
295.064	640.12
295.295	651.12
295.525	624.12
295.756	633.12
295.987	644.12
296.217	654.12
296.448	635.12
296.679	638.12
296.909	638.12
297.14	659.12
297.37	668.12
297.601	673.12
297.831	676.12
298.062	665.12
298.292	692.12
298.523	697.12
298.753	683.12
298.984	662.12
299.214	678.12
299.445	688.12
299.675	685.12
299.905	683.12
300.136	692.12
300.366	739.12
300.597	728.12
300.827	725.12
301.057	706.12
301.288	709.12
301.518	735.12
301.748	726.12
301.979	707.12
302.209	709.12
302.439	690.12
302.669	694.12
302.9	721.12
303.13	703.12
303.36	724.12
303.59	738.12
303.82	732.12
304.051	736.12
304.281	713.12
304.511	724.12
304.741	733.12
304.971	750.12
305.201	772.12
305.431	768.12
305.661	747.12
305.891	746.12
306.121	738.12
306.352	760.12
306.582	723.12
306.812	722.12
307.042	744.12
307.272	709.12
307.502	716.12
307.731	739.12
307.961	734.12
308.191	747.12
308.421	743.12
308.651	730.12
308.881	713.12
309.111	742.12
309.341	722.12
309.571	749.12
309.8	727.12
310.03	768.12
310.26	800.12
310.49	793.12
310.72	776.12
310.949	744.12
311.179	739.12
311.409	752.12
311.639	746.12
311.868	754.12
312.098	766.12
312.328	778.12
312.557	782.12
312.787	768.12
313.017	783.12
313.246	788.12
313.476	811.12
313.706	799.12
313.935	786.12
314.165	817.12
314.394	805.12
314.624	790.12
314.853	801.12
315.083	789.12
315.312	790.12
315.542	804.12
315.771	788.12
316.001	828.12
316.23	800.12
316.46	826.12
316.689	810.12
316.919	819.12
317.148	833.12
317.377	832.12
317.607	812.12
317.836	813.12
318.065	802.12
318.295	840.12
318.524	846.12
318.753	849.12
318.983	829.12
319.212	818.12
319.441	856.12
319.67	822.12
319.9	860.12
320.129	839.12
320.358	823.12
320.587	854.12
320.816	852.12
321.046	854.12
321.275	843.12
321.504	840.12
321.733	863.12
321.962	869.12
322.191	840.12
322.42	882.12
322.649	875.12
322.878	865.12
323.108	876.12
323.337	908.12
323.566	897.12
323.795	885.12
324.024	887.12
324.253	888.12
324.482	910.12
324.71	893.12
324.939	898.12
325.168	939.12
325.397	890.12
325.626	936.12
325.855	894.12
326.084	908.12
326.313	950.12
326.542	920.12
326.77	931.12
326.999	938.12
327.228	899.12
327.457	919.12
327.686	901.12
327.914	920.12
328.143	944.12
328.372	929.12
328.6	944.12
328.829	923.12
329.058	939.12
329.287	954.12
329.515	944.12
329.744	945.12
329.972	957.12
330.201	973.12
330.43	986.12
330.658	960.12
330.887	1003.12
331.115	963.12
331.344	985.12
331.572	986.12
331.801	1019.12
332.03	1044.12
332.258	1012.12
332.486	1003.12
332.715	1030.12
332.943	1031.12
333.172	1021.12
333.4	1053.12
333.629	1043.12
333.857	1047.12
334.085	1065.12
334.314	1065.12
334.542	1060.12
334.771	1067.12
334.999	1097.12
335.227	1114.12
335.455	1076.12
335.684	1074.12
335.912	1093.12
336.14	1099.12
336.369	1098.12
336.597	1090.12
336.825	1115.12
337.053	1099.12
337.281	1096.12
337.51	1087.12
337.738	1143.12
337.966	1094.12
338.194	1098.12
338.422	1076.12
338.65	1048.12
338.878	1073.12
339.106	1076.12
339.334	1088.12
339.562	1074.12
339.79	1000.12
340.018	1033.12
340.246	1021.12
340.474	1063.12
340.702	1031.12
340.93	1042.12
341.158	1075.12
341.386	1089.12
341.614	1152.12
341.842	1099.12
342.07	1052.12
342.298	1018.12
342.526	1028.12
342.754	1061.12
342.981	1029.12
343.209	1063.12
343.437	1095.12
343.665	1094.12
343.893	1108.12
344.12	1108.12
344.348	1068.12
344.576	1123.12
344.804	1122.12
345.031	1087.12
345.259	1057.12
345.487	1072.12
345.714	1121.12
345.942	1120.12
346.17	1090.12
346.397	1097.12
346.625	1054.12
346.853	1027.12
347.08	1010.12
347.308	1054.12
347.535	1025.12
347.763	1012.12
347.99	1003.12
348.218	1016.12
348.445	970.12
348.673	1032.12
348.9	1011.12
349.128	1026.12
349.355	1044.12
349.583	1049.12
349.81	1013.12
350.037	995.12
350.265	991.12
350.492	994.12
350.72	977.12
350.947	1006.12
351.174	1029.12
351.402	1027.12
351.629	1061.12
351.856	1056.12
352.083	1002.12
352.311	1028.12
352.538	1070.12
352.765	1065.12
352.992	995.12
353.22	948.12
353.447	969.12
353.674	935.12
353.901	962.12
354.128	949.12
354.355	979.12
354.583	965.12
354.81	977.12
355.037	962.12
355.264	957.12
355.491	964.12
355.718	954.12
355.945	917.12
356.172	986.12
356.399	994.12
356.626	1009.12
356.853	1028.12
357.08	1027.12
357.307	975.12
357.534	999.12
357.761	1004.12
357.988	987.12
358.215	978.12
358.441	949.12
358.668	964.12
358.895	968.12
359.122	956.12
359.349	949.12
359.576	958.12
359.802	968.12
360.029	991.12
360.256	979.12
360.483	961.12
360.709	987.12
360.936	995.12
361.163	1002.12
361.39	1015.12
361.616	1014.12
361.843	1015.12
362.07	1060.12
362.296	1048.12
362.523	992.12
362.749	982.12
362.976	1010.12
363.203	964.12
363.429	937.12
363.656	1000.12
363.882	994.12
364.109	984.12
364.335	994.12
364.562	975.12
364.788	966.12
365.015	985.12
365.241	980.12
365.468	983.12
365.694	985.12
365.92	991.12
366.147	1006.12
366.373	996.12
366.599	1014.12
366.826	987.12
367.052	1026.12
367.278	1025.12
367.505	1004.12
367.731	984.12
367.957	969.12
368.184	978.12
368.41	1018.12
368.636	974.12
368.862	1038.12
369.089	1021.12
369.315	1016.12
369.541	998.12
369.767	1020.12
369.993	1016.12
370.219	1028.12
370.445	1036.12
370.672	1034.12
370.898	1043.12
371.124	1048.12
371.35	1069.12
371.576	1053.12
371.802	1037.12
372.028	1044.12
372.254	1050.12
372.48	1029.12
372.706	1066.12
372.932	1058.12
373.158	1073.12
373.384	1053.12
373.61	1059.12
373.835	1059.12
374.061	1020.12
374.287	1083.12
374.513	1070.12
374.739	1088.12
374.965	1063.12
375.191	1099.12
375.416	1044.12
375.642	1071.12
375.868	1064.12
376.094	1033.12
376.319	1030.12
376.545	1056.12
376.771	1034.12
376.997	1037.12
377.222	1044.12
377.448	1051.12
377.674	1067.12
377.899	1040.12
378.125	1041.12
378.35	1032.12
378.576	1014.12
378.802	1048.12
379.027	1008.12
379.253	1044.12
379.478	1015.12
379.704	1046.12
379.929	1028.12
380.155	1022.12
380.38	1030.12
380.606	1014.12
380.831	1042.12
381.057	1038.12
381.282	1032.12
381.507	1020.12
381.733	1034.12
381.958	1031.12
382.184	1069.12
382.409	1056.12
382.634	1037.12
382.86	1031.12
383.085	1092.12
383.31	1093.12
383.535	1096.12
383.761	1035.12
383.986	1050.12
384.211	1088.12
384.436	1083.12
384.662	1101.12
384.887	1097.12
385.112	1126.12
385.337	1127.12
385.562	1105.12
385.787	1113.12
386.013	1142.12
386.238	1158.12
386.463	1128.12
386.688	1164.12
386.913	1141.12
387.138	1148.12
387.363	1127.12
387.588	1162.12
387.813	1168.12
388.038	1134.12
388.263	1172.12
388.488	1160.12
388.713	1167.12
388.938	1109.12
389.163	1180.12
389.387	1171.12
389.612	1144.12
389.837	1157.12
390.062	1170.12
390.287	1192.12
390.512	1172.12
390.736	1170.12
390.961	1164.12
391.186	1174.12
391.411	1181.12
391.636	1180.12
391.86	1187.12
392.085	1194.12
392.31	1236.12
392.534	1214.12
392.759	1203.12
392.984	1209.12
393.208	1244.12
393.433	1210.12
393.658	1191.12
393.882	1200.12
394.107	1196.12
394.331	1214.12
394.556	1199.12
394.78	1186.12
395.005	1188.12
395.229	1208.12
395.454	1226.12
395.678	1253.12
395.903	1230.12
396.127	1236.12
396.352	1245.12
396.576	1220.12
396.801	1228.12
397.025	1261.12
397.249	1258.12
397.474	1248.12
397.698	1261.12
397.922	1267.12
398.147	1285.12
398.371	1273.12
398.595	1308.12
398.82	1348.12
399.044	1355.12
399.268	1369.12
399.492	1413.12
399.717	1482.12
399.941	1464.12
400.165	1438.12
400.389	1452.12
400.613	1434.12
400.837	1388.12
401.062	1412.12
401.286	1365.12
401.51	1346.12
401.734	1314.12
401.958	1332.12
402.182	1336.12
402.406	1331.12
402.63	1367.12
402.854	1336.12
403.078	1325.12
403.302	1348.12
403.526	1351.12
403.75	1345.12
403.974	1339.12
404.198	1342.12
404.422	1374.12
404.645	1347.12
404.869	1320.12
405.093	1363.12
405.317	1354.12
405.541	1365.12
405.765	1377.12
405.988	1379.12
406.212	1398.12
406.436	1385.12
406.66	1423.12
406.883	1432.12
407.107	1431.12
407.331	1477.12
407.555	1481.12
407.778	1471.12
408.002	1469.12
408.226	1469.12
408.449	1468.12
408.673	1469.12
408.896	1435.12
409.12	1412.12
409.344	1483.12
409.567	1416.12
409.791	1434.12
410.014	1430.12
410.238	1418.12
410.461	1417.12
410.685	1429.12
410.908	1406.12
411.132	1376.12
411.355	1375.12
411.578	1397.12
411.802	1395.12
412.025	1385.12
412.249	1386.12
412.472	1393.12
412.695	1394.12
412.919	1371.12
413.142	1392.12
413.365	1376.12
413.589	1355.12
413.812	1350.12
414.035	1345.12
414.258	1358.12
414.482	1346.12
414.705	1355.12
414.928	1341.12
415.151	1363.12
415.374	1332.12
415.597	1335.12
415.821	1322.12
416.044	1295.12
416.267	1319.12
416.49	1307.12
416.713	1310.12
416.936	1329.12
417.159	1316.12
417.382	1276.12
417.605	1283.12
417.828	1284.12
418.051	1304.12
418.274	1313.12
418.497	1278.12
418.72	1311.12
418.943	1276.12
419.166	1371.12
419.389	1380.12
419.611	1394.12
419.834	1366.12
420.057	1356.12
420.28	1323.12
420.503	1283.12
420.726	1272.12
420.948	1268.12
421.171	1296.12
421.394	1254.12
421.617	1272.12
421.839	1268.12
422.062	1301.12
422.285	1286.12
422.507	1294.12
422.73	1284.12
422.953	1260.12
423.175	1317.12
423.398	1304.12
423.621	1289.12
423.843	1299.12
424.066	1266.12
424.288	1312.12
424.511	1240.12
424.733	1270.12
424.956	1278.12
425.178	1271.12
425.401	1272.12
425.623	1282.12
425.846	1257.12
426.068	1237.12
426.291	1270.12
426.513	1269.12
426.735	1272.12
426.958	1279.12
427.18	1212.12
427.402	1237.12
427.625	1288.12
427.847	1227.12
428.069	1259.12
428.292	1270.12
428.514	1261.12
428.736	1248.12
428.958	1288.12
429.181	1245.12
429.403	1256.12
429.625	1252.12
429.847	1246.12
430.069	1238.12
430.292	1252.12
430.514	1258.12
430.736	1266.12
430.958	1269.12
431.18	1250.12
431.402	1258.12
431.624	1241.12
431.846	1240.12
432.068	1254.12
432.29	1250.12
432.512	1233.12
432.734	1285.12
432.956	1272.12
433.178	1302.12
433.4	1292.12
433.622	1297.12
433.844	1316.12
434.066	1301.12
434.287	1315.12
434.509	1300.12
434.731	1273.12
434.953	1289.12
435.175	1293.12
435.397	1326.12
435.618	1301.12
435.84	1302.12
436.062	1243.12
436.284	1295.12
436.505	1289.12
436.727	1257.12
436.949	1294.12
437.17	1294.12
437.392	1282.12
437.614	1260.12
437.835	1229.12
438.057	1257.12
438.278	1201.12
438.5	1201.12
438.721	1244.12
438.943	1217.12
439.165	1212.12
439.386	1206.12
439.608	1268.12
439.829	1243.12
440.05	1275.12
440.272	1260.12
440.493	1274.12
440.715	1313.12
440.936	1286.12
441.158	1273.12
441.379	1301.12
441.6	1349.12
441.822	1300.12
442.043	1288.12
442.264	1293.12
442.486	1277.12
442.707	1316.12
442.928	1256.12
443.149	1312.12
443.371	1350.12
443.592	1379.12
443.813	1353.12
444.034	1335.12
444.255	1330.12
444.476	1376.12
444.698	1356.12
444.919	1409.12
445.14	1469.12
445.361	1396.12
445.582	1366.12
445.803	1300.12
446.024	1257.12
446.245	1318.12
446.466	1316.12
446.687	1222.12
446.908	1260.12
447.129	1239.12
447.35	1227.12
447.571	1225.12
447.792	1216.12
448.013	1207.12
448.234	1184.12
448.455	1173.12
448.675	1175.12
448.896	1183.12
449.117	1195.12
449.338	1182.12
449.559	1157.12
449.779	1163.12
450	1150.12
450.221	1152.12
450.442	1183.12
450.662	1158.12
450.883	1201.12
451.104	1206.12
451.324	1162.12
451.545	1151.12
451.766	1161.12
451.986	1144.12
452.207	1140.12
452.428	1136.12
452.648	1150.12
452.869	1133.12
453.089	1141.12
453.31	1172.12
453.53	1133.12
453.751	1147.12
453.971	1137.12
454.192	1150.12
454.412	1174.12
454.633	1146.12
454.853	1142.12
455.073	1136.12
455.294	1146.12
455.514	1124.12
455.734	1162.12
455.955	1196.12
456.175	1181.12
456.395	1144.12
456.616	1118.12
456.836	1123.12
457.056	1135.12
457.276	1140.12
457.497	1154.12
457.717	1143.12
457.937	1160.12
458.157	1167.12
458.377	1166.12
458.598	1174.12
458.818	1205.12
459.038	1207.12
459.258	1221.12
459.478	1283.12
459.698	1354.12
459.918	1371.12
460.138	1349.12
460.358	1347.12
460.578	1358.12
460.798	1390.12
461.018	1402.12
461.238	1317.12
461.458	1349.12
461.678	1312.12
461.898	1305.12
462.118	1346.12
462.338	1402.12
462.558	1419.12
462.777	1440.12
462.997	1479.12
463.217	1494.12
463.437	1542.12
463.657	1528.12
463.876	1437.12
464.096	1434.12
464.316	1437.12
464.536	1465.12
464.755	1393.12
464.975	1385.12
465.195	1333.12
465.414	1328.12
465.634	1305.12
465.854	1260.12
466.073	1272.12
466.293	1247.12
466.512	1275.12
466.732	1232.12
466.951	1230.12
467.171	1244.12
467.391	1239.12
467.61	1229.12
467.829	1238.12
468.049	1241.12
468.268	1216.12
468.488	1212.12
468.707	1250.12
468.927	1227.12
469.146	1243.12
469.365	1234.12
469.585	1232.12
469.804	1209.12
470.023	1225.12
470.243	1208.12
470.462	1220.12
470.681	1228.12
470.901	1261.12
471.12	1227.12
471.339	1218.12
471.558	1226.12
471.777	1231.12
471.997	1220.12
472.216	1203.12
472.435	1213.12
472.654	1222.12
472.873	1180.12
473.092	1248.12
473.311	1259.12
473.53	1237.12
473.749	1229.12
473.968	1204.12
474.187	1238.12
474.406	1225.12
474.625	1237.12
474.844	1245.12
475.063	1239.12
475.282	1265.12
475.501	1253.12
475.72	1246.12
475.939	1229.12
476.158	1312.12
476.377	1280.12
476.596	1261.12
476.814	1265.12
477.033	1272.12
477.252	1309.12
477.471	1307.12
477.69	1353.12
477.908	1370.12
478.127	1366.12
478.346	1354.12
478.564	1401.12
478.783	1390.12
479.002	1446.12
479.22	1472.12
479.439	1478.12
479.658	1402.12
479.876	1392.12
480.095	1401.12
480.313	1393.12
480.532	1449.12
480.751	1461.12
480.969	1405.12
481.188	1397.12
481.406	1421.12
481.624	1426.12
481.843	1397.12
482.061	1444.12
482.28	1423.12
482.498	1434.12
482.717	1414.12
482.935	1441.12
483.153	1453.12
483.372	1496.12
483.59	1524.12
483.808	1467.12
484.027	1428.12
484.245	1405.12
484.463	1418.12
484.681	1474.12
484.9	1456.12
485.118	1424.12
485.336	1481.12
485.554	1457.12
485.772	1457.12
485.99	1442.12
486.209	1463.12
486.427	1458.12
486.645	1491.12
486.863	1491.12
487.081	1475.12
487.299	1515.12
487.517	1506.12
487.735	1531.12
487.953	1500.12
488.171	1481.12
488.389	1480.12
488.607	1489.12
488.825	1468.12
489.043	1485.12
489.261	1471.12
489.479	1481.12
489.696	1497.12
489.914	1458.12
490.132	1478.12
490.35	1484.12
490.568	1499.12
490.786	1517.12
491.003	1509.12
491.221	1513.12
491.439	1509.12
491.657	1513.12
491.874	1555.12
492.092	1555.12
492.31	1511.12
492.527	1514.12
