Data from Ni(NO3)2@0.0625M.TitratingCurve.Agarose3%dH2O.NegLispCup.LampEnergy10.LIBS07252019_HRD10591_18-15-06-570.txt Node
Date: Thu Jul 25 18:15:06 EDT 2019
User: cochatt
Spectrometer: HR+D1059
Trigger mode: 1
Integration Time (sec): 1.000000E-1
Scans to average: 1
Electric dark correction enabled: true
Nonlinearity correction enabled: false
Boxcar width: 0
XAxis mode: Wavelengths
Number of Pixels in Spectrum: 2048
>>>>>Begin Spectral Data<<<<<
223.165	-19.69
223.4	-19.69
223.635	-19.69
223.869	-9.69
224.104	-29.69
224.338	-11.69
224.573	-2.69
224.808	-13.69
225.042	-10.69
225.277	3.31
225.511	4.31
225.746	7.31
225.98	2.31
226.215	0.31
226.449	7.31
226.683	20.31
226.918	26.31
227.152	26.31
227.387	40.31
227.621	52.31
227.856	44.31
228.09	40.31
228.324	53.31
228.559	69.31
228.793	87.31
229.027	87.31
229.262	90.31
229.496	100.31
229.73	102.31
229.964	116.31
230.199	111.31
230.433	142.31
230.667	100.31
230.901	118.31
231.136	113.31
231.37	134.31
231.604	109.31
231.838	109.31
232.072	147.31
232.306	137.31
232.541	135.31
232.775	128.31
233.009	134.31
233.243	121.31
233.477	129.31
233.711	125.31
233.945	121.31
234.179	136.31
234.413	128.31
234.647	130.31
234.881	129.31
235.115	125.31
235.349	131.31
235.583	140.31
235.817	131.31
236.051	132.31
236.285	146.31
236.519	129.31
236.753	127.31
236.987	134.31
237.221	136.31
237.455	134.31
237.689	128.31
237.922	120.31
238.156	123.31
238.39	130.31
238.624	138.31
238.858	150.31
239.091	147.31
239.325	136.31
239.559	153.31
239.793	164.31
240.027	144.31
240.26	143.31
240.494	141.31
240.728	144.31
240.961	146.31
241.195	143.31
241.429	158.31
241.662	153.31
241.896	160.31
242.13	158.31
242.363	146.31
242.597	166.31
242.83	148.31
243.064	164.31
243.298	147.31
243.531	174.31
243.765	172.31
243.998	178.31
244.232	158.31
244.465	152.31
244.699	170.31
244.932	166.31
245.166	178.31
245.399	183.31
245.633	164.31
245.866	175.31
246.099	192.31
246.333	183.31
246.566	174.31
246.8	178.31
247.033	186.31
247.266	183.31
247.5	184.31
247.733	179.31
247.966	172.31
248.2	180.31
248.433	180.31
248.666	190.31
248.899	191.31
249.133	182.31
249.366	178.31
249.599	195.31
249.832	182.31
250.066	182.31
250.299	195.31
250.532	207.31
250.765	194.31
250.998	200.31
251.231	186.31
251.465	194.31
251.698	192.31
251.931	203.31
252.164	205.31
252.397	190.31
252.63	199.31
252.863	203.31
253.096	208.31
253.329	202.31
253.562	208.31
253.795	208.31
254.028	203.31
254.261	222.31
254.494	211.31
254.727	221.31
254.96	211.31
255.193	213.31
255.426	221.31
255.659	219.31
255.892	207.31
256.124	207.31
256.357	210.31
256.59	215.31
256.823	210.31
257.056	222.31
257.289	206.31
257.521	221.31
257.754	218.31
257.987	222.31
258.22	238.31
258.452	231.31
258.685	239.31
258.918	242.31
259.151	224.31
259.383	229.31
259.616	232.31
259.849	245.31
260.081	228.31
260.314	239.31
260.547	242.31
260.779	234.31
261.012	228.31
261.244	242.31
261.477	242.31
261.71	234.31
261.942	246.31
262.175	266.31
262.407	245.31
262.64	250.31
262.872	253.31
263.105	257.31
263.337	247.31
263.57	240.31
263.802	259.31
264.035	264.31
264.267	268.31
264.499	264.31
264.732	264.31
264.964	258.31
265.197	256.31
265.429	258.31
265.661	247.31
265.894	255.31
266.126	261.31
266.358	258.31
266.591	268.31
266.823	271.31
267.055	277.31
267.287	274.31
267.52	282.31
267.752	270.31
267.984	265.31
268.216	266.31
268.448	272.31
268.681	283.31
268.913	262.31
269.145	271.31
269.377	282.31
269.609	271.31
269.841	286.31
270.073	280.31
270.306	282.31
270.538	296.31
270.77	285.31
271.002	277.31
271.234	287.31
271.466	291.31
271.698	269.31
271.93	276.31
272.162	296.31
272.394	299.31
272.626	301.31
272.858	282.31
273.09	293.31
273.322	298.31
273.553	304.31
273.785	288.31
274.017	302.31
274.249	269.31
274.481	306.31
274.713	278.31
274.945	290.31
275.176	302.31
275.408	307.31
275.64	320.31
275.872	328.31
276.104	309.31
276.335	306.31
276.567	298.31
276.799	323.31
277.031	304.31
277.262	299.31
277.494	333.31
277.726	311.31
277.957	321.31
278.189	323.31
278.421	314.31
278.652	328.31
278.884	320.31
279.115	339.31
279.347	317.31
279.579	336.31
279.81	327.31
280.042	328.31
280.273	333.31
280.505	326.31
280.736	326.31
280.968	340.31
281.199	317.31
281.431	319.31
281.662	344.31
281.894	337.31
282.125	339.31
282.356	348.31
282.588	344.31
282.819	352.31
283.051	361.31
283.282	349.31
283.513	342.31
283.745	362.31
283.976	361.31
284.207	365.31
284.439	337.31
284.67	353.31
284.901	348.31
285.132	353.31
285.364	359.31
285.595	373.31
285.826	346.31
286.057	356.31
286.288	340.31
286.52	373.31
286.751	347.31
286.982	382.31
287.213	382.31
287.444	361.31
287.675	377.31
287.906	374.31
288.138	372.31
288.369	362.31
288.6	347.31
288.831	374.31
289.062	373.31
289.293	358.31
289.524	388.31
289.755	371.31
289.986	348.31
290.217	380.31
290.448	386.31
290.679	388.31
290.91	376.31
291.141	375.31
291.371	377.31
291.602	366.31
291.833	396.31
292.064	396.31
292.295	374.31
292.526	386.31
292.757	383.31
292.987	392.31
293.218	370.31
293.449	387.31
293.68	390.31
293.91	377.31
294.141	379.31
294.372	372.31
294.603	392.31
294.833	391.31
295.064	383.31
295.295	393.31
295.525	390.31
295.756	392.31
295.987	378.31
296.217	413.31
296.448	420.31
296.679	423.31
296.909	387.31
297.14	422.31
297.37	431.31
297.601	427.31
297.831	426.31
298.062	413.31
298.292	422.31
298.523	422.31
298.753	437.31
298.984	418.31
299.214	425.31
299.445	430.31
299.675	426.31
299.905	415.31
300.136	408.31
300.366	441.31
300.597	434.31
300.827	441.31
301.057	466.31
301.288	444.31
301.518	465.31
301.748	448.31
301.979	460.31
302.209	461.31
302.439	445.31
302.669	443.31
302.9	438.31
303.13	412.31
303.36	414.31
303.59	437.31
303.82	422.31
304.051	425.31
304.281	431.31
304.511	439.31
304.741	435.31
304.971	432.31
305.201	447.31
305.431	436.31
305.661	462.31
305.891	427.31
306.121	418.31
306.352	414.31
306.582	412.31
306.812	454.31
307.042	431.31
307.272	440.31
307.502	419.31
307.731	424.31
307.961	440.31
308.191	428.31
308.421	420.31
308.651	440.31
308.881	442.31
309.111	424.31
309.341	418.31
309.571	438.31
309.8	439.31
310.03	446.31
310.26	456.31
310.49	469.31
310.72	429.31
310.949	432.31
311.179	440.31
311.409	431.31
311.639	434.31
311.868	464.31
312.098	441.31
312.328	452.31
312.557	450.31
312.787	456.31
313.017	440.31
313.246	455.31
313.476	455.31
313.706	479.31
313.935	461.31
314.165	454.31
314.394	465.31
314.624	452.31
314.853	458.31
315.083	435.31
315.312	453.31
315.542	457.31
315.771	453.31
316.001	460.31
316.23	450.31
316.46	444.31
316.689	455.31
316.919	448.31
317.148	457.31
317.377	444.31
317.607	449.31
317.836	456.31
318.065	446.31
318.295	445.31
318.524	462.31
318.753	440.31
318.983	445.31
319.212	446.31
319.441	426.31
319.67	448.31
319.9	434.31
320.129	458.31
320.358	438.31
320.587	468.31
320.816	457.31
321.046	443.31
321.275	457.31
321.504	436.31
321.733	452.31
321.962	470.31
322.191	448.31
322.42	455.31
322.649	472.31
322.878	451.31
323.108	457.31
323.337	464.31
323.566	459.31
323.795	461.31
324.024	473.31
324.253	466.31
324.482	456.31
324.71	484.31
324.939	474.31
325.168	462.31
325.397	471.31
325.626	439.31
325.855	484.31
326.084	481.31
326.313	492.31
326.542	514.31
326.77	520.31
326.999	503.31
327.228	487.31
327.457	479.31
327.686	505.31
327.914	491.31
328.143	478.31
328.372	490.31
328.6	499.31
328.829	518.31
329.058	511.31
329.287	490.31
329.515	522.31
329.744	503.31
329.972	491.31
330.201	499.31
330.43	510.31
330.658	520.31
330.887	527.31
331.115	508.31
331.344	519.31
331.572	526.31
331.801	532.31
332.03	549.31
332.258	567.31
332.486	581.31
332.715	590.31
332.943	600.31
333.172	639.31
333.4	644.31
333.629	661.31
333.857	671.31
334.085	665.31
334.314	619.31
334.542	625.31
334.771	630.31
334.999	603.31
335.227	603.31
335.455	617.31
335.684	595.31
335.912	611.31
336.14	595.31
336.369	623.31
336.597	620.31
336.825	607.31
337.053	582.31
337.281	592.31
337.51	581.31
337.738	562.31
337.966	537.31
338.194	552.31
338.422	538.31
338.65	532.31
338.878	558.31
339.106	549.31
339.334	562.31
339.562	543.31
339.79	546.31
340.018	522.31
340.246	516.31
340.474	523.31
340.702	487.31
340.93	534.31
341.158	552.31
341.386	556.31
341.614	573.31
341.842	544.31
342.07	524.31
342.298	550.31
342.526	546.31
342.754	549.31
342.981	522.31
343.209	539.31
343.437	570.31
343.665	610.31
343.893	628.31
344.12	640.31
344.348	636.31
344.576	581.31
344.804	581.31
345.031	551.31
345.259	528.31
345.487	543.31
345.714	535.31
345.942	532.31
346.17	551.31
346.397	556.31
346.625	530.31
346.853	516.31
347.08	523.31
347.308	533.31
347.535	514.31
347.763	514.31
347.99	546.31
348.218	522.31
348.445	541.31
348.673	503.31
348.9	522.31
349.128	494.31
349.355	531.31
349.583	524.31
349.81	488.31
350.037	500.31
350.265	495.31
350.492	477.31
350.72	492.31
350.947	491.31
351.174	489.31
351.402	507.31
351.629	520.31
351.856	498.31
352.083	493.31
352.311	500.31
352.538	527.31
352.765	542.31
352.992	498.31
353.22	491.31
353.447	466.31
353.674	489.31
353.901	465.31
354.128	473.31
354.355	476.31
354.583	474.31
354.81	485.31
355.037	500.31
355.264	492.31
355.491	511.31
355.718	500.31
355.945	480.31
356.172	485.31
356.399	488.31
356.626	511.31
356.853	498.31
357.08	491.31
357.307	500.31
357.534	501.31
357.761	510.31
357.988	468.31
358.215	486.31
358.441	478.31
358.668	487.31
358.895	484.31
359.122	486.31
359.349	493.31
359.576	480.31
359.802	516.31
360.029	495.31
360.256	526.31
360.483	495.31
360.709	475.31
360.936	490.31
361.163	516.31
361.39	500.31
361.616	499.31
361.843	480.31
362.07	499.31
362.296	499.31
362.523	487.31
362.749	516.31
362.976	493.31
363.203	508.31
363.429	498.31
363.656	477.31
363.882	473.31
364.109	508.31
364.335	485.31
364.562	464.31
364.788	480.31
365.015	484.31
365.241	480.31
365.468	487.31
365.694	487.31
365.92	501.31
366.147	500.31
366.373	516.31
366.599	488.31
366.826	500.31
367.052	496.31
367.278	523.31
367.505	493.31
367.731	484.31
367.957	484.31
368.184	502.31
368.41	475.31
368.636	506.31
368.862	490.31
369.089	514.31
369.315	498.31
369.541	505.31
369.767	504.31
369.993	505.31
370.219	514.31
370.445	533.31
370.672	526.31
370.898	520.31
371.124	519.31
371.35	527.31
371.576	532.31
371.802	536.31
372.028	535.31
372.254	514.31
372.48	540.31
372.706	536.31
372.932	577.31
373.158	559.31
373.384	547.31
373.61	543.31
373.835	532.31
374.061	541.31
374.287	540.31
374.513	546.31
374.739	570.31
374.965	570.31
375.191	581.31
375.416	598.31
375.642	576.31
375.868	566.31
376.094	567.31
376.319	548.31
376.545	553.31
376.771	560.31
376.997	556.31
377.222	539.31
377.448	552.31
377.674	527.31
377.899	527.31
378.125	527.31
378.35	543.31
378.576	550.31
378.802	524.31
379.027	547.31
379.253	523.31
379.478	526.31
379.704	532.31
379.929	544.31
380.155	545.31
380.38	517.31
380.606	535.31
380.831	542.31
381.057	557.31
381.282	538.31
381.507	525.31
381.733	557.31
381.958	552.31
382.184	548.31
382.409	536.31
382.634	570.31
382.86	574.31
383.085	550.31
383.31	583.31
383.535	588.31
383.761	610.31
383.986	606.31
384.211	612.31
384.436	606.31
384.662	623.31
384.887	639.31
385.112	639.31
385.337	639.31
385.562	643.31
385.787	634.31
386.013	638.31
386.238	665.31
386.463	643.31
386.688	636.31
386.913	639.31
387.138	632.31
387.363	613.31
387.588	614.31
387.813	612.31
388.038	612.31
388.263	623.31
388.488	623.31
388.713	624.31
388.938	617.31
389.163	630.31
389.387	623.31
389.612	632.31
389.837	620.31
390.062	602.31
390.287	622.31
390.512	615.31
390.736	646.31
390.961	636.31
391.186	652.31
391.411	672.31
391.636	698.31
391.86	697.31
392.085	714.31
392.31	707.31
392.534	665.31
392.759	680.31
392.984	647.31
393.208	676.31
393.433	668.31
393.658	676.31
393.882	670.31
394.107	681.31
394.331	710.31
394.556	687.31
394.78	671.31
395.005	692.31
395.229	684.31
395.454	696.31
395.678	729.31
395.903	718.31
396.127	702.31
396.352	680.31
396.576	686.31
396.801	672.31
397.025	675.31
397.249	686.31
397.474	704.31
397.698	683.31
397.922	700.31
398.147	681.31
398.371	728.31
398.595	751.31
398.82	746.31
399.044	856.31
399.268	916.31
399.492	1018.31
399.717	1179.31
399.941	1185.31
400.165	1032.31
400.389	932.31
400.613	871.31
400.837	810.31
401.062	784.31
401.286	798.31
401.51	758.31
401.734	783.31
401.958	766.31
402.182	788.31
402.406	827.31
402.63	848.31
402.854	851.31
403.078	856.31
403.302	866.31
403.526	879.31
403.75	880.31
403.974	904.31
404.198	908.31
404.422	898.31
404.645	904.31
404.869	874.31
405.093	902.31
405.317	862.31
405.541	871.31
405.765	854.31
405.988	854.31
406.212	866.31
406.436	870.31
406.66	885.31
406.883	908.31
407.107	962.31
407.331	993.31
407.555	1037.31
407.778	1033.31
408.002	999.31
408.226	964.31
408.449	944.31
408.673	914.31
408.896	900.31
409.12	877.31
409.344	926.31
409.567	922.31
409.791	920.31
410.014	936.31
410.238	904.31
410.461	925.31
410.685	867.31
410.908	865.31
411.132	855.31
411.355	831.31
411.578	828.31
411.802	796.31
412.025	828.31
412.249	823.31
412.472	830.31
412.695	809.31
412.919	805.31
413.142	795.31
413.365	765.31
413.589	790.31
413.812	790.31
414.035	767.31
414.258	777.31
414.482	799.31
414.705	815.31
414.928	784.31
415.151	830.31
415.374	775.31
415.597	814.31
415.821	790.31
416.044	766.31
416.267	764.31
416.49	766.31
416.713	767.31
416.936	774.31
417.159	800.31
417.382	774.31
417.605	760.31
417.828	768.31
418.051	770.31
418.274	794.31
418.497	770.31
418.72	793.31
418.943	824.31
419.166	852.31
419.389	889.31
419.611	875.31
419.834	843.31
420.057	811.31
420.28	794.31
420.503	784.31
420.726	756.31
420.948	762.31
421.171	783.31
421.394	783.31
421.617	748.31
421.839	774.31
422.062	782.31
422.285	795.31
422.507	813.31
422.73	802.31
422.953	794.31
423.175	811.31
423.398	820.31
423.621	834.31
423.843	833.31
424.066	856.31
424.288	837.31
424.511	824.31
424.733	811.31
424.956	818.31
425.178	791.31
425.401	790.31
425.623	776.31
425.846	772.31
426.068	770.31
426.291	736.31
426.513	731.31
426.735	732.31
426.958	744.31
427.18	728.31
427.402	722.31
427.625	674.31
427.847	701.31
428.069	691.31
428.292	722.31
428.514	703.31
428.736	711.31
428.958	703.31
429.181	693.31
429.403	679.31
429.625	690.31
429.847	679.31
430.069	689.31
430.292	698.31
430.514	688.31
430.736	674.31
430.958	682.31
431.18	700.31
431.402	700.31
431.624	693.31
431.846	708.31
432.068	731.31
432.29	720.31
432.512	727.31
432.734	706.31
432.956	716.31
433.178	726.31
433.4	721.31
433.622	740.31
433.844	733.31
434.066	717.31
434.287	719.31
434.509	751.31
434.731	766.31
434.953	793.31
435.175	790.31
435.397	769.31
435.618	788.31
435.84	720.31
436.062	719.31
436.284	718.31
436.505	726.31
436.727	715.31
436.949	732.31
437.17	724.31
437.392	692.31
437.614	714.31
437.835	670.31
438.057	706.31
438.278	676.31
438.5	692.31
438.721	682.31
438.943	692.31
439.165	693.31
439.386	675.31
439.608	694.31
439.829	695.31
440.05	699.31
440.272	688.31
440.493	706.31
440.715	698.31
440.936	729.31
441.158	725.31
441.379	759.31
441.6	824.31
441.822	826.31
442.043	803.31
442.264	780.31
442.486	765.31
442.707	763.31
442.928	779.31
443.149	768.31
443.371	811.31
443.592	797.31
443.813	816.31
444.034	792.31
444.255	831.31
444.476	844.31
444.698	917.31
444.919	932.31
445.14	1019.31
445.361	923.31
445.582	812.31
445.803	779.31
446.024	752.31
446.245	764.31
446.466	738.31
446.687	724.31
446.908	699.31
447.129	714.31
447.35	659.31
447.571	674.31
447.792	665.31
448.013	670.31
448.234	651.31
448.455	660.31
448.675	656.31
448.896	661.31
449.117	654.31
449.338	648.31
449.559	638.31
449.779	660.31
450	635.31
450.221	646.31
450.442	662.31
450.662	677.31
450.883	662.31
451.104	677.31
451.324	682.31
451.545	681.31
451.766	694.31
451.986	664.31
452.207	641.31
452.428	674.31
452.648	657.31
452.869	661.31
453.089	667.31
453.31	666.31
453.53	650.31
453.751	655.31
453.971	611.31
454.192	650.31
454.412	633.31
454.633	597.31
454.853	635.31
455.073	606.31
455.294	616.31
455.514	600.31
455.734	639.31
455.955	625.31
456.175	625.31
456.395	622.31
456.616	604.31
456.836	628.31
457.056	639.31
457.276	608.31
457.497	611.31
457.717	618.31
457.937	646.31
458.157	636.31
458.377	645.31
458.598	640.31
458.818	654.31
459.038	669.31
459.258	679.31
459.478	732.31
459.698	736.31
459.918	774.31
460.138	766.31
460.358	821.31
460.578	834.31
460.798	854.31
461.018	856.31
461.238	835.31
461.458	836.31
461.678	814.31
461.898	858.31
462.118	837.31
462.338	887.31
462.558	930.31
462.777	968.31
462.997	1028.31
463.217	1108.31
463.437	1164.31
463.657	1071.31
463.876	980.31
464.096	1009.31
464.316	989.31
464.536	995.31
464.755	935.31
464.975	925.31
465.195	883.31
465.414	843.31
465.634	781.31
465.854	743.31
466.073	753.31
466.293	732.31
466.512	692.31
466.732	683.31
466.951	693.31
467.171	679.31
467.391	720.31
467.61	678.31
467.829	672.31
468.049	666.31
468.268	679.31
468.488	662.31
468.707	655.31
468.927	658.31
469.146	654.31
469.365	693.31
469.585	693.31
469.804	679.31
470.023	693.31
470.243	700.31
470.462	720.31
470.681	706.31
470.901	700.31
471.12	711.31
471.339	652.31
471.558	657.31
471.777	678.31
471.997	672.31
472.216	670.31
472.435	649.31
472.654	634.31
472.873	652.31
473.092	643.31
473.311	641.31
473.53	656.31
473.749	652.31
473.968	662.31
474.187	650.31
474.406	657.31
474.625	652.31
474.844	671.31
475.063	656.31
475.282	636.31
475.501	654.31
475.72	656.31
475.939	645.31
476.158	678.31
476.377	652.31
476.596	680.31
476.814	668.31
477.033	686.31
477.252	694.31
477.471	714.31
477.69	739.31
477.908	754.31
478.127	770.31
478.346	787.31
478.564	769.31
478.783	802.31
479.002	803.31
479.22	826.31
479.439	823.31
479.658	799.31
479.876	814.31
480.095	799.31
480.313	870.31
480.532	862.31
480.751	868.31
480.969	836.31
481.188	767.31
481.406	794.31
481.624	770.31
481.843	765.31
482.061	772.31
482.28	773.31
482.498	751.31
482.717	743.31
482.935	759.31
483.153	750.31
483.372	785.31
483.59	762.31
483.808	762.31
484.027	760.31
484.245	754.31
484.463	762.31
484.681	804.31
484.9	816.31
485.118	802.31
485.336	802.31
485.554	815.31
485.772	810.31
485.99	800.31
486.209	818.31
486.427	776.31
486.645	798.31
486.863	822.31
487.081	800.31
487.299	802.31
487.517	809.31
487.735	791.31
487.953	815.31
488.171	787.31
488.389	782.31
488.607	788.31
488.825	758.31
489.043	767.31
489.261	781.31
489.479	784.31
489.696	771.31
489.914	771.31
490.132	773.31
490.35	775.31
490.568	766.31
490.786	771.31
491.003	781.31
491.221	802.31
491.439	786.31
491.657	794.31
491.874	788.31
492.092	779.31
492.31	805.31
492.527	808.31
492.745	791.31
492.963	801.31
493.18	812.31
493.398	827.31
493.615	812.31
493.833	812.31
494.05	817.31
494.268	830.31
494.485	812.31
494.703	814.31
494.92	859.31
495.138	818.31
495.355	814.31
495.573	830.31
495.79	840.31
496.008	848.31
496.225	827.31
496.442	829.31
496.66	855.31
496.877	855.31
497.094	863.31
497.312	860.31
497.529	870.31
497.746	907.31
497.963	932.31
498.181	990.31
498.398	1038.31
498.615	1064.31
498.832	1158.31
499.049	1226.31
499.267	1306.31
499.484	1445.31
499.701	1583.31
499.918	1740.31
500.135	2018.31
500.352	2294.31
500.569	2447.31
500.786	2411.31
501.003	2213.31
501.22	1994.31
