Data from Ni(NO3)2@0.25M.TitratingCurve.Agarose3%dH2O.NegLispCup.LampEnergy10.LIBS07252019_HRD10591_18-05-08-566.txt Node
Date: Thu Jul 25 18:05:08 EDT 2019
User: cochatt
Spectrometer: HR+D1059
Trigger mode: 1
Integration Time (sec): 1.000000E-1
Scans to average: 1
Electric dark correction enabled: true
Nonlinearity correction enabled: false
Boxcar width: 0
XAxis mode: Wavelengths
Number of Pixels in Spectrum: 2048
>>>>>Begin Spectral Data<<<<<
223.165	-13.38
223.4	-13.38
223.635	-13.38
223.869	-8.38
224.104	-10.38
224.338	-5.38
224.573	-18.38
224.808	-17.38
225.042	-20.38
225.277	-3.38
225.511	-6.38
225.746	-3.38
225.98	20.62
226.215	1.62
226.449	13.62
226.683	20.62
226.918	27.62
227.152	22.62
227.387	27.62
227.621	45.62
227.856	35.62
228.09	45.62
228.324	52.62
228.559	53.62
228.793	54.62
229.027	73.62
229.262	84.62
229.496	85.62
229.73	98.62
229.964	94.62
230.199	96.62
230.433	103.62
230.667	107.62
230.901	104.62
231.136	111.62
231.37	93.62
231.604	119.62
231.838	118.62
232.072	102.62
232.306	103.62
232.541	122.62
232.775	117.62
233.009	108.62
233.243	116.62
233.477	100.62
233.711	105.62
233.945	119.62
234.179	117.62
234.413	122.62
234.647	108.62
234.881	108.62
235.115	102.62
235.349	117.62
235.583	102.62
235.817	103.62
236.051	97.62
236.285	118.62
236.519	116.62
236.753	113.62
236.987	122.62
237.221	134.62
237.455	109.62
237.689	115.62
237.922	109.62
238.156	106.62
238.39	113.62
238.624	112.62
238.858	119.62
239.091	137.62
239.325	122.62
239.559	125.62
239.793	127.62
240.027	126.62
240.26	115.62
240.494	105.62
240.728	132.62
240.961	129.62
241.195	120.62
241.429	137.62
241.662	126.62
241.896	139.62
242.13	130.62
242.363	124.62
242.597	121.62
242.83	145.62
243.064	142.62
243.298	135.62
243.531	123.62
243.765	121.62
243.998	127.62
244.232	133.62
244.465	128.62
244.699	153.62
244.932	148.62
245.166	137.62
245.399	129.62
245.633	138.62
245.866	142.62
246.099	149.62
246.333	145.62
246.566	145.62
246.8	139.62
247.033	149.62
247.266	157.62
247.5	141.62
247.733	136.62
247.966	143.62
248.2	146.62
248.433	163.62
248.666	159.62
248.899	151.62
249.133	157.62
249.366	169.62
249.599	153.62
249.832	180.62
250.066	163.62
250.299	155.62
250.532	168.62
250.765	181.62
250.998	159.62
251.231	184.62
251.465	177.62
251.698	185.62
251.931	184.62
252.164	176.62
252.397	173.62
252.63	174.62
252.863	174.62
253.096	204.62
253.329	192.62
253.562	200.62
253.795	193.62
254.028	192.62
254.261	197.62
254.494	193.62
254.727	206.62
254.96	182.62
255.193	192.62
255.426	211.62
255.659	208.62
255.892	207.62
256.124	217.62
256.357	228.62
256.59	215.62
256.823	207.62
257.056	215.62
257.289	207.62
257.521	228.62
257.754	205.62
257.987	208.62
258.22	227.62
258.452	224.62
258.685	210.62
258.918	236.62
259.151	236.62
259.383	218.62
259.616	214.62
259.849	241.62
260.081	239.62
260.314	233.62
260.547	231.62
260.779	237.62
261.012	245.62
261.244	239.62
261.477	253.62
261.71	248.62
261.942	233.62
262.175	238.62
262.407	239.62
262.64	235.62
262.872	264.62
263.105	229.62
263.337	241.62
263.57	247.62
263.802	222.62
264.035	243.62
264.267	255.62
264.499	241.62
264.732	240.62
264.964	253.62
265.197	263.62
265.429	260.62
265.661	268.62
265.894	264.62
266.126	256.62
266.358	263.62
266.591	264.62
266.823	240.62
267.055	268.62
267.287	269.62
267.52	253.62
267.752	277.62
267.984	255.62
268.216	265.62
268.448	255.62
268.681	269.62
268.913	288.62
269.145	249.62
269.377	250.62
269.609	249.62
269.841	254.62
270.073	256.62
270.306	267.62
270.538	259.62
270.77	257.62
271.002	272.62
271.234	261.62
271.466	275.62
271.698	263.62
271.93	280.62
272.162	283.62
272.394	285.62
272.626	273.62
272.858	268.62
273.09	257.62
273.322	265.62
273.553	277.62
273.785	276.62
274.017	302.62
274.249	275.62
274.481	285.62
274.713	291.62
274.945	272.62
275.176	302.62
275.408	291.62
275.64	288.62
275.872	303.62
276.104	294.62
276.335	291.62
276.567	286.62
276.799	276.62
277.031	287.62
277.262	287.62
277.494	309.62
277.726	299.62
277.957	304.62
278.189	296.62
278.421	297.62
278.652	301.62
278.884	294.62
279.115	291.62
279.347	290.62
279.579	300.62
279.81	297.62
280.042	305.62
280.273	301.62
280.505	294.62
280.736	295.62
280.968	295.62
281.199	314.62
281.431	319.62
281.662	298.62
281.894	309.62
282.125	323.62
282.356	307.62
282.588	313.62
282.819	315.62
283.051	326.62
283.282	313.62
283.513	319.62
283.745	312.62
283.976	303.62
284.207	309.62
284.439	319.62
284.67	321.62
284.901	304.62
285.132	324.62
285.364	310.62
285.595	332.62
285.826	324.62
286.057	331.62
286.288	320.62
286.52	325.62
286.751	320.62
286.982	320.62
287.213	323.62
287.444	317.62
287.675	322.62
287.906	326.62
288.138	336.62
288.369	310.62
288.6	333.62
288.831	327.62
289.062	323.62
289.293	323.62
289.524	323.62
289.755	322.62
289.986	331.62
290.217	335.62
290.448	315.62
290.679	308.62
290.91	342.62
291.141	324.62
291.371	330.62
291.602	325.62
291.833	310.62
292.064	323.62
292.295	301.62
292.526	331.62
292.757	334.62
292.987	319.62
293.218	335.62
293.449	352.62
293.68	326.62
293.91	325.62
294.141	367.62
294.372	337.62
294.603	355.62
294.833	328.62
295.064	341.62
295.295	343.62
295.525	337.62
295.756	351.62
295.987	322.62
296.217	347.62
296.448	330.62
296.679	347.62
296.909	328.62
297.14	344.62
297.37	345.62
297.601	350.62
297.831	349.62
298.062	360.62
298.292	355.62
298.523	373.62
298.753	367.62
298.984	342.62
299.214	333.62
299.445	351.62
299.675	365.62
299.905	355.62
300.136	341.62
300.366	348.62
300.597	366.62
300.827	373.62
301.057	364.62
301.288	363.62
301.518	355.62
301.748	374.62
301.979	385.62
302.209	374.62
302.439	351.62
302.669	361.62
302.9	361.62
303.13	375.62
303.36	365.62
303.59	375.62
303.82	377.62
304.051	376.62
304.281	372.62
304.511	377.62
304.741	360.62
304.971	365.62
305.201	349.62
305.431	369.62
305.661	347.62
305.891	376.62
306.121	365.62
306.352	371.62
306.582	363.62
306.812	357.62
307.042	365.62
307.272	363.62
307.502	354.62
307.731	349.62
307.961	374.62
308.191	377.62
308.421	379.62
308.651	368.62
308.881	379.62
309.111	383.62
309.341	361.62
309.571	374.62
309.8	375.62
310.03	383.62
310.26	399.62
310.49	367.62
310.72	375.62
310.949	376.62
311.179	402.62
311.409	389.62
311.639	367.62
311.868	389.62
312.098	399.62
312.328	406.62
312.557	391.62
312.787	392.62
313.017	401.62
313.246	395.62
313.476	410.62
313.706	418.62
313.935	411.62
314.165	406.62
314.394	420.62
314.624	429.62
314.853	427.62
315.083	398.62
315.312	426.62
315.542	413.62
315.771	424.62
316.001	441.62
316.23	411.62
316.46	417.62
316.689	425.62
316.919	404.62
317.148	436.62
317.377	430.62
317.607	417.62
317.836	432.62
318.065	422.62
318.295	415.62
318.524	405.62
318.753	442.62
318.983	420.62
319.212	417.62
319.441	439.62
319.67	427.62
319.9	435.62
320.129	432.62
320.358	438.62
320.587	458.62
320.816	448.62
321.046	435.62
321.275	469.62
321.504	450.62
321.733	441.62
321.962	447.62
322.191	461.62
322.42	457.62
322.649	444.62
322.878	475.62
323.108	461.62
323.337	474.62
323.566	471.62
323.795	477.62
324.024	478.62
324.253	477.62
324.482	469.62
324.71	487.62
324.939	485.62
325.168	467.62
325.397	488.62
325.626	488.62
325.855	467.62
326.084	498.62
326.313	521.62
326.542	525.62
326.77	511.62
326.999	525.62
327.228	511.62
327.457	509.62
327.686	503.62
327.914	521.62
328.143	542.62
328.372	505.62
328.6	541.62
328.829	535.62
329.058	522.62
329.287	520.62
329.515	534.62
329.744	533.62
329.972	543.62
330.201	539.62
330.43	554.62
330.658	562.62
330.887	548.62
331.115	571.62
331.344	585.62
331.572	566.62
331.801	587.62
332.03	583.62
332.258	593.62
332.486	608.62
332.715	633.62
332.943	624.62
333.172	659.62
333.4	685.62
333.629	704.62
333.857	661.62
334.085	673.62
334.314	706.62
334.542	691.62
334.771	671.62
334.999	694.62
335.227	687.62
335.455	686.62
335.684	697.62
335.912	702.62
336.14	650.62
336.369	678.62
336.597	677.62
336.825	693.62
337.053	676.62
337.281	655.62
337.51	665.62
337.738	637.62
337.966	643.62
338.194	650.62
338.422	644.62
338.65	611.62
338.878	610.62
339.106	613.62
339.334	618.62
339.562	623.62
339.79	601.62
340.018	579.62
340.246	591.62
340.474	596.62
340.702	604.62
340.93	620.62
341.158	597.62
341.386	620.62
341.614	620.62
341.842	616.62
342.07	587.62
342.298	611.62
342.526	598.62
342.754	614.62
342.981	592.62
343.209	631.62
343.437	621.62
343.665	655.62
343.893	675.62
344.12	674.62
344.348	681.62
344.576	662.62
344.804	671.62
345.031	675.62
345.259	630.62
345.487	622.62
345.714	600.62
345.942	616.62
346.17	628.62
346.397	611.62
346.625	591.62
346.853	604.62
347.08	583.62
347.308	573.62
347.535	571.62
347.763	592.62
347.99	569.62
348.218	601.62
348.445	575.62
348.673	576.62
348.9	584.62
349.128	592.62
349.355	584.62
349.583	610.62
349.81	581.62
350.037	563.62
350.265	566.62
350.492	561.62
350.72	571.62
350.947	573.62
351.174	578.62
351.402	588.62
351.629	569.62
351.856	586.62
352.083	550.62
352.311	588.62
352.538	575.62
352.765	587.62
352.992	556.62
353.22	555.62
353.447	547.62
353.674	577.62
353.901	547.62
354.128	547.62
354.355	550.62
354.583	541.62
354.81	546.62
355.037	563.62
355.264	572.62
355.491	545.62
355.718	559.62
355.945	560.62
356.172	544.62
356.399	549.62
356.626	585.62
356.853	563.62
357.08	550.62
357.307	567.62
357.534	567.62
357.761	551.62
357.988	568.62
358.215	565.62
358.441	565.62
358.668	548.62
358.895	559.62
359.122	536.62
359.349	555.62
359.576	536.62
359.802	555.62
360.029	551.62
360.256	551.62
360.483	541.62
360.709	550.62
360.936	547.62
361.163	583.62
361.39	541.62
361.616	544.62
361.843	590.62
362.07	577.62
362.296	555.62
362.523	553.62
362.749	554.62
362.976	551.62
363.203	551.62
363.429	541.62
363.656	537.62
363.882	544.62
364.109	568.62
364.335	537.62
364.562	544.62
364.788	542.62
365.015	553.62
365.241	535.62
365.468	539.62
365.694	546.62
365.92	544.62
366.147	533.62
366.373	532.62
366.599	552.62
366.826	551.62
367.052	525.62
367.278	560.62
367.505	559.62
367.731	540.62
367.957	539.62
368.184	543.62
368.41	543.62
368.636	552.62
368.862	547.62
369.089	553.62
369.315	539.62
369.541	556.62
369.767	551.62
369.993	545.62
370.219	554.62
370.445	552.62
370.672	563.62
370.898	590.62
371.124	574.62
371.35	588.62
371.576	581.62
371.802	569.62
372.028	579.62
372.254	588.62
372.48	558.62
372.706	596.62
372.932	601.62
373.158	599.62
373.384	583.62
373.61	577.62
373.835	563.62
374.061	589.62
374.287	573.62
374.513	574.62
374.739	606.62
374.965	622.62
375.191	615.62
375.416	608.62
375.642	589.62
375.868	595.62
376.094	604.62
376.319	580.62
376.545	566.62
376.771	565.62
376.997	566.62
377.222	563.62
377.448	565.62
377.674	570.62
377.899	587.62
378.125	576.62
378.35	563.62
378.576	569.62
378.802	554.62
379.027	565.62
379.253	558.62
379.478	566.62
379.704	557.62
379.929	571.62
380.155	545.62
380.38	558.62
380.606	530.62
380.831	560.62
381.057	575.62
381.282	555.62
381.507	558.62
381.733	570.62
381.958	588.62
382.184	556.62
382.409	572.62
382.634	569.62
382.86	576.62
383.085	578.62
383.31	579.62
383.535	576.62
383.761	602.62
383.986	596.62
384.211	599.62
384.436	603.62
384.662	613.62
384.887	623.62
385.112	627.62
385.337	649.62
385.562	643.62
385.787	638.62
386.013	657.62
386.238	633.62
386.463	652.62
386.688	645.62
386.913	635.62
387.138	632.62
387.363	626.62
387.588	654.62
387.813	665.62
388.038	651.62
388.263	652.62
388.488	649.62
388.713	639.62
388.938	658.62
389.163	640.62
389.387	627.62
389.612	651.62
389.837	648.62
390.062	640.62
390.287	638.62
390.512	641.62
390.736	656.62
390.961	667.62
391.186	660.62
391.411	701.62
391.636	685.62
391.86	711.62
392.085	713.62
392.31	688.62
392.534	697.62
392.759	675.62
392.984	703.62
393.208	679.62
393.433	685.62
393.658	657.62
393.882	682.62
394.107	686.62
394.331	694.62
394.556	683.62
394.78	702.62
395.005	707.62
395.229	720.62
395.454	724.62
395.678	745.62
395.903	704.62
396.127	712.62
396.352	713.62
396.576	694.62
396.801	705.62
397.025	709.62
397.249	728.62
397.474	741.62
397.698	728.62
397.922	756.62
398.147	731.62
398.371	763.62
398.595	784.62
398.82	823.62
399.044	861.62
399.268	899.62
399.492	983.62
399.717	1053.62
399.941	1087.62
400.165	1025.62
400.389	958.62
400.613	895.62
400.837	889.62
401.062	850.62
401.286	831.62
401.51	833.62
401.734	844.62
401.958	842.62
402.182	848.62
402.406	821.62
402.63	834.62
402.854	822.62
403.078	826.62
403.302	879.62
403.526	871.62
403.75	871.62
403.974	900.62
404.198	876.62
404.422	872.62
404.645	890.62
404.869	877.62
405.093	898.62
405.317	869.62
405.541	881.62
405.765	877.62
405.988	864.62
406.212	876.62
406.436	907.62
406.66	940.62
406.883	928.62
407.107	940.62
407.331	990.62
407.555	996.62
407.778	992.62
408.002	1017.62
408.226	970.62
408.449	943.62
408.673	933.62
408.896	939.62
409.12	924.62
409.344	929.62
409.567	921.62
409.791	921.62
410.014	903.62
410.238	906.62
410.461	927.62
410.685	903.62
410.908	873.62
411.132	888.62
411.355	863.62
411.578	849.62
411.802	874.62
412.025	860.62
412.249	861.62
412.472	860.62
412.695	835.62
412.919	848.62
413.142	848.62
413.365	848.62
413.589	849.62
413.812	849.62
414.035	852.62
414.258	823.62
414.482	823.62
414.705	857.62
414.928	841.62
415.151	847.62
415.374	868.62
415.597	847.62
415.821	834.62
416.044	839.62
416.267	824.62
416.49	798.62
416.713	825.62
416.936	813.62
417.159	813.62
417.382	827.62
417.605	808.62
417.828	835.62
418.051	833.62
418.274	837.62
418.497	823.62
418.72	861.62
418.943	837.62
419.166	903.62
419.389	961.62
419.611	949.62
419.834	897.62
420.057	895.62
420.28	896.62
420.503	846.62
420.726	839.62
420.948	838.62
421.171	853.62
421.394	830.62
421.617	843.62
421.839	839.62
422.062	887.62
422.285	847.62
422.507	849.62
422.73	868.62
422.953	843.62
423.175	847.62
423.398	858.62
423.621	865.62
423.843	886.62
424.066	846.62
424.288	884.62
424.511	878.62
424.733	857.62
424.956	862.62
425.178	842.62
425.401	854.62
425.623	849.62
425.846	834.62
426.068	809.62
426.291	838.62
426.513	820.62
426.735	812.62
426.958	816.62
427.18	815.62
427.402	807.62
427.625	791.62
427.847	783.62
428.069	814.62
428.292	813.62
428.514	785.62
428.736	798.62
428.958	797.62
429.181	797.62
429.403	786.62
429.625	808.62
429.847	773.62
430.069	759.62
430.292	756.62
430.514	779.62
430.736	789.62
430.958	789.62
431.18	796.62
431.402	785.62
431.624	800.62
431.846	816.62
432.068	783.62
432.29	800.62
432.512	800.62
432.734	801.62
432.956	773.62
433.178	821.62
433.4	796.62
433.622	786.62
433.844	837.62
434.066	804.62
434.287	833.62
434.509	838.62
434.731	863.62
434.953	862.62
435.175	853.62
435.397	864.62
435.618	858.62
435.84	822.62
436.062	796.62
436.284	777.62
436.505	803.62
436.727	833.62
436.949	818.62
437.17	807.62
437.392	803.62
437.614	816.62
437.835	788.62
438.057	774.62
438.278	789.62
438.5	772.62
438.721	793.62
438.943	808.62
439.165	788.62
439.386	790.62
439.608	798.62
439.829	804.62
440.05	821.62
440.272	816.62
440.493	824.62
440.715	807.62
440.936	835.62
441.158	848.62
441.379	847.62
441.6	887.62
441.822	900.62
442.043	893.62
442.264	878.62
442.486	866.62
442.707	871.62
442.928	879.62
443.149	874.62
443.371	854.62
443.592	890.62
443.813	874.62
444.034	895.62
444.255	929.62
444.476	936.62
444.698	958.62
444.919	996.62
445.14	1100.62
445.361	977.62
445.582	910.62
445.803	876.62
446.024	868.62
446.245	883.62
446.466	880.62
446.687	836.62
446.908	843.62
447.129	817.62
447.35	788.62
447.571	800.62
447.792	778.62
448.013	776.62
448.234	771.62
448.455	782.62
448.675	713.62
448.896	767.62
449.117	746.62
449.338	760.62
449.559	742.62
449.779	729.62
450	716.62
450.221	732.62
450.442	744.62
450.662	752.62
450.883	766.62
451.104	729.62
451.324	752.62
451.545	784.62
451.766	733.62
451.986	723.62
452.207	750.62
452.428	762.62
452.648	746.62
452.869	732.62
453.089	702.62
453.31	717.62
453.53	699.62
453.751	685.62
453.971	695.62
454.192	682.62
454.412	679.62
454.633	727.62
454.853	726.62
455.073	696.62
455.294	723.62
455.514	726.62
455.734	691.62
455.955	678.62
456.175	690.62
456.395	702.62
456.616	694.62
456.836	687.62
457.056	688.62
457.276	702.62
457.497	709.62
457.717	707.62
457.937	703.62
458.157	732.62
458.377	725.62
458.598	768.62
458.818	757.62
459.038	768.62
459.258	799.62
459.478	808.62
459.698	823.62
459.918	841.62
460.138	850.62
460.358	906.62
460.578	883.62
460.798	920.62
461.018	919.62
461.238	925.62
461.458	918.62
461.678	951.62
461.898	967.62
462.118	946.62
462.338	985.62
462.558	975.62
462.777	1067.62
462.997	1094.62
463.217	1124.62
463.437	1144.62
463.657	1107.62
463.876	1061.62
464.096	1081.62
464.316	1043.62
464.536	1054.62
464.755	1057.62
464.975	992.62
465.195	945.62
465.414	903.62
465.634	847.62
465.854	842.62
466.073	860.62
466.293	823.62
466.512	829.62
466.732	796.62
466.951	806.62
467.171	793.62
467.391	785.62
467.61	787.62
467.829	771.62
468.049	768.62
468.268	733.62
468.488	765.62
468.707	786.62
468.927	735.62
469.146	775.62
469.365	792.62
469.585	767.62
469.804	769.62
470.023	762.62
470.243	773.62
470.462	800.62
470.681	812.62
470.901	830.62
471.12	799.62
471.339	776.62
471.558	774.62
471.777	786.62
471.997	763.62
472.216	752.62
472.435	759.62
472.654	757.62
472.873	715.62
473.092	743.62
473.311	757.62
473.53	760.62
473.749	757.62
473.968	746.62
474.187	741.62
474.406	759.62
474.625	735.62
474.844	728.62
475.063	753.62
475.282	750.62
475.501	724.62
475.72	769.62
475.939	744.62
476.158	776.62
476.377	807.62
476.596	795.62
476.814	772.62
477.033	773.62
477.252	810.62
477.471	795.62
477.69	811.62
477.908	833.62
478.127	876.62
478.346	864.62
478.564	872.62
478.783	878.62
479.002	901.62
479.22	879.62
479.439	902.62
479.658	930.62
479.876	905.62
480.095	910.62
480.313	921.62
480.532	947.62
480.751	933.62
480.969	925.62
481.188	865.62
481.406	886.62
481.624	883.62
481.843	849.62
482.061	868.62
482.28	852.62
482.498	858.62
482.717	835.62
482.935	849.62
483.153	845.62
483.372	859.62
483.59	861.62
483.808	850.62
484.027	859.62
484.245	844.62
484.463	869.62
484.681	849.62
484.9	889.62
485.118	870.62
485.336	867.62
485.554	880.62
485.772	881.62
485.99	888.62
486.209	893.62
486.427	885.62
486.645	893.62
486.863	881.62
487.081	852.62
487.299	877.62
487.517	909.62
487.735	886.62
487.953	904.62
488.171	887.62
488.389	896.62
488.607	829.62
488.825	888.62
489.043	869.62
489.261	854.62
489.479	878.62
489.696	863.62
489.914	885.62
490.132	883.62
490.35	908.62
490.568	909.62
490.786	911.62
491.003	912.62
491.221	935.62
491.439	907.62
491.657	928.62
491.874	941.62
492.092	931.62
492.31	973.62
492.527	936.62
492.745	924.62
492.963	919.62
493.18	922.62
493.398	959.62
493.615	921.62
493.833	959.62
494.05	977.62
494.268	960.62
494.485	960.62
494.703	966.62
494.92	984.62
495.138	972.62
495.355	998.62
495.573	994.62
495.79	985.62
496.008	1031.62
496.225	1010.62
496.442	1039.62
496.66	1004.62
496.877	1051.62
497.094	1047.62
497.312	1092.62
497.529	1072.62
497.746	1108.62
497.963	1189.62
498.181	1175.62
498.398	1200.62
498.615	1324.62
498.832	1356.62
499.049	1466.62
499.267	1528.62
499.484	1625.62
499.701	1729.62
499.918	1894.62
500.135	2048.62
500.352	2249.62
500.569	2279.62
500.786	2286.62
501.003	2152.62
501.22	2078.62
