Data from Ni(NO3)2Standard.Agarose3%.GreenCap.LampEnergy5.5.E.O_HRD10591_14-42-35-188.txt Node
Date: Mon Jul 22 14:42:35 EDT 2019
User: cochatt
Spectrometer: HR+D1059
Trigger mode: 1
Integration Time (sec): 1.000000E-1
Scans to average: 1
Electric dark correction enabled: true
Nonlinearity correction enabled: false
Boxcar width: 0
XAxis mode: Wavelengths
Number of Pixels in Spectrum: 2048
>>>>>Begin Spectral Data<<<<<
223.165	2.56
223.4	2.56
223.635	2.56
223.869	-27.44
224.104	-20.44
224.338	-8.44
224.573	-9.44
224.808	-13.44
225.042	-17.44
225.277	-5.44
225.511	-4.44
225.746	-6.44
225.98	8.56
226.215	15.56
226.449	12.56
226.683	14.56
226.918	33.56
227.152	25.56
227.387	41.56
227.621	47.56
227.856	43.56
228.09	46.56
228.324	60.56
228.559	55.56
228.793	71.56
229.027	59.56
229.262	64.56
229.496	71.56
229.73	81.56
229.964	73.56
230.199	71.56
230.433	65.56
230.667	73.56
230.901	84.56
231.136	76.56
231.37	81.56
231.604	89.56
231.838	89.56
232.072	86.56
232.306	72.56
232.541	83.56
232.775	81.56
233.009	87.56
233.243	98.56
233.477	94.56
233.711	68.56
233.945	92.56
234.179	91.56
234.413	89.56
234.647	84.56
234.881	96.56
235.115	87.56
235.349	79.56
235.583	76.56
235.817	86.56
236.051	89.56
236.285	71.56
236.519	74.56
236.753	94.56
236.987	78.56
237.221	82.56
237.455	76.56
237.689	88.56
237.922	82.56
238.156	82.56
238.39	79.56
238.624	91.56
238.858	97.56
239.091	75.56
239.325	75.56
239.559	85.56
239.793	89.56
240.027	77.56
240.26	77.56
240.494	75.56
240.728	69.56
240.961	78.56
241.195	80.56
241.429	73.56
241.662	65.56
241.896	86.56
242.13	76.56
242.363	92.56
242.597	87.56
242.83	91.56
243.064	96.56
243.298	91.56
243.531	72.56
243.765	80.56
243.998	86.56
244.232	78.56
244.465	91.56
244.699	93.56
244.932	110.56
245.166	78.56
245.399	91.56
245.633	93.56
245.866	76.56
246.099	83.56
246.333	85.56
246.566	93.56
246.8	77.56
247.033	80.56
247.266	75.56
247.5	76.56
247.733	87.56
247.966	88.56
248.2	69.56
248.433	66.56
248.666	97.56
248.899	86.56
249.133	93.56
249.366	65.56
249.599	85.56
249.832	76.56
250.066	73.56
250.299	84.56
250.532	99.56
250.765	80.56
250.998	89.56
251.231	76.56
251.465	80.56
251.698	85.56
251.931	84.56
252.164	66.56
252.397	83.56
252.63	84.56
252.863	82.56
253.096	88.56
253.329	83.56
253.562	83.56
253.795	89.56
254.028	90.56
254.261	83.56
254.494	88.56
254.727	81.56
254.96	74.56
255.193	83.56
255.426	90.56
255.659	85.56
255.892	87.56
256.124	81.56
256.357	94.56
256.59	88.56
256.823	80.56
257.056	78.56
257.289	89.56
257.521	95.56
257.754	86.56
257.987	96.56
258.22	86.56
258.452	76.56
258.685	87.56
258.918	85.56
259.151	71.56
259.383	89.56
259.616	69.56
259.849	84.56
260.081	88.56
260.314	88.56
260.547	82.56
260.779	87.56
261.012	79.56
261.244	97.56
261.477	90.56
261.71	86.56
261.942	82.56
262.175	92.56
262.407	83.56
262.64	70.56
262.872	85.56
263.105	86.56
263.337	94.56
263.57	76.56
263.802	85.56
264.035	95.56
264.267	86.56
264.499	89.56
264.732	81.56
264.964	77.56
265.197	80.56
265.429	91.56
265.661	87.56
265.894	87.56
266.126	92.56
266.358	82.56
266.591	93.56
266.823	80.56
267.055	100.56
267.287	96.56
267.52	88.56
267.752	77.56
267.984	80.56
268.216	86.56
268.448	97.56
268.681	84.56
268.913	89.56
269.145	89.56
269.377	96.56
269.609	94.56
269.841	89.56
270.073	93.56
270.306	82.56
270.538	77.56
270.77	78.56
271.002	70.56
271.234	82.56
271.466	88.56
271.698	75.56
271.93	82.56
272.162	69.56
272.394	99.56
272.626	80.56
272.858	97.56
273.09	72.56
273.322	78.56
273.553	97.56
273.785	89.56
274.017	97.56
274.249	95.56
274.481	94.56
274.713	87.56
274.945	91.56
275.176	70.56
275.408	84.56
275.64	88.56
275.872	92.56
276.104	103.56
276.335	100.56
276.567	87.56
276.799	91.56
277.031	86.56
277.262	80.56
277.494	97.56
277.726	88.56
277.957	78.56
278.189	87.56
278.421	87.56
278.652	92.56
278.884	90.56
279.115	73.56
279.347	85.56
279.579	86.56
279.81	100.56
280.042	98.56
280.273	92.56
280.505	89.56
280.736	86.56
280.968	85.56
281.199	90.56
281.431	74.56
281.662	87.56
281.894	85.56
282.125	91.56
282.356	96.56
282.588	79.56
282.819	85.56
283.051	88.56
283.282	82.56
283.513	100.56
283.745	89.56
283.976	82.56
284.207	76.56
284.439	95.56
284.67	89.56
284.901	82.56
285.132	87.56
285.364	80.56
285.595	83.56
285.826	94.56
286.057	94.56
286.288	82.56
286.52	97.56
286.751	85.56
286.982	90.56
287.213	75.56
287.444	106.56
287.675	88.56
287.906	81.56
288.138	98.56
288.369	83.56
288.6	96.56
288.831	96.56
289.062	99.56
289.293	88.56
289.524	88.56
289.755	82.56
289.986	78.56
290.217	84.56
290.448	90.56
290.679	95.56
290.91	101.56
291.141	82.56
291.371	80.56
291.602	81.56
291.833	85.56
292.064	101.56
292.295	93.56
292.526	86.56
292.757	80.56
292.987	96.56
293.218	101.56
293.449	83.56
293.68	95.56
293.91	88.56
294.141	95.56
294.372	94.56
294.603	81.56
294.833	100.56
295.064	97.56
295.295	86.56
295.525	77.56
295.756	94.56
295.987	93.56
296.217	84.56
296.448	98.56
296.679	102.56
296.909	81.56
297.14	92.56
297.37	84.56
297.601	87.56
297.831	88.56
298.062	105.56
298.292	97.56
298.523	93.56
298.753	98.56
298.984	78.56
299.214	102.56
299.445	96.56
299.675	89.56
299.905	94.56
300.136	86.56
300.366	86.56
300.597	95.56
300.827	90.56
301.057	90.56
301.288	88.56
301.518	82.56
301.748	92.56
301.979	94.56
302.209	91.56
302.439	99.56
302.669	92.56
302.9	103.56
303.13	92.56
303.36	91.56
303.59	86.56
303.82	94.56
304.051	97.56
304.281	91.56
304.511	93.56
304.741	96.56
304.971	94.56
305.201	79.56
305.431	91.56
305.661	82.56
305.891	101.56
306.121	80.56
306.352	87.56
306.582	86.56
306.812	86.56
307.042	94.56
307.272	106.56
307.502	93.56
307.731	97.56
307.961	83.56
308.191	81.56
308.421	85.56
308.651	98.56
308.881	97.56
309.111	97.56
309.341	98.56
309.571	86.56
309.8	90.56
310.03	92.56
310.26	89.56
310.49	92.56
310.72	86.56
310.949	87.56
311.179	98.56
311.409	83.56
311.639	90.56
311.868	104.56
312.098	96.56
312.328	85.56
312.557	83.56
312.787	96.56
313.017	88.56
313.246	88.56
313.476	97.56
313.706	103.56
313.935	88.56
314.165	100.56
314.394	85.56
314.624	90.56
314.853	92.56
315.083	89.56
315.312	88.56
315.542	101.56
315.771	77.56
316.001	87.56
316.23	74.56
316.46	87.56
316.689	77.56
316.919	95.56
317.148	93.56
317.377	95.56
317.607	82.56
317.836	99.56
318.065	87.56
318.295	89.56
318.524	92.56
318.753	94.56
318.983	88.56
319.212	92.56
319.441	75.56
319.67	88.56
319.9	86.56
320.129	90.56
320.358	105.56
320.587	100.56
320.816	93.56
321.046	97.56
321.275	86.56
321.504	89.56
321.733	95.56
321.962	81.56
322.191	85.56
322.42	94.56
322.649	85.56
322.878	93.56
323.108	90.56
323.337	79.56
323.566	89.56
323.795	88.56
324.024	92.56
324.253	84.56
324.482	89.56
324.71	87.56
324.939	98.56
325.168	93.56
325.397	90.56
325.626	95.56
325.855	82.56
326.084	91.56
326.313	92.56
326.542	91.56
326.77	88.56
326.999	81.56
327.228	93.56
327.457	81.56
327.686	89.56
327.914	84.56
328.143	84.56
328.372	85.56
328.6	74.56
328.829	84.56
329.058	99.56
329.287	82.56
329.515	92.56
329.744	94.56
329.972	71.56
330.201	73.56
330.43	84.56
330.658	84.56
330.887	89.56
331.115	98.56
331.344	83.56
331.572	101.56
331.801	99.56
332.03	86.56
332.258	77.56
332.486	84.56
332.715	94.56
332.943	75.56
333.172	93.56
333.4	91.56
333.629	96.56
333.857	97.56
334.085	73.56
334.314	83.56
334.542	85.56
334.771	85.56
334.999	85.56
335.227	97.56
335.455	88.56
335.684	89.56
335.912	99.56
336.14	75.56
336.369	89.56
336.597	103.56
336.825	91.56
337.053	102.56
337.281	89.56
337.51	87.56
337.738	89.56
337.966	81.56
338.194	93.56
338.422	93.56
338.65	92.56
338.878	90.56
339.106	97.56
339.334	91.56
339.562	92.56
339.79	89.56
340.018	88.56
340.246	85.56
340.474	92.56
340.702	96.56
340.93	93.56
341.158	85.56
341.386	94.56
341.614	95.56
341.842	87.56
342.07	96.56
342.298	98.56
342.526	89.56
342.754	83.56
342.981	80.56
343.209	89.56
343.437	97.56
343.665	87.56
343.893	88.56
344.12	88.56
344.348	78.56
344.576	88.56
344.804	80.56
345.031	97.56
345.259	101.56
345.487	95.56
345.714	97.56
345.942	87.56
346.17	87.56
346.397	82.56
346.625	98.56
346.853	90.56
347.08	89.56
347.308	87.56
347.535	81.56
347.763	93.56
347.99	90.56
348.218	98.56
348.445	83.56
348.673	100.56
348.9	99.56
349.128	105.56
349.355	95.56
349.583	104.56
349.81	94.56
350.037	85.56
350.265	89.56
350.492	97.56
350.72	84.56
350.947	81.56
351.174	92.56
351.402	100.56
351.629	99.56
351.856	82.56
352.083	99.56
352.311	92.56
352.538	89.56
352.765	78.56
352.992	93.56
353.22	84.56
353.447	86.56
353.674	95.56
353.901	96.56
354.128	101.56
354.355	92.56
354.583	86.56
354.81	88.56
355.037	66.56
355.264	92.56
355.491	88.56
355.718	97.56
355.945	81.56
356.172	90.56
356.399	96.56
356.626	99.56
356.853	78.56
357.08	82.56
357.307	91.56
357.534	92.56
357.761	76.56
357.988	107.56
358.215	100.56
358.441	91.56
358.668	91.56
358.895	94.56
359.122	89.56
359.349	85.56
359.576	90.56
359.802	93.56
360.029	86.56
360.256	102.56
360.483	64.56
360.709	78.56
360.936	94.56
361.163	107.56
361.39	84.56
361.616	99.56
361.843	78.56
362.07	77.56
362.296	95.56
362.523	83.56
362.749	89.56
362.976	93.56
363.203	86.56
363.429	95.56
363.656	87.56
363.882	91.56
364.109	89.56
364.335	95.56
364.562	60.56
364.788	81.56
365.015	99.56
365.241	74.56
365.468	90.56
365.694	94.56
365.92	79.56
366.147	78.56
366.373	87.56
366.599	87.56
366.826	87.56
367.052	90.56
367.278	89.56
367.505	82.56
367.731	90.56
367.957	83.56
368.184	99.56
368.41	91.56
368.636	73.56
368.862	80.56
369.089	93.56
369.315	90.56
369.541	82.56
369.767	81.56
369.993	94.56
370.219	90.56
370.445	89.56
370.672	90.56
370.898	95.56
371.124	80.56
371.35	80.56
371.576	95.56
371.802	79.56
372.028	91.56
372.254	96.56
372.48	82.56
372.706	84.56
372.932	91.56
373.158	98.56
373.384	106.56
373.61	94.56
373.835	96.56
374.061	95.56
374.287	88.56
374.513	82.56
374.739	90.56
374.965	86.56
375.191	87.56
375.416	95.56
375.642	96.56
375.868	87.56
376.094	87.56
376.319	90.56
376.545	90.56
376.771	96.56
376.997	93.56
377.222	84.56
377.448	100.56
377.674	83.56
377.899	92.56
378.125	109.56
378.35	103.56
378.576	88.56
378.802	92.56
379.027	79.56
379.253	90.56
379.478	81.56
379.704	90.56
379.929	100.56
380.155	87.56
380.38	91.56
380.606	85.56
380.831	104.56
381.057	102.56
381.282	81.56
381.507	82.56
381.733	97.56
381.958	86.56
382.184	89.56
382.409	86.56
382.634	77.56
382.86	88.56
383.085	90.56
383.31	90.56
383.535	79.56
383.761	99.56
383.986	76.56
384.211	96.56
384.436	93.56
384.662	90.56
384.887	76.56
385.112	81.56
385.337	82.56
385.562	81.56
385.787	89.56
386.013	89.56
386.238	87.56
386.463	87.56
386.688	98.56
386.913	81.56
387.138	96.56
387.363	92.56
387.588	92.56
387.813	97.56
388.038	101.56
388.263	79.56
388.488	90.56
388.713	76.56
388.938	89.56
389.163	94.56
389.387	93.56
389.612	98.56
389.837	95.56
390.062	90.56
390.287	78.56
390.512	90.56
390.736	81.56
390.961	88.56
391.186	92.56
391.411	92.56
391.636	90.56
391.86	80.56
392.085	98.56
392.31	95.56
392.534	89.56
392.759	98.56
392.984	95.56
393.208	89.56
393.433	90.56
393.658	90.56
393.882	97.56
394.107	92.56
394.331	102.56
394.556	96.56
394.78	90.56
395.005	75.56
395.229	94.56
395.454	96.56
395.678	107.56
395.903	87.56
396.127	87.56
396.352	95.56
396.576	83.56
396.801	84.56
397.025	89.56
397.249	90.56
397.474	96.56
397.698	93.56
397.922	96.56
398.147	106.56
398.371	91.56
398.595	100.56
398.82	93.56
399.044	92.56
399.268	101.56
399.492	100.56
399.717	99.56
399.941	97.56
400.165	101.56
400.389	105.56
400.613	90.56
400.837	88.56
401.062	86.56
401.286	80.56
401.51	113.56
401.734	82.56
401.958	87.56
402.182	102.56
402.406	89.56
402.63	85.56
402.854	95.56
403.078	93.56
403.302	101.56
403.526	90.56
403.75	93.56
403.974	88.56
404.198	82.56
404.422	86.56
404.645	82.56
404.869	90.56
405.093	97.56
405.317	94.56
405.541	105.56
405.765	102.56
405.988	104.56
406.212	80.56
406.436	94.56
406.66	99.56
406.883	84.56
407.107	90.56
407.331	92.56
407.555	103.56
407.778	97.56
408.002	89.56
408.226	101.56
408.449	80.56
408.673	83.56
408.896	100.56
409.12	88.56
409.344	94.56
409.567	87.56
409.791	93.56
410.014	100.56
410.238	100.56
410.461	85.56
410.685	77.56
410.908	103.56
411.132	89.56
411.355	83.56
411.578	92.56
411.802	101.56
412.025	89.56
412.249	80.56
412.472	82.56
412.695	82.56
412.919	93.56
413.142	101.56
413.365	94.56
413.589	91.56
413.812	97.56
414.035	90.56
414.258	82.56
414.482	94.56
414.705	92.56
414.928	85.56
415.151	92.56
415.374	92.56
415.597	78.56
415.821	89.56
416.044	81.56
416.267	83.56
416.49	90.56
416.713	98.56
416.936	90.56
417.159	81.56
417.382	86.56
417.605	87.56
417.828	94.56
418.051	93.56
418.274	84.56
418.497	94.56
418.72	74.56
418.943	85.56
419.166	94.56
419.389	92.56
419.611	91.56
419.834	84.56
420.057	87.56
420.28	91.56
420.503	92.56
420.726	89.56
420.948	98.56
421.171	98.56
421.394	93.56
421.617	93.56
421.839	86.56
422.062	105.56
422.285	94.56
422.507	85.56
422.73	94.56
422.953	83.56
423.175	93.56
423.398	104.56
423.621	78.56
423.843	85.56
424.066	85.56
424.288	88.56
424.511	95.56
424.733	84.56
424.956	98.56
425.178	77.56
425.401	93.56
425.623	84.56
425.846	89.56
426.068	76.56
426.291	83.56
426.513	90.56
426.735	91.56
426.958	81.56
427.18	77.56
427.402	84.56
427.625	98.56
427.847	78.56
428.069	96.56
428.292	88.56
428.514	88.56
428.736	101.56
428.958	85.56
429.181	91.56
429.403	78.56
429.625	92.56
429.847	82.56
430.069	90.56
430.292	93.56
430.514	85.56
430.736	89.56
430.958	80.56
431.18	93.56
431.402	94.56
431.624	94.56
431.846	80.56
432.068	97.56
432.29	98.56
432.512	97.56
432.734	94.56
432.956	95.56
433.178	93.56
433.4	99.56
433.622	78.56
433.844	99.56
434.066	93.56
434.287	86.56
434.509	83.56
434.731	95.56
434.953	91.56
435.175	105.56
435.397	94.56
435.618	96.56
435.84	81.56
436.062	88.56
436.284	79.56
436.505	93.56
436.727	79.56
436.949	93.56
437.17	89.56
437.392	91.56
437.614	90.56
437.835	92.56
438.057	98.56
438.278	85.56
438.5	103.56
438.721	86.56
438.943	104.56
439.165	80.56
439.386	94.56
439.608	100.56
439.829	109.56
440.05	95.56
440.272	90.56
440.493	79.56
440.715	96.56
440.936	88.56
441.158	88.56
441.379	84.56
441.6	90.56
441.822	84.56
442.043	87.56
442.264	90.56
442.486	95.56
442.707	96.56
442.928	72.56
443.149	85.56
443.371	98.56
443.592	86.56
443.813	86.56
444.034	108.56
444.255	95.56
444.476	94.56
444.698	93.56
444.919	101.56
445.14	210.56
445.361	148.56
445.582	94.56
445.803	98.56
446.024	90.56
446.245	94.56
446.466	98.56
446.687	88.56
446.908	97.56
447.129	89.56
447.35	100.56
447.571	102.56
447.792	91.56
448.013	94.56
448.234	77.56
448.455	92.56
448.675	81.56
448.896	105.56
449.117	73.56
449.338	92.56
449.559	86.56
449.779	93.56
450	88.56
450.221	91.56
450.442	99.56
450.662	86.56
450.883	80.56
451.104	100.56
451.324	88.56
451.545	100.56
451.766	89.56
451.986	87.56
452.207	92.56
452.428	102.56
452.648	95.56
452.869	96.56
453.089	78.56
453.31	88.56
453.53	79.56
453.751	78.56
453.971	85.56
454.192	88.56
454.412	92.56
454.633	90.56
454.853	89.56
455.073	92.56
455.294	85.56
455.514	99.56
455.734	86.56
455.955	89.56
456.175	89.56
456.395	83.56
456.616	92.56
456.836	86.56
457.056	105.56
457.276	88.56
457.497	84.56
457.717	91.56
457.937	88.56
458.157	87.56
458.377	84.56
458.598	81.56
458.818	65.56
459.038	83.56
459.258	74.56
459.478	96.56
459.698	85.56
459.918	90.56
460.138	86.56
460.358	104.56
460.578	91.56
460.798	89.56
461.018	90.56
461.238	107.56
461.458	92.56
461.678	101.56
461.898	86.56
462.118	73.56
462.338	84.56
462.558	77.56
462.777	88.56
462.997	91.56
463.217	91.56
463.437	98.56
463.657	88.56
463.876	92.56
464.096	96.56
464.316	96.56
464.536	98.56
464.755	92.56
464.975	91.56
465.195	96.56
465.414	82.56
465.634	96.56
465.854	92.56
466.073	76.56
466.293	88.56
466.512	86.56
466.732	93.56
466.951	92.56
467.171	85.56
467.391	93.56
467.61	81.56
467.829	92.56
468.049	104.56
468.268	69.56
468.488	81.56
468.707	103.56
468.927	92.56
469.146	99.56
469.365	90.56
469.585	86.56
469.804	89.56
470.023	84.56
470.243	95.56
470.462	78.56
470.681	87.56
470.901	89.56
471.12	85.56
471.339	97.56
471.558	82.56
471.777	77.56
471.997	82.56
472.216	87.56
472.435	98.56
472.654	107.56
472.873	95.56
473.092	97.56
473.311	87.56
473.53	64.56
473.749	88.56
473.968	91.56
474.187	101.56
474.406	97.56
474.625	92.56
474.844	101.56
475.063	94.56
475.282	96.56
475.501	92.56
475.72	97.56
475.939	97.56
476.158	98.56
476.377	88.56
476.596	78.56
476.814	89.56
477.033	97.56
477.252	86.56
477.471	88.56
477.69	89.56
477.908	102.56
478.127	103.56
478.346	102.56
478.564	87.56
478.783	72.56
479.002	75.56
479.22	99.56
479.439	97.56
479.658	90.56
479.876	88.56
480.095	100.56
480.313	86.56
480.532	103.56
480.751	78.56
480.969	97.56
481.188	78.56
481.406	105.56
481.624	95.56
481.843	92.56
482.061	98.56
482.28	90.56
482.498	98.56
482.717	79.56
482.935	97.56
483.153	81.56
483.372	94.56
483.59	95.56
483.808	92.56
484.027	101.56
484.245	95.56
484.463	90.56
484.681	93.56
484.9	103.56
485.118	96.56
485.336	96.56
485.554	99.56
485.772	83.56
485.99	90.56
486.209	96.56
486.427	97.56
486.645	84.56
486.863	101.56
487.081	109.56
487.299	85.56
487.517	90.56
487.735	102.56
487.953	91.56
488.171	97.56
488.389	96.56
488.607	101.56
488.825	90.56
489.043	95.56
489.261	101.56
489.479	105.56
489.696	97.56
489.914	110.56
490.132	97.56
490.35	91.56
490.568	96.56
490.786	101.56
491.003	101.56
491.221	97.56
491.439	93.56
491.657	102.56
491.874	85.56
492.092	95.56
492.31	96.56
492.527	94.56
492.745	97.56
492.963	97.56
493.18	106.56
493.398	94.56
493.615	102.56
493.833	109.56
494.05	95.56
494.268	111.56
494.485	111.56
494.703	87.56
494.92	100.56
495.138	87.56
495.355	83.56
495.573	97.56
495.79	90.56
496.008	82.56
496.225	107.56
496.442	97.56
496.66	103.56
496.877	91.56
497.094	95.56
497.312	112.56
497.529	102.56
497.746	96.56
497.963	105.56
498.181	104.56
498.398	92.56
498.615	110.56
498.832	104.56
499.049	104.56
499.267	110.56
499.484	112.56
499.701	102.56
499.918	111.56
500.135	102.56
500.352	125.56
500.569	116.56
500.786	105.56
501.003	104.56
501.22	107.56
501.437	107.56
501.654	103.56
501.871	111.56
502.088	100.56
502.305	105.56
502.522	86.56
502.739	104.56
502.956	104.56
503.172	97.56
503.389	116.56
503.606	112.56
503.823	89.56
504.04	81.56
504.256	104.56
504.473	91.56
504.69	96.56
504.907	91.56
505.123	86.56
505.34	109.56
505.557	84.56
505.773	92.56
505.99	88.56
506.207	92.56
506.423	87.56
506.64	98.56
506.856	86.56
507.073	93.56
507.289	94.56
507.506	114.56
507.722	91.56
507.939	82.56
508.155	96.56
508.372	106.56
508.588	99.56
508.805	99.56
509.021	95.56
509.238	93.56
509.454	80.56
509.67	106.56
509.887	90.56
510.103	97.56
510.319	100.56
510.536	97.56
510.752	98.56
510.968	85.56
511.184	90.56
511.401	95.56
511.617	97.56
511.833	83.56
512.049	88.56
512.265	97.56
512.481	106.56
512.698	108.56
512.914	72.56
513.13	92.56
513.346	98.56
513.562	101.56
513.778	90.56
513.994	95.56
514.21	91.56
514.426	105.56
514.642	114.56
514.858	97.56
515.074	101.56
515.29	105.56
515.506	86.56
515.721	93.56
515.937	96.56
516.153	102.56
516.369	96.56
516.585	87.56
516.801	84.56
517.016	96.56
517.232	100.56
