Data from Ni(NO3)2@0.25M.TitratingCurve.Agarose3%dH2O.NegLispCup.LampEnergy10.LIBS07252019_HRD10591_18-04-30-566.txt Node
Date: Thu Jul 25 18:04:30 EDT 2019
User: cochatt
Spectrometer: HR+D1059
Trigger mode: 1
Integration Time (sec): 1.000000E-1
Scans to average: 1
Electric dark correction enabled: true
Nonlinearity correction enabled: false
Boxcar width: 0
XAxis mode: Wavelengths
Number of Pixels in Spectrum: 2048
>>>>>Begin Spectral Data<<<<<
223.165	-8.5
223.4	-8.5
223.635	-8.5
223.869	-16.5
224.104	-6.5
224.338	-26.5
224.573	-18.5
224.808	4.5
225.042	-11.5
225.277	-4.5
225.511	6.5
225.746	14.5
225.98	-2.5
226.215	-0.5
226.449	9.5
226.683	20.5
226.918	27.5
227.152	12.5
227.387	42.5
227.621	28.5
227.856	44.5
228.09	49.5
228.324	37.5
228.559	55.5
228.793	59.5
229.027	84.5
229.262	96.5
229.496	102.5
229.73	107.5
229.964	100.5
230.199	114.5
230.433	117.5
230.667	112.5
230.901	109.5
231.136	121.5
231.37	119.5
231.604	126.5
231.838	121.5
232.072	112.5
232.306	142.5
232.541	134.5
232.775	152.5
233.009	123.5
233.243	125.5
233.477	139.5
233.711	130.5
233.945	133.5
234.179	135.5
234.413	154.5
234.647	138.5
234.881	136.5
235.115	139.5
235.349	132.5
235.583	137.5
235.817	130.5
236.051	128.5
236.285	141.5
236.519	128.5
236.753	125.5
236.987	131.5
237.221	138.5
237.455	142.5
237.689	147.5
237.922	144.5
238.156	142.5
238.39	146.5
238.624	141.5
238.858	139.5
239.091	151.5
239.325	141.5
239.559	137.5
239.793	157.5
240.027	144.5
240.26	151.5
240.494	139.5
240.728	133.5
240.961	146.5
241.195	152.5
241.429	132.5
241.662	147.5
241.896	167.5
242.13	147.5
242.363	167.5
242.597	142.5
242.83	159.5
243.064	159.5
243.298	162.5
243.531	172.5
243.765	161.5
243.998	169.5
244.232	169.5
244.465	167.5
244.699	162.5
244.932	162.5
245.166	167.5
245.399	182.5
245.633	172.5
245.866	186.5
246.099	185.5
246.333	178.5
246.566	179.5
246.8	193.5
247.033	187.5
247.266	177.5
247.5	185.5
247.733	184.5
247.966	185.5
248.2	181.5
248.433	195.5
248.666	190.5
248.899	187.5
249.133	191.5
249.366	186.5
249.599	200.5
249.832	196.5
250.066	203.5
250.299	217.5
250.532	205.5
250.765	205.5
250.998	208.5
251.231	228.5
251.465	203.5
251.698	216.5
251.931	218.5
252.164	248.5
252.397	214.5
252.63	231.5
252.863	237.5
253.096	209.5
253.329	245.5
253.562	243.5
253.795	243.5
254.028	237.5
254.261	236.5
254.494	234.5
254.727	232.5
254.96	245.5
255.193	254.5
255.426	236.5
255.659	259.5
255.892	243.5
256.124	259.5
256.357	246.5
256.59	245.5
256.823	271.5
257.056	242.5
257.289	251.5
257.521	249.5
257.754	251.5
257.987	258.5
258.22	268.5
258.452	272.5
258.685	266.5
258.918	274.5
259.151	274.5
259.383	258.5
259.616	253.5
259.849	256.5
260.081	269.5
260.314	282.5
260.547	266.5
260.779	277.5
261.012	281.5
261.244	277.5
261.477	283.5
261.71	311.5
261.942	287.5
262.175	277.5
262.407	292.5
262.64	278.5
262.872	284.5
263.105	295.5
263.337	277.5
263.57	276.5
263.802	283.5
264.035	319.5
264.267	300.5
264.499	287.5
264.732	298.5
264.964	292.5
265.197	311.5
265.429	321.5
265.661	296.5
265.894	303.5
266.126	313.5
266.358	316.5
266.591	306.5
266.823	313.5
267.055	319.5
267.287	309.5
267.52	307.5
267.752	325.5
267.984	331.5
268.216	333.5
268.448	338.5
268.681	323.5
268.913	323.5
269.145	328.5
269.377	313.5
269.609	326.5
269.841	316.5
270.073	331.5
270.306	333.5
270.538	341.5
270.77	346.5
271.002	337.5
271.234	331.5
271.466	312.5
271.698	320.5
271.93	329.5
272.162	345.5
272.394	332.5
272.626	331.5
272.858	330.5
273.09	342.5
273.322	362.5
273.553	338.5
273.785	350.5
274.017	337.5
274.249	364.5
274.481	362.5
274.713	362.5
274.945	358.5
275.176	364.5
275.408	349.5
275.64	350.5
275.872	344.5
276.104	357.5
276.335	349.5
276.567	353.5
276.799	353.5
277.031	376.5
277.262	380.5
277.494	387.5
277.726	365.5
277.957	364.5
278.189	360.5
278.421	356.5
278.652	361.5
278.884	395.5
279.115	393.5
279.347	379.5
279.579	385.5
279.81	361.5
280.042	376.5
280.273	387.5
280.505	381.5
280.736	387.5
280.968	376.5
281.199	388.5
281.431	391.5
281.662	393.5
281.894	392.5
282.125	395.5
282.356	375.5
282.588	388.5
282.819	395.5
283.051	421.5
283.282	396.5
283.513	392.5
283.745	377.5
283.976	391.5
284.207	392.5
284.439	401.5
284.67	413.5
284.901	409.5
285.132	429.5
285.364	387.5
285.595	424.5
285.826	421.5
286.057	404.5
286.288	409.5
286.52	396.5
286.751	401.5
286.982	423.5
287.213	420.5
287.444	427.5
287.675	421.5
287.906	416.5
288.138	403.5
288.369	416.5
288.6	437.5
288.831	425.5
289.062	420.5
289.293	434.5
289.524	434.5
289.755	438.5
289.986	422.5
290.217	427.5
290.448	416.5
290.679	419.5
290.91	435.5
291.141	428.5
291.371	442.5
291.602	420.5
291.833	426.5
292.064	429.5
292.295	433.5
292.526	431.5
292.757	448.5
292.987	432.5
293.218	415.5
293.449	435.5
293.68	427.5
293.91	431.5
294.141	437.5
294.372	454.5
294.603	441.5
294.833	445.5
295.064	449.5
295.295	445.5
295.525	416.5
295.756	451.5
295.987	435.5
296.217	459.5
296.448	433.5
296.679	437.5
296.909	439.5
297.14	458.5
297.37	475.5
297.601	461.5
297.831	475.5
298.062	455.5
298.292	474.5
298.523	450.5
298.753	480.5
298.984	458.5
299.214	472.5
299.445	466.5
299.675	473.5
299.905	492.5
300.136	476.5
300.366	491.5
300.597	495.5
300.827	498.5
301.057	477.5
301.288	486.5
301.518	486.5
301.748	493.5
301.979	512.5
302.209	479.5
302.439	513.5
302.669	508.5
302.9	513.5
303.13	505.5
303.36	487.5
303.59	497.5
303.82	496.5
304.051	491.5
304.281	506.5
304.511	479.5
304.741	492.5
304.971	496.5
305.201	506.5
305.431	499.5
305.661	521.5
305.891	492.5
306.121	479.5
306.352	495.5
306.582	491.5
306.812	505.5
307.042	489.5
307.272	488.5
307.502	487.5
307.731	484.5
307.961	489.5
308.191	472.5
308.421	468.5
308.651	483.5
308.881	466.5
309.111	492.5
309.341	491.5
309.571	487.5
309.8	495.5
310.03	512.5
310.26	498.5
310.49	489.5
310.72	522.5
310.949	484.5
311.179	504.5
311.409	501.5
311.639	495.5
311.868	488.5
312.098	480.5
312.328	514.5
312.557	517.5
312.787	555.5
313.017	535.5
313.246	532.5
313.476	539.5
313.706	537.5
313.935	556.5
314.165	543.5
314.394	545.5
314.624	548.5
314.853	545.5
315.083	533.5
315.312	550.5
315.542	539.5
315.771	530.5
316.001	573.5
316.23	541.5
316.46	530.5
316.689	524.5
316.919	569.5
317.148	571.5
317.377	576.5
317.607	501.5
317.836	564.5
318.065	524.5
318.295	554.5
318.524	534.5
318.753	524.5
318.983	544.5
319.212	526.5
319.441	561.5
319.67	547.5
319.9	563.5
320.129	553.5
320.358	562.5
320.587	563.5
320.816	565.5
321.046	558.5
321.275	588.5
321.504	563.5
321.733	543.5
321.962	563.5
322.191	588.5
322.42	579.5
322.649	577.5
322.878	590.5
323.108	577.5
323.337	554.5
323.566	573.5
323.795	588.5
324.024	599.5
324.253	594.5
324.482	586.5
324.71	603.5
324.939	588.5
325.168	581.5
325.397	620.5
325.626	601.5
325.855	614.5
326.084	645.5
326.313	617.5
326.542	632.5
326.77	640.5
326.999	635.5
327.228	627.5
327.457	615.5
327.686	622.5
327.914	629.5
328.143	620.5
328.372	622.5
328.6	637.5
328.829	661.5
329.058	647.5
329.287	630.5
329.515	645.5
329.744	665.5
329.972	672.5
330.201	641.5
330.43	671.5
330.658	652.5
330.887	666.5
331.115	672.5
331.344	692.5
331.572	691.5
331.801	691.5
332.03	729.5
332.258	743.5
332.486	747.5
332.715	756.5
332.943	771.5
333.172	802.5
333.4	811.5
333.629	827.5
333.857	836.5
334.085	861.5
334.314	863.5
334.542	844.5
334.771	835.5
334.999	810.5
335.227	824.5
335.455	804.5
335.684	837.5
335.912	800.5
336.14	804.5
336.369	801.5
336.597	811.5
336.825	785.5
337.053	819.5
337.281	780.5
337.51	791.5
337.738	767.5
337.966	760.5
338.194	752.5
338.422	757.5
338.65	721.5
338.878	731.5
339.106	741.5
339.334	736.5
339.562	715.5
339.79	706.5
340.018	729.5
340.246	707.5
340.474	697.5
340.702	710.5
340.93	699.5
341.158	711.5
341.386	684.5
341.614	728.5
341.842	708.5
342.07	699.5
342.298	708.5
342.526	699.5
342.754	708.5
342.981	698.5
343.209	730.5
343.437	716.5
343.665	780.5
343.893	839.5
344.12	859.5
344.348	827.5
344.576	797.5
344.804	770.5
345.031	739.5
345.259	728.5
345.487	730.5
345.714	746.5
345.942	711.5
346.17	748.5
346.397	739.5
346.625	693.5
346.853	679.5
347.08	675.5
347.308	693.5
347.535	687.5
347.763	689.5
347.99	697.5
348.218	704.5
348.445	708.5
348.673	666.5
348.9	690.5
349.128	682.5
349.355	687.5
349.583	687.5
349.81	683.5
350.037	673.5
350.265	677.5
350.492	661.5
350.72	639.5
350.947	652.5
351.174	693.5
351.402	663.5
351.629	687.5
351.856	676.5
352.083	660.5
352.311	671.5
352.538	692.5
352.765	659.5
352.992	661.5
353.22	645.5
353.447	636.5
353.674	631.5
353.901	642.5
354.128	660.5
354.355	667.5
354.583	639.5
354.81	649.5
355.037	637.5
355.264	671.5
355.491	645.5
355.718	667.5
355.945	642.5
356.172	673.5
356.399	671.5
356.626	663.5
356.853	677.5
357.08	648.5
357.307	667.5
357.534	668.5
357.761	632.5
357.988	652.5
358.215	667.5
358.441	676.5
358.668	655.5
358.895	653.5
359.122	664.5
359.349	663.5
359.576	666.5
359.802	654.5
360.029	654.5
360.256	652.5
360.483	659.5
360.709	680.5
360.936	669.5
361.163	666.5
361.39	641.5
361.616	652.5
361.843	694.5
362.07	672.5
362.296	677.5
362.523	654.5
362.749	637.5
362.976	659.5
363.203	668.5
363.429	638.5
363.656	629.5
363.882	653.5
364.109	652.5
364.335	639.5
364.562	651.5
364.788	648.5
365.015	635.5
365.241	631.5
365.468	676.5
365.694	663.5
365.92	655.5
366.147	646.5
366.373	639.5
366.599	659.5
366.826	669.5
367.052	641.5
367.278	655.5
367.505	640.5
367.731	671.5
367.957	650.5
368.184	628.5
368.41	658.5
368.636	639.5
368.862	677.5
369.089	681.5
369.315	670.5
369.541	653.5
369.767	681.5
369.993	674.5
370.219	678.5
370.445	690.5
370.672	679.5
370.898	702.5
371.124	699.5
371.35	689.5
371.576	712.5
371.802	715.5
372.028	700.5
372.254	700.5
372.48	707.5
372.706	724.5
372.932	729.5
373.158	694.5
373.384	700.5
373.61	701.5
373.835	687.5
374.061	709.5
374.287	700.5
374.513	712.5
374.739	763.5
374.965	731.5
375.191	764.5
375.416	764.5
375.642	735.5
375.868	727.5
376.094	739.5
376.319	705.5
376.545	707.5
376.771	729.5
376.997	702.5
377.222	699.5
377.448	700.5
377.674	699.5
377.899	701.5
378.125	701.5
378.35	685.5
378.576	689.5
378.802	658.5
379.027	676.5
379.253	678.5
379.478	665.5
379.704	687.5
379.929	679.5
380.155	691.5
380.38	685.5
380.606	695.5
380.831	679.5
381.057	724.5
381.282	694.5
381.507	689.5
381.733	672.5
381.958	711.5
382.184	672.5
382.409	722.5
382.634	707.5
382.86	727.5
383.085	731.5
383.31	727.5
383.535	741.5
383.761	747.5
383.986	758.5
384.211	765.5
384.436	775.5
384.662	777.5
384.887	829.5
385.112	804.5
385.337	822.5
385.562	784.5
385.787	831.5
386.013	811.5
386.238	801.5
386.463	800.5
386.688	808.5
386.913	779.5
387.138	820.5
387.363	823.5
387.588	787.5
387.813	817.5
388.038	793.5
388.263	812.5
388.488	808.5
388.713	819.5
388.938	767.5
389.163	773.5
389.387	789.5
389.612	805.5
389.837	801.5
390.062	797.5
390.287	819.5
390.512	807.5
390.736	819.5
390.961	805.5
391.186	844.5
391.411	845.5
391.636	884.5
391.86	901.5
392.085	897.5
392.31	876.5
392.534	882.5
392.759	869.5
392.984	854.5
393.208	865.5
393.433	870.5
393.658	862.5
393.882	847.5
394.107	874.5
394.331	892.5
394.556	885.5
394.78	866.5
395.005	876.5
395.229	858.5
395.454	887.5
395.678	902.5
395.903	912.5
396.127	895.5
396.352	892.5
396.576	846.5
396.801	864.5
397.025	883.5
397.249	901.5
397.474	931.5
397.698	937.5
397.922	887.5
398.147	940.5
398.371	949.5
398.595	963.5
398.82	1044.5
399.044	1093.5
399.268	1179.5
399.492	1331.5
399.717	1423.5
399.941	1443.5
400.165	1318.5
400.389	1230.5
400.613	1134.5
400.837	1112.5
401.062	1071.5
401.286	1057.5
401.51	1027.5
401.734	1039.5
401.958	1050.5
402.182	1076.5
402.406	1059.5
402.63	1077.5
402.854	1099.5
403.078	1075.5
403.302	1098.5
403.526	1127.5
403.75	1094.5
403.974	1153.5
404.198	1116.5
404.422	1129.5
404.645	1080.5
404.869	1104.5
405.093	1140.5
405.317	1140.5
405.541	1136.5
405.765	1114.5
405.988	1129.5
406.212	1119.5
406.436	1129.5
406.66	1147.5
406.883	1159.5
407.107	1217.5
407.331	1244.5
407.555	1305.5
407.778	1299.5
408.002	1243.5
408.226	1218.5
408.449	1210.5
408.673	1125.5
408.896	1164.5
409.12	1163.5
409.344	1167.5
409.567	1166.5
409.791	1145.5
410.014	1158.5
410.238	1119.5
410.461	1140.5
410.685	1116.5
410.908	1073.5
411.132	1093.5
411.355	1064.5
411.578	1113.5
411.802	1050.5
412.025	1103.5
412.249	1083.5
412.472	1090.5
412.695	1061.5
412.919	1071.5
413.142	1030.5
413.365	1063.5
413.589	1048.5
413.812	1000.5
414.035	1031.5
414.258	1027.5
414.482	1024.5
414.705	1058.5
414.928	1052.5
415.151	1063.5
415.374	1020.5
415.597	1023.5
415.821	992.5
416.044	1001.5
416.267	998.5
416.49	1055.5
416.713	1016.5
416.936	1032.5
417.159	1029.5
417.382	984.5
417.605	1010.5
417.828	1048.5
418.051	1079.5
418.274	1050.5
418.497	1053.5
418.72	1042.5
418.943	1060.5
419.166	1084.5
419.389	1186.5
419.611	1133.5
419.834	1111.5
420.057	1109.5
420.28	1085.5
420.503	1016.5
420.726	1021.5
420.948	1047.5
421.171	1028.5
421.394	1067.5
421.617	1034.5
421.839	1044.5
422.062	1067.5
422.285	1032.5
422.507	1067.5
422.73	1016.5
422.953	1052.5
423.175	1037.5
423.398	1074.5
423.621	1073.5
423.843	1084.5
424.066	1082.5
424.288	1088.5
424.511	1053.5
424.733	1079.5
424.956	1068.5
425.178	1055.5
425.401	1036.5
425.623	1041.5
425.846	1014.5
426.068	1027.5
426.291	995.5
426.513	1007.5
426.735	1014.5
426.958	999.5
427.18	979.5
427.402	962.5
427.625	978.5
427.847	970.5
428.069	975.5
428.292	978.5
428.514	977.5
428.736	947.5
428.958	956.5
429.181	950.5
429.403	921.5
429.625	973.5
429.847	948.5
430.069	931.5
430.292	958.5
430.514	925.5
430.736	955.5
430.958	933.5
431.18	917.5
431.402	944.5
431.624	943.5
431.846	949.5
432.068	934.5
432.29	959.5
432.512	949.5
432.734	967.5
432.956	953.5
433.178	959.5
433.4	994.5
433.622	962.5
433.844	972.5
434.066	971.5
434.287	985.5
434.509	989.5
434.731	1046.5
434.953	1054.5
435.175	1047.5
435.397	1040.5
435.618	1008.5
435.84	996.5
436.062	982.5
436.284	970.5
436.505	936.5
436.727	949.5
436.949	964.5
437.17	953.5
437.392	954.5
437.614	936.5
437.835	920.5
438.057	930.5
438.278	908.5
438.5	913.5
438.721	921.5
438.943	941.5
439.165	947.5
439.386	935.5
439.608	968.5
439.829	975.5
440.05	981.5
440.272	979.5
440.493	986.5
440.715	992.5
440.936	1026.5
441.158	999.5
441.379	1052.5
441.6	1059.5
441.822	1064.5
442.043	1088.5
442.264	1067.5
442.486	1015.5
442.707	1033.5
442.928	1066.5
443.149	1065.5
443.371	1050.5
443.592	1068.5
443.813	1100.5
444.034	1098.5
444.255	1132.5
444.476	1158.5
444.698	1208.5
444.919	1224.5
445.14	1282.5
445.361	1196.5
445.582	1114.5
445.803	1068.5
446.024	1033.5
446.245	1066.5
446.466	1018.5
446.687	978.5
446.908	987.5
447.129	947.5
447.35	964.5
447.571	919.5
447.792	927.5
448.013	939.5
448.234	900.5
448.455	916.5
448.675	940.5
448.896	919.5
449.117	917.5
449.338	901.5
449.559	891.5
449.779	888.5
450	904.5
450.221	917.5
450.442	892.5
450.662	883.5
450.883	907.5
451.104	915.5
451.324	909.5
451.545	907.5
451.766	897.5
451.986	919.5
452.207	894.5
452.428	901.5
452.648	901.5
452.869	861.5
453.089	852.5
453.31	871.5
453.53	865.5
453.751	829.5
453.971	857.5
454.192	864.5
454.412	840.5
454.633	854.5
454.853	828.5
455.073	843.5
455.294	835.5
455.514	824.5
455.734	824.5
455.955	810.5
456.175	825.5
456.395	809.5
456.616	804.5
456.836	819.5
457.056	830.5
457.276	840.5
457.497	849.5
457.717	853.5
457.937	842.5
458.157	861.5
458.377	858.5
458.598	906.5
458.818	892.5
459.038	920.5
459.258	922.5
459.478	971.5
459.698	999.5
459.918	1031.5
460.138	1055.5
460.358	1105.5
460.578	1109.5
460.798	1146.5
461.018	1135.5
461.238	1128.5
461.458	1125.5
461.678	1112.5
461.898	1123.5
462.118	1151.5
462.338	1209.5
462.558	1220.5
462.777	1254.5
462.997	1356.5
463.217	1405.5
463.437	1478.5
463.657	1335.5
463.876	1311.5
464.096	1288.5
464.316	1293.5
464.536	1280.5
464.755	1219.5
464.975	1207.5
465.195	1151.5
465.414	1097.5
465.634	1046.5
465.854	1002.5
466.073	973.5
466.293	982.5
466.512	954.5
466.732	916.5
466.951	934.5
467.171	946.5
467.391	904.5
467.61	912.5
467.829	908.5
468.049	918.5
468.268	887.5
468.488	899.5
468.707	893.5
468.927	886.5
469.146	923.5
469.365	902.5
469.585	927.5
469.804	910.5
470.023	966.5
470.243	964.5
470.462	957.5
470.681	962.5
470.901	978.5
471.12	931.5
471.339	949.5
471.558	923.5
471.777	951.5
471.997	913.5
472.216	934.5
472.435	892.5
472.654	899.5
472.873	867.5
473.092	878.5
473.311	867.5
473.53	871.5
473.749	861.5
473.968	870.5
474.187	868.5
474.406	868.5
474.625	872.5
474.844	861.5
475.063	880.5
475.282	876.5
475.501	865.5
475.72	905.5
475.939	893.5
476.158	913.5
476.377	915.5
476.596	915.5
476.814	936.5
477.033	919.5
477.252	938.5
477.471	950.5
477.69	999.5
477.908	1014.5
478.127	1012.5
478.346	1066.5
478.564	1016.5
478.783	1033.5
479.002	1087.5
479.22	1090.5
479.439	1092.5
479.658	1043.5
479.876	1081.5
480.095	1099.5
480.313	1149.5
480.532	1145.5
480.751	1125.5
480.969	1108.5
481.188	1080.5
481.406	1041.5
481.624	1036.5
481.843	1003.5
482.061	1019.5
482.28	1015.5
482.498	1008.5
482.717	1008.5
482.935	986.5
483.153	1023.5
483.372	1018.5
483.59	1016.5
483.808	1007.5
484.027	984.5
484.245	1023.5
484.463	1041.5
484.681	1049.5
484.9	1032.5
485.118	1043.5
485.336	1046.5
485.554	1042.5
485.772	1030.5
485.99	1039.5
486.209	1069.5
486.427	1030.5
486.645	1040.5
486.863	1058.5
487.081	1055.5
487.299	1030.5
487.517	1018.5
487.735	1044.5
487.953	1088.5
488.171	1092.5
488.389	1059.5
488.607	1017.5
488.825	1038.5
489.043	1037.5
489.261	1038.5
489.479	1045.5
489.696	1030.5
489.914	1035.5
490.132	1039.5
490.35	1068.5
490.568	1055.5
490.786	1082.5
491.003	1091.5
491.221	1063.5
491.439	1083.5
491.657	1106.5
491.874	1050.5
492.092	1096.5
492.31	1084.5
492.527	1118.5
492.745	1078.5
492.963	1109.5
493.18	1112.5
493.398	1109.5
493.615	1123.5
493.833	1137.5
494.05	1122.5
494.268	1107.5
494.485	1111.5
494.703	1141.5
494.92	1132.5
495.138	1122.5
495.355	1132.5
495.573	1147.5
495.79	1175.5
496.008	1157.5
496.225	1165.5
496.442	1214.5
496.66	1241.5
496.877	1194.5
497.094	1220.5
497.312	1263.5
497.529	1285.5
497.746	1342.5
497.963	1352.5
498.181	1408.5
498.398	1439.5
498.615	1502.5
498.832	1584.5
499.049	1732.5
499.267	1854.5
499.484	1989.5
499.701	2193.5
499.918	2377.5
500.135	2611.5
500.352	2869.5
500.569	2919.5
500.786	2921.5
501.003	2724.5
501.22	2536.5
501.437	2317.5
501.654	2123.5
501.871	1905.5
502.088	1823.5
502.305	1735.5
502.522	1626.5
502.739	1533.5
502.956	1486.5
503.172	1407.5
503.389	1354.5
503.606	1317.5
503.823	1322.5
504.04	1299.5
504.256	1258.5
504.473	1306.5
504.69	1312.5
504.907	1266.5
505.123	1203.5
505.34	1186.5
505.557	1131.5
505.773	1097.5
505.99	1112.5
506.207	1100.5
506.423	1047.5
506.64	1063.5
506.856	996.5
507.073	1029.5
507.289	1035.5
507.506	995.5
507.722	991.5
507.939	941.5
508.155	967.5
508.372	962.5
508.588	979.5
508.805	971.5
509.021	966.5
509.238	928.5
509.454	934.5
509.67	932.5
509.887	933.5
510.103	929.5
510.319	922.5
510.536	932.5
510.752	893.5
510.968	932.5
511.184	897.5
511.401	922.5
511.617	892.5
511.833	875.5
512.049	919.5
512.265	930.5
512.481	921.5
512.698	893.5
512.914	903.5
513.13	867.5
513.346	900.5
513.562	910.5
513.778	898.5
513.994	907.5
514.21	945.5
514.426	900.5
514.642	904.5
514.858	919.5
515.074	919.5
