Data from Ni(NO3)2@0.0625M.TitratingCurve.Agarose3%dH2O.NegLispCup.LampEnergy10.LIBS07252019_HRD10591_18-14-13-569.txt Node
Date: Thu Jul 25 18:14:13 EDT 2019
User: cochatt
Spectrometer: HR+D1059
Trigger mode: 1
Integration Time (sec): 1.000000E-1
Scans to average: 1
Electric dark correction enabled: true
Nonlinearity correction enabled: false
Boxcar width: 0
XAxis mode: Wavelengths
Number of Pixels in Spectrum: 2048
>>>>>Begin Spectral Data<<<<<
223.165	-9.12
223.4	-9.12
223.635	-9.12
223.869	-29.12
224.104	-22.12
224.338	-18.12
224.573	-20.12
224.808	5.88
225.042	-9.12
225.277	-1.12
225.511	2.88
225.746	-9.12
225.98	-2.12
226.215	9.88
226.449	27.88
226.683	15.88
226.918	16.88
227.152	40.88
227.387	38.88
227.621	40.88
227.856	46.88
228.09	29.88
228.324	55.88
228.559	52.88
228.793	66.88
229.027	84.88
229.262	97.88
229.496	103.88
229.73	96.88
229.964	121.88
230.199	104.88
230.433	112.88
230.667	108.88
230.901	115.88
231.136	120.88
231.37	116.88
231.604	130.88
231.838	125.88
232.072	125.88
232.306	109.88
232.541	132.88
232.775	121.88
233.009	126.88
233.243	116.88
233.477	140.88
233.711	113.88
233.945	122.88
234.179	128.88
234.413	137.88
234.647	133.88
234.881	122.88
235.115	134.88
235.349	140.88
235.583	148.88
235.817	129.88
236.051	128.88
236.285	114.88
236.519	119.88
236.753	124.88
236.987	132.88
237.221	134.88
237.455	136.88
237.689	144.88
237.922	148.88
238.156	129.88
238.39	130.88
238.624	137.88
238.858	140.88
239.091	130.88
239.325	145.88
239.559	135.88
239.793	145.88
240.027	148.88
240.26	146.88
240.494	149.88
240.728	154.88
240.961	139.88
241.195	145.88
241.429	166.88
241.662	143.88
241.896	158.88
242.13	161.88
242.363	164.88
242.597	171.88
242.83	155.88
243.064	156.88
243.298	179.88
243.531	152.88
243.765	157.88
243.998	157.88
244.232	171.88
244.465	167.88
244.699	172.88
244.932	179.88
245.166	171.88
245.399	162.88
245.633	176.88
245.866	201.88
246.099	178.88
246.333	182.88
246.566	169.88
246.8	173.88
247.033	185.88
247.266	183.88
247.5	194.88
247.733	182.88
247.966	180.88
248.2	192.88
248.433	200.88
248.666	185.88
248.899	197.88
249.133	184.88
249.366	197.88
249.599	202.88
249.832	190.88
250.066	203.88
250.299	195.88
250.532	208.88
250.765	196.88
250.998	207.88
251.231	204.88
251.465	217.88
251.698	235.88
251.931	212.88
252.164	204.88
252.397	209.88
252.63	228.88
252.863	205.88
253.096	213.88
253.329	206.88
253.562	211.88
253.795	231.88
254.028	222.88
254.261	202.88
254.494	221.88
254.727	218.88
254.96	232.88
255.193	227.88
255.426	206.88
255.659	226.88
255.892	229.88
256.124	240.88
256.357	242.88
256.59	228.88
256.823	213.88
257.056	231.88
257.289	225.88
257.521	217.88
257.754	227.88
257.987	254.88
258.22	244.88
258.452	247.88
258.685	240.88
258.918	248.88
259.151	219.88
259.383	254.88
259.616	256.88
259.849	240.88
260.081	254.88
260.314	232.88
260.547	239.88
260.779	252.88
261.012	250.88
261.244	243.88
261.477	254.88
261.71	252.88
261.942	248.88
262.175	245.88
262.407	262.88
262.64	236.88
262.872	246.88
263.105	234.88
263.337	252.88
263.57	266.88
263.802	260.88
264.035	253.88
264.267	269.88
264.499	269.88
264.732	271.88
264.964	276.88
265.197	285.88
265.429	269.88
265.661	281.88
265.894	271.88
266.126	271.88
266.358	282.88
266.591	280.88
266.823	270.88
267.055	268.88
267.287	293.88
267.52	278.88
267.752	298.88
267.984	280.88
268.216	288.88
268.448	293.88
268.681	304.88
268.913	267.88
269.145	284.88
269.377	278.88
269.609	285.88
269.841	284.88
270.073	289.88
270.306	295.88
270.538	286.88
270.77	304.88
271.002	302.88
271.234	291.88
271.466	286.88
271.698	281.88
271.93	304.88
272.162	306.88
272.394	301.88
272.626	291.88
272.858	291.88
273.09	304.88
273.322	291.88
273.553	284.88
273.785	308.88
274.017	302.88
274.249	315.88
274.481	325.88
274.713	320.88
274.945	322.88
275.176	319.88
275.408	313.88
275.64	310.88
275.872	322.88
276.104	333.88
276.335	337.88
276.567	329.88
276.799	330.88
277.031	339.88
277.262	308.88
277.494	301.88
277.726	328.88
277.957	312.88
278.189	335.88
278.421	311.88
278.652	337.88
278.884	333.88
279.115	334.88
279.347	342.88
279.579	323.88
279.81	346.88
280.042	333.88
280.273	357.88
280.505	363.88
280.736	333.88
280.968	353.88
281.199	352.88
281.431	368.88
281.662	345.88
281.894	333.88
282.125	334.88
282.356	355.88
282.588	355.88
282.819	347.88
283.051	330.88
283.282	359.88
283.513	363.88
283.745	353.88
283.976	355.88
284.207	362.88
284.439	361.88
284.67	356.88
284.901	380.88
285.132	365.88
285.364	378.88
285.595	370.88
285.826	361.88
286.057	389.88
286.288	374.88
286.52	363.88
286.751	384.88
286.982	388.88
287.213	388.88
287.444	384.88
287.675	409.88
287.906	388.88
288.138	381.88
288.369	394.88
288.6	394.88
288.831	406.88
289.062	411.88
289.293	390.88
289.524	394.88
289.755	397.88
289.986	383.88
290.217	376.88
290.448	390.88
290.679	406.88
290.91	401.88
291.141	403.88
291.371	400.88
291.602	413.88
291.833	376.88
292.064	406.88
292.295	394.88
292.526	410.88
292.757	400.88
292.987	401.88
293.218	396.88
293.449	398.88
293.68	425.88
293.91	404.88
294.141	392.88
294.372	413.88
294.603	416.88
294.833	419.88
295.064	406.88
295.295	416.88
295.525	418.88
295.756	402.88
295.987	445.88
296.217	446.88
296.448	413.88
296.679	442.88
296.909	424.88
297.14	417.88
297.37	439.88
297.601	444.88
297.831	433.88
298.062	419.88
298.292	452.88
298.523	462.88
298.753	455.88
298.984	441.88
299.214	467.88
299.445	431.88
299.675	444.88
299.905	445.88
300.136	418.88
300.366	441.88
300.597	468.88
300.827	458.88
301.057	461.88
301.288	483.88
301.518	441.88
301.748	469.88
301.979	467.88
302.209	460.88
302.439	449.88
302.669	458.88
302.9	444.88
303.13	452.88
303.36	455.88
303.59	440.88
303.82	463.88
304.051	453.88
304.281	447.88
304.511	436.88
304.741	449.88
304.971	454.88
305.201	459.88
305.431	451.88
305.661	466.88
305.891	446.88
306.121	448.88
306.352	454.88
306.582	461.88
306.812	456.88
307.042	441.88
307.272	440.88
307.502	434.88
307.731	437.88
307.961	450.88
308.191	445.88
308.421	413.88
308.651	444.88
308.881	462.88
309.111	433.88
309.341	452.88
309.571	430.88
309.8	439.88
310.03	432.88
310.26	437.88
310.49	456.88
310.72	461.88
310.949	441.88
311.179	451.88
311.409	450.88
311.639	462.88
311.868	443.88
312.098	469.88
312.328	477.88
312.557	446.88
312.787	444.88
313.017	442.88
313.246	474.88
313.476	460.88
313.706	472.88
313.935	461.88
314.165	463.88
314.394	454.88
314.624	461.88
314.853	473.88
315.083	472.88
315.312	479.88
315.542	478.88
315.771	467.88
316.001	468.88
316.23	468.88
316.46	469.88
316.689	464.88
316.919	454.88
317.148	466.88
317.377	456.88
317.607	474.88
317.836	460.88
318.065	453.88
318.295	471.88
318.524	460.88
318.753	448.88
318.983	437.88
319.212	450.88
319.441	450.88
319.67	451.88
319.9	461.88
320.129	471.88
320.358	466.88
320.587	456.88
320.816	464.88
321.046	467.88
321.275	470.88
321.504	471.88
321.733	469.88
321.962	466.88
322.191	459.88
322.42	476.88
322.649	485.88
322.878	484.88
323.108	476.88
323.337	486.88
323.566	508.88
323.795	496.88
324.024	497.88
324.253	494.88
324.482	492.88
324.71	471.88
324.939	469.88
325.168	490.88
325.397	492.88
325.626	470.88
325.855	489.88
326.084	481.88
326.313	505.88
326.542	522.88
326.77	541.88
326.999	519.88
327.228	498.88
327.457	514.88
327.686	494.88
327.914	486.88
328.143	486.88
328.372	511.88
328.6	512.88
328.829	513.88
329.058	493.88
329.287	491.88
329.515	506.88
329.744	534.88
329.972	519.88
330.201	528.88
330.43	533.88
330.658	517.88
330.887	547.88
331.115	549.88
331.344	518.88
331.572	508.88
331.801	526.88
332.03	548.88
332.258	567.88
332.486	600.88
332.715	626.88
332.943	628.88
333.172	658.88
333.4	696.88
333.629	725.88
333.857	710.88
334.085	695.88
334.314	685.88
334.542	640.88
334.771	647.88
334.999	652.88
335.227	610.88
335.455	649.88
335.684	644.88
335.912	646.88
336.14	632.88
336.369	622.88
336.597	608.88
336.825	613.88
337.053	615.88
337.281	594.88
337.51	571.88
337.738	559.88
337.966	570.88
338.194	576.88
338.422	574.88
338.65	560.88
338.878	542.88
339.106	532.88
339.334	557.88
339.562	561.88
339.79	524.88
340.018	553.88
340.246	549.88
340.474	531.88
340.702	521.88
340.93	544.88
341.158	546.88
341.386	546.88
341.614	531.88
341.842	534.88
342.07	537.88
342.298	543.88
342.526	546.88
342.754	532.88
342.981	548.88
343.209	555.88
343.437	588.88
343.665	617.88
343.893	667.88
344.12	690.88
344.348	642.88
344.576	612.88
344.804	571.88
345.031	567.88
345.259	567.88
345.487	549.88
345.714	528.88
345.942	550.88
346.17	548.88
346.397	548.88
346.625	543.88
346.853	526.88
347.08	521.88
347.308	526.88
347.535	535.88
347.763	536.88
347.99	576.88
348.218	545.88
348.445	528.88
348.673	509.88
348.9	532.88
349.128	530.88
349.355	525.88
349.583	510.88
349.81	516.88
350.037	505.88
350.265	508.88
350.492	513.88
350.72	492.88
350.947	498.88
351.174	508.88
351.402	493.88
351.629	490.88
351.856	486.88
352.083	494.88
352.311	509.88
352.538	502.88
352.765	485.88
352.992	509.88
353.22	502.88
353.447	509.88
353.674	495.88
353.901	505.88
354.128	510.88
354.355	486.88
354.583	507.88
354.81	521.88
355.037	511.88
355.264	510.88
355.491	504.88
355.718	530.88
355.945	521.88
356.172	503.88
356.399	496.88
356.626	510.88
356.853	505.88
357.08	499.88
357.307	506.88
357.534	514.88
357.761	526.88
357.988	490.88
358.215	505.88
358.441	496.88
358.668	478.88
358.895	510.88
359.122	489.88
359.349	498.88
359.576	502.88
359.802	488.88
360.029	518.88
360.256	524.88
360.483	509.88
360.709	476.88
360.936	493.88
361.163	516.88
361.39	493.88
361.616	488.88
361.843	500.88
362.07	522.88
362.296	513.88
362.523	501.88
362.749	487.88
362.976	509.88
363.203	488.88
363.429	464.88
363.656	478.88
363.882	513.88
364.109	497.88
364.335	515.88
364.562	493.88
364.788	504.88
365.015	496.88
365.241	498.88
365.468	507.88
365.694	523.88
365.92	532.88
366.147	506.88
366.373	500.88
366.599	497.88
366.826	493.88
367.052	483.88
367.278	499.88
367.505	532.88
367.731	496.88
367.957	487.88
368.184	508.88
368.41	518.88
368.636	509.88
368.862	519.88
369.089	520.88
369.315	522.88
369.541	521.88
369.767	531.88
369.993	523.88
370.219	535.88
370.445	516.88
370.672	533.88
370.898	538.88
371.124	544.88
371.35	542.88
371.576	553.88
371.802	550.88
372.028	541.88
372.254	546.88
372.48	548.88
372.706	566.88
372.932	566.88
373.158	584.88
373.384	549.88
373.61	549.88
373.835	568.88
374.061	550.88
374.287	544.88
374.513	580.88
374.739	593.88
374.965	617.88
375.191	625.88
375.416	597.88
375.642	593.88
375.868	611.88
376.094	584.88
376.319	578.88
376.545	578.88
376.771	562.88
376.997	544.88
377.222	553.88
377.448	544.88
377.674	553.88
377.899	557.88
378.125	526.88
378.35	544.88
378.576	524.88
378.802	552.88
379.027	555.88
379.253	521.88
379.478	564.88
379.704	549.88
379.929	565.88
380.155	538.88
380.38	556.88
380.606	543.88
380.831	548.88
381.057	557.88
381.282	563.88
381.507	533.88
381.733	551.88
381.958	557.88
382.184	550.88
382.409	602.88
382.634	578.88
382.86	572.88
383.085	584.88
383.31	611.88
383.535	612.88
383.761	645.88
383.986	637.88
384.211	653.88
384.436	664.88
384.662	656.88
384.887	691.88
385.112	646.88
385.337	655.88
385.562	664.88
385.787	647.88
386.013	642.88
386.238	689.88
386.463	669.88
386.688	664.88
386.913	645.88
387.138	658.88
387.363	656.88
387.588	639.88
387.813	647.88
388.038	665.88
388.263	636.88
388.488	686.88
388.713	663.88
388.938	650.88
389.163	609.88
389.387	628.88
389.612	623.88
389.837	636.88
390.062	638.88
390.287	642.88
390.512	637.88
390.736	647.88
390.961	633.88
391.186	652.88
391.411	660.88
391.636	731.88
391.86	724.88
392.085	756.88
392.31	746.88
392.534	715.88
392.759	724.88
392.984	684.88
393.208	724.88
393.433	701.88
393.658	710.88
393.882	701.88
394.107	714.88
394.331	724.88
394.556	713.88
394.78	718.88
395.005	700.88
395.229	697.88
395.454	728.88
395.678	743.88
395.903	748.88
396.127	731.88
396.352	691.88
396.576	689.88
396.801	681.88
397.025	717.88
397.249	722.88
397.474	738.88
397.698	742.88
397.922	747.88
398.147	730.88
398.371	739.88
398.595	754.88
398.82	802.88
399.044	892.88
399.268	981.88
399.492	1152.88
399.717	1334.88
399.941	1292.88
400.165	1128.88
400.389	990.88
400.613	886.88
400.837	840.88
401.062	818.88
401.286	814.88
401.51	809.88
401.734	799.88
401.958	800.88
402.182	807.88
402.406	835.88
402.63	835.88
402.854	904.88
403.078	906.88
403.302	937.88
403.526	950.88
403.75	986.88
403.974	1009.88
404.198	976.88
404.422	1004.88
404.645	1001.88
404.869	981.88
405.093	927.88
405.317	938.88
405.541	918.88
405.765	916.88
405.988	904.88
406.212	901.88
406.436	914.88
406.66	916.88
406.883	937.88
407.107	985.88
407.331	1033.88
407.555	1076.88
407.778	1069.88
408.002	1061.88
408.226	1015.88
408.449	1001.88
408.673	974.88
408.896	919.88
409.12	911.88
409.344	947.88
409.567	974.88
409.791	982.88
410.014	998.88
410.238	934.88
410.461	929.88
410.685	918.88
410.908	891.88
411.132	882.88
411.355	857.88
411.578	884.88
411.802	830.88
412.025	860.88
412.249	875.88
412.472	856.88
412.695	843.88
412.919	801.88
413.142	794.88
413.365	807.88
413.589	840.88
413.812	819.88
414.035	813.88
414.258	822.88
414.482	816.88
414.705	844.88
414.928	837.88
415.151	840.88
415.374	857.88
415.597	818.88
415.821	817.88
416.044	813.88
416.267	816.88
416.49	809.88
416.713	809.88
416.936	818.88
417.159	796.88
417.382	813.88
417.605	800.88
417.828	846.88
418.051	818.88
418.274	824.88
418.497	821.88
418.72	849.88
418.943	835.88
419.166	894.88
419.389	960.88
419.611	951.88
419.834	884.88
420.057	854.88
420.28	840.88
420.503	814.88
420.726	795.88
420.948	818.88
421.171	816.88
421.394	811.88
421.617	823.88
421.839	845.88
422.062	827.88
422.285	813.88
422.507	840.88
422.73	858.88
422.953	861.88
423.175	888.88
423.398	882.88
423.621	881.88
423.843	900.88
424.066	901.88
424.288	873.88
424.511	859.88
424.733	866.88
424.956	850.88
425.178	818.88
425.401	827.88
425.623	824.88
425.846	812.88
426.068	804.88
426.291	782.88
426.513	774.88
426.735	747.88
426.958	744.88
427.18	734.88
427.402	754.88
427.625	755.88
427.847	780.88
428.069	762.88
428.292	742.88
428.514	709.88
428.736	727.88
428.958	727.88
429.181	706.88
429.403	726.88
429.625	727.88
429.847	711.88
430.069	715.88
430.292	711.88
430.514	711.88
430.736	717.88
430.958	716.88
431.18	674.88
431.402	717.88
431.624	737.88
431.846	753.88
432.068	744.88
432.29	750.88
432.512	726.88
432.734	736.88
432.956	734.88
433.178	768.88
433.4	728.88
433.622	733.88
433.844	742.88
434.066	748.88
434.287	733.88
434.509	770.88
434.731	817.88
434.953	825.88
435.175	849.88
435.397	838.88
435.618	777.88
435.84	764.88
436.062	770.88
436.284	737.88
436.505	742.88
436.727	746.88
436.949	774.88
437.17	760.88
437.392	747.88
437.614	727.88
437.835	713.88
438.057	707.88
438.278	704.88
438.5	727.88
438.721	718.88
438.943	712.88
439.165	721.88
439.386	711.88
439.608	738.88
439.829	730.88
440.05	745.88
440.272	737.88
440.493	738.88
440.715	780.88
440.936	757.88
441.158	768.88
441.379	802.88
441.6	820.88
441.822	877.88
442.043	872.88
442.264	812.88
442.486	822.88
442.707	837.88
442.928	840.88
443.149	839.88
443.371	822.88
443.592	828.88
443.813	805.88
444.034	840.88
444.255	886.88
444.476	892.88
444.698	980.88
444.919	1024.88
445.14	1097.88
445.361	944.88
445.582	863.88
445.803	833.88
446.024	802.88
446.245	769.88
446.466	776.88
446.687	741.88
446.908	750.88
447.129	724.88
447.35	721.88
447.571	706.88
447.792	688.88
448.013	718.88
448.234	698.88
448.455	682.88
448.675	686.88
448.896	696.88
449.117	677.88
449.338	673.88
449.559	667.88
449.779	648.88
450	652.88
450.221	691.88
450.442	681.88
450.662	723.88
450.883	701.88
451.104	699.88
451.324	723.88
451.545	720.88
451.766	716.88
451.986	715.88
452.207	689.88
452.428	680.88
452.648	670.88
452.869	659.88
453.089	672.88
453.31	705.88
453.53	674.88
453.751	688.88
453.971	671.88
454.192	676.88
454.412	677.88
454.633	641.88
454.853	656.88
455.073	635.88
455.294	646.88
455.514	643.88
455.734	660.88
455.955	645.88
456.175	648.88
456.395	634.88
456.616	635.88
456.836	606.88
457.056	638.88
457.276	627.88
457.497	651.88
457.717	612.88
457.937	620.88
458.157	658.88
458.377	646.88
458.598	672.88
458.818	682.88
459.038	694.88
459.258	743.88
459.478	774.88
459.698	769.88
459.918	770.88
460.138	820.88
460.358	848.88
460.578	894.88
460.798	896.88
461.018	921.88
461.238	890.88
461.458	869.88
461.678	881.88
461.898	861.88
462.118	897.88
462.338	944.88
462.558	939.88
462.777	1010.88
462.997	1097.88
463.217	1221.88
463.437	1247.88
463.657	1108.88
463.876	1060.88
464.096	1049.88
464.316	1057.88
464.536	1085.88
464.755	999.88
464.975	972.88
465.195	925.88
465.414	872.88
465.634	797.88
465.854	795.88
466.073	761.88
466.293	738.88
466.512	722.88
466.732	716.88
466.951	710.88
467.171	726.88
467.391	735.88
467.61	731.88
467.829	738.88
468.049	719.88
468.268	684.88
468.488	688.88
468.707	664.88
468.927	690.88
469.146	677.88
469.365	688.88
469.585	690.88
469.804	700.88
470.023	741.88
470.243	729.88
470.462	744.88
470.681	766.88
470.901	753.88
471.12	745.88
471.339	727.88
471.558	708.88
471.777	702.88
471.997	693.88
472.216	698.88
472.435	692.88
472.654	670.88
472.873	706.88
473.092	660.88
473.311	683.88
473.53	661.88
473.749	644.88
473.968	640.88
474.187	645.88
474.406	651.88
474.625	675.88
474.844	666.88
475.063	669.88
475.282	666.88
475.501	682.88
475.72	686.88
475.939	695.88
476.158	700.88
476.377	698.88
476.596	681.88
476.814	692.88
477.033	714.88
477.252	718.88
477.471	732.88
477.69	741.88
477.908	742.88
478.127	757.88
478.346	791.88
478.564	810.88
478.783	807.88
479.002	854.88
479.22	832.88
479.439	850.88
479.658	822.88
479.876	809.88
480.095	845.88
480.313	859.88
480.532	934.88
480.751	900.88
480.969	836.88
481.188	838.88
481.406	809.88
481.624	788.88
481.843	783.88
482.061	768.88
482.28	754.88
482.498	764.88
482.717	758.88
482.935	763.88
483.153	757.88
483.372	742.88
483.59	765.88
483.808	774.88
484.027	762.88
484.245	772.88
484.463	784.88
484.681	804.88
484.9	765.88
485.118	820.88
485.336	776.88
485.554	780.88
485.772	802.88
485.99	816.88
486.209	797.88
486.427	820.88
486.645	816.88
486.863	815.88
487.081	796.88
487.299	796.88
487.517	807.88
487.735	783.88
487.953	792.88
488.171	810.88
488.389	798.88
488.607	793.88
488.825	789.88
489.043	772.88
489.261	802.88
489.479	789.88
489.696	812.88
489.914	793.88
490.132	808.88
490.35	797.88
490.568	779.88
490.786	820.88
491.003	790.88
491.221	812.88
491.439	835.88
491.657	786.88
491.874	818.88
492.092	802.88
492.31	816.88
492.527	794.88
492.745	816.88
492.963	791.88
493.18	818.88
493.398	797.88
493.615	830.88
493.833	867.88
494.05	844.88
494.268	854.88
494.485	865.88
494.703	859.88
494.92	851.88
495.138	846.88
495.355	813.88
495.573	829.88
495.79	843.88
496.008	872.88
496.225	869.88
496.442	865.88
496.66	868.88
496.877	853.88
497.094	891.88
497.312	897.88
497.529	927.88
497.746	934.88
497.963	969.88
498.181	989.88
498.398	1046.88
498.615	1115.88
498.832	1216.88
499.049	1275.88
499.267	1362.88
499.484	1523.88
499.701	1720.88
499.918	1919.88
500.135	2223.88
500.352	2628.88
500.569	2774.88
500.786	2767.88
501.003	2464.88
501.22	2219.88
