Data from Ni(NO3)2@0.5M.TitratingCurve.Agarose3%dH2O.NegLispCup.LampEnergy10.LIBS07252019_HRD10591_17-57-42-564.txt Node
Date: Thu Jul 25 17:57:42 EDT 2019
User: cochatt
Spectrometer: HR+D1059
Trigger mode: 1
Integration Time (sec): 1.000000E-1
Scans to average: 1
Electric dark correction enabled: true
Nonlinearity correction enabled: false
Boxcar width: 0
XAxis mode: Wavelengths
Number of Pixels in Spectrum: 2048
>>>>>Begin Spectral Data<<<<<
223.165	-26.75
223.4	-26.75
223.635	-26.75
223.869	-17.75
224.104	-12.75
224.338	-20.75
224.573	-0.75
224.808	-14.75
225.042	-9.75
225.277	3.25
225.511	-3.75
225.746	6.25
225.98	6.25
226.215	29.25
226.449	7.25
226.683	6.25
226.918	23.25
227.152	25.25
227.387	25.25
227.621	48.25
227.856	41.25
228.09	45.25
228.324	49.25
228.559	56.25
228.793	72.25
229.027	106.25
229.262	106.25
229.496	117.25
229.73	122.25
229.964	147.25
230.199	156.25
230.433	161.25
230.667	156.25
230.901	160.25
231.136	146.25
231.37	146.25
231.604	141.25
231.838	150.25
232.072	164.25
232.306	152.25
232.541	144.25
232.775	141.25
233.009	142.25
233.243	142.25
233.477	143.25
233.711	151.25
233.945	154.25
234.179	167.25
234.413	142.25
234.647	166.25
234.881	158.25
235.115	156.25
235.349	139.25
235.583	143.25
235.817	156.25
236.051	146.25
236.285	159.25
236.519	163.25
236.753	151.25
236.987	154.25
237.221	160.25
237.455	153.25
237.689	165.25
237.922	160.25
238.156	168.25
238.39	154.25
238.624	162.25
238.858	176.25
239.091	164.25
239.325	166.25
239.559	161.25
239.793	188.25
240.027	186.25
240.26	171.25
240.494	170.25
240.728	178.25
240.961	178.25
241.195	197.25
241.429	172.25
241.662	194.25
241.896	206.25
242.13	205.25
242.363	192.25
242.597	178.25
242.83	199.25
243.064	189.25
243.298	202.25
243.531	192.25
243.765	202.25
243.998	202.25
244.232	229.25
244.465	210.25
244.699	204.25
244.932	211.25
245.166	210.25
245.399	197.25
245.633	221.25
245.866	228.25
246.099	212.25
246.333	212.25
246.566	210.25
246.8	235.25
247.033	226.25
247.266	236.25
247.5	247.25
247.733	226.25
247.966	232.25
248.2	237.25
248.433	238.25
248.666	235.25
248.899	234.25
249.133	249.25
249.366	242.25
249.599	232.25
249.832	266.25
250.066	265.25
250.299	265.25
250.532	264.25
250.765	265.25
250.998	278.25
251.231	295.25
251.465	316.25
251.698	306.25
251.931	302.25
252.164	290.25
252.397	297.25
252.63	277.25
252.863	293.25
253.096	283.25
253.329	289.25
253.562	293.25
253.795	309.25
254.028	307.25
254.261	307.25
254.494	305.25
254.727	313.25
254.96	316.25
255.193	328.25
255.426	325.25
255.659	321.25
255.892	307.25
256.124	312.25
256.357	340.25
256.59	324.25
256.823	355.25
257.056	331.25
257.289	350.25
257.521	331.25
257.754	351.25
257.987	355.25
258.22	356.25
258.452	341.25
258.685	363.25
258.918	369.25
259.151	347.25
259.383	372.25
259.616	372.25
259.849	379.25
260.081	369.25
260.314	363.25
260.547	388.25
260.779	378.25
261.012	382.25
261.244	382.25
261.477	371.25
261.71	383.25
261.942	380.25
262.175	394.25
262.407	382.25
262.64	381.25
262.872	381.25
263.105	388.25
263.337	395.25
263.57	401.25
263.802	392.25
264.035	404.25
264.267	407.25
264.499	391.25
264.732	417.25
264.964	416.25
265.197	427.25
265.429	436.25
265.661	418.25
265.894	412.25
266.126	434.25
266.358	413.25
266.591	426.25
266.823	438.25
267.055	411.25
267.287	417.25
267.52	424.25
267.752	425.25
267.984	419.25
268.216	455.25
268.448	432.25
268.681	425.25
268.913	441.25
269.145	437.25
269.377	446.25
269.609	440.25
269.841	473.25
270.073	432.25
270.306	425.25
270.538	444.25
270.77	452.25
271.002	443.25
271.234	449.25
271.466	453.25
271.698	466.25
271.93	454.25
272.162	474.25
272.394	472.25
272.626	473.25
272.858	460.25
273.09	445.25
273.322	443.25
273.553	449.25
273.785	484.25
274.017	484.25
274.249	466.25
274.481	460.25
274.713	453.25
274.945	472.25
275.176	486.25
275.408	502.25
275.64	504.25
275.872	494.25
276.104	505.25
276.335	474.25
276.567	481.25
276.799	481.25
277.031	497.25
277.262	476.25
277.494	509.25
277.726	507.25
277.957	502.25
278.189	492.25
278.421	496.25
278.652	487.25
278.884	510.25
279.115	498.25
279.347	492.25
279.579	499.25
279.81	520.25
280.042	515.25
280.273	496.25
280.505	510.25
280.736	493.25
280.968	530.25
281.199	512.25
281.431	537.25
281.662	536.25
281.894	527.25
282.125	533.25
282.356	522.25
282.588	545.25
282.819	502.25
283.051	521.25
283.282	543.25
283.513	533.25
283.745	544.25
283.976	528.25
284.207	519.25
284.439	539.25
284.67	534.25
284.901	540.25
285.132	550.25
285.364	535.25
285.595	549.25
285.826	538.25
286.057	570.25
286.288	545.25
286.52	549.25
286.751	550.25
286.982	539.25
287.213	570.25
287.444	563.25
287.675	572.25
287.906	560.25
288.138	558.25
288.369	563.25
288.6	572.25
288.831	538.25
289.062	565.25
289.293	548.25
289.524	542.25
289.755	568.25
289.986	555.25
290.217	574.25
290.448	577.25
290.679	564.25
290.91	579.25
291.141	570.25
291.371	565.25
291.602	576.25
291.833	562.25
292.064	560.25
292.295	598.25
292.526	581.25
292.757	544.25
292.987	572.25
293.218	568.25
293.449	558.25
293.68	571.25
293.91	574.25
294.141	589.25
294.372	567.25
294.603	574.25
294.833	576.25
295.064	580.25
295.295	573.25
295.525	588.25
295.756	587.25
295.987	594.25
296.217	582.25
296.448	601.25
296.679	578.25
296.909	569.25
297.14	576.25
297.37	601.25
297.601	590.25
297.831	603.25
298.062	611.25
298.292	582.25
298.523	587.25
298.753	605.25
298.984	605.25
299.214	607.25
299.445	616.25
299.675	602.25
299.905	609.25
300.136	610.25
300.366	649.25
300.597	638.25
300.827	638.25
301.057	652.25
301.288	633.25
301.518	609.25
301.748	642.25
301.979	623.25
302.209	622.25
302.439	628.25
302.669	646.25
302.9	635.25
303.13	637.25
303.36	658.25
303.59	636.25
303.82	647.25
304.051	658.25
304.281	644.25
304.511	669.25
304.741	661.25
304.971	651.25
305.201	656.25
305.431	656.25
305.661	680.25
305.891	672.25
306.121	668.25
306.352	666.25
306.582	673.25
306.812	669.25
307.042	664.25
307.272	667.25
307.502	650.25
307.731	664.25
307.961	676.25
308.191	705.25
308.421	661.25
308.651	655.25
308.881	640.25
309.111	680.25
309.341	665.25
309.571	663.25
309.8	665.25
310.03	681.25
310.26	712.25
310.49	699.25
310.72	701.25
310.949	695.25
311.179	724.25
311.409	696.25
311.639	693.25
311.868	694.25
312.098	699.25
312.328	738.25
312.557	725.25
312.787	713.25
313.017	733.25
313.246	733.25
313.476	725.25
313.706	748.25
313.935	722.25
314.165	734.25
314.394	736.25
314.624	724.25
314.853	720.25
315.083	745.25
315.312	755.25
315.542	766.25
315.771	757.25
316.001	764.25
316.23	758.25
316.46	751.25
316.689	712.25
316.919	774.25
317.148	776.25
317.377	768.25
317.607	718.25
317.836	767.25
318.065	762.25
318.295	741.25
318.524	780.25
318.753	782.25
318.983	771.25
319.212	805.25
319.441	790.25
319.67	764.25
319.9	786.25
320.129	802.25
320.358	818.25
320.587	813.25
320.816	778.25
321.046	799.25
321.275	823.25
321.504	818.25
321.733	812.25
321.962	838.25
322.191	828.25
322.42	830.25
322.649	848.25
322.878	822.25
323.108	845.25
323.337	868.25
323.566	861.25
323.795	867.25
324.024	839.25
324.253	841.25
324.482	864.25
324.71	820.25
324.939	878.25
325.168	847.25
325.397	841.25
325.626	866.25
325.855	862.25
326.084	884.25
326.313	875.25
326.542	886.25
326.77	896.25
326.999	899.25
327.228	876.25
327.457	869.25
327.686	903.25
327.914	884.25
328.143	897.25
328.372	903.25
328.6	874.25
328.829	908.25
329.058	924.25
329.287	906.25
329.515	924.25
329.744	922.25
329.972	890.25
330.201	905.25
330.43	957.25
330.658	922.25
330.887	923.25
331.115	935.25
331.344	948.25
331.572	936.25
331.801	952.25
332.03	941.25
332.258	952.25
332.486	951.25
332.715	920.25
332.943	942.25
333.172	963.25
333.4	970.25
333.629	964.25
333.857	988.25
334.085	994.25
334.314	997.25
334.542	974.25
334.771	997.25
334.999	989.25
335.227	976.25
335.455	990.25
335.684	983.25
335.912	988.25
336.14	988.25
336.369	992.25
336.597	1021.25
336.825	1040.25
337.053	1019.25
337.281	1013.25
337.51	977.25
337.738	1008.25
337.966	994.25
338.194	1009.25
338.422	1012.25
338.65	990.25
338.878	996.25
339.106	972.25
339.334	995.25
339.562	1038.25
339.79	986.25
340.018	981.25
340.246	961.25
340.474	970.25
340.702	967.25
340.93	973.25
341.158	996.25
341.386	994.25
341.614	1011.25
341.842	1008.25
342.07	972.25
342.298	1006.25
342.526	992.25
342.754	1022.25
342.981	992.25
343.209	1014.25
343.437	998.25
343.665	1016.25
343.893	1009.25
344.12	1036.25
344.348	1004.25
344.576	1035.25
344.804	1024.25
345.031	1009.25
345.259	986.25
345.487	1006.25
345.714	1023.25
345.942	990.25
346.17	1054.25
346.397	1016.25
346.625	988.25
346.853	998.25
347.08	970.25
347.308	954.25
347.535	985.25
347.763	970.25
347.99	944.25
348.218	967.25
348.445	954.25
348.673	956.25
348.9	984.25
349.128	980.25
349.355	985.25
349.583	968.25
349.81	939.25
350.037	933.25
350.265	960.25
350.492	980.25
350.72	928.25
350.947	968.25
351.174	996.25
351.402	989.25
351.629	1005.25
351.856	980.25
352.083	962.25
352.311	972.25
352.538	996.25
352.765	1005.25
352.992	930.25
353.22	949.25
353.447	955.25
353.674	920.25
353.901	909.25
354.128	936.25
354.355	968.25
354.583	966.25
354.81	955.25
355.037	951.25
355.264	942.25
355.491	960.25
355.718	966.25
355.945	949.25
356.172	956.25
356.399	922.25
356.626	952.25
356.853	980.25
357.08	978.25
357.307	932.25
357.534	954.25
357.761	960.25
357.988	938.25
358.215	945.25
358.441	947.25
358.668	919.25
358.895	962.25
359.122	928.25
359.349	946.25
359.576	964.25
359.802	942.25
360.029	973.25
360.256	928.25
360.483	960.25
360.709	944.25
360.936	981.25
361.163	955.25
361.39	944.25
361.616	979.25
361.843	1000.25
362.07	987.25
362.296	953.25
362.523	935.25
362.749	957.25
362.976	928.25
363.203	960.25
363.429	939.25
363.656	921.25
363.882	937.25
364.109	933.25
364.335	934.25
364.562	938.25
364.788	943.25
365.015	956.25
365.241	950.25
365.468	944.25
365.694	948.25
365.92	932.25
366.147	959.25
366.373	934.25
366.599	936.25
366.826	952.25
367.052	944.25
367.278	952.25
367.505	968.25
367.731	962.25
367.957	947.25
368.184	969.25
368.41	937.25
368.636	949.25
368.862	977.25
369.089	973.25
369.315	957.25
369.541	969.25
369.767	977.25
369.993	944.25
370.219	953.25
370.445	965.25
370.672	955.25
370.898	968.25
371.124	952.25
371.35	984.25
371.576	976.25
371.802	986.25
372.028	989.25
372.254	1004.25
372.48	995.25
372.706	994.25
372.932	958.25
373.158	964.25
373.384	965.25
373.61	962.25
373.835	962.25
374.061	978.25
374.287	993.25
374.513	978.25
374.739	976.25
374.965	971.25
375.191	956.25
375.416	976.25
375.642	955.25
375.868	992.25
376.094	968.25
376.319	944.25
376.545	952.25
376.771	968.25
376.997	947.25
377.222	961.25
377.448	945.25
377.674	969.25
377.899	925.25
378.125	938.25
378.35	968.25
378.576	948.25
378.802	936.25
379.027	944.25
379.253	948.25
379.478	925.25
379.704	952.25
379.929	946.25
380.155	950.25
380.38	945.25
380.606	939.25
380.831	929.25
381.057	962.25
381.282	937.25
381.507	945.25
381.733	950.25
381.958	934.25
382.184	962.25
382.409	956.25
382.634	938.25
382.86	938.25
383.085	954.25
383.31	973.25
383.535	960.25
383.761	980.25
383.986	960.25
384.211	973.25
384.436	977.25
384.662	968.25
384.887	992.25
385.112	985.25
385.337	972.25
385.562	974.25
385.787	1002.25
386.013	1013.25
386.238	997.25
386.463	1016.25
386.688	984.25
386.913	978.25
387.138	998.25
387.363	985.25
387.588	979.25
387.813	962.25
388.038	1014.25
388.263	1010.25
388.488	984.25
388.713	1012.25
388.938	972.25
389.163	989.25
389.387	989.25
389.612	994.25
389.837	997.25
390.062	1010.25
390.287	1002.25
390.512	997.25
390.736	1024.25
390.961	1009.25
391.186	992.25
391.411	972.25
391.636	1017.25
391.86	1020.25
392.085	996.25
392.31	1022.25
392.534	1006.25
392.759	1009.25
392.984	996.25
393.208	998.25
393.433	999.25
393.658	1027.25
393.882	1000.25
394.107	1011.25
394.331	1000.25
394.556	980.25
394.78	1008.25
395.005	1013.25
395.229	1034.25
395.454	1033.25
395.678	1028.25
395.903	1031.25
396.127	1002.25
396.352	987.25
396.576	978.25
396.801	1012.25
397.025	999.25
397.249	1020.25
397.474	1022.25
397.698	1046.25
397.922	1054.25
398.147	1052.25
398.371	1026.25
398.595	1032.25
398.82	1047.25
399.044	1051.25
399.268	1077.25
399.492	1078.25
399.717	1136.25
399.941	1124.25
400.165	1096.25
400.389	1091.25
400.613	1078.25
400.837	1102.25
401.062	1055.25
401.286	1090.25
401.51	1106.25
401.734	1082.25
401.958	1067.25
402.182	1093.25
402.406	1048.25
402.63	1058.25
402.854	1061.25
403.078	1096.25
403.302	1110.25
403.526	1061.25
403.75	1065.25
403.974	1066.25
404.198	1069.25
404.422	1085.25
404.645	1102.25
404.869	1118.25
405.093	1131.25
405.317	1076.25
405.541	1088.25
405.765	1082.25
405.988	1101.25
406.212	1139.25
406.436	1103.25
406.66	1138.25
406.883	1100.25
407.107	1102.25
407.331	1144.25
407.555	1150.25
407.778	1126.25
408.002	1133.25
408.226	1155.25
408.449	1158.25
408.673	1132.25
408.896	1127.25
409.12	1136.25
409.344	1159.25
409.567	1119.25
409.791	1188.25
410.014	1116.25
410.238	1094.25
410.461	1127.25
410.685	1094.25
410.908	1122.25
411.132	1108.25
411.355	1101.25
411.578	1110.25
411.802	1113.25
412.025	1110.25
412.249	1133.25
412.472	1113.25
412.695	1084.25
412.919	1107.25
413.142	1126.25
413.365	1096.25
413.589	1090.25
413.812	1093.25
414.035	1105.25
414.258	1079.25
414.482	1087.25
414.705	1094.25
414.928	1115.25
415.151	1072.25
415.374	1079.25
415.597	1079.25
415.821	1067.25
416.044	1086.25
416.267	1059.25
416.49	1080.25
416.713	1039.25
416.936	1107.25
417.159	1073.25
417.382	1054.25
417.605	1063.25
417.828	1063.25
418.051	1044.25
418.274	1063.25
418.497	1068.25
418.72	1054.25
418.943	1029.25
419.166	1082.25
419.389	1150.25
419.611	1150.25
419.834	1099.25
420.057	1068.25
420.28	1029.25
420.503	1019.25
420.726	1048.25
420.948	1043.25
421.171	1024.25
421.394	1030.25
421.617	1021.25
421.839	1087.25
422.062	1063.25
422.285	1028.25
422.507	1064.25
422.73	1059.25
422.953	1062.25
423.175	1064.25
423.398	1063.25
423.621	1032.25
423.843	1053.25
424.066	1037.25
424.288	1035.25
424.511	1059.25
424.733	1053.25
424.956	1047.25
425.178	1077.25
425.401	1078.25
425.623	1054.25
425.846	1053.25
426.068	1029.25
426.291	1032.25
426.513	1033.25
426.735	1042.25
426.958	1042.25
427.18	1027.25
427.402	1055.25
427.625	1043.25
427.847	1045.25
428.069	1036.25
428.292	1064.25
428.514	1030.25
428.736	1017.25
428.958	1034.25
429.181	1038.25
429.403	1036.25
429.625	1068.25
429.847	1043.25
430.069	1040.25
430.292	1062.25
430.514	1052.25
430.736	1038.25
430.958	1061.25
431.18	1037.25
431.402	1043.25
431.624	1048.25
431.846	1033.25
432.068	994.25
432.29	1034.25
432.512	1044.25
432.734	1082.25
432.956	1058.25
433.178	1078.25
433.4	1063.25
433.622	1082.25
433.844	1097.25
434.066	1082.25
434.287	1057.25
434.509	1077.25
434.731	1062.25
434.953	1084.25
435.175	1097.25
435.397	1101.25
435.618	1060.25
435.84	1056.25
436.062	1059.25
436.284	1046.25
436.505	1046.25
436.727	1077.25
436.949	1061.25
437.17	1103.25
437.392	1059.25
437.614	1042.25
437.835	1006.25
438.057	1023.25
438.278	1030.25
438.5	1041.25
438.721	1084.25
438.943	1028.25
439.165	1053.25
439.386	1029.25
439.608	1054.25
439.829	1039.25
440.05	1028.25
440.272	1043.25
440.493	1045.25
440.715	1058.25
440.936	1052.25
441.158	1065.25
441.379	1052.25
441.6	1076.25
441.822	1085.25
442.043	1074.25
442.264	1063.25
442.486	1074.25
442.707	1094.25
442.928	1085.25
443.149	1061.25
443.371	1078.25
443.592	1113.25
443.813	1101.25
444.034	1063.25
444.255	1082.25
444.476	1085.25
444.698	1051.25
444.919	1108.25
445.14	1232.25
445.361	1148.25
445.582	1077.25
445.803	1058.25
446.024	1033.25
446.245	1089.25
446.466	1052.25
446.687	1053.25
446.908	1036.25
447.129	997.25
447.35	1012.25
447.571	1003.25
447.792	1003.25
448.013	1014.25
448.234	996.25
448.455	999.25
448.675	995.25
448.896	1004.25
449.117	993.25
449.338	980.25
449.559	980.25
449.779	963.25
450	987.25
450.221	964.25
450.442	974.25
450.662	976.25
450.883	982.25
451.104	987.25
451.324	966.25
451.545	993.25
451.766	972.25
451.986	982.25
452.207	952.25
452.428	974.25
452.648	1000.25
452.869	967.25
453.089	962.25
453.31	979.25
453.53	962.25
453.751	953.25
453.971	944.25
454.192	978.25
454.412	976.25
454.633	953.25
454.853	967.25
455.073	958.25
455.294	960.25
455.514	965.25
455.734	982.25
455.955	959.25
456.175	955.25
456.395	951.25
456.616	940.25
456.836	941.25
457.056	945.25
457.276	916.25
457.497	965.25
457.717	956.25
457.937	962.25
458.157	930.25
458.377	938.25
458.598	960.25
458.818	962.25
459.038	984.25
459.258	993.25
459.478	992.25
459.698	1054.25
459.918	1041.25
460.138	1021.25
460.358	1027.25
460.578	1032.25
460.798	1061.25
461.018	1077.25
461.238	1052.25
461.458	1001.25
461.678	1030.25
461.898	1050.25
462.118	1038.25
462.338	1104.25
462.558	1067.25
462.777	1112.25
462.997	1068.25
463.217	1110.25
463.437	1115.25
463.657	1123.25
463.876	1069.25
464.096	1109.25
464.316	1099.25
464.536	1102.25
464.755	1104.25
464.975	1051.25
465.195	1060.25
465.414	1008.25
465.634	1020.25
465.854	1026.25
466.073	1021.25
466.293	1024.25
466.512	976.25
466.732	997.25
466.951	1037.25
467.171	1029.25
467.391	995.25
467.61	1019.25
467.829	1023.25
468.049	1007.25
468.268	1009.25
468.488	1022.25
468.707	1003.25
468.927	1017.25
469.146	1041.25
469.365	1033.25
469.585	1032.25
469.804	1013.25
470.023	1044.25
470.243	1003.25
470.462	1011.25
470.681	1019.25
470.901	1058.25
471.12	1052.25
471.339	992.25
471.558	1010.25
471.777	1030.25
471.997	1037.25
472.216	1048.25
472.435	1044.25
472.654	1014.25
472.873	1008.25
473.092	1021.25
473.311	1042.25
473.53	1037.25
473.749	1048.25
473.968	1039.25
474.187	1022.25
474.406	1033.25
474.625	1042.25
474.844	1034.25
475.063	1075.25
475.282	1072.25
475.501	1068.25
475.72	1072.25
475.939	1062.25
476.158	1077.25
476.377	1085.25
476.596	1105.25
476.814	1108.25
477.033	1064.25
477.252	1075.25
477.471	1077.25
477.69	1166.25
477.908	1141.25
478.127	1146.25
478.346	1132.25
478.564	1174.25
478.783	1163.25
479.002	1200.25
479.22	1221.25
479.439	1187.25
479.658	1182.25
479.876	1184.25
480.095	1199.25
480.313	1188.25
480.532	1204.25
480.751	1171.25
480.969	1202.25
481.188	1201.25
481.406	1188.25
481.624	1163.25
481.843	1185.25
482.061	1211.25
482.28	1237.25
482.498	1185.25
482.717	1215.25
482.935	1221.25
483.153	1259.25
483.372	1261.25
483.59	1237.25
483.808	1232.25
484.027	1240.25
484.245	1228.25
484.463	1245.25
484.681	1261.25
484.9	1271.25
485.118	1288.25
485.336	1220.25
485.554	1243.25
485.772	1266.25
485.99	1265.25
486.209	1256.25
486.427	1264.25
486.645	1248.25
486.863	1253.25
487.081	1275.25
487.299	1273.25
487.517	1258.25
487.735	1296.25
487.953	1303.25
488.171	1321.25
488.389	1288.25
488.607	1287.25
488.825	1281.25
489.043	1265.25
489.261	1245.25
489.479	1272.25
489.696	1293.25
489.914	1271.25
490.132	1275.25
490.35	1276.25
490.568	1296.25
490.786	1308.25
491.003	1284.25
491.221	1290.25
491.439	1316.25
491.657	1268.25
491.874	1306.25
492.092	1333.25
492.31	1328.25
492.527	1324.25
492.745	1314.25
492.963	1309.25
493.18	1305.25
493.398	1291.25
493.615	1305.25
493.833	1336.25
494.05	1308.25
494.268	1314.25
494.485	1318.25
494.703	1331.25
494.92	1325.25
495.138	1353.25
495.355	1346.25
495.573	1329.25
