Data from Ni(NO3)2Standard.Agarose3%.GreenCap.LampEnergy5.5.E.O_HRD10591_14-41-48-187.txt Node
Date: Mon Jul 22 14:41:48 EDT 2019
User: cochatt
Spectrometer: HR+D1059
Trigger mode: 1
Integration Time (sec): 1.000000E-1
Scans to average: 1
Electric dark correction enabled: true
Nonlinearity correction enabled: false
Boxcar width: 0
XAxis mode: Wavelengths
Number of Pixels in Spectrum: 2048
>>>>>Begin Spectral Data<<<<<
223.165	-13.81
223.4	-13.81
223.635	-13.81
223.869	-9.81
224.104	1.19
224.338	-2.81
224.573	-26.81
224.808	-18.81
225.042	-12.81
225.277	-12.81
225.511	3.19
225.746	5.19
225.98	6.19
226.215	3.19
226.449	7.19
226.683	21.19
226.918	20.19
227.152	30.19
227.387	38.19
227.621	33.19
227.856	45.19
228.09	51.19
228.324	53.19
228.559	63.19
228.793	62.19
229.027	55.19
229.262	66.19
229.496	63.19
229.73	73.19
229.964	77.19
230.199	71.19
230.433	62.19
230.667	70.19
230.901	73.19
231.136	82.19
231.37	72.19
231.604	82.19
231.838	75.19
232.072	95.19
232.306	66.19
232.541	90.19
232.775	91.19
233.009	82.19
233.243	81.19
233.477	83.19
233.711	83.19
233.945	75.19
234.179	82.19
234.413	80.19
234.647	89.19
234.881	86.19
235.115	72.19
235.349	92.19
235.583	73.19
235.817	67.19
236.051	73.19
236.285	79.19
236.519	87.19
236.753	82.19
236.987	74.19
237.221	86.19
237.455	95.19
237.689	77.19
237.922	74.19
238.156	78.19
238.39	95.19
238.624	78.19
238.858	80.19
239.091	77.19
239.325	72.19
239.559	75.19
239.793	74.19
240.027	91.19
240.26	62.19
240.494	77.19
240.728	63.19
240.961	68.19
241.195	84.19
241.429	84.19
241.662	72.19
241.896	78.19
242.13	76.19
242.363	83.19
242.597	76.19
242.83	73.19
243.064	72.19
243.298	78.19
243.531	82.19
243.765	80.19
243.998	78.19
244.232	79.19
244.465	80.19
244.699	76.19
244.932	79.19
245.166	69.19
245.399	83.19
245.633	82.19
245.866	81.19
246.099	59.19
246.333	79.19
246.566	64.19
246.8	69.19
247.033	74.19
247.266	92.19
247.5	82.19
247.733	76.19
247.966	75.19
248.2	76.19
248.433	67.19
248.666	71.19
248.899	78.19
249.133	95.19
249.366	90.19
249.599	76.19
249.832	84.19
250.066	85.19
250.299	73.19
250.532	76.19
250.765	74.19
250.998	73.19
251.231	65.19
251.465	83.19
251.698	87.19
251.931	94.19
252.164	91.19
252.397	83.19
252.63	88.19
252.863	75.19
253.096	83.19
253.329	84.19
253.562	80.19
253.795	97.19
254.028	75.19
254.261	83.19
254.494	87.19
254.727	77.19
254.96	86.19
255.193	91.19
255.426	85.19
255.659	77.19
255.892	83.19
256.124	95.19
256.357	86.19
256.59	91.19
256.823	81.19
257.056	84.19
257.289	88.19
257.521	70.19
257.754	77.19
257.987	83.19
258.22	73.19
258.452	80.19
258.685	70.19
258.918	72.19
259.151	76.19
259.383	85.19
259.616	83.19
259.849	79.19
260.081	80.19
260.314	84.19
260.547	77.19
260.779	76.19
261.012	86.19
261.244	72.19
261.477	84.19
261.71	69.19
261.942	101.19
262.175	94.19
262.407	77.19
262.64	94.19
262.872	80.19
263.105	76.19
263.337	78.19
263.57	74.19
263.802	74.19
264.035	85.19
264.267	78.19
264.499	70.19
264.732	83.19
264.964	79.19
265.197	77.19
265.429	93.19
265.661	65.19
265.894	88.19
266.126	97.19
266.358	81.19
266.591	79.19
266.823	91.19
267.055	76.19
267.287	78.19
267.52	68.19
267.752	81.19
267.984	85.19
268.216	76.19
268.448	77.19
268.681	80.19
268.913	96.19
269.145	77.19
269.377	99.19
269.609	76.19
269.841	70.19
270.073	84.19
270.306	86.19
270.538	85.19
270.77	75.19
271.002	79.19
271.234	76.19
271.466	92.19
271.698	85.19
271.93	89.19
272.162	86.19
272.394	90.19
272.626	85.19
272.858	97.19
273.09	78.19
273.322	62.19
273.553	81.19
273.785	73.19
274.017	84.19
274.249	84.19
274.481	89.19
274.713	80.19
274.945	93.19
275.176	84.19
275.408	77.19
275.64	92.19
275.872	90.19
276.104	80.19
276.335	103.19
276.567	83.19
276.799	85.19
277.031	84.19
277.262	88.19
277.494	78.19
277.726	81.19
277.957	101.19
278.189	76.19
278.421	87.19
278.652	82.19
278.884	98.19
279.115	82.19
279.347	90.19
279.579	76.19
279.81	81.19
280.042	87.19
280.273	76.19
280.505	83.19
280.736	88.19
280.968	84.19
281.199	88.19
281.431	90.19
281.662	94.19
281.894	70.19
282.125	74.19
282.356	82.19
282.588	81.19
282.819	107.19
283.051	81.19
283.282	85.19
283.513	89.19
283.745	74.19
283.976	81.19
284.207	86.19
284.439	79.19
284.67	94.19
284.901	89.19
285.132	92.19
285.364	92.19
285.595	92.19
285.826	85.19
286.057	97.19
286.288	88.19
286.52	89.19
286.751	69.19
286.982	85.19
287.213	82.19
287.444	78.19
287.675	85.19
287.906	93.19
288.138	87.19
288.369	83.19
288.6	76.19
288.831	92.19
289.062	83.19
289.293	78.19
289.524	77.19
289.755	83.19
289.986	89.19
290.217	91.19
290.448	82.19
290.679	97.19
290.91	79.19
291.141	83.19
291.371	77.19
291.602	67.19
291.833	97.19
292.064	86.19
292.295	83.19
292.526	82.19
292.757	80.19
292.987	65.19
293.218	88.19
293.449	95.19
293.68	72.19
293.91	90.19
294.141	90.19
294.372	71.19
294.603	90.19
294.833	82.19
295.064	86.19
295.295	107.19
295.525	95.19
295.756	83.19
295.987	86.19
296.217	90.19
296.448	92.19
296.679	78.19
296.909	83.19
297.14	93.19
297.37	83.19
297.601	87.19
297.831	77.19
298.062	78.19
298.292	87.19
298.523	99.19
298.753	83.19
298.984	86.19
299.214	77.19
299.445	86.19
299.675	86.19
299.905	89.19
300.136	85.19
300.366	77.19
300.597	76.19
300.827	87.19
301.057	90.19
301.288	100.19
301.518	84.19
301.748	85.19
301.979	98.19
302.209	85.19
302.439	101.19
302.669	99.19
302.9	87.19
303.13	111.19
303.36	75.19
303.59	112.19
303.82	88.19
304.051	90.19
304.281	86.19
304.511	99.19
304.741	105.19
304.971	86.19
305.201	89.19
305.431	88.19
305.661	94.19
305.891	75.19
306.121	79.19
306.352	84.19
306.582	78.19
306.812	94.19
307.042	90.19
307.272	100.19
307.502	91.19
307.731	98.19
307.961	86.19
308.191	69.19
308.421	91.19
308.651	95.19
308.881	75.19
309.111	98.19
309.341	91.19
309.571	83.19
309.8	92.19
310.03	97.19
310.26	73.19
310.49	108.19
310.72	75.19
310.949	84.19
311.179	94.19
311.409	92.19
311.639	94.19
311.868	98.19
312.098	85.19
312.328	78.19
312.557	86.19
312.787	87.19
313.017	96.19
313.246	83.19
313.476	89.19
313.706	86.19
313.935	87.19
314.165	90.19
314.394	76.19
314.624	93.19
314.853	96.19
315.083	90.19
315.312	83.19
315.542	96.19
315.771	86.19
316.001	75.19
316.23	90.19
316.46	78.19
316.689	76.19
316.919	88.19
317.148	92.19
317.377	100.19
317.607	73.19
317.836	97.19
318.065	85.19
318.295	90.19
318.524	75.19
318.753	90.19
318.983	78.19
319.212	94.19
319.441	89.19
319.67	99.19
319.9	81.19
320.129	71.19
320.358	91.19
320.587	96.19
320.816	104.19
321.046	98.19
321.275	90.19
321.504	85.19
321.733	90.19
321.962	86.19
322.191	85.19
322.42	81.19
322.649	98.19
322.878	98.19
323.108	74.19
323.337	82.19
323.566	102.19
323.795	79.19
324.024	81.19
324.253	93.19
324.482	87.19
324.71	91.19
324.939	99.19
325.168	92.19
325.397	79.19
325.626	81.19
325.855	82.19
326.084	88.19
326.313	79.19
326.542	95.19
326.77	82.19
326.999	89.19
327.228	93.19
327.457	86.19
327.686	85.19
327.914	91.19
328.143	90.19
328.372	79.19
328.6	83.19
328.829	96.19
329.058	95.19
329.287	88.19
329.515	84.19
329.744	89.19
329.972	85.19
330.201	86.19
330.43	80.19
330.658	76.19
330.887	90.19
331.115	80.19
331.344	85.19
331.572	86.19
331.801	93.19
332.03	103.19
332.258	82.19
332.486	83.19
332.715	82.19
332.943	88.19
333.172	79.19
333.4	96.19
333.629	93.19
333.857	92.19
334.085	74.19
334.314	86.19
334.542	83.19
334.771	73.19
334.999	85.19
335.227	80.19
335.455	93.19
335.684	77.19
335.912	89.19
336.14	89.19
336.369	82.19
336.597	71.19
336.825	101.19
337.053	82.19
337.281	85.19
337.51	91.19
337.738	90.19
337.966	77.19
338.194	88.19
338.422	93.19
338.65	91.19
338.878	92.19
339.106	89.19
339.334	92.19
339.562	83.19
339.79	96.19
340.018	86.19
340.246	81.19
340.474	94.19
340.702	85.19
340.93	88.19
341.158	82.19
341.386	82.19
341.614	94.19
341.842	92.19
342.07	83.19
342.298	101.19
342.526	97.19
342.754	94.19
342.981	101.19
343.209	68.19
343.437	83.19
343.665	87.19
343.893	106.19
344.12	98.19
344.348	81.19
344.576	91.19
344.804	96.19
345.031	79.19
345.259	92.19
345.487	83.19
345.714	94.19
345.942	94.19
346.17	84.19
346.397	93.19
346.625	92.19
346.853	83.19
347.08	80.19
347.308	85.19
347.535	81.19
347.763	93.19
347.99	84.19
348.218	102.19
348.445	87.19
348.673	84.19
348.9	88.19
349.128	90.19
349.355	83.19
349.583	91.19
349.81	78.19
350.037	92.19
350.265	85.19
350.492	80.19
350.72	84.19
350.947	83.19
351.174	84.19
351.402	84.19
351.629	90.19
351.856	88.19
352.083	92.19
352.311	85.19
352.538	88.19
352.765	84.19
352.992	90.19
353.22	90.19
353.447	80.19
353.674	83.19
353.901	91.19
354.128	89.19
354.355	87.19
354.583	83.19
354.81	79.19
355.037	87.19
355.264	90.19
355.491	77.19
355.718	85.19
355.945	89.19
356.172	100.19
356.399	91.19
356.626	79.19
356.853	88.19
357.08	93.19
357.307	90.19
357.534	91.19
357.761	94.19
357.988	76.19
358.215	93.19
358.441	97.19
358.668	85.19
358.895	85.19
359.122	95.19
359.349	83.19
359.576	87.19
359.802	79.19
360.029	84.19
360.256	100.19
360.483	89.19
360.709	73.19
360.936	80.19
361.163	90.19
361.39	93.19
361.616	87.19
361.843	94.19
362.07	89.19
362.296	83.19
362.523	84.19
362.749	83.19
362.976	78.19
363.203	86.19
363.429	93.19
363.656	79.19
363.882	83.19
364.109	94.19
364.335	90.19
364.562	90.19
364.788	83.19
365.015	100.19
365.241	75.19
365.468	98.19
365.694	71.19
365.92	102.19
366.147	80.19
366.373	86.19
366.599	83.19
366.826	107.19
367.052	74.19
367.278	95.19
367.505	82.19
367.731	95.19
367.957	83.19
368.184	93.19
368.41	97.19
368.636	83.19
368.862	85.19
369.089	106.19
369.315	85.19
369.541	83.19
369.767	79.19
369.993	100.19
370.219	86.19
370.445	88.19
370.672	92.19
370.898	79.19
371.124	94.19
371.35	91.19
371.576	91.19
371.802	81.19
372.028	75.19
372.254	90.19
372.48	72.19
372.706	90.19
372.932	88.19
373.158	102.19
373.384	104.19
373.61	82.19
373.835	88.19
374.061	82.19
374.287	86.19
374.513	89.19
374.739	87.19
374.965	88.19
375.191	75.19
375.416	76.19
375.642	82.19
375.868	87.19
376.094	96.19
376.319	85.19
376.545	86.19
376.771	90.19
376.997	79.19
377.222	90.19
377.448	77.19
377.674	87.19
377.899	79.19
378.125	87.19
378.35	99.19
378.576	100.19
378.802	75.19
379.027	93.19
379.253	81.19
379.478	78.19
379.704	80.19
379.929	82.19
380.155	89.19
380.38	74.19
380.606	85.19
380.831	76.19
381.057	88.19
381.282	89.19
381.507	78.19
381.733	86.19
381.958	96.19
382.184	79.19
382.409	95.19
382.634	96.19
382.86	93.19
383.085	88.19
383.31	76.19
383.535	89.19
383.761	92.19
383.986	85.19
384.211	90.19
384.436	92.19
384.662	80.19
384.887	94.19
385.112	79.19
385.337	89.19
385.562	81.19
385.787	103.19
386.013	91.19
386.238	81.19
386.463	96.19
386.688	86.19
386.913	108.19
387.138	65.19
387.363	75.19
387.588	79.19
387.813	91.19
388.038	95.19
388.263	90.19
388.488	96.19
388.713	90.19
388.938	82.19
389.163	73.19
389.387	91.19
389.612	96.19
389.837	79.19
390.062	83.19
390.287	86.19
390.512	72.19
390.736	84.19
390.961	93.19
391.186	95.19
391.411	100.19
391.636	87.19
391.86	90.19
392.085	73.19
392.31	69.19
392.534	87.19
392.759	100.19
392.984	82.19
393.208	89.19
393.433	90.19
393.658	73.19
393.882	88.19
394.107	70.19
394.331	74.19
394.556	89.19
394.78	90.19
395.005	102.19
395.229	87.19
395.454	98.19
395.678	83.19
395.903	100.19
396.127	83.19
396.352	86.19
396.576	79.19
396.801	94.19
397.025	77.19
397.249	90.19
397.474	77.19
397.698	79.19
397.922	86.19
398.147	89.19
398.371	87.19
398.595	94.19
398.82	92.19
399.044	77.19
399.268	89.19
399.492	95.19
399.717	95.19
399.941	84.19
400.165	85.19
400.389	91.19
400.613	89.19
400.837	75.19
401.062	102.19
401.286	91.19
401.51	85.19
401.734	71.19
401.958	78.19
402.182	75.19
402.406	89.19
402.63	92.19
402.854	83.19
403.078	98.19
403.302	86.19
403.526	83.19
403.75	96.19
403.974	94.19
404.198	88.19
404.422	84.19
404.645	94.19
404.869	91.19
405.093	84.19
405.317	88.19
405.541	86.19
405.765	83.19
405.988	85.19
406.212	81.19
406.436	83.19
406.66	80.19
406.883	83.19
407.107	95.19
407.331	93.19
407.555	77.19
407.778	84.19
408.002	110.19
408.226	88.19
408.449	92.19
408.673	74.19
408.896	84.19
409.12	86.19
409.344	95.19
409.567	89.19
409.791	97.19
410.014	87.19
410.238	93.19
410.461	87.19
410.685	78.19
410.908	86.19
411.132	82.19
411.355	78.19
411.578	85.19
411.802	93.19
412.025	100.19
412.249	83.19
412.472	89.19
412.695	94.19
412.919	85.19
413.142	93.19
413.365	91.19
413.589	80.19
413.812	81.19
414.035	85.19
414.258	79.19
414.482	76.19
414.705	87.19
414.928	87.19
415.151	84.19
415.374	74.19
415.597	95.19
415.821	91.19
416.044	96.19
416.267	78.19
416.49	80.19
416.713	93.19
416.936	79.19
417.159	93.19
417.382	72.19
417.605	91.19
417.828	81.19
418.051	111.19
418.274	104.19
418.497	88.19
418.72	85.19
418.943	94.19
419.166	89.19
419.389	98.19
419.611	92.19
419.834	87.19
420.057	80.19
420.28	85.19
420.503	74.19
420.726	86.19
420.948	86.19
421.171	79.19
421.394	84.19
421.617	83.19
421.839	88.19
422.062	77.19
422.285	98.19
422.507	83.19
422.73	87.19
422.953	81.19
423.175	73.19
423.398	88.19
423.621	85.19
423.843	82.19
424.066	86.19
424.288	95.19
424.511	90.19
424.733	91.19
424.956	83.19
425.178	86.19
425.401	87.19
425.623	80.19
425.846	88.19
426.068	87.19
426.291	106.19
426.513	94.19
426.735	86.19
426.958	82.19
427.18	76.19
427.402	95.19
427.625	92.19
427.847	90.19
428.069	92.19
428.292	72.19
428.514	90.19
428.736	82.19
428.958	85.19
429.181	75.19
429.403	76.19
429.625	81.19
429.847	95.19
430.069	82.19
430.292	81.19
430.514	87.19
430.736	83.19
430.958	90.19
431.18	83.19
431.402	92.19
431.624	94.19
431.846	68.19
432.068	76.19
432.29	78.19
432.512	86.19
432.734	77.19
432.956	94.19
433.178	88.19
433.4	87.19
433.622	94.19
433.844	80.19
434.066	97.19
434.287	83.19
434.509	74.19
434.731	85.19
434.953	89.19
435.175	86.19
435.397	99.19
435.618	77.19
435.84	83.19
436.062	80.19
436.284	86.19
436.505	83.19
436.727	87.19
436.949	84.19
437.17	80.19
437.392	75.19
437.614	85.19
437.835	86.19
438.057	88.19
438.278	85.19
438.5	94.19
438.721	89.19
438.943	88.19
439.165	86.19
439.386	91.19
439.608	96.19
439.829	75.19
440.05	91.19
440.272	80.19
440.493	84.19
440.715	94.19
440.936	82.19
441.158	78.19
441.379	83.19
441.6	86.19
441.822	97.19
442.043	97.19
442.264	87.19
442.486	82.19
442.707	85.19
442.928	95.19
443.149	94.19
443.371	93.19
443.592	94.19
443.813	79.19
444.034	101.19
444.255	101.19
444.476	105.19
444.698	91.19
444.919	94.19
445.14	187.19
445.361	131.19
445.582	93.19
445.803	80.19
446.024	91.19
446.245	94.19
446.466	69.19
446.687	89.19
446.908	91.19
447.129	98.19
447.35	72.19
447.571	87.19
447.792	90.19
448.013	89.19
448.234	83.19
448.455	92.19
448.675	89.19
448.896	82.19
449.117	93.19
449.338	77.19
449.559	94.19
449.779	83.19
450	82.19
450.221	98.19
450.442	88.19
450.662	94.19
450.883	89.19
451.104	86.19
451.324	97.19
451.545	86.19
451.766	75.19
451.986	89.19
452.207	80.19
452.428	78.19
452.648	82.19
452.869	88.19
453.089	78.19
453.31	76.19
453.53	91.19
453.751	99.19
453.971	87.19
454.192	92.19
454.412	75.19
454.633	83.19
454.853	74.19
455.073	80.19
455.294	102.19
455.514	74.19
455.734	80.19
455.955	85.19
456.175	85.19
456.395	76.19
456.616	86.19
456.836	81.19
457.056	79.19
457.276	86.19
457.497	85.19
457.717	79.19
457.937	76.19
458.157	102.19
458.377	69.19
458.598	84.19
458.818	94.19
459.038	82.19
459.258	86.19
459.478	102.19
459.698	90.19
459.918	92.19
460.138	87.19
460.358	80.19
460.578	82.19
460.798	101.19
461.018	87.19
461.238	90.19
461.458	85.19
461.678	89.19
461.898	92.19
462.118	88.19
462.338	89.19
462.558	72.19
462.777	82.19
462.997	80.19
463.217	84.19
463.437	108.19
463.657	100.19
463.876	83.19
464.096	89.19
464.316	90.19
464.536	96.19
464.755	89.19
464.975	89.19
465.195	84.19
465.414	87.19
465.634	83.19
465.854	75.19
466.073	77.19
466.293	93.19
466.512	82.19
466.732	85.19
466.951	100.19
467.171	103.19
467.391	102.19
467.61	82.19
467.829	92.19
468.049	79.19
468.268	89.19
468.488	93.19
468.707	85.19
468.927	91.19
469.146	81.19
469.365	85.19
469.585	91.19
469.804	95.19
470.023	86.19
470.243	79.19
470.462	84.19
470.681	73.19
470.901	80.19
471.12	101.19
471.339	90.19
471.558	82.19
471.777	96.19
471.997	92.19
472.216	76.19
472.435	90.19
472.654	83.19
472.873	98.19
473.092	82.19
473.311	105.19
473.53	85.19
473.749	96.19
473.968	93.19
474.187	86.19
474.406	75.19
474.625	81.19
474.844	98.19
475.063	95.19
475.282	92.19
475.501	91.19
475.72	92.19
475.939	100.19
476.158	95.19
476.377	93.19
476.596	108.19
476.814	81.19
477.033	87.19
477.252	92.19
477.471	79.19
477.69	91.19
477.908	85.19
478.127	91.19
478.346	90.19
478.564	107.19
478.783	83.19
479.002	93.19
479.22	90.19
479.439	109.19
479.658	90.19
479.876	87.19
480.095	83.19
480.313	70.19
480.532	84.19
480.751	81.19
480.969	79.19
481.188	92.19
481.406	106.19
481.624	91.19
481.843	92.19
482.061	99.19
482.28	78.19
482.498	81.19
482.717	84.19
482.935	87.19
483.153	90.19
483.372	70.19
483.59	91.19
483.808	95.19
484.027	78.19
484.245	96.19
484.463	90.19
484.681	97.19
484.9	95.19
485.118	90.19
485.336	91.19
485.554	87.19
485.772	87.19
485.99	110.19
486.209	95.19
486.427	92.19
486.645	102.19
486.863	108.19
487.081	86.19
487.299	82.19
487.517	109.19
487.735	91.19
487.953	111.19
488.171	89.19
488.389	99.19
488.607	104.19
488.825	94.19
489.043	92.19
489.261	83.19
489.479	89.19
489.696	88.19
489.914	102.19
490.132	95.19
490.35	103.19
490.568	83.19
490.786	96.19
491.003	91.19
491.221	86.19
491.439	97.19
491.657	97.19
491.874	100.19
492.092	105.19
492.31	101.19
492.527	99.19
492.745	106.19
492.963	102.19
493.18	106.19
493.398	99.19
493.615	103.19
493.833	91.19
494.05	85.19
494.268	91.19
494.485	107.19
494.703	87.19
494.92	96.19
495.138	101.19
495.355	81.19
495.573	99.19
495.79	86.19
496.008	107.19
496.225	101.19
496.442	97.19
496.66	93.19
496.877	87.19
497.094	87.19
497.312	86.19
497.529	107.19
497.746	105.19
497.963	101.19
498.181	85.19
498.398	101.19
498.615	109.19
498.832	98.19
499.049	96.19
499.267	99.19
499.484	86.19
499.701	115.19
499.918	100.19
500.135	109.19
500.352	119.19
500.569	99.19
500.786	118.19
501.003	105.19
501.22	110.19
501.437	98.19
501.654	108.19
501.871	99.19
502.088	109.19
502.305	91.19
502.522	91.19
502.739	106.19
502.956	89.19
503.172	87.19
503.389	94.19
503.606	90.19
503.823	96.19
504.04	98.19
504.256	94.19
504.473	93.19
504.69	104.19
504.907	101.19
505.123	104.19
505.34	101.19
505.557	99.19
505.773	90.19
505.99	81.19
506.207	80.19
506.423	93.19
506.64	97.19
506.856	92.19
507.073	79.19
507.289	86.19
507.506	96.19
507.722	113.19
507.939	90.19
508.155	102.19
508.372	94.19
508.588	101.19
508.805	92.19
509.021	91.19
509.238	92.19
509.454	98.19
509.67	101.19
509.887	98.19
510.103	106.19
510.319	87.19
510.536	97.19
510.752	80.19
510.968	94.19
511.184	78.19
511.401	89.19
511.617	93.19
511.833	113.19
512.049	86.19
512.265	94.19
512.481	83.19
512.698	79.19
512.914	101.19
513.13	99.19
513.346	102.19
513.562	87.19
513.778	93.19
513.994	89.19
514.21	84.19
514.426	105.19
514.642	88.19
514.858	88.19
515.074	107.19
515.29	85.19
515.506	95.19
515.721	98.19
515.937	89.19
516.153	110.19
516.369	88.19
516.585	95.19
516.801	81.19
517.016	93.19
517.232	84.19
517.448	86.19
517.664	87.19
517.879	106.19
