Data from Ni(NO3)2@0.0625M.TitratingCurve.Agarose3%dH2O.NegLispCup.LampEnergy10.LIBS07252019_HRD10591_18-14-40-569.txt Node
Date: Thu Jul 25 18:14:40 EDT 2019
User: cochatt
Spectrometer: HR+D1059
Trigger mode: 1
Integration Time (sec): 1.000000E-1
Scans to average: 1
Electric dark correction enabled: true
Nonlinearity correction enabled: false
Boxcar width: 0
XAxis mode: Wavelengths
Number of Pixels in Spectrum: 2048
>>>>>Begin Spectral Data<<<<<
223.165	-33.81
223.4	-33.81
223.635	-33.81
223.869	-25.81
224.104	-30.81
224.338	-9.81
224.573	-12.81
224.808	-6.81
225.042	0.19
225.277	-4.81
225.511	0.19
225.746	7.19
225.98	7.19
226.215	22.19
226.449	27.19
226.683	20.19
226.918	13.19
227.152	27.19
227.387	33.19
227.621	31.19
227.856	51.19
228.09	46.19
228.324	56.19
228.559	59.19
228.793	77.19
229.027	88.19
229.262	110.19
229.496	98.19
229.73	99.19
229.964	115.19
230.199	114.19
230.433	122.19
230.667	118.19
230.901	122.19
231.136	107.19
231.37	115.19
231.604	123.19
231.838	138.19
232.072	124.19
232.306	117.19
232.541	114.19
232.775	122.19
233.009	111.19
233.243	129.19
233.477	129.19
233.711	144.19
233.945	133.19
234.179	142.19
234.413	132.19
234.647	126.19
234.881	123.19
235.115	141.19
235.349	140.19
235.583	125.19
235.817	125.19
236.051	138.19
236.285	127.19
236.519	140.19
236.753	129.19
236.987	140.19
237.221	132.19
237.455	138.19
237.689	140.19
237.922	134.19
238.156	146.19
238.39	140.19
238.624	146.19
238.858	137.19
239.091	142.19
239.325	148.19
239.559	131.19
239.793	149.19
240.027	135.19
240.26	153.19
240.494	141.19
240.728	146.19
240.961	139.19
241.195	139.19
241.429	161.19
241.662	152.19
241.896	166.19
242.13	156.19
242.363	157.19
242.597	165.19
242.83	158.19
243.064	153.19
243.298	169.19
243.531	179.19
243.765	181.19
243.998	160.19
244.232	167.19
244.465	181.19
244.699	167.19
244.932	170.19
245.166	184.19
245.399	187.19
245.633	167.19
245.866	182.19
246.099	165.19
246.333	193.19
246.566	182.19
246.8	179.19
247.033	165.19
247.266	179.19
247.5	189.19
247.733	187.19
247.966	178.19
248.2	182.19
248.433	188.19
248.666	180.19
248.899	194.19
249.133	197.19
249.366	197.19
249.599	191.19
249.832	202.19
250.066	206.19
250.299	192.19
250.532	217.19
250.765	194.19
250.998	222.19
251.231	195.19
251.465	211.19
251.698	197.19
251.931	217.19
252.164	200.19
252.397	202.19
252.63	210.19
252.863	217.19
253.096	204.19
253.329	208.19
253.562	206.19
253.795	206.19
254.028	221.19
254.261	221.19
254.494	210.19
254.727	217.19
254.96	208.19
255.193	235.19
255.426	217.19
255.659	216.19
255.892	197.19
256.124	228.19
256.357	218.19
256.59	236.19
256.823	221.19
257.056	242.19
257.289	226.19
257.521	218.19
257.754	243.19
257.987	233.19
258.22	252.19
258.452	219.19
258.685	236.19
258.918	234.19
259.151	238.19
259.383	229.19
259.616	236.19
259.849	247.19
260.081	244.19
260.314	250.19
260.547	244.19
260.779	242.19
261.012	249.19
261.244	246.19
261.477	257.19
261.71	253.19
261.942	234.19
262.175	227.19
262.407	257.19
262.64	269.19
262.872	235.19
263.105	251.19
263.337	262.19
263.57	237.19
263.802	246.19
264.035	245.19
264.267	259.19
264.499	244.19
264.732	251.19
264.964	270.19
265.197	274.19
265.429	265.19
265.661	275.19
265.894	265.19
266.126	278.19
266.358	267.19
266.591	297.19
266.823	281.19
267.055	275.19
267.287	294.19
267.52	271.19
267.752	283.19
267.984	277.19
268.216	287.19
268.448	280.19
268.681	287.19
268.913	266.19
269.145	276.19
269.377	265.19
269.609	277.19
269.841	281.19
270.073	279.19
270.306	277.19
270.538	277.19
270.77	275.19
271.002	279.19
271.234	302.19
271.466	316.19
271.698	284.19
271.93	300.19
272.162	294.19
272.394	295.19
272.626	279.19
272.858	298.19
273.09	306.19
273.322	294.19
273.553	299.19
273.785	309.19
274.017	298.19
274.249	281.19
274.481	312.19
274.713	297.19
274.945	305.19
275.176	302.19
275.408	332.19
275.64	318.19
275.872	325.19
276.104	308.19
276.335	299.19
276.567	332.19
276.799	319.19
277.031	313.19
277.262	326.19
277.494	313.19
277.726	318.19
277.957	315.19
278.189	331.19
278.421	327.19
278.652	325.19
278.884	326.19
279.115	354.19
279.347	346.19
279.579	314.19
279.81	333.19
280.042	328.19
280.273	337.19
280.505	328.19
280.736	343.19
280.968	352.19
281.199	356.19
281.431	347.19
281.662	346.19
281.894	357.19
282.125	361.19
282.356	334.19
282.588	331.19
282.819	351.19
283.051	347.19
283.282	357.19
283.513	342.19
283.745	362.19
283.976	345.19
284.207	337.19
284.439	362.19
284.67	370.19
284.901	359.19
285.132	354.19
285.364	359.19
285.595	366.19
285.826	364.19
286.057	356.19
286.288	375.19
286.52	349.19
286.751	381.19
286.982	390.19
287.213	381.19
287.444	384.19
287.675	393.19
287.906	388.19
288.138	381.19
288.369	391.19
288.6	381.19
288.831	374.19
289.062	368.19
289.293	390.19
289.524	378.19
289.755	378.19
289.986	383.19
290.217	390.19
290.448	382.19
290.679	374.19
290.91	388.19
291.141	383.19
291.371	382.19
291.602	387.19
291.833	380.19
292.064	386.19
292.295	386.19
292.526	382.19
292.757	395.19
292.987	363.19
293.218	401.19
293.449	385.19
293.68	396.19
293.91	389.19
294.141	390.19
294.372	404.19
294.603	377.19
294.833	385.19
295.064	398.19
295.295	403.19
295.525	390.19
295.756	398.19
295.987	400.19
296.217	407.19
296.448	406.19
296.679	398.19
296.909	397.19
297.14	397.19
297.37	416.19
297.601	399.19
297.831	415.19
298.062	444.19
298.292	442.19
298.523	454.19
298.753	417.19
298.984	418.19
299.214	418.19
299.445	428.19
299.675	427.19
299.905	442.19
300.136	432.19
300.366	437.19
300.597	418.19
300.827	446.19
301.057	449.19
301.288	433.19
301.518	429.19
301.748	446.19
301.979	447.19
302.209	443.19
302.439	444.19
302.669	421.19
302.9	435.19
303.13	444.19
303.36	443.19
303.59	449.19
303.82	440.19
304.051	428.19
304.281	445.19
304.511	431.19
304.741	436.19
304.971	435.19
305.201	445.19
305.431	426.19
305.661	435.19
305.891	427.19
306.121	421.19
306.352	451.19
306.582	428.19
306.812	417.19
307.042	431.19
307.272	440.19
307.502	429.19
307.731	442.19
307.961	435.19
308.191	423.19
308.421	411.19
308.651	431.19
308.881	431.19
309.111	427.19
309.341	403.19
309.571	437.19
309.8	425.19
310.03	434.19
310.26	456.19
310.49	424.19
310.72	425.19
310.949	438.19
311.179	450.19
311.409	457.19
311.639	442.19
311.868	482.19
312.098	439.19
312.328	471.19
312.557	455.19
312.787	462.19
313.017	457.19
313.246	472.19
313.476	439.19
313.706	456.19
313.935	458.19
314.165	474.19
314.394	462.19
314.624	460.19
314.853	459.19
315.083	457.19
315.312	461.19
315.542	476.19
315.771	460.19
316.001	466.19
316.23	462.19
316.46	443.19
316.689	461.19
316.919	440.19
317.148	461.19
317.377	470.19
317.607	452.19
317.836	426.19
318.065	436.19
318.295	461.19
318.524	442.19
318.753	438.19
318.983	453.19
319.212	426.19
319.441	446.19
319.67	453.19
319.9	459.19
320.129	459.19
320.358	467.19
320.587	444.19
320.816	460.19
321.046	453.19
321.275	461.19
321.504	446.19
321.733	469.19
321.962	455.19
322.191	444.19
322.42	462.19
322.649	468.19
322.878	463.19
323.108	451.19
323.337	459.19
323.566	452.19
323.795	443.19
324.024	465.19
324.253	482.19
324.482	475.19
324.71	462.19
324.939	485.19
325.168	473.19
325.397	477.19
325.626	480.19
325.855	482.19
326.084	505.19
326.313	521.19
326.542	501.19
326.77	482.19
326.999	481.19
327.228	494.19
327.457	498.19
327.686	496.19
327.914	519.19
328.143	511.19
328.372	509.19
328.6	502.19
328.829	520.19
329.058	495.19
329.287	511.19
329.515	507.19
329.744	508.19
329.972	513.19
330.201	503.19
330.43	515.19
330.658	523.19
330.887	519.19
331.115	532.19
331.344	519.19
331.572	533.19
331.801	525.19
332.03	544.19
332.258	565.19
332.486	590.19
332.715	598.19
332.943	617.19
333.172	631.19
333.4	669.19
333.629	683.19
333.857	696.19
334.085	646.19
334.314	667.19
334.542	627.19
334.771	633.19
334.999	637.19
335.227	634.19
335.455	630.19
335.684	604.19
335.912	605.19
336.14	625.19
336.369	612.19
336.597	624.19
336.825	600.19
337.053	603.19
337.281	594.19
337.51	575.19
337.738	579.19
337.966	553.19
338.194	565.19
338.422	551.19
338.65	549.19
338.878	551.19
339.106	538.19
339.334	552.19
339.562	531.19
339.79	537.19
340.018	532.19
340.246	534.19
340.474	523.19
340.702	520.19
340.93	551.19
341.158	539.19
341.386	523.19
341.614	532.19
341.842	528.19
342.07	536.19
342.298	536.19
342.526	514.19
342.754	521.19
342.981	526.19
343.209	532.19
343.437	569.19
343.665	588.19
343.893	635.19
344.12	663.19
344.348	612.19
344.576	577.19
344.804	564.19
345.031	536.19
345.259	552.19
345.487	519.19
345.714	537.19
345.942	500.19
346.17	512.19
346.397	515.19
346.625	529.19
346.853	501.19
347.08	518.19
347.308	521.19
347.535	526.19
347.763	527.19
347.99	531.19
348.218	549.19
348.445	529.19
348.673	539.19
348.9	525.19
349.128	524.19
349.355	508.19
349.583	514.19
349.81	490.19
350.037	511.19
350.265	482.19
350.492	492.19
350.72	493.19
350.947	458.19
351.174	497.19
351.402	485.19
351.629	481.19
351.856	514.19
352.083	470.19
352.311	492.19
352.538	490.19
352.765	507.19
352.992	501.19
353.22	498.19
353.447	507.19
353.674	501.19
353.901	483.19
354.128	492.19
354.355	491.19
354.583	502.19
354.81	499.19
355.037	484.19
355.264	502.19
355.491	492.19
355.718	484.19
355.945	480.19
356.172	489.19
356.399	483.19
356.626	513.19
356.853	477.19
357.08	519.19
357.307	487.19
357.534	527.19
357.761	515.19
357.988	517.19
358.215	463.19
358.441	474.19
358.668	468.19
358.895	500.19
359.122	502.19
359.349	486.19
359.576	480.19
359.802	488.19
360.029	503.19
360.256	492.19
360.483	478.19
360.709	501.19
360.936	493.19
361.163	497.19
361.39	497.19
361.616	477.19
361.843	484.19
362.07	517.19
362.296	486.19
362.523	504.19
362.749	502.19
362.976	476.19
363.203	483.19
363.429	487.19
363.656	518.19
363.882	484.19
364.109	480.19
364.335	478.19
364.562	483.19
364.788	467.19
365.015	505.19
365.241	493.19
365.468	488.19
365.694	489.19
365.92	482.19
366.147	479.19
366.373	500.19
366.599	511.19
366.826	495.19
367.052	491.19
367.278	475.19
367.505	493.19
367.731	500.19
367.957	498.19
368.184	521.19
368.41	505.19
368.636	501.19
368.862	495.19
369.089	514.19
369.315	501.19
369.541	538.19
369.767	531.19
369.993	525.19
370.219	473.19
370.445	500.19
370.672	531.19
370.898	542.19
371.124	556.19
371.35	534.19
371.576	535.19
371.802	550.19
372.028	552.19
372.254	533.19
372.48	536.19
372.706	552.19
372.932	564.19
373.158	554.19
373.384	538.19
373.61	536.19
373.835	551.19
374.061	536.19
374.287	545.19
374.513	540.19
374.739	571.19
374.965	577.19
375.191	612.19
375.416	587.19
375.642	558.19
375.868	561.19
376.094	542.19
376.319	557.19
376.545	543.19
376.771	555.19
376.997	547.19
377.222	530.19
377.448	547.19
377.674	547.19
377.899	537.19
378.125	529.19
378.35	535.19
378.576	541.19
378.802	551.19
379.027	542.19
379.253	528.19
379.478	542.19
379.704	548.19
379.929	549.19
380.155	517.19
380.38	540.19
380.606	534.19
380.831	537.19
381.057	554.19
381.282	535.19
381.507	553.19
381.733	547.19
381.958	523.19
382.184	556.19
382.409	535.19
382.634	535.19
382.86	575.19
383.085	589.19
383.31	594.19
383.535	606.19
383.761	589.19
383.986	601.19
384.211	612.19
384.436	630.19
384.662	629.19
384.887	637.19
385.112	637.19
385.337	641.19
385.562	638.19
385.787	663.19
386.013	655.19
386.238	649.19
386.463	655.19
386.688	663.19
386.913	630.19
387.138	631.19
387.363	629.19
387.588	620.19
387.813	623.19
388.038	632.19
388.263	629.19
388.488	642.19
388.713	645.19
388.938	623.19
389.163	625.19
389.387	643.19
389.612	642.19
389.837	631.19
390.062	621.19
390.287	603.19
390.512	645.19
390.736	625.19
390.961	637.19
391.186	643.19
391.411	690.19
391.636	701.19
391.86	721.19
392.085	732.19
392.31	740.19
392.534	683.19
392.759	685.19
392.984	678.19
393.208	663.19
393.433	673.19
393.658	677.19
393.882	654.19
394.107	671.19
394.331	687.19
394.556	699.19
394.78	703.19
395.005	711.19
395.229	672.19
395.454	702.19
395.678	741.19
395.903	718.19
396.127	694.19
396.352	669.19
396.576	657.19
396.801	673.19
397.025	675.19
397.249	720.19
397.474	717.19
397.698	724.19
397.922	718.19
398.147	702.19
398.371	732.19
398.595	734.19
398.82	748.19
399.044	845.19
399.268	933.19
399.492	1091.19
399.717	1211.19
399.941	1213.19
400.165	1057.19
400.389	964.19
400.613	867.19
400.837	843.19
401.062	826.19
401.286	804.19
401.51	790.19
401.734	802.19
401.958	811.19
402.182	808.19
402.406	801.19
402.63	840.19
402.854	865.19
403.078	848.19
403.302	885.19
403.526	890.19
403.75	916.19
403.974	932.19
404.198	915.19
404.422	958.19
404.645	927.19
404.869	906.19
405.093	916.19
405.317	866.19
405.541	874.19
405.765	868.19
405.988	852.19
406.212	877.19
406.436	871.19
406.66	894.19
406.883	921.19
407.107	983.19
407.331	993.19
407.555	1017.19
407.778	1025.19
408.002	1012.19
408.226	965.19
408.449	971.19
408.673	927.19
408.896	902.19
409.12	917.19
409.344	928.19
409.567	918.19
409.791	935.19
410.014	929.19
410.238	909.19
410.461	894.19
410.685	902.19
410.908	874.19
411.132	869.19
411.355	835.19
411.578	835.19
411.802	836.19
412.025	846.19
412.249	840.19
412.472	855.19
412.695	820.19
412.919	812.19
413.142	795.19
413.365	836.19
413.589	787.19
413.812	780.19
414.035	767.19
414.258	779.19
414.482	810.19
414.705	835.19
414.928	831.19
415.151	796.19
415.374	823.19
415.597	818.19
415.821	791.19
416.044	790.19
416.267	772.19
416.49	766.19
416.713	791.19
416.936	812.19
417.159	813.19
417.382	793.19
417.605	774.19
417.828	793.19
418.051	780.19
418.274	774.19
418.497	792.19
418.72	795.19
418.943	796.19
419.166	843.19
419.389	903.19
419.611	891.19
419.834	844.19
420.057	805.19
420.28	817.19
420.503	759.19
420.726	783.19
420.948	806.19
421.171	789.19
421.394	800.19
421.617	831.19
421.839	811.19
422.062	765.19
422.285	758.19
422.507	812.19
422.73	805.19
422.953	828.19
423.175	820.19
423.398	853.19
423.621	830.19
423.843	850.19
424.066	845.19
424.288	833.19
424.511	827.19
424.733	825.19
424.956	805.19
425.178	828.19
425.401	812.19
425.623	761.19
425.846	754.19
426.068	783.19
426.291	765.19
426.513	746.19
426.735	734.19
426.958	748.19
427.18	719.19
427.402	709.19
427.625	730.19
427.847	717.19
428.069	709.19
428.292	708.19
428.514	701.19
428.736	722.19
428.958	711.19
429.181	664.19
429.403	680.19
429.625	706.19
429.847	706.19
430.069	692.19
430.292	711.19
430.514	673.19
430.736	689.19
430.958	677.19
431.18	678.19
431.402	673.19
431.624	690.19
431.846	718.19
432.068	722.19
432.29	733.19
432.512	680.19
432.734	684.19
432.956	694.19
433.178	701.19
433.4	707.19
433.622	710.19
433.844	729.19
434.066	739.19
434.287	734.19
434.509	740.19
434.731	788.19
434.953	809.19
435.175	814.19
435.397	828.19
435.618	769.19
435.84	740.19
436.062	737.19
436.284	718.19
436.505	700.19
436.727	690.19
436.949	729.19
437.17	716.19
437.392	702.19
437.614	673.19
437.835	682.19
438.057	679.19
438.278	670.19
438.5	693.19
438.721	659.19
438.943	676.19
439.165	710.19
439.386	710.19
439.608	709.19
439.829	705.19
440.05	698.19
440.272	716.19
440.493	690.19
440.715	718.19
440.936	742.19
441.158	746.19
441.379	773.19
441.6	821.19
441.822	827.19
442.043	795.19
442.264	806.19
442.486	784.19
442.707	779.19
442.928	789.19
443.149	785.19
443.371	775.19
443.592	796.19
443.813	836.19
444.034	824.19
444.255	839.19
444.476	835.19
444.698	914.19
444.919	966.19
445.14	1005.19
445.361	919.19
445.582	846.19
445.803	774.19
446.024	742.19
446.245	734.19
446.466	739.19
446.687	707.19
446.908	717.19
447.129	706.19
447.35	699.19
447.571	680.19
447.792	695.19
448.013	677.19
448.234	674.19
448.455	661.19
448.675	653.19
448.896	691.19
449.117	650.19
449.338	643.19
449.559	634.19
449.779	650.19
450	680.19
450.221	634.19
450.442	666.19
450.662	686.19
450.883	691.19
451.104	676.19
451.324	680.19
451.545	674.19
451.766	689.19
451.986	673.19
452.207	643.19
452.428	659.19
452.648	662.19
452.869	670.19
453.089	646.19
453.31	659.19
453.53	647.19
453.751	623.19
453.971	639.19
454.192	638.19
454.412	632.19
454.633	641.19
454.853	622.19
455.073	625.19
455.294	619.19
455.514	601.19
455.734	625.19
455.955	595.19
456.175	634.19
456.395	625.19
456.616	606.19
456.836	614.19
457.056	594.19
457.276	592.19
457.497	618.19
457.717	614.19
457.937	623.19
458.157	654.19
458.377	636.19
458.598	634.19
458.818	663.19
459.038	677.19
459.258	691.19
459.478	698.19
459.698	751.19
459.918	755.19
460.138	789.19
460.358	826.19
460.578	839.19
460.798	869.19
461.018	881.19
461.238	821.19
461.458	843.19
461.678	830.19
461.898	829.19
462.118	837.19
462.338	896.19
462.558	919.19
462.777	946.19
462.997	1040.19
463.217	1109.19
463.437	1147.19
463.657	1051.19
463.876	972.19
464.096	954.19
464.316	980.19
464.536	987.19
464.755	914.19
464.975	897.19
465.195	860.19
465.414	831.19
465.634	781.19
465.854	736.19
466.073	733.19
466.293	713.19
466.512	713.19
466.732	692.19
466.951	706.19
467.171	676.19
467.391	732.19
467.61	681.19
467.829	690.19
468.049	713.19
468.268	656.19
468.488	658.19
468.707	654.19
468.927	649.19
469.146	658.19
469.365	655.19
469.585	646.19
469.804	703.19
470.023	716.19
470.243	700.19
470.462	720.19
470.681	730.19
470.901	703.19
471.12	700.19
471.339	701.19
471.558	667.19
471.777	668.19
471.997	680.19
472.216	653.19
472.435	646.19
472.654	630.19
472.873	636.19
473.092	660.19
473.311	654.19
473.53	631.19
473.749	637.19
473.968	653.19
474.187	649.19
474.406	648.19
474.625	650.19
474.844	654.19
475.063	638.19
475.282	645.19
475.501	653.19
475.72	674.19
475.939	651.19
476.158	675.19
476.377	644.19
476.596	645.19
476.814	705.19
477.033	692.19
477.252	675.19
477.471	713.19
477.69	715.19
477.908	740.19
478.127	740.19
478.346	777.19
478.564	762.19
478.783	798.19
479.002	779.19
479.22	804.19
479.439	829.19
479.658	810.19
479.876	789.19
480.095	802.19
480.313	838.19
480.532	866.19
480.751	869.19
480.969	809.19
481.188	779.19
481.406	786.19
481.624	770.19
481.843	751.19
482.061	769.19
482.28	763.19
482.498	702.19
482.717	709.19
482.935	743.19
483.153	737.19
483.372	740.19
483.59	726.19
483.808	727.19
484.027	725.19
484.245	747.19
484.463	731.19
484.681	739.19
484.9	763.19
485.118	775.19
485.336	746.19
485.554	739.19
485.772	757.19
485.99	771.19
486.209	771.19
486.427	789.19
486.645	767.19
486.863	779.19
487.081	788.19
487.299	783.19
487.517	755.19
487.735	778.19
487.953	785.19
488.171	742.19
488.389	739.19
488.607	741.19
488.825	748.19
489.043	771.19
489.261	759.19
489.479	747.19
489.696	760.19
489.914	776.19
490.132	780.19
490.35	742.19
490.568	777.19
490.786	764.19
491.003	761.19
491.221	792.19
491.439	762.19
491.657	758.19
491.874	757.19
492.092	770.19
492.31	771.19
492.527	774.19
492.745	782.19
492.963	766.19
493.18	788.19
493.398	794.19
493.615	793.19
493.833	802.19
494.05	825.19
494.268	811.19
494.485	822.19
494.703	794.19
494.92	811.19
495.138	826.19
495.355	827.19
495.573	827.19
495.79	810.19
496.008	785.19
496.225	817.19
496.442	826.19
496.66	858.19
496.877	859.19
497.094	840.19
497.312	863.19
497.529	888.19
497.746	896.19
497.963	961.19
498.181	963.19
498.398	1006.19
498.615	1091.19
498.832	1119.19
499.049	1212.19
499.267	1323.19
499.484	1436.19
499.701	1603.19
499.918	1772.19
500.135	2065.19
500.352	2319.19
500.569	2458.19
500.786	2471.19
501.003	2211.19
501.22	1988.19
