Data from Ni(NO3)2@0.25M.TitratingCurve.Agarose3%dH2O.NegLispCup.LampEnergy10.LIBS07252019_HRD10591_18-04-00-565.txt Node
Date: Thu Jul 25 18:04:00 EDT 2019
User: cochatt
Spectrometer: HR+D1059
Trigger mode: 1
Integration Time (sec): 1.000000E-1
Scans to average: 1
Electric dark correction enabled: true
Nonlinearity correction enabled: false
Boxcar width: 0
XAxis mode: Wavelengths
Number of Pixels in Spectrum: 2048
>>>>>Begin Spectral Data<<<<<
223.165	-10.81
223.4	-10.81
223.635	-10.81
223.869	-13.81
224.104	4.19
224.338	-23.81
224.573	-27.81
224.808	-1.81
225.042	-13.81
225.277	-12.81
225.511	1.19
225.746	1.19
225.98	17.19
226.215	16.19
226.449	7.19
226.683	22.19
226.918	19.19
227.152	16.19
227.387	37.19
227.621	40.19
227.856	37.19
228.09	37.19
228.324	56.19
228.559	55.19
228.793	68.19
229.027	92.19
229.262	89.19
229.496	79.19
229.73	82.19
229.964	82.19
230.199	91.19
230.433	108.19
230.667	100.19
230.901	109.19
231.136	106.19
231.37	97.19
231.604	101.19
231.838	119.19
232.072	106.19
232.306	106.19
232.541	115.19
232.775	123.19
233.009	115.19
233.243	98.19
233.477	106.19
233.711	119.19
233.945	100.19
234.179	115.19
234.413	112.19
234.647	110.19
234.881	108.19
235.115	94.19
235.349	107.19
235.583	122.19
235.817	95.19
236.051	99.19
236.285	88.19
236.519	103.19
236.753	109.19
236.987	93.19
237.221	96.19
237.455	121.19
237.689	114.19
237.922	105.19
238.156	104.19
238.39	115.19
238.624	104.19
238.858	108.19
239.091	123.19
239.325	123.19
239.559	99.19
239.793	111.19
240.027	121.19
240.26	122.19
240.494	121.19
240.728	116.19
240.961	117.19
241.195	136.19
241.429	124.19
241.662	121.19
241.896	106.19
242.13	125.19
242.363	128.19
242.597	123.19
242.83	103.19
243.064	109.19
243.298	127.19
243.531	128.19
243.765	128.19
243.998	134.19
244.232	131.19
244.465	126.19
244.699	138.19
244.932	133.19
245.166	123.19
245.399	134.19
245.633	132.19
245.866	127.19
246.099	147.19
246.333	135.19
246.566	147.19
246.8	128.19
247.033	146.19
247.266	146.19
247.5	145.19
247.733	145.19
247.966	139.19
248.2	146.19
248.433	135.19
248.666	138.19
248.899	148.19
249.133	137.19
249.366	156.19
249.599	148.19
249.832	140.19
250.066	159.19
250.299	149.19
250.532	154.19
250.765	156.19
250.998	167.19
251.231	156.19
251.465	181.19
251.698	166.19
251.931	163.19
252.164	158.19
252.397	176.19
252.63	151.19
252.863	172.19
253.096	171.19
253.329	163.19
253.562	168.19
253.795	160.19
254.028	161.19
254.261	171.19
254.494	181.19
254.727	170.19
254.96	187.19
255.193	186.19
255.426	183.19
255.659	180.19
255.892	179.19
256.124	204.19
256.357	186.19
256.59	178.19
256.823	183.19
257.056	188.19
257.289	185.19
257.521	203.19
257.754	203.19
257.987	187.19
258.22	195.19
258.452	202.19
258.685	211.19
258.918	191.19
259.151	189.19
259.383	177.19
259.616	207.19
259.849	203.19
260.081	211.19
260.314	198.19
260.547	213.19
260.779	210.19
261.012	230.19
261.244	202.19
261.477	214.19
261.71	202.19
261.942	213.19
262.175	216.19
262.407	210.19
262.64	215.19
262.872	218.19
263.105	225.19
263.337	224.19
263.57	195.19
263.802	220.19
264.035	227.19
264.267	220.19
264.499	237.19
264.732	224.19
264.964	220.19
265.197	216.19
265.429	229.19
265.661	235.19
265.894	224.19
266.126	229.19
266.358	225.19
266.591	227.19
266.823	246.19
267.055	227.19
267.287	220.19
267.52	227.19
267.752	230.19
267.984	242.19
268.216	243.19
268.448	235.19
268.681	227.19
268.913	231.19
269.145	230.19
269.377	256.19
269.609	249.19
269.841	237.19
270.073	229.19
270.306	242.19
270.538	231.19
270.77	241.19
271.002	252.19
271.234	246.19
271.466	257.19
271.698	250.19
271.93	232.19
272.162	244.19
272.394	260.19
272.626	230.19
272.858	256.19
273.09	238.19
273.322	246.19
273.553	248.19
273.785	258.19
274.017	228.19
274.249	256.19
274.481	246.19
274.713	256.19
274.945	227.19
275.176	247.19
275.408	255.19
275.64	260.19
275.872	239.19
276.104	255.19
276.335	258.19
276.567	250.19
276.799	270.19
277.031	253.19
277.262	266.19
277.494	270.19
277.726	279.19
277.957	283.19
278.189	264.19
278.421	280.19
278.652	274.19
278.884	282.19
279.115	277.19
279.347	281.19
279.579	275.19
279.81	265.19
280.042	283.19
280.273	261.19
280.505	254.19
280.736	297.19
280.968	260.19
281.199	279.19
281.431	289.19
281.662	263.19
281.894	278.19
282.125	268.19
282.356	287.19
282.588	270.19
282.819	272.19
283.051	285.19
283.282	278.19
283.513	281.19
283.745	280.19
283.976	283.19
284.207	301.19
284.439	279.19
284.67	275.19
284.901	280.19
285.132	283.19
285.364	298.19
285.595	275.19
285.826	285.19
286.057	293.19
286.288	296.19
286.52	298.19
286.751	280.19
286.982	311.19
287.213	301.19
287.444	292.19
287.675	294.19
287.906	289.19
288.138	297.19
288.369	294.19
288.6	303.19
288.831	278.19
289.062	291.19
289.293	289.19
289.524	282.19
289.755	288.19
289.986	295.19
290.217	286.19
290.448	284.19
290.679	319.19
290.91	305.19
291.141	306.19
291.371	297.19
291.602	299.19
291.833	305.19
292.064	295.19
292.295	303.19
292.526	305.19
292.757	301.19
292.987	308.19
293.218	287.19
293.449	304.19
293.68	309.19
293.91	299.19
294.141	305.19
294.372	303.19
294.603	309.19
294.833	310.19
295.064	296.19
295.295	299.19
295.525	322.19
295.756	314.19
295.987	313.19
296.217	307.19
296.448	311.19
296.679	308.19
296.909	298.19
297.14	309.19
297.37	331.19
297.601	321.19
297.831	319.19
298.062	325.19
298.292	298.19
298.523	329.19
298.753	335.19
298.984	324.19
299.214	317.19
299.445	311.19
299.675	306.19
299.905	319.19
300.136	332.19
300.366	332.19
300.597	321.19
300.827	328.19
301.057	328.19
301.288	328.19
301.518	317.19
301.748	354.19
301.979	343.19
302.209	343.19
302.439	344.19
302.669	336.19
302.9	361.19
303.13	350.19
303.36	348.19
303.59	340.19
303.82	343.19
304.051	350.19
304.281	355.19
304.511	333.19
304.741	365.19
304.971	321.19
305.201	347.19
305.431	337.19
305.661	350.19
305.891	350.19
306.121	354.19
306.352	340.19
306.582	354.19
306.812	352.19
307.042	344.19
307.272	342.19
307.502	336.19
307.731	336.19
307.961	344.19
308.191	336.19
308.421	340.19
308.651	334.19
308.881	347.19
309.111	346.19
309.341	328.19
309.571	351.19
309.8	345.19
310.03	363.19
310.26	350.19
310.49	336.19
310.72	354.19
310.949	356.19
311.179	354.19
311.409	351.19
311.639	361.19
311.868	357.19
312.098	371.19
312.328	390.19
312.557	375.19
312.787	367.19
313.017	372.19
313.246	356.19
313.476	386.19
313.706	367.19
313.935	365.19
314.165	391.19
314.394	387.19
314.624	387.19
314.853	394.19
315.083	390.19
315.312	384.19
315.542	384.19
315.771	383.19
316.001	389.19
316.23	379.19
316.46	395.19
316.689	405.19
316.919	379.19
317.148	387.19
317.377	394.19
317.607	392.19
317.836	371.19
318.065	403.19
318.295	385.19
318.524	394.19
318.753	388.19
318.983	402.19
319.212	394.19
319.441	410.19
319.67	399.19
319.9	405.19
320.129	411.19
320.358	398.19
320.587	412.19
320.816	405.19
321.046	395.19
321.275	409.19
321.504	429.19
321.733	416.19
321.962	418.19
322.191	441.19
322.42	423.19
322.649	422.19
322.878	432.19
323.108	433.19
323.337	447.19
323.566	444.19
323.795	452.19
324.024	425.19
324.253	440.19
324.482	456.19
324.71	437.19
324.939	453.19
325.168	446.19
325.397	439.19
325.626	452.19
325.855	457.19
326.084	473.19
326.313	480.19
326.542	482.19
326.77	468.19
326.999	474.19
327.228	461.19
327.457	504.19
327.686	480.19
327.914	498.19
328.143	490.19
328.372	476.19
328.6	485.19
328.829	469.19
329.058	501.19
329.287	480.19
329.515	513.19
329.744	506.19
329.972	484.19
330.201	493.19
330.43	500.19
330.658	529.19
330.887	537.19
331.115	524.19
331.344	526.19
331.572	527.19
331.801	546.19
332.03	547.19
332.258	535.19
332.486	583.19
332.715	577.19
332.943	597.19
333.172	598.19
333.4	612.19
333.629	612.19
333.857	623.19
334.085	635.19
334.314	618.19
334.542	635.19
334.771	618.19
334.999	626.19
335.227	625.19
335.455	629.19
335.684	626.19
335.912	612.19
336.14	596.19
336.369	590.19
336.597	605.19
336.825	619.19
337.053	631.19
337.281	609.19
337.51	593.19
337.738	588.19
337.966	602.19
338.194	565.19
338.422	575.19
338.65	570.19
338.878	565.19
339.106	598.19
339.334	565.19
339.562	559.19
339.79	539.19
340.018	562.19
340.246	557.19
340.474	566.19
340.702	545.19
340.93	551.19
341.158	566.19
341.386	550.19
341.614	555.19
341.842	549.19
342.07	554.19
342.298	553.19
342.526	574.19
342.754	542.19
342.981	567.19
343.209	581.19
343.437	599.19
343.665	587.19
343.893	614.19
344.12	649.19
344.348	595.19
344.576	603.19
344.804	601.19
345.031	563.19
345.259	568.19
345.487	567.19
345.714	579.19
345.942	565.19
346.17	568.19
346.397	563.19
346.625	562.19
346.853	549.19
347.08	540.19
347.308	518.19
347.535	542.19
347.763	545.19
347.99	550.19
348.218	545.19
348.445	527.19
348.673	526.19
348.9	541.19
349.128	535.19
349.355	513.19
349.583	530.19
349.81	517.19
350.037	537.19
350.265	526.19
350.492	507.19
350.72	515.19
350.947	519.19
351.174	521.19
351.402	543.19
351.629	543.19
351.856	543.19
352.083	543.19
352.311	514.19
352.538	543.19
352.765	547.19
352.992	518.19
353.22	513.19
353.447	513.19
353.674	512.19
353.901	516.19
354.128	508.19
354.355	529.19
354.583	507.19
354.81	503.19
355.037	531.19
355.264	501.19
355.491	524.19
355.718	522.19
355.945	510.19
356.172	530.19
356.399	521.19
356.626	544.19
356.853	541.19
357.08	517.19
357.307	546.19
357.534	525.19
357.761	524.19
357.988	524.19
358.215	529.19
358.441	512.19
358.668	504.19
358.895	498.19
359.122	515.19
359.349	509.19
359.576	519.19
359.802	514.19
360.029	539.19
360.256	518.19
360.483	514.19
360.709	519.19
360.936	516.19
361.163	541.19
361.39	519.19
361.616	524.19
361.843	529.19
362.07	508.19
362.296	538.19
362.523	513.19
362.749	514.19
362.976	488.19
363.203	523.19
363.429	481.19
363.656	509.19
363.882	523.19
364.109	508.19
364.335	529.19
364.562	537.19
364.788	516.19
365.015	524.19
365.241	492.19
365.468	504.19
365.694	494.19
365.92	511.19
366.147	520.19
366.373	485.19
366.599	487.19
366.826	511.19
367.052	503.19
367.278	495.19
367.505	497.19
367.731	507.19
367.957	519.19
368.184	513.19
368.41	512.19
368.636	525.19
368.862	520.19
369.089	497.19
369.315	533.19
369.541	536.19
369.767	520.19
369.993	536.19
370.219	525.19
370.445	513.19
370.672	545.19
370.898	539.19
371.124	521.19
371.35	532.19
371.576	549.19
371.802	548.19
372.028	532.19
372.254	558.19
372.48	539.19
372.706	531.19
372.932	536.19
373.158	538.19
373.384	536.19
373.61	525.19
373.835	551.19
374.061	543.19
374.287	560.19
374.513	538.19
374.739	556.19
374.965	568.19
375.191	583.19
375.416	571.19
375.642	553.19
375.868	537.19
376.094	553.19
376.319	550.19
376.545	546.19
376.771	526.19
376.997	530.19
377.222	537.19
377.448	507.19
377.674	524.19
377.899	545.19
378.125	519.19
378.35	517.19
378.576	527.19
378.802	518.19
379.027	509.19
379.253	519.19
379.478	502.19
379.704	522.19
379.929	498.19
380.155	519.19
380.38	514.19
380.606	510.19
380.831	513.19
381.057	538.19
381.282	511.19
381.507	529.19
381.733	515.19
381.958	514.19
382.184	528.19
382.409	531.19
382.634	518.19
382.86	547.19
383.085	538.19
383.31	559.19
383.535	550.19
383.761	569.19
383.986	583.19
384.211	573.19
384.436	567.19
384.662	594.19
384.887	593.19
385.112	571.19
385.337	595.19
385.562	601.19
385.787	596.19
386.013	617.19
386.238	610.19
386.463	612.19
386.688	612.19
386.913	596.19
387.138	600.19
387.363	608.19
387.588	600.19
387.813	616.19
388.038	577.19
388.263	600.19
388.488	606.19
388.713	597.19
388.938	598.19
389.163	609.19
389.387	591.19
389.612	591.19
389.837	559.19
390.062	588.19
390.287	587.19
390.512	603.19
390.736	592.19
390.961	605.19
391.186	640.19
391.411	624.19
391.636	635.19
391.86	663.19
392.085	659.19
392.31	646.19
392.534	641.19
392.759	632.19
392.984	625.19
393.208	624.19
393.433	634.19
393.658	611.19
393.882	647.19
394.107	631.19
394.331	639.19
394.556	641.19
394.78	636.19
395.005	631.19
395.229	648.19
395.454	647.19
395.678	658.19
395.903	647.19
396.127	659.19
396.352	639.19
396.576	648.19
396.801	634.19
397.025	665.19
397.249	670.19
397.474	671.19
397.698	670.19
397.922	656.19
398.147	661.19
398.371	699.19
398.595	705.19
398.82	743.19
399.044	794.19
399.268	825.19
399.492	933.19
399.717	1016.19
399.941	1016.19
400.165	932.19
400.389	857.19
400.613	848.19
400.837	781.19
401.062	787.19
401.286	776.19
401.51	744.19
401.734	748.19
401.958	752.19
402.182	755.19
402.406	768.19
402.63	778.19
402.854	781.19
403.078	775.19
403.302	790.19
403.526	821.19
403.75	821.19
403.974	837.19
404.198	822.19
404.422	821.19
404.645	799.19
404.869	803.19
405.093	788.19
405.317	796.19
405.541	818.19
405.765	811.19
405.988	816.19
406.212	831.19
406.436	825.19
406.66	827.19
406.883	816.19
407.107	862.19
407.331	884.19
407.555	930.19
407.778	923.19
408.002	905.19
408.226	899.19
408.449	860.19
408.673	869.19
408.896	848.19
409.12	834.19
409.344	849.19
409.567	825.19
409.791	827.19
410.014	827.19
410.238	834.19
410.461	803.19
410.685	803.19
410.908	821.19
411.132	820.19
411.355	785.19
411.578	820.19
411.802	813.19
412.025	790.19
412.249	786.19
412.472	804.19
412.695	778.19
412.919	796.19
413.142	794.19
413.365	786.19
413.589	779.19
413.812	787.19
414.035	751.19
414.258	776.19
414.482	791.19
414.705	802.19
414.928	805.19
415.151	774.19
415.374	803.19
415.597	783.19
415.821	785.19
416.044	769.19
416.267	751.19
416.49	746.19
416.713	752.19
416.936	779.19
417.159	754.19
417.382	779.19
417.605	761.19
417.828	773.19
418.051	768.19
418.274	789.19
418.497	746.19
418.72	789.19
418.943	766.19
419.166	800.19
419.389	868.19
419.611	868.19
419.834	804.19
420.057	804.19
420.28	766.19
420.503	754.19
420.726	785.19
420.948	780.19
421.171	757.19
421.394	754.19
421.617	788.19
421.839	765.19
422.062	789.19
422.285	800.19
422.507	785.19
422.73	807.19
422.953	801.19
423.175	779.19
423.398	817.19
423.621	777.19
423.843	823.19
424.066	803.19
424.288	777.19
424.511	788.19
424.733	803.19
424.956	797.19
425.178	793.19
425.401	808.19
425.623	791.19
425.846	775.19
426.068	766.19
426.291	760.19
426.513	757.19
426.735	773.19
426.958	756.19
427.18	727.19
427.402	767.19
427.625	757.19
427.847	734.19
428.069	772.19
428.292	736.19
428.514	721.19
428.736	730.19
428.958	736.19
429.181	710.19
429.403	748.19
429.625	723.19
429.847	718.19
430.069	720.19
430.292	713.19
430.514	711.19
430.736	733.19
430.958	746.19
431.18	717.19
431.402	724.19
431.624	725.19
431.846	717.19
432.068	711.19
432.29	757.19
432.512	733.19
432.734	715.19
432.956	746.19
433.178	744.19
433.4	738.19
433.622	744.19
433.844	775.19
434.066	747.19
434.287	745.19
434.509	756.19
434.731	787.19
434.953	826.19
435.175	807.19
435.397	795.19
435.618	790.19
435.84	745.19
436.062	752.19
436.284	751.19
436.505	731.19
436.727	739.19
436.949	752.19
437.17	720.19
437.392	729.19
437.614	761.19
437.835	712.19
438.057	733.19
438.278	703.19
438.5	705.19
438.721	701.19
438.943	724.19
439.165	724.19
439.386	738.19
439.608	739.19
439.829	747.19
440.05	757.19
440.272	735.19
440.493	730.19
440.715	765.19
440.936	770.19
441.158	791.19
441.379	819.19
441.6	835.19
441.822	808.19
442.043	797.19
442.264	823.19
442.486	809.19
442.707	803.19
442.928	773.19
443.149	825.19
443.371	822.19
443.592	827.19
443.813	845.19
444.034	816.19
444.255	847.19
444.476	875.19
444.698	917.19
444.919	937.19
445.14	996.19
445.361	900.19
445.582	865.19
445.803	805.19
446.024	772.19
446.245	779.19
446.466	776.19
446.687	762.19
446.908	790.19
447.129	768.19
447.35	742.19
447.571	745.19
447.792	721.19
448.013	732.19
448.234	719.19
448.455	709.19
448.675	705.19
448.896	698.19
449.117	693.19
449.338	699.19
449.559	718.19
449.779	713.19
450	687.19
450.221	706.19
450.442	713.19
450.662	682.19
450.883	700.19
451.104	707.19
451.324	687.19
451.545	692.19
451.766	696.19
451.986	705.19
452.207	704.19
452.428	698.19
452.648	698.19
452.869	663.19
453.089	657.19
453.31	688.19
453.53	668.19
453.751	647.19
453.971	668.19
454.192	657.19
454.412	644.19
454.633	684.19
454.853	677.19
455.073	661.19
455.294	661.19
455.514	678.19
455.734	657.19
455.955	638.19
456.175	667.19
456.395	652.19
456.616	645.19
456.836	647.19
457.056	668.19
457.276	649.19
457.497	666.19
457.717	636.19
457.937	653.19
458.157	658.19
458.377	669.19
458.598	683.19
458.818	712.19
459.038	709.19
459.258	731.19
459.478	752.19
459.698	760.19
459.918	780.19
460.138	808.19
460.358	813.19
460.578	821.19
460.798	838.19
461.018	834.19
461.238	831.19
461.458	871.19
461.678	836.19
461.898	848.19
462.118	864.19
462.338	900.19
462.558	929.19
462.777	951.19
462.997	1014.19
463.217	1035.19
463.437	1039.19
463.657	1000.19
463.876	976.19
464.096	949.19
464.316	942.19
464.536	978.19
464.755	922.19
464.975	871.19
465.195	882.19
465.414	839.19
465.634	815.19
465.854	802.19
466.073	778.19
466.293	759.19
466.512	729.19
466.732	758.19
466.951	758.19
467.171	733.19
467.391	717.19
467.61	721.19
467.829	719.19
468.049	714.19
468.268	741.19
468.488	707.19
468.707	712.19
468.927	717.19
469.146	695.19
469.365	725.19
469.585	721.19
469.804	718.19
470.023	747.19
470.243	748.19
470.462	771.19
470.681	741.19
470.901	769.19
471.12	764.19
471.339	724.19
471.558	728.19
471.777	728.19
471.997	720.19
472.216	722.19
472.435	706.19
472.654	673.19
472.873	664.19
473.092	703.19
473.311	687.19
473.53	696.19
473.749	680.19
473.968	673.19
474.187	677.19
474.406	700.19
474.625	697.19
474.844	729.19
475.063	722.19
475.282	713.19
475.501	697.19
475.72	707.19
475.939	729.19
476.158	705.19
476.377	726.19
476.596	714.19
476.814	721.19
477.033	753.19
477.252	768.19
477.471	757.19
477.69	789.19
477.908	795.19
478.127	788.19
478.346	819.19
478.564	826.19
478.783	829.19
479.002	870.19
479.22	863.19
479.439	850.19
479.658	844.19
479.876	840.19
480.095	857.19
480.313	881.19
480.532	869.19
480.751	875.19
480.969	866.19
481.188	829.19
481.406	794.19
481.624	786.19
481.843	781.19
482.061	779.19
482.28	796.19
482.498	809.19
482.717	776.19
482.935	787.19
483.153	803.19
483.372	813.19
483.59	812.19
483.808	779.19
484.027	785.19
484.245	802.19
484.463	793.19
484.681	810.19
484.9	805.19
485.118	827.19
485.336	786.19
485.554	810.19
485.772	833.19
485.99	801.19
486.209	817.19
486.427	801.19
486.645	789.19
486.863	807.19
487.081	850.19
487.299	808.19
487.517	826.19
487.735	832.19
487.953	859.19
488.171	853.19
488.389	842.19
488.607	825.19
488.825	821.19
489.043	828.19
489.261	790.19
489.479	841.19
489.696	821.19
489.914	820.19
490.132	817.19
490.35	835.19
490.568	853.19
490.786	854.19
491.003	895.19
491.221	885.19
491.439	884.19
491.657	883.19
491.874	893.19
492.092	913.19
492.31	913.19
492.527	891.19
492.745	922.19
492.963	875.19
493.18	886.19
493.398	908.19
493.615	873.19
493.833	894.19
494.05	917.19
494.268	895.19
494.485	921.19
494.703	909.19
494.92	908.19
495.138	916.19
495.355	916.19
495.573	920.19
495.79	913.19
496.008	963.19
496.225	914.19
496.442	935.19
496.66	957.19
496.877	931.19
497.094	985.19
497.312	985.19
497.529	1010.19
497.746	1014.19
497.963	1059.19
498.181	1090.19
498.398	1108.19
498.615	1172.19
498.832	1213.19
499.049	1257.19
499.267	1349.19
499.484	1482.19
499.701	1549.19
499.918	1703.19
500.135	1836.19
500.352	2049.19
500.569	2095.19
500.786	2073.19
501.003	1979.19
501.22	1778.19
501.437	1636.19
