Data from Ni(NO3)2@0.5M.TitratingCurve.Agarose3%dH2O.NegLispCup.LampEnergy10.LIBS07252019_HRD10591_17-59-40-564.txt Node
Date: Thu Jul 25 17:59:40 EDT 2019
User: cochatt
Spectrometer: HR+D1059
Trigger mode: 1
Integration Time (sec): 1.000000E-1
Scans to average: 1
Electric dark correction enabled: true
Nonlinearity correction enabled: false
Boxcar width: 0
XAxis mode: Wavelengths
Number of Pixels in Spectrum: 2048
>>>>>Begin Spectral Data<<<<<
223.165	-26.19
223.4	-26.19
223.635	-26.19
223.869	-17.19
224.104	-22.19
224.338	-12.19
224.573	-2.19
224.808	-3.19
225.042	-16.19
225.277	7.81
225.511	-4.19
225.746	-3.19
225.98	10.81
226.215	14.81
226.449	2.81
226.683	17.81
226.918	13.81
227.152	38.81
227.387	39.81
227.621	32.81
227.856	30.81
228.09	57.81
228.324	50.81
228.559	54.81
228.793	63.81
229.027	90.81
229.262	91.81
229.496	95.81
229.73	86.81
229.964	105.81
230.199	107.81
230.433	115.81
230.667	114.81
230.901	111.81
231.136	101.81
231.37	107.81
231.604	118.81
231.838	123.81
232.072	109.81
232.306	123.81
232.541	109.81
232.775	116.81
233.009	120.81
233.243	112.81
233.477	101.81
233.711	109.81
233.945	98.81
234.179	113.81
234.413	109.81
234.647	109.81
234.881	104.81
235.115	117.81
235.349	121.81
235.583	120.81
235.817	111.81
236.051	129.81
236.285	104.81
236.519	106.81
236.753	111.81
236.987	125.81
237.221	113.81
237.455	129.81
237.689	104.81
237.922	106.81
238.156	104.81
238.39	127.81
238.624	113.81
238.858	127.81
239.091	117.81
239.325	110.81
239.559	117.81
239.793	123.81
240.027	142.81
240.26	137.81
240.494	108.81
240.728	122.81
240.961	125.81
241.195	128.81
241.429	128.81
241.662	117.81
241.896	125.81
242.13	141.81
242.363	112.81
242.597	116.81
242.83	124.81
243.064	134.81
243.298	108.81
243.531	117.81
243.765	139.81
243.998	132.81
244.232	137.81
244.465	127.81
244.699	128.81
244.932	130.81
245.166	131.81
245.399	137.81
245.633	134.81
245.866	127.81
246.099	141.81
246.333	120.81
246.566	139.81
246.8	131.81
247.033	130.81
247.266	132.81
247.5	140.81
247.733	156.81
247.966	139.81
248.2	150.81
248.433	135.81
248.666	140.81
248.899	131.81
249.133	130.81
249.366	144.81
249.599	138.81
249.832	128.81
250.066	141.81
250.299	145.81
250.532	126.81
250.765	135.81
250.998	149.81
251.231	151.81
251.465	157.81
251.698	150.81
251.931	153.81
252.164	161.81
252.397	156.81
252.63	155.81
252.863	154.81
253.096	171.81
253.329	168.81
253.562	143.81
253.795	156.81
254.028	152.81
254.261	158.81
254.494	155.81
254.727	165.81
254.96	162.81
255.193	161.81
255.426	155.81
255.659	167.81
255.892	164.81
256.124	163.81
256.357	185.81
256.59	151.81
256.823	175.81
257.056	164.81
257.289	168.81
257.521	170.81
257.754	159.81
257.987	172.81
258.22	174.81
258.452	171.81
258.685	149.81
258.918	158.81
259.151	158.81
259.383	166.81
259.616	168.81
259.849	187.81
260.081	179.81
260.314	185.81
260.547	163.81
260.779	183.81
261.012	185.81
261.244	175.81
261.477	189.81
261.71	177.81
261.942	166.81
262.175	188.81
262.407	191.81
262.64	190.81
262.872	199.81
263.105	167.81
263.337	189.81
263.57	179.81
263.802	190.81
264.035	187.81
264.267	183.81
264.499	182.81
264.732	195.81
264.964	182.81
265.197	188.81
265.429	185.81
265.661	199.81
265.894	185.81
266.126	201.81
266.358	205.81
266.591	204.81
266.823	200.81
267.055	187.81
267.287	187.81
267.52	195.81
267.752	204.81
267.984	189.81
268.216	185.81
268.448	215.81
268.681	197.81
268.913	186.81
269.145	201.81
269.377	195.81
269.609	197.81
269.841	190.81
270.073	200.81
270.306	203.81
270.538	207.81
270.77	200.81
271.002	212.81
271.234	201.81
271.466	208.81
271.698	200.81
271.93	189.81
272.162	199.81
272.394	209.81
272.626	222.81
272.858	205.81
273.09	212.81
273.322	198.81
273.553	199.81
273.785	217.81
274.017	196.81
274.249	229.81
274.481	219.81
274.713	224.81
274.945	217.81
275.176	217.81
275.408	205.81
275.64	222.81
275.872	213.81
276.104	243.81
276.335	229.81
276.567	212.81
276.799	207.81
277.031	234.81
277.262	215.81
277.494	203.81
277.726	220.81
277.957	216.81
278.189	254.81
278.421	235.81
278.652	230.81
278.884	226.81
279.115	219.81
279.347	221.81
279.579	231.81
279.81	238.81
280.042	219.81
280.273	236.81
280.505	235.81
280.736	235.81
280.968	216.81
281.199	221.81
281.431	231.81
281.662	220.81
281.894	221.81
282.125	228.81
282.356	233.81
282.588	243.81
282.819	240.81
283.051	254.81
283.282	250.81
283.513	246.81
283.745	235.81
283.976	234.81
284.207	241.81
284.439	227.81
284.67	232.81
284.901	247.81
285.132	243.81
285.364	244.81
285.595	227.81
285.826	243.81
286.057	238.81
286.288	251.81
286.52	238.81
286.751	247.81
286.982	249.81
287.213	273.81
287.444	243.81
287.675	245.81
287.906	237.81
288.138	243.81
288.369	236.81
288.6	251.81
288.831	257.81
289.062	255.81
289.293	262.81
289.524	256.81
289.755	255.81
289.986	248.81
290.217	261.81
290.448	251.81
290.679	271.81
290.91	252.81
291.141	251.81
291.371	261.81
291.602	253.81
291.833	262.81
292.064	269.81
292.295	251.81
292.526	260.81
292.757	248.81
292.987	247.81
293.218	233.81
293.449	266.81
293.68	261.81
293.91	243.81
294.141	277.81
294.372	263.81
294.603	260.81
294.833	261.81
295.064	262.81
295.295	259.81
295.525	239.81
295.756	270.81
295.987	263.81
296.217	255.81
296.448	263.81
296.679	268.81
296.909	268.81
297.14	262.81
297.37	268.81
297.601	262.81
297.831	272.81
298.062	278.81
298.292	279.81
298.523	270.81
298.753	283.81
298.984	263.81
299.214	260.81
299.445	278.81
299.675	259.81
299.905	295.81
300.136	270.81
300.366	287.81
300.597	300.81
300.827	295.81
301.057	296.81
301.288	286.81
301.518	293.81
301.748	277.81
301.979	292.81
302.209	275.81
302.439	270.81
302.669	279.81
302.9	294.81
303.13	268.81
303.36	280.81
303.59	296.81
303.82	292.81
304.051	295.81
304.281	296.81
304.511	290.81
304.741	284.81
304.971	304.81
305.201	319.81
305.431	304.81
305.661	287.81
305.891	317.81
306.121	308.81
306.352	291.81
306.582	276.81
306.812	284.81
307.042	286.81
307.272	298.81
307.502	308.81
307.731	319.81
307.961	304.81
308.191	296.81
308.421	284.81
308.651	284.81
308.881	300.81
309.111	288.81
309.341	283.81
309.571	296.81
309.8	317.81
310.03	285.81
310.26	320.81
310.49	317.81
310.72	297.81
310.949	309.81
311.179	299.81
311.409	301.81
311.639	297.81
311.868	321.81
312.098	283.81
312.328	300.81
312.557	317.81
312.787	298.81
313.017	309.81
313.246	329.81
313.476	307.81
313.706	309.81
313.935	326.81
314.165	322.81
314.394	315.81
314.624	296.81
314.853	319.81
315.083	307.81
315.312	311.81
315.542	300.81
315.771	301.81
316.001	300.81
316.23	326.81
316.46	295.81
316.689	309.81
316.919	327.81
317.148	304.81
317.377	311.81
317.607	315.81
317.836	313.81
318.065	310.81
318.295	315.81
318.524	326.81
318.753	330.81
318.983	315.81
319.212	329.81
319.441	333.81
319.67	322.81
319.9	311.81
320.129	313.81
320.358	316.81
320.587	331.81
320.816	327.81
321.046	331.81
321.275	337.81
321.504	326.81
321.733	317.81
321.962	315.81
322.191	338.81
322.42	324.81
322.649	327.81
322.878	325.81
323.108	316.81
323.337	326.81
323.566	312.81
323.795	323.81
324.024	330.81
324.253	340.81
324.482	317.81
324.71	338.81
324.939	339.81
325.168	327.81
325.397	334.81
325.626	330.81
325.855	333.81
326.084	321.81
326.313	355.81
326.542	339.81
326.77	336.81
326.999	325.81
327.228	343.81
327.457	349.81
327.686	345.81
327.914	375.81
328.143	357.81
328.372	339.81
328.6	326.81
328.829	331.81
329.058	342.81
329.287	350.81
329.515	359.81
329.744	367.81
329.972	355.81
330.201	355.81
330.43	367.81
330.658	362.81
330.887	356.81
331.115	373.81
331.344	352.81
331.572	357.81
331.801	367.81
332.03	373.81
332.258	369.81
332.486	372.81
332.715	385.81
332.943	364.81
333.172	389.81
333.4	411.81
333.629	391.81
333.857	397.81
334.085	410.81
334.314	432.81
334.542	411.81
334.771	401.81
334.999	402.81
335.227	393.81
335.455	405.81
335.684	412.81
335.912	407.81
336.14	395.81
336.369	399.81
336.597	423.81
336.825	402.81
337.053	393.81
337.281	415.81
337.51	377.81
337.738	391.81
337.966	411.81
338.194	411.81
338.422	384.81
338.65	383.81
338.878	382.81
339.106	353.81
339.334	379.81
339.562	378.81
339.79	373.81
340.018	394.81
340.246	377.81
340.474	391.81
340.702	376.81
340.93	375.81
341.158	369.81
341.386	399.81
341.614	397.81
341.842	381.81
342.07	380.81
342.298	388.81
342.526	374.81
342.754	366.81
342.981	359.81
343.209	377.81
343.437	403.81
343.665	391.81
343.893	423.81
344.12	407.81
344.348	402.81
344.576	400.81
344.804	395.81
345.031	379.81
345.259	374.81
345.487	395.81
345.714	379.81
345.942	381.81
346.17	394.81
346.397	395.81
346.625	375.81
346.853	374.81
347.08	356.81
347.308	375.81
347.535	360.81
347.763	359.81
347.99	359.81
348.218	348.81
348.445	350.81
348.673	357.81
348.9	356.81
349.128	350.81
349.355	384.81
349.583	368.81
349.81	353.81
350.037	369.81
350.265	356.81
350.492	370.81
350.72	346.81
350.947	357.81
351.174	363.81
351.402	385.81
351.629	395.81
351.856	393.81
352.083	367.81
352.311	374.81
352.538	369.81
352.765	371.81
352.992	371.81
353.22	371.81
353.447	337.81
353.674	365.81
353.901	356.81
354.128	353.81
354.355	364.81
354.583	364.81
354.81	365.81
355.037	358.81
355.264	352.81
355.491	353.81
355.718	360.81
355.945	367.81
356.172	356.81
356.399	358.81
356.626	359.81
356.853	347.81
357.08	360.81
357.307	374.81
357.534	359.81
357.761	363.81
357.988	351.81
358.215	357.81
358.441	346.81
358.668	342.81
358.895	349.81
359.122	342.81
359.349	358.81
359.576	351.81
359.802	346.81
360.029	358.81
360.256	361.81
360.483	364.81
360.709	367.81
360.936	351.81
361.163	356.81
361.39	343.81
361.616	367.81
361.843	371.81
362.07	377.81
362.296	375.81
362.523	347.81
362.749	366.81
362.976	343.81
363.203	352.81
363.429	360.81
363.656	365.81
363.882	336.81
364.109	354.81
364.335	352.81
364.562	368.81
364.788	362.81
365.015	338.81
365.241	367.81
365.468	361.81
365.694	368.81
365.92	349.81
366.147	352.81
366.373	376.81
366.599	378.81
366.826	376.81
367.052	365.81
367.278	360.81
367.505	352.81
367.731	366.81
367.957	371.81
368.184	350.81
368.41	364.81
368.636	369.81
368.862	363.81
369.089	375.81
369.315	358.81
369.541	373.81
369.767	369.81
369.993	381.81
370.219	362.81
370.445	379.81
370.672	369.81
370.898	360.81
371.124	377.81
371.35	381.81
371.576	387.81
371.802	379.81
372.028	373.81
372.254	402.81
372.48	383.81
372.706	383.81
372.932	389.81
373.158	368.81
373.384	385.81
373.61	417.81
373.835	381.81
374.061	376.81
374.287	389.81
374.513	385.81
374.739	407.81
374.965	412.81
375.191	368.81
375.416	384.81
375.642	392.81
375.868	380.81
376.094	368.81
376.319	389.81
376.545	363.81
376.771	377.81
376.997	363.81
377.222	371.81
377.448	367.81
377.674	368.81
377.899	370.81
378.125	381.81
378.35	385.81
378.576	378.81
378.802	380.81
379.027	363.81
379.253	384.81
379.478	357.81
379.704	373.81
379.929	373.81
380.155	380.81
380.38	383.81
380.606	375.81
380.831	369.81
381.057	391.81
381.282	377.81
381.507	377.81
381.733	381.81
381.958	379.81
382.184	384.81
382.409	395.81
382.634	399.81
382.86	375.81
383.085	394.81
383.31	398.81
383.535	404.81
383.761	414.81
383.986	409.81
384.211	413.81
384.436	425.81
384.662	409.81
384.887	413.81
385.112	403.81
385.337	431.81
385.562	422.81
385.787	423.81
386.013	429.81
386.238	432.81
386.463	425.81
386.688	407.81
386.913	420.81
387.138	402.81
387.363	435.81
387.588	420.81
387.813	417.81
388.038	445.81
388.263	443.81
388.488	416.81
388.713	422.81
388.938	440.81
389.163	427.81
389.387	428.81
389.612	424.81
389.837	427.81
390.062	432.81
390.287	420.81
390.512	441.81
390.736	425.81
390.961	419.81
391.186	438.81
391.411	454.81
391.636	467.81
391.86	437.81
392.085	465.81
392.31	445.81
392.534	447.81
392.759	456.81
392.984	432.81
393.208	428.81
393.433	443.81
393.658	444.81
393.882	438.81
394.107	440.81
394.331	433.81
394.556	447.81
394.78	458.81
395.005	462.81
395.229	448.81
395.454	442.81
395.678	452.81
395.903	441.81
396.127	475.81
396.352	462.81
396.576	446.81
396.801	443.81
397.025	448.81
397.249	460.81
397.474	469.81
397.698	455.81
397.922	465.81
398.147	482.81
398.371	464.81
398.595	508.81
398.82	504.81
399.044	527.81
399.268	533.81
399.492	580.81
399.717	617.81
399.941	601.81
400.165	579.81
400.389	560.81
400.613	537.81
400.837	529.81
401.062	512.81
401.286	521.81
401.51	490.81
401.734	496.81
401.958	515.81
402.182	523.81
402.406	507.81
402.63	501.81
402.854	513.81
403.078	505.81
403.302	526.81
403.526	532.81
403.75	514.81
403.974	531.81
404.198	522.81
404.422	521.81
404.645	544.81
404.869	526.81
405.093	542.81
405.317	504.81
405.541	524.81
405.765	551.81
405.988	539.81
406.212	552.81
406.436	527.81
406.66	519.81
406.883	538.81
407.107	560.81
407.331	592.81
407.555	593.81
407.778	580.81
408.002	591.81
408.226	568.81
408.449	577.81
408.673	566.81
408.896	560.81
409.12	558.81
409.344	583.81
409.567	533.81
409.791	550.81
410.014	524.81
410.238	523.81
410.461	513.81
410.685	534.81
410.908	520.81
411.132	523.81
411.355	518.81
411.578	529.81
411.802	530.81
412.025	534.81
412.249	537.81
412.472	517.81
412.695	522.81
412.919	541.81
413.142	483.81
413.365	535.81
413.589	528.81
413.812	528.81
414.035	530.81
414.258	481.81
414.482	503.81
414.705	500.81
414.928	513.81
415.151	516.81
415.374	506.81
415.597	530.81
415.821	495.81
416.044	474.81
416.267	503.81
416.49	484.81
416.713	510.81
416.936	531.81
417.159	505.81
417.382	482.81
417.605	486.81
417.828	486.81
418.051	496.81
418.274	503.81
418.497	492.81
418.72	500.81
418.943	538.81
419.166	536.81
419.389	560.81
419.611	538.81
419.834	535.81
420.057	524.81
420.28	512.81
420.503	490.81
420.726	498.81
420.948	496.81
421.171	500.81
421.394	479.81
421.617	488.81
421.839	513.81
422.062	501.81
422.285	473.81
422.507	504.81
422.73	488.81
422.953	490.81
423.175	503.81
423.398	494.81
423.621	493.81
423.843	518.81
424.066	526.81
424.288	495.81
424.511	507.81
424.733	484.81
424.956	500.81
425.178	491.81
425.401	509.81
425.623	483.81
425.846	484.81
426.068	495.81
426.291	475.81
426.513	483.81
426.735	469.81
426.958	471.81
427.18	470.81
427.402	485.81
427.625	483.81
427.847	463.81
428.069	490.81
428.292	468.81
428.514	477.81
428.736	474.81
428.958	451.81
429.181	485.81
429.403	469.81
429.625	460.81
429.847	453.81
430.069	490.81
430.292	485.81
430.514	452.81
430.736	481.81
430.958	469.81
431.18	473.81
431.402	475.81
431.624	451.81
431.846	457.81
432.068	465.81
432.29	470.81
432.512	485.81
432.734	468.81
432.956	509.81
433.178	504.81
433.4	501.81
433.622	490.81
433.844	494.81
434.066	480.81
434.287	488.81
434.509	473.81
434.731	490.81
434.953	499.81
435.175	516.81
435.397	515.81
435.618	499.81
435.84	494.81
436.062	465.81
436.284	475.81
436.505	472.81
436.727	477.81
436.949	480.81
437.17	477.81
437.392	477.81
437.614	471.81
437.835	443.81
438.057	446.81
438.278	452.81
438.5	455.81
438.721	478.81
438.943	478.81
439.165	444.81
439.386	462.81
439.608	473.81
439.829	476.81
440.05	462.81
440.272	484.81
440.493	463.81
440.715	485.81
440.936	461.81
441.158	476.81
441.379	499.81
441.6	509.81
441.822	508.81
442.043	507.81
442.264	499.81
442.486	502.81
442.707	501.81
442.928	500.81
443.149	494.81
443.371	511.81
443.592	535.81
443.813	520.81
444.034	494.81
444.255	509.81
444.476	541.81
444.698	545.81
444.919	573.81
445.14	654.81
445.361	588.81
445.582	522.81
445.803	514.81
446.024	501.81
446.245	493.81
446.466	512.81
446.687	482.81
446.908	488.81
447.129	478.81
447.35	447.81
447.571	473.81
447.792	452.81
448.013	446.81
448.234	448.81
448.455	454.81
448.675	470.81
448.896	459.81
449.117	463.81
449.338	444.81
449.559	427.81
449.779	465.81
450	437.81
450.221	426.81
450.442	449.81
450.662	422.81
450.883	460.81
451.104	455.81
451.324	463.81
451.545	425.81
451.766	432.81
451.986	444.81
452.207	419.81
452.428	424.81
452.648	442.81
452.869	422.81
453.089	430.81
453.31	452.81
453.53	427.81
453.751	429.81
453.971	427.81
454.192	434.81
454.412	441.81
454.633	419.81
454.853	436.81
455.073	408.81
455.294	429.81
455.514	424.81
455.734	425.81
455.955	449.81
456.175	445.81
456.395	423.81
456.616	416.81
456.836	408.81
457.056	421.81
457.276	413.81
457.497	417.81
457.717	441.81
457.937	406.81
458.157	411.81
458.377	429.81
458.598	427.81
458.818	432.81
459.038	427.81
459.258	449.81
459.478	462.81
459.698	506.81
459.918	491.81
460.138	481.81
460.358	512.81
460.578	518.81
460.798	538.81
461.018	499.81
461.238	527.81
461.458	518.81
461.678	513.81
461.898	507.81
462.118	508.81
462.338	540.81
462.558	560.81
462.777	569.81
462.997	583.81
463.217	606.81
463.437	624.81
463.657	597.81
463.876	572.81
464.096	559.81
464.316	576.81
464.536	569.81
464.755	544.81
464.975	541.81
465.195	528.81
465.414	510.81
465.634	485.81
465.854	488.81
466.073	488.81
466.293	476.81
466.512	447.81
466.732	447.81
466.951	464.81
467.171	473.81
467.391	478.81
467.61	474.81
467.829	455.81
468.049	433.81
468.268	452.81
468.488	447.81
468.707	441.81
468.927	456.81
469.146	476.81
469.365	472.81
469.585	443.81
469.804	452.81
470.023	449.81
470.243	451.81
470.462	455.81
470.681	458.81
470.901	453.81
471.12	493.81
471.339	469.81
471.558	473.81
471.777	470.81
471.997	443.81
472.216	471.81
472.435	471.81
472.654	438.81
472.873	443.81
473.092	438.81
473.311	445.81
473.53	421.81
473.749	460.81
473.968	454.81
474.187	446.81
474.406	446.81
474.625	461.81
474.844	453.81
475.063	456.81
475.282	449.81
475.501	468.81
475.72	467.81
475.939	461.81
476.158	458.81
476.377	464.81
476.596	479.81
476.814	483.81
477.033	477.81
477.252	472.81
477.471	471.81
477.69	495.81
477.908	500.81
478.127	516.81
478.346	502.81
478.564	528.81
478.783	517.81
479.002	561.81
479.22	565.81
479.439	531.81
479.658	539.81
479.876	544.81
480.095	540.81
480.313	544.81
480.532	539.81
480.751	551.81
480.969	549.81
481.188	508.81
481.406	526.81
481.624	521.81
481.843	506.81
482.061	499.81
482.28	531.81
482.498	510.81
482.717	532.81
482.935	529.81
483.153	529.81
483.372	541.81
483.59	591.81
483.808	527.81
484.027	548.81
484.245	541.81
484.463	529.81
484.681	551.81
484.9	549.81
485.118	542.81
485.336	539.81
485.554	544.81
485.772	539.81
485.99	541.81
486.209	575.81
486.427	533.81
486.645	550.81
486.863	568.81
487.081	536.81
487.299	537.81
487.517	548.81
487.735	527.81
487.953	577.81
488.171	577.81
488.389	518.81
488.607	563.81
488.825	529.81
489.043	558.81
489.261	525.81
489.479	559.81
489.696	545.81
489.914	536.81
490.132	547.81
490.35	555.81
490.568	528.81
490.786	552.81
491.003	577.81
491.221	542.81
491.439	583.81
491.657	560.81
491.874	554.81
492.092	579.81
492.31	556.81
492.527	542.81
492.745	575.81
492.963	556.81
493.18	564.81
493.398	552.81
493.615	542.81
493.833	576.81
494.05	560.81
494.268	571.81
494.485	571.81
494.703	572.81
494.92	571.81
495.138	571.81
495.355	574.81
495.573	585.81
495.79	569.81
496.008	554.81
496.225	577.81
496.442	600.81
496.66	596.81
496.877	603.81
497.094	604.81
497.312	586.81
497.529	610.81
497.746	597.81
497.963	621.81
498.181	621.81
498.398	653.81
498.615	670.81
498.832	686.81
499.049	728.81
499.267	755.81
499.484	791.81
499.701	831.81
499.918	865.81
500.135	969.81
500.352	1018.81
500.569	1029.81
500.786	1025.81
501.003	954.81
501.22	935.81
501.437	870.81
501.654	809.81
