Data from Ni(NO3)2@0.5M.TitratingCurve.Agarose3%dH2O.NegLispCup.LampEnergy10.LIBS07252019_HRD10591_17-58-35-563.txt Node
Date: Thu Jul 25 17:58:35 EDT 2019
User: cochatt
Spectrometer: HR+D1059
Trigger mode: 1
Integration Time (sec): 1.000000E-1
Scans to average: 1
Electric dark correction enabled: true
Nonlinearity correction enabled: false
Boxcar width: 0
XAxis mode: Wavelengths
Number of Pixels in Spectrum: 2048
>>>>>Begin Spectral Data<<<<<
223.165	-16.56
223.4	-16.56
223.635	-16.56
223.869	-10.56
224.104	-29.56
224.338	-26.56
224.573	-13.56
224.808	-7.56
225.042	-1.56
225.277	-21.56
225.511	-7.56
225.746	7.44
225.98	10.44
226.215	13.44
226.449	10.44
226.683	33.44
226.918	37.44
227.152	22.44
227.387	39.44
227.621	38.44
227.856	50.44
228.09	52.44
228.324	38.44
228.559	50.44
228.793	58.44
229.027	88.44
229.262	124.44
229.496	114.44
229.73	107.44
229.964	124.44
230.199	141.44
230.433	130.44
230.667	151.44
230.901	124.44
231.136	130.44
231.37	124.44
231.604	134.44
231.838	142.44
232.072	135.44
232.306	135.44
232.541	132.44
232.775	136.44
233.009	132.44
233.243	139.44
233.477	115.44
233.711	135.44
233.945	131.44
234.179	131.44
234.413	142.44
234.647	113.44
234.881	139.44
235.115	130.44
235.349	127.44
235.583	124.44
235.817	107.44
236.051	132.44
236.285	115.44
236.519	120.44
236.753	126.44
236.987	141.44
237.221	124.44
237.455	115.44
237.689	120.44
237.922	144.44
238.156	137.44
238.39	128.44
238.624	112.44
238.858	125.44
239.091	130.44
239.325	134.44
239.559	148.44
239.793	150.44
240.027	148.44
240.26	132.44
240.494	139.44
240.728	134.44
240.961	142.44
241.195	143.44
241.429	146.44
241.662	150.44
241.896	134.44
242.13	140.44
242.363	144.44
242.597	160.44
242.83	157.44
243.064	134.44
243.298	162.44
243.531	157.44
243.765	150.44
243.998	145.44
244.232	170.44
244.465	157.44
244.699	159.44
244.932	165.44
245.166	164.44
245.399	158.44
245.633	145.44
245.866	163.44
246.099	140.44
246.333	163.44
246.566	166.44
246.8	158.44
247.033	176.44
247.266	165.44
247.5	175.44
247.733	167.44
247.966	175.44
248.2	185.44
248.433	195.44
248.666	176.44
248.899	173.44
249.133	195.44
249.366	182.44
249.599	176.44
249.832	181.44
250.066	190.44
250.299	163.44
250.532	180.44
250.765	194.44
250.998	191.44
251.231	210.44
251.465	203.44
251.698	196.44
251.931	197.44
252.164	198.44
252.397	203.44
252.63	217.44
252.863	207.44
253.096	196.44
253.329	217.44
253.562	201.44
253.795	206.44
254.028	206.44
254.261	211.44
254.494	205.44
254.727	210.44
254.96	199.44
255.193	218.44
255.426	212.44
255.659	210.44
255.892	208.44
256.124	217.44
256.357	225.44
256.59	217.44
256.823	211.44
257.056	233.44
257.289	214.44
257.521	223.44
257.754	227.44
257.987	232.44
258.22	219.44
258.452	234.44
258.685	208.44
258.918	216.44
259.151	226.44
259.383	246.44
259.616	235.44
259.849	232.44
260.081	236.44
260.314	217.44
260.547	230.44
260.779	242.44
261.012	254.44
261.244	248.44
261.477	237.44
261.71	229.44
261.942	264.44
262.175	238.44
262.407	239.44
262.64	231.44
262.872	266.44
263.105	245.44
263.337	256.44
263.57	239.44
263.802	251.44
264.035	244.44
264.267	259.44
264.499	255.44
264.732	257.44
264.964	243.44
265.197	263.44
265.429	259.44
265.661	256.44
265.894	249.44
266.126	264.44
266.358	254.44
266.591	262.44
266.823	266.44
267.055	259.44
267.287	266.44
267.52	262.44
267.752	281.44
267.984	286.44
268.216	278.44
268.448	275.44
268.681	279.44
268.913	275.44
269.145	267.44
269.377	279.44
269.609	278.44
269.841	284.44
270.073	306.44
270.306	284.44
270.538	290.44
270.77	279.44
271.002	291.44
271.234	266.44
271.466	283.44
271.698	281.44
271.93	285.44
272.162	290.44
272.394	288.44
272.626	289.44
272.858	283.44
273.09	298.44
273.322	303.44
273.553	293.44
273.785	283.44
274.017	286.44
274.249	303.44
274.481	292.44
274.713	292.44
274.945	290.44
275.176	304.44
275.408	309.44
275.64	302.44
275.872	303.44
276.104	315.44
276.335	305.44
276.567	313.44
276.799	316.44
277.031	316.44
277.262	308.44
277.494	308.44
277.726	315.44
277.957	331.44
278.189	328.44
278.421	301.44
278.652	327.44
278.884	324.44
279.115	311.44
279.347	315.44
279.579	319.44
279.81	312.44
280.042	343.44
280.273	340.44
280.505	334.44
280.736	340.44
280.968	345.44
281.199	339.44
281.431	338.44
281.662	342.44
281.894	351.44
282.125	346.44
282.356	333.44
282.588	326.44
282.819	334.44
283.051	342.44
283.282	326.44
283.513	337.44
283.745	349.44
283.976	342.44
284.207	361.44
284.439	369.44
284.67	351.44
284.901	358.44
285.132	352.44
285.364	312.44
285.595	357.44
285.826	351.44
286.057	355.44
286.288	354.44
286.52	341.44
286.751	338.44
286.982	352.44
287.213	340.44
287.444	356.44
287.675	360.44
287.906	360.44
288.138	361.44
288.369	373.44
288.6	352.44
288.831	345.44
289.062	351.44
289.293	370.44
289.524	348.44
289.755	350.44
289.986	356.44
290.217	346.44
290.448	358.44
290.679	361.44
290.91	385.44
291.141	357.44
291.371	381.44
291.602	386.44
291.833	364.44
292.064	363.44
292.295	374.44
292.526	374.44
292.757	357.44
292.987	388.44
293.218	357.44
293.449	378.44
293.68	360.44
293.91	380.44
294.141	374.44
294.372	368.44
294.603	375.44
294.833	383.44
295.064	378.44
295.295	359.44
295.525	374.44
295.756	370.44
295.987	378.44
296.217	384.44
296.448	373.44
296.679	392.44
296.909	385.44
297.14	374.44
297.37	390.44
297.601	397.44
297.831	393.44
298.062	390.44
298.292	401.44
298.523	421.44
298.753	410.44
298.984	403.44
299.214	394.44
299.445	415.44
299.675	408.44
299.905	430.44
300.136	410.44
300.366	452.44
300.597	440.44
300.827	424.44
301.057	418.44
301.288	428.44
301.518	425.44
301.748	419.44
301.979	447.44
302.209	420.44
302.439	429.44
302.669	422.44
302.9	423.44
303.13	397.44
303.36	411.44
303.59	419.44
303.82	430.44
304.051	432.44
304.281	441.44
304.511	416.44
304.741	436.44
304.971	429.44
305.201	473.44
305.431	437.44
305.661	452.44
305.891	437.44
306.121	442.44
306.352	426.44
306.582	427.44
306.812	416.44
307.042	429.44
307.272	396.44
307.502	428.44
307.731	435.44
307.961	421.44
308.191	418.44
308.421	418.44
308.651	430.44
308.881	420.44
309.111	421.44
309.341	442.44
309.571	424.44
309.8	437.44
310.03	461.44
310.26	467.44
310.49	474.44
310.72	447.44
310.949	442.44
311.179	444.44
311.409	444.44
311.639	447.44
311.868	456.44
312.098	450.44
312.328	441.44
312.557	459.44
312.787	449.44
313.017	446.44
313.246	459.44
313.476	482.44
313.706	484.44
313.935	492.44
314.165	453.44
314.394	452.44
314.624	477.44
314.853	463.44
315.083	462.44
315.312	460.44
315.542	471.44
315.771	462.44
316.001	466.44
316.23	490.44
316.46	465.44
316.689	492.44
316.919	475.44
317.148	477.44
317.377	471.44
317.607	480.44
317.836	490.44
318.065	469.44
318.295	489.44
318.524	476.44
318.753	480.44
318.983	493.44
319.212	483.44
319.441	481.44
319.67	466.44
319.9	482.44
320.129	463.44
320.358	469.44
320.587	495.44
320.816	492.44
321.046	483.44
321.275	492.44
321.504	486.44
321.733	482.44
321.962	478.44
322.191	476.44
322.42	496.44
322.649	515.44
322.878	482.44
323.108	501.44
323.337	510.44
323.566	519.44
323.795	505.44
324.024	522.44
324.253	506.44
324.482	498.44
324.71	528.44
324.939	505.44
325.168	506.44
325.397	533.44
325.626	517.44
325.855	532.44
326.084	555.44
326.313	513.44
326.542	519.44
326.77	525.44
326.999	529.44
327.228	540.44
327.457	505.44
327.686	525.44
327.914	535.44
328.143	545.44
328.372	524.44
328.6	540.44
328.829	548.44
329.058	533.44
329.287	528.44
329.515	546.44
329.744	554.44
329.972	547.44
330.201	558.44
330.43	557.44
330.658	557.44
330.887	569.44
331.115	560.44
331.344	569.44
331.572	560.44
331.801	580.44
332.03	581.44
332.258	583.44
332.486	576.44
332.715	584.44
332.943	569.44
333.172	587.44
333.4	588.44
333.629	604.44
333.857	607.44
334.085	629.44
334.314	626.44
334.542	648.44
334.771	644.44
334.999	654.44
335.227	644.44
335.455	669.44
335.684	650.44
335.912	668.44
336.14	646.44
336.369	638.44
336.597	645.44
336.825	662.44
337.053	675.44
337.281	668.44
337.51	626.44
337.738	647.44
337.966	640.44
338.194	639.44
338.422	629.44
338.65	595.44
338.878	609.44
339.106	632.44
339.334	647.44
339.562	627.44
339.79	597.44
340.018	593.44
340.246	634.44
340.474	613.44
340.702	591.44
340.93	589.44
341.158	598.44
341.386	638.44
341.614	632.44
341.842	618.44
342.07	592.44
342.298	617.44
342.526	608.44
342.754	592.44
342.981	591.44
343.209	602.44
343.437	609.44
343.665	651.44
343.893	652.44
344.12	632.44
344.348	632.44
344.576	656.44
344.804	648.44
345.031	644.44
345.259	588.44
345.487	638.44
345.714	614.44
345.942	640.44
346.17	651.44
346.397	629.44
346.625	589.44
346.853	600.44
347.08	579.44
347.308	610.44
347.535	599.44
347.763	594.44
347.99	589.44
348.218	578.44
348.445	582.44
348.673	578.44
348.9	574.44
349.128	590.44
349.355	603.44
349.583	591.44
349.81	585.44
350.037	566.44
350.265	564.44
350.492	567.44
350.72	569.44
350.947	559.44
351.174	588.44
351.402	617.44
351.629	604.44
351.856	609.44
352.083	606.44
352.311	599.44
352.538	608.44
352.765	603.44
352.992	574.44
353.22	565.44
353.447	564.44
353.674	550.44
353.901	542.44
354.128	541.44
354.355	538.44
354.583	551.44
354.81	538.44
355.037	541.44
355.264	544.44
355.491	555.44
355.718	570.44
355.945	542.44
356.172	551.44
356.399	570.44
356.626	568.44
356.853	590.44
357.08	556.44
357.307	557.44
357.534	558.44
357.761	563.44
357.988	587.44
358.215	563.44
358.441	558.44
358.668	542.44
358.895	575.44
359.122	572.44
359.349	554.44
359.576	562.44
359.802	547.44
360.029	548.44
360.256	562.44
360.483	574.44
360.709	591.44
360.936	557.44
361.163	575.44
361.39	578.44
361.616	588.44
361.843	601.44
362.07	613.44
362.296	588.44
362.523	551.44
362.749	564.44
362.976	560.44
363.203	554.44
363.429	546.44
363.656	559.44
363.882	557.44
364.109	570.44
364.335	564.44
364.562	553.44
364.788	566.44
365.015	567.44
365.241	565.44
365.468	575.44
365.694	570.44
365.92	575.44
366.147	550.44
366.373	585.44
366.599	554.44
366.826	576.44
367.052	563.44
367.278	578.44
367.505	576.44
367.731	559.44
367.957	556.44
368.184	560.44
368.41	583.44
368.636	579.44
368.862	572.44
369.089	577.44
369.315	567.44
369.541	573.44
369.767	569.44
369.993	559.44
370.219	578.44
370.445	574.44
370.672	612.44
370.898	566.44
371.124	606.44
371.35	595.44
371.576	588.44
371.802	596.44
372.028	623.44
372.254	607.44
372.48	618.44
372.706	620.44
372.932	606.44
373.158	614.44
373.384	612.44
373.61	604.44
373.835	620.44
374.061	592.44
374.287	623.44
374.513	611.44
374.739	640.44
374.965	622.44
375.191	598.44
375.416	629.44
375.642	610.44
375.868	635.44
376.094	602.44
376.319	617.44
376.545	611.44
376.771	615.44
376.997	595.44
377.222	598.44
377.448	623.44
377.674	613.44
377.899	590.44
378.125	592.44
378.35	614.44
378.576	595.44
378.802	607.44
379.027	615.44
379.253	602.44
379.478	580.44
379.704	591.44
379.929	605.44
380.155	585.44
380.38	566.44
380.606	607.44
380.831	616.44
381.057	612.44
381.282	591.44
381.507	574.44
381.733	600.44
381.958	604.44
382.184	608.44
382.409	584.44
382.634	612.44
382.86	643.44
383.085	605.44
383.31	631.44
383.535	632.44
383.761	638.44
383.986	641.44
384.211	628.44
384.436	648.44
384.662	634.44
384.887	662.44
385.112	637.44
385.337	670.44
385.562	656.44
385.787	670.44
386.013	668.44
386.238	678.44
386.463	674.44
386.688	682.44
386.913	669.44
387.138	670.44
387.363	687.44
387.588	692.44
387.813	681.44
388.038	707.44
388.263	693.44
388.488	670.44
388.713	658.44
388.938	692.44
389.163	678.44
389.387	674.44
389.612	677.44
389.837	686.44
390.062	692.44
390.287	692.44
390.512	683.44
390.736	713.44
390.961	711.44
391.186	680.44
391.411	715.44
391.636	725.44
391.86	705.44
392.085	711.44
392.31	730.44
392.534	749.44
392.759	725.44
392.984	726.44
393.208	734.44
393.433	728.44
393.658	747.44
393.882	733.44
394.107	702.44
394.331	723.44
394.556	707.44
394.78	708.44
395.005	736.44
395.229	719.44
395.454	741.44
395.678	744.44
395.903	773.44
396.127	762.44
396.352	728.44
396.576	716.44
396.801	743.44
397.025	735.44
397.249	769.44
397.474	804.44
397.698	775.44
397.922	778.44
398.147	784.44
398.371	810.44
398.595	820.44
398.82	815.44
399.044	853.44
399.268	900.44
399.492	920.44
399.717	951.44
399.941	963.44
400.165	960.44
400.389	922.44
400.613	900.44
400.837	854.44
401.062	855.44
401.286	835.44
401.51	848.44
401.734	834.44
401.958	859.44
402.182	834.44
402.406	846.44
402.63	825.44
402.854	824.44
403.078	822.44
403.302	832.44
403.526	848.44
403.75	832.44
403.974	823.44
404.198	826.44
404.422	859.44
404.645	828.44
404.869	847.44
405.093	834.44
405.317	837.44
405.541	863.44
405.765	866.44
405.988	879.44
406.212	860.44
406.436	914.44
406.66	902.44
406.883	879.44
407.107	911.44
407.331	914.44
407.555	925.44
407.778	941.44
408.002	948.44
408.226	908.44
408.449	962.44
408.673	887.44
408.896	893.44
409.12	899.44
409.344	913.44
409.567	896.44
409.791	895.44
410.014	904.44
410.238	877.44
410.461	890.44
410.685	882.44
410.908	870.44
411.132	885.44
411.355	845.44
411.578	826.44
411.802	842.44
412.025	852.44
412.249	845.44
412.472	860.44
412.695	843.44
412.919	823.44
413.142	847.44
413.365	846.44
413.589	862.44
413.812	834.44
414.035	808.44
414.258	854.44
414.482	802.44
414.705	834.44
414.928	807.44
415.151	826.44
415.374	837.44
415.597	811.44
415.821	828.44
416.044	825.44
416.267	812.44
416.49	814.44
416.713	800.44
416.936	832.44
417.159	798.44
417.382	812.44
417.605	811.44
417.828	794.44
418.051	818.44
418.274	802.44
418.497	789.44
418.72	829.44
418.943	808.44
419.166	845.44
419.389	878.44
419.611	888.44
419.834	846.44
420.057	844.44
420.28	820.44
420.503	763.44
420.726	779.44
420.948	806.44
421.171	815.44
421.394	800.44
421.617	804.44
421.839	805.44
422.062	829.44
422.285	805.44
422.507	815.44
422.73	788.44
422.953	793.44
423.175	815.44
423.398	779.44
423.621	808.44
423.843	820.44
424.066	822.44
424.288	808.44
424.511	789.44
424.733	796.44
424.956	814.44
425.178	810.44
425.401	815.44
425.623	811.44
425.846	805.44
426.068	790.44
426.291	795.44
426.513	787.44
426.735	786.44
426.958	787.44
427.18	758.44
427.402	776.44
427.625	773.44
427.847	755.44
428.069	758.44
428.292	760.44
428.514	765.44
428.736	768.44
428.958	787.44
429.181	742.44
429.403	762.44
429.625	744.44
429.847	774.44
430.069	751.44
430.292	779.44
430.514	773.44
430.736	783.44
430.958	764.44
431.18	771.44
431.402	771.44
431.624	790.44
431.846	761.44
432.068	754.44
432.29	770.44
432.512	770.44
432.734	777.44
432.956	771.44
433.178	780.44
433.4	802.44
433.622	795.44
433.844	770.44
434.066	785.44
434.287	813.44
434.509	795.44
434.731	803.44
434.953	808.44
435.175	830.44
435.397	806.44
435.618	810.44
435.84	774.44
436.062	766.44
436.284	762.44
436.505	758.44
436.727	766.44
436.949	780.44
437.17	763.44
437.392	761.44
437.614	756.44
437.835	754.44
438.057	728.44
438.278	735.44
438.5	760.44
438.721	763.44
438.943	776.44
439.165	763.44
439.386	760.44
439.608	773.44
439.829	775.44
440.05	774.44
440.272	787.44
440.493	778.44
440.715	776.44
440.936	797.44
441.158	794.44
441.379	778.44
441.6	826.44
441.822	823.44
442.043	818.44
442.264	809.44
442.486	809.44
442.707	818.44
442.928	828.44
443.149	826.44
443.371	831.44
443.592	852.44
443.813	842.44
444.034	851.44
444.255	849.44
444.476	859.44
444.698	867.44
444.919	848.44
445.14	967.44
445.361	901.44
445.582	860.44
445.803	848.44
446.024	805.44
446.245	831.44
446.466	792.44
446.687	778.44
446.908	784.44
447.129	759.44
447.35	743.44
447.571	766.44
447.792	736.44
448.013	754.44
448.234	742.44
448.455	752.44
448.675	720.44
448.896	737.44
449.117	721.44
449.338	731.44
449.559	723.44
449.779	718.44
450	718.44
450.221	723.44
450.442	712.44
450.662	728.44
450.883	741.44
451.104	757.44
451.324	718.44
451.545	716.44
451.766	716.44
451.986	728.44
452.207	726.44
452.428	734.44
452.648	705.44
452.869	692.44
453.089	692.44
453.31	710.44
453.53	704.44
453.751	704.44
453.971	661.44
454.192	711.44
454.412	713.44
454.633	687.44
454.853	668.44
455.073	700.44
455.294	695.44
455.514	716.44
455.734	711.44
455.955	697.44
456.175	698.44
456.395	680.44
456.616	688.44
456.836	697.44
457.056	664.44
457.276	668.44
457.497	704.44
457.717	702.44
457.937	696.44
458.157	722.44
458.377	710.44
458.598	719.44
458.818	732.44
459.038	735.44
459.258	776.44
459.478	795.44
459.698	799.44
459.918	818.44
460.138	798.44
460.358	843.44
460.578	832.44
460.798	910.44
461.018	863.44
461.238	854.44
461.458	865.44
461.678	846.44
461.898	849.44
462.118	854.44
462.338	893.44
462.558	909.44
462.777	919.44
462.997	954.44
463.217	973.44
463.437	984.44
463.657	973.44
463.876	946.44
464.096	920.44
464.316	936.44
464.536	959.44
464.755	896.44
464.975	872.44
465.195	834.44
465.414	832.44
465.634	819.44
465.854	799.44
466.073	778.44
466.293	767.44
466.512	781.44
466.732	769.44
466.951	786.44
467.171	770.44
467.391	759.44
467.61	741.44
467.829	747.44
468.049	740.44
468.268	735.44
468.488	748.44
468.707	728.44
468.927	731.44
469.146	716.44
469.365	763.44
469.585	744.44
469.804	726.44
470.023	757.44
470.243	739.44
470.462	746.44
470.681	744.44
470.901	746.44
471.12	758.44
471.339	749.44
471.558	768.44
471.777	754.44
471.997	749.44
472.216	741.44
472.435	747.44
472.654	755.44
472.873	718.44
473.092	714.44
473.311	743.44
473.53	711.44
473.749	723.44
473.968	749.44
474.187	735.44
474.406	720.44
474.625	742.44
474.844	731.44
475.063	741.44
475.282	728.44
475.501	748.44
475.72	742.44
475.939	735.44
476.158	782.44
476.377	781.44
476.596	756.44
476.814	796.44
477.033	778.44
477.252	781.44
477.471	791.44
477.69	815.44
477.908	805.44
478.127	846.44
478.346	822.44
478.564	844.44
478.783	849.44
479.002	842.44
479.22	867.44
479.439	880.44
479.658	854.44
479.876	880.44
480.095	871.44
480.313	883.44
480.532	892.44
480.751	896.44
480.969	851.44
481.188	842.44
481.406	851.44
481.624	831.44
481.843	827.44
482.061	848.44
482.28	835.44
482.498	829.44
482.717	838.44
482.935	851.44
483.153	837.44
483.372	866.44
483.59	873.44
483.808	885.44
484.027	840.44
484.245	863.44
484.463	848.44
484.681	871.44
484.9	872.44
485.118	869.44
485.336	871.44
485.554	861.44
485.772	862.44
485.99	879.44
486.209	862.44
486.427	862.44
486.645	859.44
486.863	864.44
487.081	875.44
487.299	880.44
487.517	883.44
487.735	898.44
487.953	864.44
488.171	911.44
488.389	859.44
488.607	868.44
488.825	870.44
489.043	861.44
489.261	832.44
489.479	879.44
489.696	843.44
489.914	869.44
490.132	889.44
490.35	866.44
490.568	884.44
490.786	901.44
491.003	874.44
491.221	898.44
491.439	921.44
491.657	918.44
491.874	920.44
492.092	937.44
492.31	932.44
492.527	937.44
492.745	912.44
492.963	922.44
493.18	906.44
493.398	912.44
493.615	950.44
493.833	921.44
494.05	906.44
494.268	955.44
494.485	938.44
494.703	950.44
494.92	926.44
495.138	929.44
495.355	950.44
495.573	946.44
495.79	958.44
496.008	966.44
496.225	990.44
496.442	986.44
496.66	1021.44
496.877	1028.44
497.094	1018.44
497.312	1013.44
497.529	1022.44
497.746	1056.44
497.963	1083.44
498.181	1089.44
498.398	1163.44
498.615	1180.44
498.832	1195.44
499.049	1240.44
499.267	1302.44
499.484	1364.44
499.701	1437.44
499.918	1474.44
500.135	1560.44
500.352	1638.44
500.569	1629.44
500.786	1623.44
501.003	1576.44
501.22	1506.44
