Data from Ni(NO3)2@0.5M.TitratingCurve.Agarose3%dH2O.NegLispCup.LampEnergy10.LIBS07252019_HRD10591_17-57-26-563.txt Node
Date: Thu Jul 25 17:57:26 EDT 2019
User: cochatt
Spectrometer: HR+D1059
Trigger mode: 1
Integration Time (sec): 1.000000E-1
Scans to average: 1
Electric dark correction enabled: true
Nonlinearity correction enabled: false
Boxcar width: 0
XAxis mode: Wavelengths
Number of Pixels in Spectrum: 2048
>>>>>Begin Spectral Data<<<<<
223.165	-20.25
223.4	-20.25
223.635	-20.25
223.869	-16.25
224.104	-13.25
224.338	-4.25
224.573	-19.25
224.808	-19.25
225.042	-5.25
225.277	-7.25
225.511	-9.25
225.746	11.75
225.98	1.75
226.215	-7.25
226.449	32.75
226.683	13.75
226.918	27.75
227.152	33.75
227.387	48.75
227.621	43.75
227.856	39.75
228.09	47.75
228.324	52.75
228.559	46.75
228.793	74.75
229.027	92.75
229.262	122.75
229.496	130.75
229.73	124.75
229.964	129.75
230.199	128.75
230.433	136.75
230.667	144.75
230.901	138.75
231.136	136.75
231.37	147.75
231.604	141.75
231.838	150.75
232.072	139.75
232.306	160.75
232.541	154.75
232.775	157.75
233.009	148.75
233.243	146.75
233.477	159.75
233.711	149.75
233.945	149.75
234.179	136.75
234.413	150.75
234.647	158.75
234.881	141.75
235.115	152.75
235.349	154.75
235.583	144.75
235.817	145.75
236.051	143.75
236.285	145.75
236.519	153.75
236.753	152.75
236.987	163.75
237.221	149.75
237.455	150.75
237.689	168.75
237.922	167.75
238.156	159.75
238.39	153.75
238.624	168.75
238.858	185.75
239.091	176.75
239.325	171.75
239.559	172.75
239.793	189.75
240.027	185.75
240.26	174.75
240.494	185.75
240.728	168.75
240.961	183.75
241.195	175.75
241.429	199.75
241.662	184.75
241.896	201.75
242.13	215.75
242.363	211.75
242.597	196.75
242.83	201.75
243.064	179.75
243.298	195.75
243.531	198.75
243.765	206.75
243.998	204.75
244.232	193.75
244.465	203.75
244.699	203.75
244.932	205.75
245.166	220.75
245.399	210.75
245.633	209.75
245.866	229.75
246.099	220.75
246.333	230.75
246.566	228.75
246.8	228.75
247.033	240.75
247.266	238.75
247.5	232.75
247.733	214.75
247.966	236.75
248.2	230.75
248.433	247.75
248.666	231.75
248.899	231.75
249.133	253.75
249.366	251.75
249.599	236.75
249.832	247.75
250.066	245.75
250.299	277.75
250.532	245.75
250.765	262.75
250.998	258.75
251.231	245.75
251.465	283.75
251.698	267.75
251.931	298.75
252.164	279.75
252.397	279.75
252.63	276.75
252.863	276.75
253.096	284.75
253.329	292.75
253.562	297.75
253.795	289.75
254.028	291.75
254.261	286.75
254.494	297.75
254.727	311.75
254.96	297.75
255.193	315.75
255.426	303.75
255.659	302.75
255.892	295.75
256.124	302.75
256.357	310.75
256.59	303.75
256.823	320.75
257.056	320.75
257.289	330.75
257.521	319.75
257.754	320.75
257.987	333.75
258.22	320.75
258.452	321.75
258.685	349.75
258.918	328.75
259.151	343.75
259.383	347.75
259.616	350.75
259.849	336.75
260.081	345.75
260.314	334.75
260.547	328.75
260.779	368.75
261.012	347.75
261.244	344.75
261.477	348.75
261.71	351.75
261.942	363.75
262.175	383.75
262.407	365.75
262.64	350.75
262.872	371.75
263.105	377.75
263.337	354.75
263.57	391.75
263.802	396.75
264.035	367.75
264.267	379.75
264.499	369.75
264.732	369.75
264.964	383.75
265.197	372.75
265.429	397.75
265.661	373.75
265.894	390.75
266.126	403.75
266.358	400.75
266.591	382.75
266.823	402.75
267.055	401.75
267.287	385.75
267.52	399.75
267.752	396.75
267.984	415.75
268.216	400.75
268.448	407.75
268.681	437.75
268.913	426.75
269.145	427.75
269.377	408.75
269.609	391.75
269.841	406.75
270.073	410.75
270.306	401.75
270.538	416.75
270.77	435.75
271.002	419.75
271.234	421.75
271.466	423.75
271.698	422.75
271.93	440.75
272.162	415.75
272.394	408.75
272.626	433.75
272.858	451.75
273.09	424.75
273.322	431.75
273.553	455.75
273.785	422.75
274.017	418.75
274.249	449.75
274.481	437.75
274.713	447.75
274.945	467.75
275.176	451.75
275.408	441.75
275.64	467.75
275.872	460.75
276.104	458.75
276.335	472.75
276.567	441.75
276.799	479.75
277.031	458.75
277.262	469.75
277.494	481.75
277.726	477.75
277.957	466.75
278.189	448.75
278.421	481.75
278.652	482.75
278.884	471.75
279.115	482.75
279.347	481.75
279.579	483.75
279.81	475.75
280.042	482.75
280.273	487.75
280.505	503.75
280.736	468.75
280.968	491.75
281.199	504.75
281.431	503.75
281.662	501.75
281.894	490.75
282.125	506.75
282.356	513.75
282.588	492.75
282.819	501.75
283.051	498.75
283.282	487.75
283.513	512.75
283.745	488.75
283.976	517.75
284.207	503.75
284.439	513.75
284.67	511.75
284.901	526.75
285.132	512.75
285.364	520.75
285.595	514.75
285.826	542.75
286.057	534.75
286.288	518.75
286.52	536.75
286.751	510.75
286.982	519.75
287.213	511.75
287.444	544.75
287.675	533.75
287.906	551.75
288.138	523.75
288.369	532.75
288.6	552.75
288.831	542.75
289.062	558.75
289.293	546.75
289.524	527.75
289.755	542.75
289.986	555.75
290.217	542.75
290.448	544.75
290.679	553.75
290.91	543.75
291.141	535.75
291.371	558.75
291.602	556.75
291.833	561.75
292.064	551.75
292.295	567.75
292.526	536.75
292.757	548.75
292.987	575.75
293.218	544.75
293.449	563.75
293.68	537.75
293.91	543.75
294.141	540.75
294.372	544.75
294.603	561.75
294.833	549.75
295.064	567.75
295.295	539.75
295.525	574.75
295.756	578.75
295.987	552.75
296.217	554.75
296.448	561.75
296.679	558.75
296.909	559.75
297.14	576.75
297.37	579.75
297.601	573.75
297.831	596.75
298.062	587.75
298.292	577.75
298.523	592.75
298.753	616.75
298.984	588.75
299.214	593.75
299.445	610.75
299.675	591.75
299.905	600.75
300.136	599.75
300.366	628.75
300.597	624.75
300.827	620.75
301.057	606.75
301.288	595.75
301.518	616.75
301.748	647.75
301.979	638.75
302.209	617.75
302.439	643.75
302.669	597.75
302.9	647.75
303.13	633.75
303.36	632.75
303.59	627.75
303.82	637.75
304.051	642.75
304.281	658.75
304.511	637.75
304.741	627.75
304.971	636.75
305.201	639.75
305.431	667.75
305.661	675.75
305.891	651.75
306.121	633.75
306.352	652.75
306.582	632.75
306.812	631.75
307.042	616.75
307.272	620.75
307.502	639.75
307.731	653.75
307.961	645.75
308.191	665.75
308.421	652.75
308.651	652.75
308.881	663.75
309.111	663.75
309.341	627.75
309.571	677.75
309.8	650.75
310.03	669.75
310.26	664.75
310.49	667.75
310.72	662.75
310.949	675.75
311.179	680.75
311.409	684.75
311.639	687.75
311.868	696.75
312.098	705.75
312.328	671.75
312.557	708.75
312.787	673.75
313.017	679.75
313.246	687.75
313.476	702.75
313.706	671.75
313.935	692.75
314.165	712.75
314.394	703.75
314.624	712.75
314.853	695.75
315.083	707.75
315.312	704.75
315.542	688.75
315.771	711.75
316.001	716.75
316.23	728.75
316.46	711.75
316.689	766.75
316.919	708.75
317.148	746.75
317.377	716.75
317.607	715.75
317.836	723.75
318.065	736.75
318.295	746.75
318.524	717.75
318.753	756.75
318.983	741.75
319.212	731.75
319.441	734.75
319.67	758.75
319.9	789.75
320.129	783.75
320.358	743.75
320.587	768.75
320.816	758.75
321.046	757.75
321.275	755.75
321.504	765.75
321.733	757.75
321.962	780.75
322.191	758.75
322.42	782.75
322.649	773.75
322.878	769.75
323.108	781.75
323.337	808.75
323.566	791.75
323.795	769.75
324.024	807.75
324.253	823.75
324.482	818.75
324.71	809.75
324.939	844.75
325.168	852.75
325.397	819.75
325.626	807.75
325.855	807.75
326.084	820.75
326.313	860.75
326.542	820.75
326.77	845.75
326.999	859.75
327.228	813.75
327.457	816.75
327.686	838.75
327.914	845.75
328.143	826.75
328.372	832.75
328.6	848.75
328.829	838.75
329.058	869.75
329.287	832.75
329.515	853.75
329.744	862.75
329.972	853.75
330.201	858.75
330.43	875.75
330.658	867.75
330.887	857.75
331.115	899.75
331.344	881.75
331.572	883.75
331.801	912.75
332.03	919.75
332.258	899.75
332.486	908.75
332.715	917.75
332.943	915.75
333.172	910.75
333.4	911.75
333.629	963.75
333.857	944.75
334.085	945.75
334.314	967.75
334.542	986.75
334.771	966.75
334.999	958.75
335.227	942.75
335.455	1000.75
335.684	974.75
335.912	989.75
336.14	971.75
336.369	955.75
336.597	1007.75
336.825	968.75
337.053	1008.75
337.281	965.75
337.51	951.75
337.738	980.75
337.966	982.75
338.194	953.75
338.422	977.75
338.65	957.75
338.878	938.75
339.106	927.75
339.334	961.75
339.562	964.75
339.79	953.75
340.018	964.75
340.246	925.75
340.474	932.75
340.702	938.75
340.93	953.75
341.158	927.75
341.386	959.75
341.614	965.75
341.842	952.75
342.07	963.75
342.298	938.75
342.526	936.75
342.754	918.75
342.981	923.75
343.209	923.75
343.437	968.75
343.665	970.75
343.893	965.75
344.12	1006.75
344.348	990.75
344.576	985.75
344.804	989.75
345.031	968.75
345.259	949.75
345.487	957.75
345.714	939.75
345.942	983.75
346.17	940.75
346.397	952.75
346.625	953.75
346.853	926.75
347.08	931.75
347.308	912.75
347.535	927.75
347.763	899.75
347.99	936.75
348.218	899.75
348.445	934.75
348.673	901.75
348.9	887.75
349.128	912.75
349.355	907.75
349.583	903.75
349.81	909.75
350.037	899.75
350.265	904.75
350.492	901.75
350.72	904.75
350.947	899.75
351.174	909.75
351.402	900.75
351.629	922.75
351.856	909.75
352.083	902.75
352.311	932.75
352.538	907.75
352.765	924.75
352.992	874.75
353.22	909.75
353.447	899.75
353.674	879.75
353.901	931.75
354.128	879.75
354.355	897.75
354.583	895.75
354.81	857.75
355.037	891.75
355.264	889.75
355.491	869.75
355.718	886.75
355.945	901.75
356.172	887.75
356.399	875.75
356.626	923.75
356.853	895.75
357.08	903.75
357.307	913.75
357.534	891.75
357.761	891.75
357.988	885.75
358.215	896.75
358.441	900.75
358.668	894.75
358.895	891.75
359.122	872.75
359.349	894.75
359.576	901.75
359.802	913.75
360.029	883.75
360.256	874.75
360.483	890.75
360.709	890.75
360.936	919.75
361.163	895.75
361.39	912.75
361.616	915.75
361.843	930.75
362.07	905.75
362.296	927.75
362.523	906.75
362.749	903.75
362.976	880.75
363.203	886.75
363.429	890.75
363.656	888.75
363.882	887.75
364.109	883.75
364.335	876.75
364.562	893.75
364.788	879.75
365.015	895.75
365.241	873.75
365.468	889.75
365.694	899.75
365.92	904.75
366.147	888.75
366.373	913.75
366.599	896.75
366.826	921.75
367.052	895.75
367.278	916.75
367.505	926.75
367.731	908.75
367.957	908.75
368.184	911.75
368.41	919.75
368.636	910.75
368.862	922.75
369.089	921.75
369.315	918.75
369.541	906.75
369.767	916.75
369.993	904.75
370.219	921.75
370.445	902.75
370.672	916.75
370.898	928.75
371.124	935.75
371.35	954.75
371.576	923.75
371.802	912.75
372.028	940.75
372.254	957.75
372.48	941.75
372.706	963.75
372.932	977.75
373.158	941.75
373.384	911.75
373.61	949.75
373.835	965.75
374.061	956.75
374.287	963.75
374.513	937.75
374.739	965.75
374.965	950.75
375.191	956.75
375.416	927.75
375.642	953.75
375.868	957.75
376.094	938.75
376.319	939.75
376.545	962.75
376.771	921.75
376.997	934.75
377.222	943.75
377.448	890.75
377.674	935.75
377.899	934.75
378.125	922.75
378.35	913.75
378.576	903.75
378.802	957.75
379.027	917.75
379.253	957.75
379.478	916.75
379.704	913.75
379.929	935.75
380.155	905.75
380.38	903.75
380.606	917.75
380.831	919.75
381.057	917.75
381.282	925.75
381.507	897.75
381.733	910.75
381.958	968.75
382.184	928.75
382.409	949.75
382.634	925.75
382.86	937.75
383.085	943.75
383.31	949.75
383.535	935.75
383.761	938.75
383.986	976.75
384.211	949.75
384.436	956.75
384.662	977.75
384.887	947.75
385.112	975.75
385.337	986.75
385.562	997.75
385.787	979.75
386.013	983.75
386.238	977.75
386.463	1019.75
386.688	1024.75
386.913	1006.75
387.138	1018.75
387.363	1033.75
387.588	998.75
387.813	1013.75
388.038	999.75
388.263	981.75
388.488	1016.75
388.713	999.75
388.938	996.75
389.163	1018.75
389.387	1036.75
389.612	991.75
389.837	1001.75
390.062	997.75
390.287	1000.75
390.512	1030.75
390.736	1015.75
390.961	1014.75
391.186	1021.75
391.411	1017.75
391.636	1037.75
391.86	1072.75
392.085	1044.75
392.31	1068.75
392.534	1032.75
392.759	1055.75
392.984	1005.75
393.208	1027.75
393.433	1070.75
393.658	1024.75
393.882	1017.75
394.107	1034.75
394.331	1013.75
394.556	1054.75
394.78	1036.75
395.005	1041.75
395.229	1044.75
395.454	1041.75
395.678	1063.75
395.903	1071.75
396.127	1065.75
396.352	1052.75
396.576	1082.75
396.801	1062.75
397.025	1050.75
397.249	1039.75
397.474	1077.75
397.698	1085.75
397.922	1108.75
398.147	1117.75
398.371	1111.75
398.595	1089.75
398.82	1133.75
399.044	1141.75
399.268	1167.75
399.492	1215.75
399.717	1196.75
399.941	1218.75
400.165	1193.75
400.389	1237.75
400.613	1244.75
400.837	1195.75
401.062	1201.75
401.286	1185.75
401.51	1175.75
401.734	1157.75
401.958	1148.75
402.182	1151.75
402.406	1147.75
402.63	1145.75
402.854	1124.75
403.078	1117.75
403.302	1156.75
403.526	1149.75
403.75	1145.75
403.974	1140.75
404.198	1155.75
404.422	1132.75
404.645	1164.75
404.869	1150.75
405.093	1189.75
405.317	1147.75
405.541	1207.75
405.765	1160.75
405.988	1147.75
406.212	1183.75
406.436	1189.75
406.66	1203.75
406.883	1211.75
407.107	1222.75
407.331	1201.75
407.555	1254.75
407.778	1222.75
408.002	1262.75
408.226	1242.75
408.449	1297.75
408.673	1263.75
408.896	1243.75
409.12	1241.75
409.344	1232.75
409.567	1233.75
409.791	1196.75
410.014	1216.75
410.238	1207.75
410.461	1234.75
410.685	1200.75
410.908	1215.75
411.132	1162.75
411.355	1173.75
411.578	1194.75
411.802	1196.75
412.025	1169.75
412.249	1182.75
412.472	1172.75
412.695	1139.75
412.919	1152.75
413.142	1167.75
413.365	1156.75
413.589	1169.75
413.812	1133.75
414.035	1129.75
414.258	1172.75
414.482	1138.75
414.705	1182.75
414.928	1174.75
415.151	1160.75
415.374	1153.75
415.597	1130.75
415.821	1120.75
416.044	1131.75
416.267	1139.75
416.49	1140.75
416.713	1122.75
416.936	1128.75
417.159	1157.75
417.382	1117.75
417.605	1116.75
417.828	1128.75
418.051	1135.75
418.274	1114.75
418.497	1116.75
418.72	1125.75
418.943	1096.75
419.166	1146.75
419.389	1175.75
419.611	1195.75
419.834	1155.75
420.057	1169.75
420.28	1102.75
420.503	1113.75
420.726	1097.75
420.948	1096.75
421.171	1110.75
421.394	1085.75
421.617	1109.75
421.839	1119.75
422.062	1108.75
422.285	1088.75
422.507	1112.75
422.73	1100.75
422.953	1112.75
423.175	1079.75
423.398	1111.75
423.621	1071.75
423.843	1130.75
424.066	1125.75
424.288	1103.75
424.511	1132.75
424.733	1104.75
424.956	1088.75
425.178	1119.75
425.401	1155.75
425.623	1130.75
425.846	1079.75
426.068	1137.75
426.291	1112.75
426.513	1121.75
426.735	1099.75
426.958	1119.75
427.18	1073.75
427.402	1093.75
427.625	1113.75
427.847	1093.75
428.069	1064.75
428.292	1103.75
428.514	1126.75
428.736	1087.75
428.958	1087.75
429.181	1046.75
429.403	1072.75
429.625	1111.75
429.847	1096.75
430.069	1085.75
430.292	1094.75
430.514	1082.75
430.736	1082.75
430.958	1117.75
431.18	1081.75
431.402	1114.75
431.624	1075.75
431.846	1078.75
432.068	1059.75
432.29	1075.75
432.512	1077.75
432.734	1116.75
432.956	1098.75
433.178	1105.75
433.4	1099.75
433.622	1122.75
433.844	1145.75
434.066	1128.75
434.287	1083.75
434.509	1129.75
434.731	1106.75
434.953	1113.75
435.175	1160.75
435.397	1157.75
435.618	1101.75
435.84	1102.75
436.062	1072.75
436.284	1108.75
436.505	1073.75
436.727	1071.75
436.949	1071.75
437.17	1079.75
437.392	1088.75
437.614	1074.75
437.835	1059.75
438.057	1030.75
438.278	1016.75
438.5	1067.75
438.721	1057.75
438.943	1062.75
439.165	1076.75
439.386	1069.75
439.608	1103.75
439.829	1090.75
440.05	1071.75
440.272	1117.75
440.493	1099.75
440.715	1088.75
440.936	1103.75
441.158	1070.75
441.379	1089.75
441.6	1127.75
441.822	1133.75
442.043	1140.75
442.264	1091.75
442.486	1104.75
442.707	1108.75
442.928	1123.75
443.149	1126.75
443.371	1111.75
443.592	1122.75
443.813	1142.75
444.034	1143.75
444.255	1117.75
444.476	1118.75
444.698	1111.75
444.919	1128.75
445.14	1307.75
445.361	1169.75
445.582	1177.75
445.803	1108.75
446.024	1128.75
446.245	1102.75
446.466	1102.75
446.687	1103.75
446.908	1103.75
447.129	1060.75
447.35	1055.75
447.571	1073.75
447.792	1024.75
448.013	1045.75
448.234	1040.75
448.455	1042.75
448.675	1063.75
448.896	1031.75
449.117	1014.75
449.338	1010.75
449.559	1008.75
449.779	1011.75
450	1005.75
450.221	984.75
450.442	1022.75
450.662	1013.75
450.883	1018.75
451.104	1021.75
451.324	1038.75
451.545	996.75
451.766	1011.75
451.986	1009.75
452.207	997.75
452.428	1012.75
452.648	990.75
452.869	975.75
453.089	1013.75
453.31	1005.75
453.53	964.75
453.751	951.75
453.971	992.75
454.192	1008.75
454.412	977.75
454.633	991.75
454.853	953.75
455.073	999.75
455.294	986.75
455.514	979.75
455.734	999.75
455.955	968.75
456.175	992.75
456.395	956.75
456.616	940.75
456.836	999.75
457.056	987.75
457.276	952.75
457.497	995.75
457.717	995.75
457.937	999.75
458.157	976.75
458.377	970.75
458.598	981.75
458.818	1011.75
459.038	1002.75
459.258	1004.75
459.478	1047.75
459.698	1095.75
459.918	1085.75
460.138	1102.75
460.358	1089.75
460.578	1114.75
460.798	1095.75
461.018	1133.75
461.238	1117.75
461.458	1145.75
461.678	1120.75
461.898	1146.75
462.118	1157.75
462.338	1153.75
462.558	1151.75
462.777	1179.75
462.997	1174.75
463.217	1189.75
463.437	1238.75
463.657	1188.75
463.876	1173.75
464.096	1186.75
464.316	1171.75
464.536	1184.75
464.755	1153.75
464.975	1142.75
465.195	1123.75
465.414	1148.75
465.634	1097.75
465.854	1063.75
466.073	1057.75
466.293	1060.75
466.512	1071.75
466.732	1070.75
466.951	1065.75
467.171	1054.75
467.391	1032.75
467.61	1029.75
467.829	1051.75
468.049	1067.75
468.268	1017.75
468.488	1039.75
468.707	1034.75
468.927	1040.75
469.146	1028.75
469.365	1057.75
469.585	1044.75
469.804	1034.75
470.023	1064.75
470.243	1078.75
470.462	1081.75
470.681	1042.75
470.901	1081.75
471.12	1063.75
471.339	1079.75
471.558	1068.75
471.777	1075.75
471.997	1073.75
472.216	1046.75
472.435	1045.75
472.654	1055.75
472.873	1049.75
473.092	1024.75
473.311	1047.75
473.53	1064.75
473.749	1073.75
473.968	1062.75
474.187	1050.75
474.406	1031.75
474.625	1050.75
474.844	1080.75
475.063	1074.75
475.282	1082.75
475.501	1077.75
475.72	1104.75
475.939	1102.75
476.158	1117.75
476.377	1131.75
476.596	1105.75
476.814	1114.75
477.033	1123.75
477.252	1130.75
477.471	1149.75
477.69	1148.75
477.908	1159.75
478.127	1183.75
478.346	1220.75
478.564	1179.75
478.783	1163.75
479.002	1250.75
479.22	1273.75
479.439	1223.75
479.658	1247.75
479.876	1195.75
480.095	1199.75
480.313	1239.75
480.532	1233.75
480.751	1229.75
480.969	1227.75
481.188	1199.75
481.406	1233.75
481.624	1246.75
481.843	1227.75
482.061	1197.75
482.28	1236.75
482.498	1208.75
482.717	1200.75
482.935	1250.75
483.153	1246.75
483.372	1269.75
483.59	1287.75
483.808	1299.75
484.027	1238.75
484.245	1241.75
484.463	1299.75
484.681	1301.75
484.9	1274.75
485.118	1245.75
485.336	1281.75
485.554	1246.75
485.772	1281.75
485.99	1254.75
486.209	1267.75
486.427	1264.75
486.645	1283.75
486.863	1271.75
487.081	1297.75
487.299	1292.75
487.517	1290.75
487.735	1309.75
487.953	1339.75
488.171	1302.75
488.389	1296.75
488.607	1302.75
488.825	1306.75
489.043	1267.75
489.261	1283.75
489.479	1296.75
489.696	1262.75
489.914	1270.75
490.132	1297.75
490.35	1298.75
490.568	1287.75
490.786	1309.75
491.003	1350.75
491.221	1349.75
491.439	1311.75
491.657	1300.75
491.874	1376.75
492.092	1375.75
492.31	1380.75
492.527	1370.75
492.745	1374.75
492.963	1337.75
493.18	1343.75
493.398	1357.75
493.615	1367.75
493.833	1359.75
494.05	1367.75
494.268	1368.75
494.485	1370.75
494.703	1379.75
494.92	1362.75
495.138	1362.75
495.355	1392.75
