Data from Ni(NO3)2@0.0625M.TitratingCurve.Agarose3%dH2O.NegLispCup.LampEnergy10.LIBS07252019_HRD10591_18-13-34-569.txt Node
Date: Thu Jul 25 18:13:34 EDT 2019
User: cochatt
Spectrometer: HR+D1059
Trigger mode: 1
Integration Time (sec): 1.000000E-1
Scans to average: 1
Electric dark correction enabled: true
Nonlinearity correction enabled: false
Boxcar width: 0
XAxis mode: Wavelengths
Number of Pixels in Spectrum: 2048
>>>>>Begin Spectral Data<<<<<
223.165	-14.81
223.4	-14.81
223.635	-14.81
223.869	-13.81
224.104	-31.81
224.338	-18.81
224.573	0.19
224.808	-10.81
225.042	-4.81
225.277	-15.81
225.511	-10.81
225.746	2.19
225.98	11.19
226.215	15.19
226.449	7.19
226.683	12.19
226.918	31.19
227.152	42.19
227.387	51.19
227.621	36.19
227.856	50.19
228.09	40.19
228.324	43.19
228.559	59.19
228.793	64.19
229.027	100.19
229.262	95.19
229.496	80.19
229.73	104.19
229.964	107.19
230.199	107.19
230.433	104.19
230.667	114.19
230.901	111.19
231.136	111.19
231.37	119.19
231.604	126.19
231.838	116.19
232.072	126.19
232.306	136.19
232.541	126.19
232.775	110.19
233.009	146.19
233.243	116.19
233.477	139.19
233.711	142.19
233.945	137.19
234.179	122.19
234.413	110.19
234.647	126.19
234.881	117.19
235.115	128.19
235.349	120.19
235.583	123.19
235.817	118.19
236.051	123.19
236.285	115.19
236.519	118.19
236.753	128.19
236.987	133.19
237.221	145.19
237.455	134.19
237.689	131.19
237.922	134.19
238.156	142.19
238.39	122.19
238.624	140.19
238.858	132.19
239.091	137.19
239.325	138.19
239.559	140.19
239.793	120.19
240.027	151.19
240.26	139.19
240.494	134.19
240.728	152.19
240.961	144.19
241.195	160.19
241.429	145.19
241.662	141.19
241.896	148.19
242.13	152.19
242.363	161.19
242.597	150.19
242.83	145.19
243.064	156.19
243.298	155.19
243.531	156.19
243.765	162.19
243.998	162.19
244.232	147.19
244.465	138.19
244.699	152.19
244.932	170.19
245.166	149.19
245.399	150.19
245.633	151.19
245.866	175.19
246.099	172.19
246.333	170.19
246.566	168.19
246.8	177.19
247.033	168.19
247.266	162.19
247.5	178.19
247.733	184.19
247.966	181.19
248.2	200.19
248.433	178.19
248.666	183.19
248.899	173.19
249.133	191.19
249.366	200.19
249.599	193.19
249.832	190.19
250.066	195.19
250.299	196.19
250.532	193.19
250.765	184.19
250.998	202.19
251.231	182.19
251.465	194.19
251.698	218.19
251.931	204.19
252.164	214.19
252.397	207.19
252.63	194.19
252.863	203.19
253.096	209.19
253.329	226.19
253.562	215.19
253.795	216.19
254.028	197.19
254.261	218.19
254.494	204.19
254.727	190.19
254.96	212.19
255.193	208.19
255.426	226.19
255.659	197.19
255.892	208.19
256.124	210.19
256.357	218.19
256.59	208.19
256.823	220.19
257.056	217.19
257.289	214.19
257.521	229.19
257.754	230.19
257.987	240.19
258.22	228.19
258.452	214.19
258.685	231.19
258.918	225.19
259.151	227.19
259.383	230.19
259.616	228.19
259.849	238.19
260.081	226.19
260.314	240.19
260.547	224.19
260.779	246.19
261.012	235.19
261.244	250.19
261.477	243.19
261.71	243.19
261.942	263.19
262.175	235.19
262.407	250.19
262.64	244.19
262.872	234.19
263.105	236.19
263.337	261.19
263.57	235.19
263.802	259.19
264.035	230.19
264.267	231.19
264.499	247.19
264.732	238.19
264.964	261.19
265.197	270.19
265.429	262.19
265.661	265.19
265.894	249.19
266.126	261.19
266.358	263.19
266.591	264.19
266.823	251.19
267.055	260.19
267.287	272.19
267.52	274.19
267.752	272.19
267.984	274.19
268.216	266.19
268.448	281.19
268.681	268.19
268.913	288.19
269.145	274.19
269.377	263.19
269.609	279.19
269.841	277.19
270.073	269.19
270.306	280.19
270.538	281.19
270.77	273.19
271.002	270.19
271.234	264.19
271.466	290.19
271.698	272.19
271.93	283.19
272.162	276.19
272.394	283.19
272.626	287.19
272.858	294.19
273.09	296.19
273.322	303.19
273.553	304.19
273.785	305.19
274.017	286.19
274.249	293.19
274.481	310.19
274.713	312.19
274.945	304.19
275.176	298.19
275.408	311.19
275.64	290.19
275.872	304.19
276.104	299.19
276.335	290.19
276.567	321.19
276.799	319.19
277.031	309.19
277.262	306.19
277.494	304.19
277.726	322.19
277.957	322.19
278.189	308.19
278.421	317.19
278.652	326.19
278.884	325.19
279.115	323.19
279.347	330.19
279.579	321.19
279.81	330.19
280.042	333.19
280.273	325.19
280.505	335.19
280.736	331.19
280.968	331.19
281.199	336.19
281.431	347.19
281.662	328.19
281.894	343.19
282.125	353.19
282.356	356.19
282.588	367.19
282.819	354.19
283.051	366.19
283.282	354.19
283.513	378.19
283.745	340.19
283.976	350.19
284.207	362.19
284.439	369.19
284.67	390.19
284.901	356.19
285.132	350.19
285.364	351.19
285.595	361.19
285.826	362.19
286.057	368.19
286.288	374.19
286.52	369.19
286.751	377.19
286.982	367.19
287.213	366.19
287.444	367.19
287.675	363.19
287.906	363.19
288.138	361.19
288.369	345.19
288.6	380.19
288.831	379.19
289.062	376.19
289.293	379.19
289.524	372.19
289.755	385.19
289.986	383.19
290.217	384.19
290.448	386.19
290.679	402.19
290.91	375.19
291.141	382.19
291.371	386.19
291.602	407.19
291.833	371.19
292.064	414.19
292.295	402.19
292.526	375.19
292.757	400.19
292.987	396.19
293.218	381.19
293.449	386.19
293.68	377.19
293.91	391.19
294.141	397.19
294.372	384.19
294.603	392.19
294.833	386.19
295.064	403.19
295.295	416.19
295.525	400.19
295.756	402.19
295.987	393.19
296.217	422.19
296.448	408.19
296.679	385.19
296.909	410.19
297.14	409.19
297.37	419.19
297.601	421.19
297.831	406.19
298.062	403.19
298.292	421.19
298.523	436.19
298.753	429.19
298.984	423.19
299.214	414.19
299.445	415.19
299.675	421.19
299.905	414.19
300.136	422.19
300.366	433.19
300.597	440.19
300.827	438.19
301.057	442.19
301.288	437.19
301.518	471.19
301.748	433.19
301.979	429.19
302.209	447.19
302.439	425.19
302.669	449.19
302.9	447.19
303.13	457.19
303.36	442.19
303.59	423.19
303.82	435.19
304.051	440.19
304.281	449.19
304.511	446.19
304.741	426.19
304.971	422.19
305.201	431.19
305.431	432.19
305.661	438.19
305.891	441.19
306.121	430.19
306.352	439.19
306.582	440.19
306.812	421.19
307.042	414.19
307.272	433.19
307.502	435.19
307.731	442.19
307.961	446.19
308.191	451.19
308.421	423.19
308.651	421.19
308.881	440.19
309.111	436.19
309.341	438.19
309.571	432.19
309.8	455.19
310.03	438.19
310.26	446.19
310.49	438.19
310.72	430.19
310.949	444.19
311.179	441.19
311.409	452.19
311.639	446.19
311.868	452.19
312.098	449.19
312.328	438.19
312.557	444.19
312.787	450.19
313.017	491.19
313.246	453.19
313.476	464.19
313.706	460.19
313.935	467.19
314.165	465.19
314.394	474.19
314.624	438.19
314.853	467.19
315.083	470.19
315.312	496.19
315.542	496.19
315.771	479.19
316.001	467.19
316.23	452.19
316.46	467.19
316.689	484.19
316.919	466.19
317.148	465.19
317.377	459.19
317.607	456.19
317.836	465.19
318.065	455.19
318.295	458.19
318.524	478.19
318.753	460.19
318.983	459.19
319.212	451.19
319.441	453.19
319.67	459.19
319.9	459.19
320.129	456.19
320.358	478.19
320.587	474.19
320.816	463.19
321.046	483.19
321.275	469.19
321.504	459.19
321.733	462.19
321.962	472.19
322.191	486.19
322.42	476.19
322.649	481.19
322.878	496.19
323.108	462.19
323.337	495.19
323.566	489.19
323.795	472.19
324.024	466.19
324.253	472.19
324.482	483.19
324.71	486.19
324.939	479.19
325.168	483.19
325.397	479.19
325.626	484.19
325.855	485.19
326.084	507.19
326.313	510.19
326.542	504.19
326.77	514.19
326.999	514.19
327.228	497.19
327.457	532.19
327.686	500.19
327.914	513.19
328.143	522.19
328.372	522.19
328.6	507.19
328.829	522.19
329.058	512.19
329.287	520.19
329.515	512.19
329.744	532.19
329.972	534.19
330.201	521.19
330.43	534.19
330.658	514.19
330.887	530.19
331.115	525.19
331.344	547.19
331.572	539.19
331.801	554.19
332.03	585.19
332.258	595.19
332.486	617.19
332.715	637.19
332.943	659.19
333.172	659.19
333.4	667.19
333.629	706.19
333.857	694.19
334.085	715.19
334.314	662.19
334.542	667.19
334.771	657.19
334.999	639.19
335.227	640.19
335.455	653.19
335.684	617.19
335.912	636.19
336.14	610.19
336.369	624.19
336.597	600.19
336.825	626.19
337.053	603.19
337.281	614.19
337.51	587.19
337.738	583.19
337.966	578.19
338.194	588.19
338.422	559.19
338.65	574.19
338.878	567.19
339.106	577.19
339.334	579.19
339.562	544.19
339.79	555.19
340.018	569.19
340.246	544.19
340.474	542.19
340.702	568.19
340.93	546.19
341.158	562.19
341.386	536.19
341.614	538.19
341.842	544.19
342.07	538.19
342.298	532.19
342.526	538.19
342.754	551.19
342.981	536.19
343.209	562.19
343.437	587.19
343.665	624.19
343.893	652.19
344.12	677.19
344.348	648.19
344.576	596.19
344.804	587.19
345.031	558.19
345.259	577.19
345.487	532.19
345.714	565.19
345.942	531.19
346.17	532.19
346.397	544.19
346.625	529.19
346.853	526.19
347.08	527.19
347.308	546.19
347.535	528.19
347.763	545.19
347.99	532.19
348.218	556.19
348.445	553.19
348.673	533.19
348.9	534.19
349.128	538.19
349.355	522.19
349.583	510.19
349.81	532.19
350.037	527.19
350.265	517.19
350.492	536.19
350.72	528.19
350.947	524.19
351.174	528.19
351.402	515.19
351.629	518.19
351.856	516.19
352.083	500.19
352.311	489.19
352.538	491.19
352.765	472.19
352.992	513.19
353.22	544.19
353.447	489.19
353.674	512.19
353.901	507.19
354.128	523.19
354.355	504.19
354.583	480.19
354.81	505.19
355.037	504.19
355.264	524.19
355.491	498.19
355.718	524.19
355.945	512.19
356.172	519.19
356.399	510.19
356.626	525.19
356.853	512.19
357.08	498.19
357.307	514.19
357.534	522.19
357.761	518.19
357.988	518.19
358.215	512.19
358.441	521.19
358.668	515.19
358.895	532.19
359.122	519.19
359.349	521.19
359.576	522.19
359.802	524.19
360.029	508.19
360.256	513.19
360.483	505.19
360.709	522.19
360.936	521.19
361.163	510.19
361.39	503.19
361.616	517.19
361.843	515.19
362.07	531.19
362.296	519.19
362.523	520.19
362.749	532.19
362.976	499.19
363.203	515.19
363.429	515.19
363.656	522.19
363.882	491.19
364.109	491.19
364.335	510.19
364.562	501.19
364.788	513.19
365.015	523.19
365.241	498.19
365.468	530.19
365.694	513.19
365.92	491.19
366.147	494.19
366.373	483.19
366.599	504.19
366.826	522.19
367.052	511.19
367.278	524.19
367.505	521.19
367.731	527.19
367.957	527.19
368.184	513.19
368.41	510.19
368.636	515.19
368.862	536.19
369.089	522.19
369.315	512.19
369.541	515.19
369.767	519.19
369.993	546.19
370.219	531.19
370.445	543.19
370.672	553.19
370.898	559.19
371.124	536.19
371.35	545.19
371.576	573.19
371.802	570.19
372.028	545.19
372.254	555.19
372.48	560.19
372.706	590.19
372.932	588.19
373.158	596.19
373.384	569.19
373.61	544.19
373.835	558.19
374.061	543.19
374.287	579.19
374.513	570.19
374.739	602.19
374.965	601.19
375.191	625.19
375.416	608.19
375.642	582.19
375.868	585.19
376.094	578.19
376.319	573.19
376.545	576.19
376.771	551.19
376.997	541.19
377.222	554.19
377.448	543.19
377.674	548.19
377.899	555.19
378.125	562.19
378.35	552.19
378.576	554.19
378.802	556.19
379.027	550.19
379.253	535.19
379.478	568.19
379.704	575.19
379.929	556.19
380.155	555.19
380.38	571.19
380.606	545.19
380.831	552.19
381.057	561.19
381.282	556.19
381.507	558.19
381.733	545.19
381.958	566.19
382.184	586.19
382.409	607.19
382.634	583.19
382.86	595.19
383.085	594.19
383.31	600.19
383.535	599.19
383.761	628.19
383.986	638.19
384.211	662.19
384.436	659.19
384.662	671.19
384.887	667.19
385.112	660.19
385.337	658.19
385.562	672.19
385.787	681.19
386.013	673.19
386.238	678.19
386.463	662.19
386.688	692.19
386.913	656.19
387.138	669.19
387.363	654.19
387.588	670.19
387.813	657.19
388.038	662.19
388.263	670.19
388.488	651.19
388.713	672.19
388.938	660.19
389.163	656.19
389.387	644.19
389.612	655.19
389.837	668.19
390.062	640.19
390.287	658.19
390.512	660.19
390.736	659.19
390.961	694.19
391.186	689.19
391.411	691.19
391.636	715.19
391.86	764.19
392.085	771.19
392.31	753.19
392.534	734.19
392.759	704.19
392.984	700.19
393.208	705.19
393.433	706.19
393.658	707.19
393.882	695.19
394.107	734.19
394.331	713.19
394.556	736.19
394.78	728.19
395.005	724.19
395.229	721.19
395.454	750.19
395.678	727.19
395.903	773.19
396.127	730.19
396.352	695.19
396.576	729.19
396.801	698.19
397.025	710.19
397.249	739.19
397.474	763.19
397.698	754.19
397.922	758.19
398.147	725.19
398.371	767.19
398.595	793.19
398.82	826.19
399.044	912.19
399.268	968.19
399.492	1158.19
399.717	1259.19
399.941	1263.19
400.165	1084.19
400.389	984.19
400.613	911.19
400.837	879.19
401.062	847.19
401.286	824.19
401.51	820.19
401.734	814.19
401.958	825.19
402.182	833.19
402.406	850.19
402.63	894.19
402.854	896.19
403.078	915.19
403.302	926.19
403.526	959.19
403.75	951.19
403.974	985.19
404.198	970.19
404.422	980.19
404.645	974.19
404.869	934.19
405.093	944.19
405.317	903.19
405.541	920.19
405.765	916.19
405.988	908.19
406.212	917.19
406.436	906.19
406.66	919.19
406.883	929.19
407.107	1032.19
407.331	1053.19
407.555	1086.19
407.778	1077.19
408.002	1030.19
408.226	996.19
408.449	1008.19
408.673	950.19
408.896	916.19
409.12	944.19
409.344	944.19
409.567	932.19
409.791	963.19
410.014	957.19
410.238	946.19
410.461	924.19
410.685	931.19
410.908	915.19
411.132	907.19
411.355	869.19
411.578	880.19
411.802	878.19
412.025	890.19
412.249	856.19
412.472	882.19
412.695	828.19
412.919	794.19
413.142	831.19
413.365	828.19
413.589	835.19
413.812	832.19
414.035	816.19
414.258	800.19
414.482	848.19
414.705	840.19
414.928	854.19
415.151	841.19
415.374	853.19
415.597	809.19
415.821	826.19
416.044	814.19
416.267	817.19
416.49	811.19
416.713	817.19
416.936	827.19
417.159	799.19
417.382	826.19
417.605	821.19
417.828	803.19
418.051	834.19
418.274	834.19
418.497	825.19
418.72	848.19
418.943	843.19
419.166	878.19
419.389	952.19
419.611	901.19
419.834	889.19
420.057	877.19
420.28	852.19
420.503	826.19
420.726	820.19
420.948	777.19
421.171	809.19
421.394	803.19
421.617	800.19
421.839	828.19
422.062	842.19
422.285	818.19
422.507	851.19
422.73	854.19
422.953	852.19
423.175	867.19
423.398	848.19
423.621	854.19
423.843	905.19
424.066	874.19
424.288	872.19
424.511	860.19
424.733	863.19
424.956	832.19
425.178	830.19
425.401	805.19
425.623	820.19
425.846	815.19
426.068	807.19
426.291	770.19
426.513	771.19
426.735	800.19
426.958	763.19
427.18	755.19
427.402	729.19
427.625	727.19
427.847	724.19
428.069	729.19
428.292	724.19
428.514	732.19
428.736	715.19
428.958	727.19
429.181	690.19
429.403	713.19
429.625	691.19
429.847	706.19
430.069	705.19
430.292	692.19
430.514	699.19
430.736	721.19
430.958	689.19
431.18	690.19
431.402	721.19
431.624	708.19
431.846	736.19
432.068	735.19
432.29	738.19
432.512	722.19
432.734	747.19
432.956	723.19
433.178	747.19
433.4	773.19
433.622	751.19
433.844	741.19
434.066	748.19
434.287	778.19
434.509	773.19
434.731	833.19
434.953	825.19
435.175	851.19
435.397	807.19
435.618	771.19
435.84	751.19
436.062	737.19
436.284	756.19
436.505	717.19
436.727	734.19
436.949	747.19
437.17	712.19
437.392	717.19
437.614	711.19
437.835	714.19
438.057	696.19
438.278	694.19
438.5	719.19
438.721	704.19
438.943	703.19
439.165	700.19
439.386	698.19
439.608	750.19
439.829	734.19
440.05	740.19
440.272	706.19
440.493	767.19
440.715	748.19
440.936	752.19
441.158	778.19
441.379	786.19
441.6	816.19
441.822	833.19
442.043	824.19
442.264	795.19
442.486	789.19
442.707	836.19
442.928	797.19
443.149	819.19
443.371	817.19
443.592	821.19
443.813	833.19
444.034	830.19
444.255	851.19
444.476	907.19
444.698	922.19
444.919	1002.19
445.14	1044.19
445.361	934.19
445.582	835.19
445.803	788.19
446.024	790.19
446.245	746.19
446.466	747.19
446.687	740.19
446.908	734.19
447.129	743.19
447.35	706.19
447.571	720.19
447.792	681.19
448.013	675.19
448.234	677.19
448.455	667.19
448.675	670.19
448.896	677.19
449.117	663.19
449.338	674.19
449.559	666.19
449.779	658.19
450	653.19
450.221	656.19
450.442	675.19
450.662	670.19
450.883	680.19
451.104	708.19
451.324	689.19
451.545	690.19
451.766	672.19
451.986	678.19
452.207	681.19
452.428	673.19
452.648	659.19
452.869	672.19
453.089	664.19
453.31	657.19
453.53	665.19
453.751	664.19
453.971	656.19
454.192	652.19
454.412	626.19
454.633	644.19
454.853	653.19
455.073	630.19
455.294	618.19
455.514	618.19
455.734	638.19
455.955	619.19
456.175	624.19
456.395	636.19
456.616	616.19
456.836	640.19
457.056	615.19
457.276	597.19
457.497	617.19
457.717	604.19
457.937	646.19
458.157	630.19
458.377	672.19
458.598	683.19
458.818	659.19
459.038	700.19
459.258	716.19
459.478	724.19
459.698	742.19
459.918	771.19
460.138	823.19
460.358	875.19
460.578	864.19
460.798	863.19
461.018	895.19
461.238	887.19
461.458	886.19
461.678	874.19
461.898	870.19
462.118	883.19
462.338	951.19
462.558	939.19
462.777	977.19
462.997	1091.19
463.217	1182.19
463.437	1163.19
463.657	1062.19
463.876	1008.19
464.096	993.19
464.316	1017.19
464.536	994.19
464.755	987.19
464.975	924.19
465.195	881.19
465.414	834.19
465.634	786.19
465.854	756.19
466.073	769.19
466.293	728.19
466.512	706.19
466.732	709.19
466.951	735.19
467.171	683.19
467.391	715.19
467.61	699.19
467.829	702.19
468.049	702.19
468.268	692.19
468.488	683.19
468.707	667.19
468.927	665.19
469.146	676.19
469.365	694.19
469.585	675.19
469.804	743.19
470.023	716.19
470.243	730.19
470.462	726.19
470.681	758.19
470.901	733.19
471.12	718.19
471.339	709.19
471.558	715.19
471.777	720.19
471.997	688.19
472.216	667.19
472.435	686.19
472.654	661.19
472.873	643.19
473.092	654.19
473.311	652.19
473.53	648.19
473.749	644.19
473.968	663.19
474.187	674.19
474.406	654.19
474.625	662.19
474.844	670.19
475.063	661.19
475.282	678.19
475.501	679.19
475.72	664.19
475.939	657.19
476.158	690.19
476.377	681.19
476.596	691.19
476.814	695.19
477.033	712.19
477.252	725.19
477.471	743.19
477.69	716.19
477.908	759.19
478.127	778.19
478.346	781.19
478.564	799.19
478.783	811.19
479.002	839.19
479.22	849.19
479.439	806.19
479.658	802.19
479.876	789.19
480.095	827.19
480.313	875.19
480.532	912.19
480.751	889.19
480.969	848.19
481.188	810.19
481.406	790.19
481.624	787.19
481.843	747.19
482.061	756.19
482.28	745.19
482.498	766.19
482.717	775.19
482.935	773.19
483.153	752.19
483.372	737.19
483.59	745.19
483.808	753.19
484.027	756.19
484.245	764.19
484.463	767.19
484.681	800.19
484.9	786.19
485.118	789.19
485.336	768.19
485.554	784.19
485.772	779.19
485.99	798.19
486.209	792.19
486.427	783.19
486.645	815.19
486.863	806.19
487.081	786.19
487.299	752.19
487.517	783.19
487.735	762.19
487.953	774.19
488.171	790.19
488.389	780.19
488.607	764.19
488.825	738.19
489.043	747.19
489.261	778.19
489.479	790.19
489.696	785.19
489.914	783.19
490.132	764.19
490.35	804.19
490.568	803.19
490.786	796.19
491.003	747.19
491.221	773.19
491.439	784.19
491.657	806.19
491.874	793.19
492.092	797.19
492.31	811.19
492.527	836.19
492.745	806.19
492.963	802.19
493.18	815.19
493.398	804.19
493.615	816.19
493.833	798.19
494.05	829.19
494.268	820.19
494.485	825.19
494.703	824.19
494.92	841.19
495.138	816.19
495.355	816.19
495.573	816.19
495.79	808.19
496.008	841.19
496.225	854.19
496.442	844.19
496.66	870.19
496.877	860.19
497.094	886.19
497.312	890.19
497.529	922.19
497.746	944.19
497.963	954.19
498.181	1007.19
498.398	1044.19
498.615	1107.19
498.832	1185.19
499.049	1258.19
499.267	1351.19
499.484	1498.19
499.701	1674.19
499.918	1878.19
500.135	2112.19
500.352	2495.19
500.569	2543.19
500.786	2490.19
501.003	2270.19
501.22	2043.19
