Data from Ni(NO3)2Standard.Agarose3%.GreenCap.LampEnergy5.5.E.O_HRD10591_14-42-37-188.txt Node
Date: Mon Jul 22 14:42:37 EDT 2019
User: cochatt
Spectrometer: HR+D1059
Trigger mode: 1
Integration Time (sec): 1.000000E-1
Scans to average: 1
Electric dark correction enabled: true
Nonlinearity correction enabled: false
Boxcar width: 0
XAxis mode: Wavelengths
Number of Pixels in Spectrum: 2048
>>>>>Begin Spectral Data<<<<<
223.165	-11.31
223.4	-11.31
223.635	-11.31
223.869	-18.31
224.104	-7.31
224.338	0.69
224.573	-21.31
224.808	-17.31
225.042	-13.31
225.277	-4.31
225.511	13.69
225.746	10.69
225.98	10.69
226.215	3.69
226.449	9.69
226.683	6.69
226.918	11.69
227.152	25.69
227.387	28.69
227.621	33.69
227.856	50.69
228.09	45.69
228.324	53.69
228.559	61.69
228.793	61.69
229.027	54.69
229.262	70.69
229.496	77.69
229.73	73.69
229.964	73.69
230.199	77.69
230.433	97.69
230.667	83.69
230.901	92.69
231.136	76.69
231.37	72.69
231.604	76.69
231.838	81.69
232.072	86.69
232.306	88.69
232.541	85.69
232.775	83.69
233.009	81.69
233.243	90.69
233.477	89.69
233.711	85.69
233.945	90.69
234.179	85.69
234.413	86.69
234.647	84.69
234.881	97.69
235.115	77.69
235.349	64.69
235.583	71.69
235.817	72.69
236.051	75.69
236.285	81.69
236.519	73.69
236.753	74.69
236.987	77.69
237.221	81.69
237.455	67.69
237.689	74.69
237.922	86.69
238.156	82.69
238.39	82.69
238.624	81.69
238.858	75.69
239.091	77.69
239.325	75.69
239.559	87.69
239.793	77.69
240.027	72.69
240.26	72.69
240.494	83.69
240.728	73.69
240.961	70.69
241.195	90.69
241.429	82.69
241.662	73.69
241.896	68.69
242.13	79.69
242.363	76.69
242.597	69.69
242.83	73.69
243.064	77.69
243.298	78.69
243.531	78.69
243.765	73.69
243.998	80.69
244.232	82.69
244.465	73.69
244.699	75.69
244.932	78.69
245.166	91.69
245.399	82.69
245.633	73.69
245.866	84.69
246.099	72.69
246.333	78.69
246.566	84.69
246.8	66.69
247.033	86.69
247.266	72.69
247.5	74.69
247.733	77.69
247.966	75.69
248.2	87.69
248.433	80.69
248.666	72.69
248.899	81.69
249.133	88.69
249.366	77.69
249.599	84.69
249.832	83.69
250.066	76.69
250.299	74.69
250.532	91.69
250.765	74.69
250.998	84.69
251.231	77.69
251.465	82.69
251.698	74.69
251.931	68.69
252.164	85.69
252.397	88.69
252.63	84.69
252.863	88.69
253.096	68.69
253.329	88.69
253.562	75.69
253.795	84.69
254.028	77.69
254.261	77.69
254.494	73.69
254.727	92.69
254.96	92.69
255.193	82.69
255.426	76.69
255.659	84.69
255.892	75.69
256.124	70.69
256.357	89.69
256.59	94.69
256.823	86.69
257.056	81.69
257.289	91.69
257.521	83.69
257.754	78.69
257.987	73.69
258.22	88.69
258.452	79.69
258.685	77.69
258.918	88.69
259.151	86.69
259.383	76.69
259.616	87.69
259.849	77.69
260.081	77.69
260.314	85.69
260.547	83.69
260.779	82.69
261.012	72.69
261.244	79.69
261.477	76.69
261.71	75.69
261.942	81.69
262.175	65.69
262.407	85.69
262.64	79.69
262.872	82.69
263.105	78.69
263.337	78.69
263.57	86.69
263.802	78.69
264.035	84.69
264.267	87.69
264.499	89.69
264.732	80.69
264.964	90.69
265.197	81.69
265.429	89.69
265.661	81.69
265.894	80.69
266.126	77.69
266.358	91.69
266.591	82.69
266.823	81.69
267.055	72.69
267.287	93.69
267.52	96.69
267.752	89.69
267.984	85.69
268.216	88.69
268.448	84.69
268.681	75.69
268.913	82.69
269.145	81.69
269.377	78.69
269.609	70.69
269.841	86.69
270.073	75.69
270.306	84.69
270.538	87.69
270.77	83.69
271.002	86.69
271.234	83.69
271.466	78.69
271.698	87.69
271.93	80.69
272.162	90.69
272.394	84.69
272.626	85.69
272.858	94.69
273.09	78.69
273.322	93.69
273.553	84.69
273.785	79.69
274.017	99.69
274.249	91.69
274.481	77.69
274.713	95.69
274.945	79.69
275.176	100.69
275.408	82.69
275.64	105.69
275.872	78.69
276.104	92.69
276.335	91.69
276.567	78.69
276.799	80.69
277.031	86.69
277.262	77.69
277.494	104.69
277.726	80.69
277.957	100.69
278.189	91.69
278.421	81.69
278.652	87.69
278.884	84.69
279.115	85.69
279.347	82.69
279.579	88.69
279.81	83.69
280.042	80.69
280.273	90.69
280.505	73.69
280.736	85.69
280.968	87.69
281.199	76.69
281.431	86.69
281.662	78.69
281.894	93.69
282.125	74.69
282.356	87.69
282.588	86.69
282.819	86.69
283.051	86.69
283.282	90.69
283.513	84.69
283.745	92.69
283.976	97.69
284.207	84.69
284.439	99.69
284.67	79.69
284.901	90.69
285.132	78.69
285.364	81.69
285.595	87.69
285.826	104.69
286.057	92.69
286.288	75.69
286.52	78.69
286.751	74.69
286.982	78.69
287.213	82.69
287.444	105.69
287.675	91.69
287.906	76.69
288.138	80.69
288.369	92.69
288.6	83.69
288.831	85.69
289.062	77.69
289.293	83.69
289.524	71.69
289.755	91.69
289.986	81.69
290.217	85.69
290.448	68.69
290.679	97.69
290.91	81.69
291.141	79.69
291.371	73.69
291.602	88.69
291.833	85.69
292.064	88.69
292.295	86.69
292.526	99.69
292.757	98.69
292.987	91.69
293.218	92.69
293.449	85.69
293.68	82.69
293.91	78.69
294.141	92.69
294.372	88.69
294.603	76.69
294.833	90.69
295.064	95.69
295.295	87.69
295.525	92.69
295.756	85.69
295.987	82.69
296.217	89.69
296.448	77.69
296.679	84.69
296.909	73.69
297.14	80.69
297.37	83.69
297.601	76.69
297.831	67.69
298.062	84.69
298.292	93.69
298.523	79.69
298.753	78.69
298.984	93.69
299.214	90.69
299.445	88.69
299.675	93.69
299.905	82.69
300.136	82.69
300.366	81.69
300.597	85.69
300.827	80.69
301.057	84.69
301.288	93.69
301.518	89.69
301.748	89.69
301.979	99.69
302.209	80.69
302.439	77.69
302.669	78.69
302.9	99.69
303.13	82.69
303.36	87.69
303.59	94.69
303.82	89.69
304.051	93.69
304.281	79.69
304.511	94.69
304.741	87.69
304.971	103.69
305.201	78.69
305.431	76.69
305.661	91.69
305.891	96.69
306.121	76.69
306.352	91.69
306.582	86.69
306.812	94.69
307.042	87.69
307.272	90.69
307.502	75.69
307.731	89.69
307.961	75.69
308.191	84.69
308.421	86.69
308.651	89.69
308.881	83.69
309.111	81.69
309.341	93.69
309.571	92.69
309.8	86.69
310.03	89.69
310.26	82.69
310.49	94.69
310.72	86.69
310.949	86.69
311.179	80.69
311.409	93.69
311.639	76.69
311.868	88.69
312.098	85.69
312.328	89.69
312.557	101.69
312.787	98.69
313.017	85.69
313.246	86.69
313.476	82.69
313.706	83.69
313.935	92.69
314.165	92.69
314.394	101.69
314.624	94.69
314.853	97.69
315.083	88.69
315.312	100.69
315.542	87.69
315.771	88.69
316.001	99.69
316.23	91.69
316.46	86.69
316.689	90.69
316.919	93.69
317.148	89.69
317.377	71.69
317.607	71.69
317.836	93.69
318.065	96.69
318.295	105.69
318.524	88.69
318.753	92.69
318.983	98.69
319.212	78.69
319.441	84.69
319.67	86.69
319.9	75.69
320.129	86.69
320.358	91.69
320.587	93.69
320.816	91.69
321.046	98.69
321.275	86.69
321.504	77.69
321.733	96.69
321.962	85.69
322.191	81.69
322.42	87.69
322.649	97.69
322.878	89.69
323.108	84.69
323.337	92.69
323.566	87.69
323.795	80.69
324.024	93.69
324.253	92.69
324.482	92.69
324.71	82.69
324.939	84.69
325.168	86.69
325.397	87.69
325.626	85.69
325.855	82.69
326.084	91.69
326.313	85.69
326.542	87.69
326.77	94.69
326.999	67.69
327.228	82.69
327.457	100.69
327.686	94.69
327.914	96.69
328.143	102.69
328.372	81.69
328.6	93.69
328.829	93.69
329.058	84.69
329.287	84.69
329.515	70.69
329.744	70.69
329.972	89.69
330.201	89.69
330.43	83.69
330.658	85.69
330.887	88.69
331.115	92.69
331.344	85.69
331.572	87.69
331.801	88.69
332.03	78.69
332.258	88.69
332.486	105.69
332.715	72.69
332.943	100.69
333.172	92.69
333.4	77.69
333.629	90.69
333.857	79.69
334.085	82.69
334.314	88.69
334.542	88.69
334.771	71.69
334.999	84.69
335.227	88.69
335.455	90.69
335.684	100.69
335.912	83.69
336.14	86.69
336.369	84.69
336.597	79.69
336.825	80.69
337.053	77.69
337.281	100.69
337.51	86.69
337.738	100.69
337.966	85.69
338.194	81.69
338.422	99.69
338.65	82.69
338.878	96.69
339.106	92.69
339.334	85.69
339.562	92.69
339.79	96.69
340.018	84.69
340.246	96.69
340.474	92.69
340.702	88.69
340.93	79.69
341.158	92.69
341.386	82.69
341.614	97.69
341.842	84.69
342.07	90.69
342.298	83.69
342.526	99.69
342.754	72.69
342.981	102.69
343.209	90.69
343.437	97.69
343.665	84.69
343.893	93.69
344.12	84.69
344.348	90.69
344.576	88.69
344.804	91.69
345.031	88.69
345.259	89.69
345.487	92.69
345.714	84.69
345.942	89.69
346.17	87.69
346.397	75.69
346.625	79.69
346.853	97.69
347.08	93.69
347.308	101.69
347.535	96.69
347.763	76.69
347.99	91.69
348.218	80.69
348.445	95.69
348.673	78.69
348.9	78.69
349.128	94.69
349.355	100.69
349.583	85.69
349.81	86.69
350.037	83.69
350.265	86.69
350.492	88.69
350.72	97.69
350.947	91.69
351.174	90.69
351.402	86.69
351.629	100.69
351.856	83.69
352.083	79.69
352.311	88.69
352.538	90.69
352.765	70.69
352.992	85.69
353.22	90.69
353.447	86.69
353.674	96.69
353.901	90.69
354.128	75.69
354.355	95.69
354.583	81.69
354.81	92.69
355.037	91.69
355.264	89.69
355.491	90.69
355.718	88.69
355.945	90.69
356.172	81.69
356.399	90.69
356.626	89.69
356.853	89.69
357.08	89.69
357.307	87.69
357.534	85.69
357.761	83.69
357.988	75.69
358.215	82.69
358.441	89.69
358.668	82.69
358.895	91.69
359.122	78.69
359.349	84.69
359.576	93.69
359.802	83.69
360.029	83.69
360.256	93.69
360.483	87.69
360.709	97.69
360.936	103.69
361.163	97.69
361.39	82.69
361.616	91.69
361.843	86.69
362.07	87.69
362.296	99.69
362.523	82.69
362.749	83.69
362.976	94.69
363.203	81.69
363.429	77.69
363.656	90.69
363.882	104.69
364.109	76.69
364.335	84.69
364.562	91.69
364.788	93.69
365.015	97.69
365.241	83.69
365.468	83.69
365.694	94.69
365.92	93.69
366.147	88.69
366.373	96.69
366.599	96.69
366.826	89.69
367.052	80.69
367.278	74.69
367.505	84.69
367.731	78.69
367.957	88.69
368.184	88.69
368.41	94.69
368.636	73.69
368.862	85.69
369.089	86.69
369.315	83.69
369.541	84.69
369.767	93.69
369.993	98.69
370.219	82.69
370.445	78.69
370.672	86.69
370.898	94.69
371.124	87.69
371.35	83.69
371.576	95.69
371.802	83.69
372.028	83.69
372.254	100.69
372.48	90.69
372.706	79.69
372.932	80.69
373.158	85.69
373.384	101.69
373.61	82.69
373.835	84.69
374.061	83.69
374.287	83.69
374.513	75.69
374.739	83.69
374.965	82.69
375.191	93.69
375.416	91.69
375.642	87.69
375.868	87.69
376.094	89.69
376.319	78.69
376.545	87.69
376.771	86.69
376.997	93.69
377.222	83.69
377.448	97.69
377.674	86.69
377.899	81.69
378.125	76.69
378.35	78.69
378.576	66.69
378.802	71.69
379.027	98.69
379.253	82.69
379.478	85.69
379.704	82.69
379.929	86.69
380.155	81.69
380.38	103.69
380.606	82.69
380.831	79.69
381.057	87.69
381.282	85.69
381.507	94.69
381.733	88.69
381.958	97.69
382.184	77.69
382.409	85.69
382.634	94.69
382.86	88.69
383.085	82.69
383.31	85.69
383.535	83.69
383.761	89.69
383.986	80.69
384.211	86.69
384.436	92.69
384.662	96.69
384.887	109.69
385.112	96.69
385.337	78.69
385.562	81.69
385.787	78.69
386.013	74.69
386.238	88.69
386.463	81.69
386.688	78.69
386.913	89.69
387.138	89.69
387.363	75.69
387.588	81.69
387.813	103.69
388.038	87.69
388.263	86.69
388.488	84.69
388.713	84.69
388.938	83.69
389.163	104.69
389.387	86.69
389.612	93.69
389.837	77.69
390.062	86.69
390.287	92.69
390.512	89.69
390.736	90.69
390.961	90.69
391.186	72.69
391.411	78.69
391.636	87.69
391.86	77.69
392.085	61.69
392.31	83.69
392.534	86.69
392.759	94.69
392.984	88.69
393.208	91.69
393.433	81.69
393.658	104.69
393.882	91.69
394.107	74.69
394.331	92.69
394.556	78.69
394.78	82.69
395.005	83.69
395.229	92.69
395.454	82.69
395.678	95.69
395.903	83.69
396.127	92.69
396.352	76.69
396.576	93.69
396.801	80.69
397.025	86.69
397.249	89.69
397.474	78.69
397.698	87.69
397.922	91.69
398.147	81.69
398.371	74.69
398.595	87.69
398.82	76.69
399.044	81.69
399.268	86.69
399.492	73.69
399.717	96.69
399.941	79.69
400.165	91.69
400.389	89.69
400.613	83.69
400.837	91.69
401.062	81.69
401.286	86.69
401.51	92.69
401.734	97.69
401.958	87.69
402.182	87.69
402.406	92.69
402.63	96.69
402.854	85.69
403.078	92.69
403.302	84.69
403.526	70.69
403.75	102.69
403.974	88.69
404.198	84.69
404.422	85.69
404.645	93.69
404.869	92.69
405.093	81.69
405.317	83.69
405.541	81.69
405.765	98.69
405.988	90.69
406.212	85.69
406.436	83.69
406.66	89.69
406.883	65.69
407.107	74.69
407.331	89.69
407.555	83.69
407.778	85.69
408.002	92.69
408.226	92.69
408.449	90.69
408.673	88.69
408.896	85.69
409.12	86.69
409.344	95.69
409.567	88.69
409.791	97.69
410.014	98.69
410.238	89.69
410.461	102.69
410.685	83.69
410.908	84.69
411.132	84.69
411.355	95.69
411.578	87.69
411.802	89.69
412.025	77.69
412.249	91.69
412.472	83.69
412.695	81.69
412.919	76.69
413.142	82.69
413.365	89.69
413.589	100.69
413.812	94.69
414.035	103.69
414.258	78.69
414.482	94.69
414.705	79.69
414.928	81.69
415.151	89.69
415.374	87.69
415.597	79.69
415.821	90.69
416.044	81.69
416.267	65.69
416.49	82.69
416.713	90.69
416.936	98.69
417.159	94.69
417.382	102.69
417.605	84.69
417.828	90.69
418.051	96.69
418.274	80.69
418.497	82.69
418.72	103.69
418.943	98.69
419.166	83.69
419.389	91.69
419.611	78.69
419.834	78.69
420.057	85.69
420.28	86.69
420.503	91.69
420.726	74.69
420.948	96.69
421.171	81.69
421.394	80.69
421.617	85.69
421.839	85.69
422.062	88.69
422.285	80.69
422.507	76.69
422.73	92.69
422.953	81.69
423.175	75.69
423.398	84.69
423.621	85.69
423.843	80.69
424.066	94.69
424.288	92.69
424.511	81.69
424.733	83.69
424.956	84.69
425.178	84.69
425.401	77.69
425.623	90.69
425.846	102.69
426.068	78.69
426.291	81.69
426.513	83.69
426.735	91.69
426.958	93.69
427.18	78.69
427.402	73.69
427.625	76.69
427.847	62.69
428.069	82.69
428.292	89.69
428.514	81.69
428.736	75.69
428.958	86.69
429.181	75.69
429.403	62.69
429.625	92.69
429.847	94.69
430.069	85.69
430.292	80.69
430.514	76.69
430.736	70.69
430.958	78.69
431.18	96.69
431.402	76.69
431.624	74.69
431.846	66.69
432.068	87.69
432.29	99.69
432.512	83.69
432.734	81.69
432.956	85.69
433.178	78.69
433.4	84.69
433.622	79.69
433.844	79.69
434.066	89.69
434.287	79.69
434.509	84.69
434.731	90.69
434.953	81.69
435.175	91.69
435.397	82.69
435.618	91.69
435.84	74.69
436.062	80.69
436.284	89.69
436.505	83.69
436.727	90.69
436.949	88.69
437.17	90.69
437.392	77.69
437.614	99.69
437.835	96.69
438.057	84.69
438.278	94.69
438.5	86.69
438.721	96.69
438.943	90.69
439.165	84.69
439.386	95.69
439.608	85.69
439.829	82.69
440.05	86.69
440.272	88.69
440.493	101.69
440.715	75.69
440.936	76.69
441.158	81.69
441.379	84.69
441.6	87.69
441.822	88.69
442.043	83.69
442.264	78.69
442.486	83.69
442.707	82.69
442.928	73.69
443.149	85.69
443.371	82.69
443.592	96.69
443.813	71.69
444.034	86.69
444.255	88.69
444.476	90.69
444.698	88.69
444.919	94.69
445.14	204.69
445.361	144.69
445.582	100.69
445.803	64.69
446.024	91.69
446.245	84.69
446.466	87.69
446.687	89.69
446.908	78.69
447.129	80.69
447.35	73.69
447.571	81.69
447.792	78.69
448.013	72.69
448.234	91.69
448.455	90.69
448.675	77.69
448.896	82.69
449.117	81.69
449.338	86.69
449.559	97.69
449.779	89.69
450	78.69
450.221	101.69
450.442	72.69
450.662	87.69
450.883	83.69
451.104	75.69
451.324	80.69
451.545	85.69
451.766	83.69
451.986	77.69
452.207	87.69
452.428	87.69
452.648	72.69
452.869	82.69
453.089	88.69
453.31	79.69
453.53	98.69
453.751	92.69
453.971	77.69
454.192	85.69
454.412	91.69
454.633	85.69
454.853	78.69
455.073	81.69
455.294	89.69
455.514	97.69
455.734	72.69
455.955	88.69
456.175	96.69
456.395	85.69
456.616	76.69
456.836	92.69
457.056	81.69
457.276	77.69
457.497	83.69
457.717	100.69
457.937	92.69
458.157	85.69
458.377	92.69
458.598	92.69
458.818	97.69
459.038	91.69
459.258	94.69
459.478	96.69
459.698	93.69
459.918	67.69
460.138	107.69
460.358	88.69
460.578	105.69
460.798	92.69
461.018	95.69
461.238	89.69
461.458	88.69
461.678	80.69
461.898	82.69
462.118	99.69
462.338	90.69
462.558	89.69
462.777	78.69
462.997	77.69
463.217	75.69
463.437	81.69
463.657	92.69
463.876	82.69
464.096	84.69
464.316	88.69
464.536	98.69
464.755	80.69
464.975	84.69
465.195	70.69
465.414	82.69
465.634	82.69
465.854	83.69
466.073	85.69
466.293	89.69
466.512	99.69
466.732	77.69
466.951	96.69
467.171	87.69
467.391	86.69
467.61	88.69
467.829	88.69
468.049	88.69
468.268	78.69
468.488	70.69
468.707	89.69
468.927	75.69
469.146	77.69
469.365	87.69
469.585	89.69
469.804	79.69
470.023	94.69
470.243	89.69
470.462	89.69
470.681	78.69
470.901	83.69
471.12	98.69
471.339	84.69
471.558	79.69
471.777	88.69
471.997	83.69
472.216	95.69
472.435	81.69
472.654	90.69
472.873	97.69
473.092	91.69
473.311	83.69
473.53	91.69
473.749	91.69
473.968	97.69
474.187	84.69
474.406	74.69
474.625	83.69
474.844	79.69
475.063	77.69
475.282	83.69
475.501	86.69
475.72	108.69
475.939	86.69
476.158	93.69
476.377	94.69
476.596	99.69
476.814	84.69
477.033	88.69
477.252	77.69
477.471	102.69
477.69	84.69
477.908	87.69
478.127	87.69
478.346	87.69
478.564	79.69
478.783	101.69
479.002	100.69
479.22	88.69
479.439	93.69
479.658	101.69
479.876	87.69
480.095	100.69
480.313	91.69
480.532	92.69
480.751	103.69
480.969	88.69
481.188	109.69
481.406	88.69
481.624	98.69
481.843	94.69
482.061	72.69
482.28	96.69
482.498	80.69
482.717	81.69
482.935	84.69
483.153	89.69
483.372	74.69
483.59	93.69
483.808	84.69
484.027	89.69
484.245	98.69
484.463	78.69
484.681	96.69
484.9	94.69
485.118	84.69
485.336	84.69
485.554	81.69
485.772	91.69
485.99	97.69
486.209	82.69
486.427	80.69
486.645	82.69
486.863	90.69
487.081	86.69
487.299	87.69
487.517	95.69
487.735	90.69
487.953	101.69
488.171	87.69
488.389	90.69
488.607	91.69
488.825	99.69
489.043	84.69
489.261	103.69
489.479	100.69
489.696	99.69
489.914	93.69
490.132	88.69
490.35	89.69
490.568	90.69
490.786	89.69
491.003	92.69
491.221	92.69
491.439	101.69
491.657	87.69
491.874	96.69
492.092	85.69
492.31	97.69
492.527	94.69
492.745	84.69
492.963	85.69
493.18	114.69
493.398	94.69
493.615	87.69
493.833	91.69
494.05	109.69
494.268	93.69
494.485	92.69
494.703	93.69
494.92	105.69
495.138	98.69
495.355	102.69
495.573	100.69
495.79	90.69
496.008	87.69
496.225	106.69
496.442	98.69
496.66	103.69
496.877	94.69
497.094	100.69
497.312	97.69
497.529	80.69
497.746	89.69
497.963	86.69
498.181	76.69
498.398	82.69
498.615	85.69
498.832	102.69
499.049	99.69
499.267	110.69
499.484	110.69
499.701	101.69
499.918	100.69
500.135	116.69
500.352	107.69
500.569	112.69
500.786	110.69
501.003	107.69
501.22	118.69
501.437	87.69
501.654	98.69
501.871	103.69
502.088	104.69
502.305	99.69
502.522	92.69
502.739	89.69
502.956	89.69
503.172	108.69
503.389	102.69
503.606	91.69
503.823	94.69
504.04	90.69
504.256	91.69
504.473	85.69
504.69	102.69
504.907	99.69
505.123	93.69
505.34	95.69
505.557	106.69
505.773	92.69
505.99	103.69
506.207	101.69
506.423	104.69
506.64	93.69
506.856	84.69
507.073	76.69
507.289	81.69
507.506	98.69
507.722	90.69
507.939	80.69
508.155	104.69
508.372	97.69
508.588	107.69
508.805	104.69
509.021	100.69
509.238	101.69
509.454	101.69
509.67	90.69
509.887	90.69
510.103	93.69
510.319	84.69
510.536	92.69
510.752	78.69
510.968	91.69
511.184	83.69
511.401	92.69
511.617	97.69
511.833	88.69
512.049	99.69
512.265	85.69
512.481	97.69
512.698	87.69
512.914	90.69
513.13	90.69
513.346	81.69
513.562	96.69
513.778	86.69
513.994	92.69
514.21	105.69
514.426	78.69
514.642	100.69
514.858	104.69
515.074	109.69
515.29	91.69
515.506	101.69
515.721	101.69
515.937	104.69
516.153	96.69
516.369	80.69
516.585	93.69
516.801	102.69
517.016	93.69
517.232	89.69
517.448	88.69
517.664	92.69
517.879	102.69
518.095	78.69
