Data from Ni(NO3)2@0.5M.TitratingCurve.Agarose3%dH2O.NegLispCup.LampEnergy10.LIBS07252019_HRD10591_17-59-07-564.txt Node
Date: Thu Jul 25 17:59:07 EDT 2019
User: cochatt
Spectrometer: HR+D1059
Trigger mode: 1
Integration Time (sec): 1.000000E-1
Scans to average: 1
Electric dark correction enabled: true
Nonlinearity correction enabled: false
Boxcar width: 0
XAxis mode: Wavelengths
Number of Pixels in Spectrum: 2048
>>>>>Begin Spectral Data<<<<<
223.165	-24.81
223.4	-24.81
223.635	-24.81
223.869	-16.81
224.104	-9.81
224.338	-7.81
224.573	-13.81
224.808	-9.81
225.042	-9.81
225.277	-7.81
225.511	-8.81
225.746	8.19
225.98	9.19
226.215	6.19
226.449	17.19
226.683	22.19
226.918	13.19
227.152	33.19
227.387	36.19
227.621	38.19
227.856	46.19
228.09	46.19
228.324	59.19
228.559	52.19
228.793	76.19
229.027	146.19
229.262	162.19
229.496	161.19
229.73	177.19
229.964	195.19
230.199	236.19
230.433	225.19
230.667	218.19
230.901	212.19
231.136	190.19
231.37	196.19
231.604	201.19
231.838	227.19
232.072	245.19
232.306	205.19
232.541	206.19
232.775	195.19
233.009	172.19
233.243	185.19
233.477	188.19
233.711	175.19
233.945	196.19
234.179	200.19
234.413	203.19
234.647	198.19
234.881	209.19
235.115	208.19
235.349	191.19
235.583	182.19
235.817	186.19
236.051	201.19
236.285	193.19
236.519	182.19
236.753	189.19
236.987	187.19
237.221	204.19
237.455	198.19
237.689	205.19
237.922	205.19
238.156	194.19
238.39	202.19
238.624	193.19
238.858	217.19
239.091	197.19
239.325	226.19
239.559	228.19
239.793	271.19
240.027	263.19
240.26	226.19
240.494	218.19
240.728	221.19
240.961	219.19
241.195	244.19
241.429	232.19
241.662	242.19
241.896	273.19
242.13	274.19
242.363	241.19
242.597	247.19
242.83	242.19
243.064	246.19
243.298	226.19
243.531	247.19
243.765	252.19
243.998	248.19
244.232	269.19
244.465	242.19
244.699	253.19
244.932	252.19
245.166	246.19
245.399	272.19
245.633	246.19
245.866	263.19
246.099	270.19
246.333	264.19
246.566	257.19
246.8	277.19
247.033	264.19
247.266	279.19
247.5	278.19
247.733	270.19
247.966	266.19
248.2	287.19
248.433	307.19
248.666	292.19
248.899	275.19
249.133	284.19
249.366	294.19
249.599	301.19
249.832	299.19
250.066	275.19
250.299	290.19
250.532	325.19
250.765	315.19
250.998	327.19
251.231	358.19
251.465	353.19
251.698	345.19
251.931	334.19
252.164	308.19
252.397	339.19
252.63	346.19
252.863	312.19
253.096	324.19
253.329	325.19
253.562	333.19
253.795	324.19
254.028	342.19
254.261	334.19
254.494	361.19
254.727	361.19
254.96	371.19
255.193	344.19
255.426	356.19
255.659	329.19
255.892	354.19
256.124	364.19
256.357	357.19
256.59	362.19
256.823	352.19
257.056	360.19
257.289	368.19
257.521	366.19
257.754	368.19
257.987	355.19
258.22	373.19
258.452	389.19
258.685	396.19
258.918	387.19
259.151	393.19
259.383	387.19
259.616	380.19
259.849	393.19
260.081	400.19
260.314	393.19
260.547	379.19
260.779	413.19
261.012	404.19
261.244	410.19
261.477	421.19
261.71	403.19
261.942	411.19
262.175	412.19
262.407	426.19
262.64	408.19
262.872	409.19
263.105	415.19
263.337	446.19
263.57	427.19
263.802	438.19
264.035	424.19
264.267	428.19
264.499	413.19
264.732	439.19
264.964	434.19
265.197	462.19
265.429	439.19
265.661	462.19
265.894	459.19
266.126	435.19
266.358	454.19
266.591	443.19
266.823	441.19
267.055	450.19
267.287	464.19
267.52	453.19
267.752	465.19
267.984	475.19
268.216	459.19
268.448	474.19
268.681	473.19
268.913	489.19
269.145	474.19
269.377	483.19
269.609	503.19
269.841	461.19
270.073	478.19
270.306	485.19
270.538	472.19
270.77	470.19
271.002	497.19
271.234	488.19
271.466	498.19
271.698	483.19
271.93	479.19
272.162	493.19
272.394	501.19
272.626	515.19
272.858	498.19
273.09	502.19
273.322	519.19
273.553	527.19
273.785	527.19
274.017	513.19
274.249	514.19
274.481	543.19
274.713	507.19
274.945	519.19
275.176	532.19
275.408	539.19
275.64	549.19
275.872	531.19
276.104	533.19
276.335	540.19
276.567	558.19
276.799	547.19
277.031	549.19
277.262	532.19
277.494	564.19
277.726	549.19
277.957	554.19
278.189	557.19
278.421	564.19
278.652	562.19
278.884	565.19
279.115	558.19
279.347	586.19
279.579	572.19
279.81	558.19
280.042	567.19
280.273	583.19
280.505	588.19
280.736	561.19
280.968	580.19
281.199	596.19
281.431	577.19
281.662	594.19
281.894	573.19
282.125	582.19
282.356	593.19
282.588	607.19
282.819	582.19
283.051	589.19
283.282	589.19
283.513	589.19
283.745	603.19
283.976	606.19
284.207	617.19
284.439	619.19
284.67	637.19
284.901	630.19
285.132	610.19
285.364	604.19
285.595	612.19
285.826	635.19
286.057	633.19
286.288	630.19
286.52	630.19
286.751	631.19
286.982	622.19
287.213	645.19
287.444	632.19
287.675	647.19
287.906	645.19
288.138	642.19
288.369	619.19
288.6	656.19
288.831	638.19
289.062	649.19
289.293	659.19
289.524	651.19
289.755	657.19
289.986	669.19
290.217	650.19
290.448	639.19
290.679	641.19
290.91	647.19
291.141	646.19
291.371	661.19
291.602	660.19
291.833	669.19
292.064	651.19
292.295	661.19
292.526	662.19
292.757	658.19
292.987	682.19
293.218	654.19
293.449	680.19
293.68	651.19
293.91	659.19
294.141	648.19
294.372	655.19
294.603	663.19
294.833	664.19
295.064	677.19
295.295	654.19
295.525	639.19
295.756	658.19
295.987	677.19
296.217	671.19
296.448	675.19
296.679	691.19
296.909	669.19
297.14	665.19
297.37	683.19
297.601	716.19
297.831	703.19
298.062	681.19
298.292	705.19
298.523	722.19
298.753	703.19
298.984	707.19
299.214	730.19
299.445	713.19
299.675	741.19
299.905	739.19
300.136	714.19
300.366	775.19
300.597	782.19
300.827	774.19
301.057	760.19
301.288	756.19
301.518	767.19
301.748	742.19
301.979	723.19
302.209	748.19
302.439	771.19
302.669	742.19
302.9	740.19
303.13	753.19
303.36	746.19
303.59	727.19
303.82	765.19
304.051	760.19
304.281	777.19
304.511	760.19
304.741	737.19
304.971	778.19
305.201	791.19
305.431	810.19
305.661	781.19
305.891	788.19
306.121	772.19
306.352	787.19
306.582	739.19
306.812	742.19
307.042	746.19
307.272	765.19
307.502	753.19
307.731	767.19
307.961	774.19
308.191	757.19
308.421	737.19
308.651	775.19
308.881	774.19
309.111	761.19
309.341	779.19
309.571	765.19
309.8	775.19
310.03	810.19
310.26	855.19
310.49	857.19
310.72	798.19
310.949	781.19
311.179	791.19
311.409	750.19
311.639	785.19
311.868	822.19
312.098	795.19
312.328	810.19
312.557	827.19
312.787	807.19
313.017	813.19
313.246	798.19
313.476	831.19
313.706	838.19
313.935	838.19
314.165	831.19
314.394	831.19
314.624	847.19
314.853	825.19
315.083	804.19
315.312	835.19
315.542	833.19
315.771	858.19
316.001	827.19
316.23	835.19
316.46	823.19
316.689	855.19
316.919	844.19
317.148	859.19
317.377	868.19
317.607	865.19
317.836	851.19
318.065	859.19
318.295	835.19
318.524	885.19
318.753	870.19
318.983	855.19
319.212	867.19
319.441	865.19
319.67	875.19
319.9	856.19
320.129	884.19
320.358	876.19
320.587	857.19
320.816	879.19
321.046	864.19
321.275	865.19
321.504	890.19
321.733	903.19
321.962	893.19
322.191	915.19
322.42	907.19
322.649	938.19
322.878	900.19
323.108	884.19
323.337	917.19
323.566	912.19
323.795	935.19
324.024	893.19
324.253	899.19
324.482	947.19
324.71	914.19
324.939	932.19
325.168	931.19
325.397	933.19
325.626	919.19
325.855	932.19
326.084	938.19
326.313	919.19
326.542	947.19
326.77	951.19
326.999	935.19
327.228	924.19
327.457	953.19
327.686	950.19
327.914	949.19
328.143	958.19
328.372	954.19
328.6	959.19
328.829	969.19
329.058	970.19
329.287	970.19
329.515	966.19
329.744	982.19
329.972	997.19
330.201	996.19
330.43	976.19
330.658	968.19
330.887	978.19
331.115	993.19
331.344	989.19
331.572	982.19
331.801	1009.19
332.03	1049.19
332.258	1014.19
332.486	1033.19
332.715	1040.19
332.943	1080.19
333.172	1082.19
333.4	1093.19
333.629	1093.19
333.857	1099.19
334.085	1138.19
334.314	1089.19
334.542	1114.19
334.771	1128.19
334.999	1115.19
335.227	1100.19
335.455	1119.19
335.684	1124.19
335.912	1109.19
336.14	1094.19
336.369	1138.19
336.597	1133.19
336.825	1147.19
337.053	1129.19
337.281	1146.19
337.51	1126.19
337.738	1087.19
337.966	1117.19
338.194	1128.19
338.422	1107.19
338.65	1079.19
338.878	1086.19
339.106	1099.19
339.334	1112.19
339.562	1122.19
339.79	1050.19
340.018	1083.19
340.246	1058.19
340.474	1073.19
340.702	1061.19
340.93	1038.19
341.158	1059.19
341.386	1090.19
341.614	1170.19
341.842	1102.19
342.07	1053.19
342.298	1072.19
342.526	1063.19
342.754	1067.19
342.981	1058.19
343.209	1063.19
343.437	1087.19
343.665	1084.19
343.893	1108.19
344.12	1119.19
344.348	1160.19
344.576	1147.19
344.804	1156.19
345.031	1107.19
345.259	1107.19
345.487	1097.19
345.714	1107.19
345.942	1123.19
346.17	1126.19
346.397	1122.19
346.625	1045.19
346.853	1019.19
347.08	996.19
347.308	975.19
347.535	1067.19
347.763	1017.19
347.99	993.19
348.218	1016.19
348.445	993.19
348.673	1025.19
348.9	1017.19
349.128	1043.19
349.355	1038.19
349.583	1068.19
349.81	1044.19
350.037	982.19
350.265	982.19
350.492	1005.19
350.72	1005.19
350.947	1017.19
351.174	1021.19
351.402	1046.19
351.629	1071.19
351.856	1062.19
352.083	1010.19
352.311	1041.19
352.538	1118.19
352.765	1121.19
352.992	998.19
353.22	984.19
353.447	987.19
353.674	962.19
353.901	1010.19
354.128	989.19
354.355	979.19
354.583	959.19
354.81	966.19
355.037	980.19
355.264	974.19
355.491	975.19
355.718	961.19
355.945	966.19
356.172	988.19
356.399	992.19
356.626	1041.19
356.853	1050.19
357.08	1007.19
357.307	991.19
357.534	993.19
357.761	965.19
357.988	985.19
358.215	986.19
358.441	965.19
358.668	1003.19
358.895	983.19
359.122	1011.19
359.349	1006.19
359.576	972.19
359.802	989.19
360.029	969.19
360.256	964.19
360.483	985.19
360.709	989.19
360.936	983.19
361.163	1006.19
361.39	1018.19
361.616	1036.19
361.843	1047.19
362.07	1105.19
362.296	1100.19
362.523	1019.19
362.749	1023.19
362.976	997.19
363.203	979.19
363.429	972.19
363.656	991.19
363.882	981.19
364.109	973.19
364.335	969.19
364.562	1001.19
364.788	1003.19
365.015	1004.19
365.241	1019.19
365.468	986.19
365.694	1005.19
365.92	1000.19
366.147	972.19
366.373	992.19
366.599	1016.19
366.826	1027.19
367.052	977.19
367.278	1009.19
367.505	990.19
367.731	1010.19
367.957	1000.19
368.184	985.19
368.41	982.19
368.636	1017.19
368.862	1017.19
369.089	1013.19
369.315	1018.19
369.541	1014.19
369.767	1030.19
369.993	1004.19
370.219	990.19
370.445	1020.19
370.672	1004.19
370.898	1042.19
371.124	1047.19
371.35	1077.19
371.576	1081.19
371.802	1067.19
372.028	1057.19
372.254	1064.19
372.48	1066.19
372.706	1104.19
372.932	1086.19
373.158	1084.19
373.384	1083.19
373.61	1089.19
373.835	1087.19
374.061	1070.19
374.287	1108.19
374.513	1085.19
374.739	1116.19
374.965	1091.19
375.191	1106.19
375.416	1101.19
375.642	1083.19
375.868	1085.19
376.094	1058.19
376.319	1064.19
376.545	1099.19
376.771	1080.19
376.997	1079.19
377.222	1052.19
377.448	1041.19
377.674	1097.19
377.899	1067.19
378.125	1073.19
378.35	1030.19
378.576	1058.19
378.802	1050.19
379.027	1035.19
379.253	1069.19
379.478	1046.19
379.704	1051.19
379.929	1044.19
380.155	1055.19
380.38	1049.19
380.606	1048.19
380.831	1044.19
381.057	1044.19
381.282	1048.19
381.507	1044.19
381.733	1068.19
381.958	1086.19
382.184	1085.19
382.409	1050.19
382.634	1085.19
382.86	1085.19
383.085	1111.19
383.31	1051.19
383.535	1086.19
383.761	1103.19
383.986	1113.19
384.211	1138.19
384.436	1121.19
384.662	1132.19
384.887	1123.19
385.112	1144.19
385.337	1158.19
385.562	1177.19
385.787	1181.19
386.013	1235.19
386.238	1195.19
386.463	1176.19
386.688	1207.19
386.913	1174.19
387.138	1190.19
387.363	1223.19
387.588	1199.19
387.813	1199.19
388.038	1185.19
388.263	1208.19
388.488	1179.19
388.713	1214.19
388.938	1205.19
389.163	1168.19
389.387	1214.19
389.612	1173.19
389.837	1210.19
390.062	1179.19
390.287	1185.19
390.512	1191.19
390.736	1215.19
390.961	1230.19
391.186	1210.19
391.411	1244.19
391.636	1241.19
391.86	1259.19
392.085	1269.19
392.31	1226.19
392.534	1244.19
392.759	1244.19
392.984	1225.19
393.208	1258.19
393.433	1265.19
393.658	1275.19
393.882	1226.19
394.107	1213.19
394.331	1249.19
394.556	1199.19
394.78	1245.19
395.005	1252.19
395.229	1249.19
395.454	1254.19
395.678	1278.19
395.903	1282.19
396.127	1255.19
396.352	1271.19
396.576	1270.19
396.801	1276.19
397.025	1302.19
397.249	1322.19
397.474	1310.19
397.698	1309.19
397.922	1344.19
398.147	1346.19
398.371	1348.19
398.595	1379.19
398.82	1403.19
399.044	1439.19
399.268	1454.19
399.492	1554.19
399.717	1588.19
399.941	1608.19
400.165	1539.19
400.389	1558.19
400.613	1528.19
400.837	1495.19
401.062	1474.19
401.286	1462.19
401.51	1440.19
401.734	1398.19
401.958	1404.19
402.182	1401.19
402.406	1415.19
402.63	1404.19
402.854	1385.19
403.078	1403.19
403.302	1403.19
403.526	1416.19
403.75	1441.19
403.974	1422.19
404.198	1373.19
404.422	1409.19
404.645	1439.19
404.869	1449.19
405.093	1432.19
405.317	1425.19
405.541	1433.19
405.765	1462.19
405.988	1494.19
406.212	1475.19
406.436	1494.19
406.66	1521.19
406.883	1522.19
407.107	1572.19
407.331	1595.19
407.555	1594.19
407.778	1591.19
408.002	1626.19
408.226	1596.19
408.449	1635.19
408.673	1568.19
408.896	1563.19
409.12	1504.19
409.344	1543.19
409.567	1490.19
409.791	1484.19
410.014	1475.19
410.238	1438.19
410.461	1462.19
410.685	1507.19
410.908	1478.19
411.132	1487.19
411.355	1470.19
411.578	1456.19
411.802	1427.19
412.025	1435.19
412.249	1484.19
412.472	1449.19
412.695	1471.19
412.919	1424.19
413.142	1460.19
413.365	1446.19
413.589	1427.19
413.812	1424.19
414.035	1421.19
414.258	1402.19
414.482	1423.19
414.705	1393.19
414.928	1402.19
415.151	1388.19
415.374	1409.19
415.597	1347.19
415.821	1372.19
416.044	1359.19
416.267	1365.19
416.49	1384.19
416.713	1351.19
416.936	1376.19
417.159	1344.19
417.382	1349.19
417.605	1326.19
417.828	1337.19
418.051	1335.19
418.274	1366.19
418.497	1340.19
418.72	1357.19
418.943	1327.19
419.166	1420.19
419.389	1498.19
419.611	1419.19
419.834	1412.19
420.057	1399.19
420.28	1352.19
420.503	1305.19
420.726	1316.19
420.948	1313.19
421.171	1351.19
421.394	1361.19
421.617	1304.19
421.839	1319.19
422.062	1302.19
422.285	1326.19
422.507	1361.19
422.73	1345.19
422.953	1330.19
423.175	1345.19
423.398	1353.19
423.621	1308.19
423.843	1333.19
424.066	1375.19
424.288	1330.19
424.511	1310.19
424.733	1309.19
424.956	1326.19
425.178	1319.19
425.401	1324.19
425.623	1352.19
425.846	1333.19
426.068	1354.19
426.291	1337.19
426.513	1331.19
426.735	1303.19
426.958	1327.19
427.18	1305.19
427.402	1287.19
427.625	1309.19
427.847	1285.19
428.069	1284.19
428.292	1300.19
428.514	1257.19
428.736	1323.19
428.958	1316.19
429.181	1293.19
429.403	1275.19
429.625	1291.19
429.847	1302.19
430.069	1279.19
430.292	1289.19
430.514	1253.19
430.736	1313.19
430.958	1276.19
431.18	1281.19
431.402	1254.19
431.624	1282.19
431.846	1301.19
432.068	1253.19
432.29	1313.19
432.512	1284.19
432.734	1328.19
432.956	1306.19
433.178	1352.19
433.4	1381.19
433.622	1399.19
433.844	1322.19
434.066	1369.19
434.287	1372.19
434.509	1339.19
434.731	1370.19
434.953	1377.19
435.175	1411.19
435.397	1438.19
435.618	1359.19
435.84	1335.19
436.062	1340.19
436.284	1346.19
436.505	1330.19
436.727	1321.19
436.949	1319.19
437.17	1317.19
437.392	1325.19
437.614	1290.19
437.835	1228.19
438.057	1266.19
438.278	1240.19
438.5	1229.19
438.721	1257.19
438.943	1273.19
439.165	1249.19
439.386	1253.19
439.608	1246.19
439.829	1258.19
440.05	1252.19
440.272	1303.19
440.493	1314.19
440.715	1301.19
440.936	1313.19
441.158	1335.19
441.379	1324.19
441.6	1411.19
441.822	1363.19
442.043	1354.19
442.264	1333.19
442.486	1355.19
442.707	1352.19
442.928	1345.19
443.149	1353.19
443.371	1386.19
443.592	1484.19
443.813	1435.19
444.034	1351.19
444.255	1404.19
444.476	1407.19
444.698	1430.19
444.919	1457.19
445.14	1522.19
445.361	1475.19
445.582	1401.19
445.803	1362.19
446.024	1327.19
446.245	1288.19
446.466	1297.19
446.687	1290.19
446.908	1283.19
447.129	1277.19
447.35	1271.19
447.571	1282.19
447.792	1219.19
448.013	1213.19
448.234	1164.19
448.455	1189.19
448.675	1213.19
448.896	1201.19
449.117	1144.19
449.338	1211.19
449.559	1175.19
449.779	1181.19
450	1171.19
450.221	1176.19
450.442	1211.19
450.662	1181.19
450.883	1194.19
451.104	1244.19
451.324	1176.19
451.545	1193.19
451.766	1149.19
451.986	1183.19
452.207	1181.19
452.428	1164.19
452.648	1174.19
452.869	1173.19
453.089	1176.19
453.31	1221.19
453.53	1125.19
453.751	1127.19
453.971	1134.19
454.192	1202.19
454.412	1202.19
454.633	1151.19
454.853	1164.19
455.073	1158.19
455.294	1143.19
455.514	1156.19
455.734	1183.19
455.955	1184.19
456.175	1201.19
456.395	1129.19
456.616	1131.19
456.836	1157.19
457.056	1126.19
457.276	1116.19
457.497	1175.19
457.717	1234.19
457.937	1217.19
458.157	1145.19
458.377	1156.19
458.598	1178.19
458.818	1221.19
459.038	1251.19
459.258	1301.19
459.478	1362.19
459.698	1463.19
459.918	1459.19
460.138	1418.19
460.358	1393.19
460.578	1402.19
460.798	1474.19
461.018	1492.19
461.238	1395.19
461.458	1383.19
461.678	1382.19
461.898	1396.19
462.118	1435.19
462.338	1426.19
462.558	1475.19
462.777	1546.19
462.997	1586.19
463.217	1616.19
463.437	1669.19
463.657	1643.19
463.876	1547.19
464.096	1565.19
464.316	1538.19
464.536	1486.19
464.755	1445.19
464.975	1452.19
465.195	1405.19
465.414	1402.19
465.634	1325.19
465.854	1329.19
466.073	1318.19
466.293	1292.19
466.512	1285.19
466.732	1238.19
466.951	1222.19
467.171	1296.19
467.391	1283.19
467.61	1271.19
467.829	1253.19
468.049	1244.19
468.268	1261.19
468.488	1233.19
468.707	1243.19
468.927	1238.19
469.146	1261.19
469.365	1265.19
469.585	1269.19
469.804	1274.19
470.023	1275.19
470.243	1215.19
470.462	1237.19
470.681	1265.19
470.901	1235.19
471.12	1220.19
471.339	1260.19
471.558	1250.19
471.777	1271.19
471.997	1291.19
472.216	1247.19
472.435	1270.19
472.654	1227.19
472.873	1243.19
473.092	1230.19
473.311	1241.19
473.53	1223.19
473.749	1248.19
473.968	1214.19
474.187	1213.19
474.406	1214.19
474.625	1234.19
474.844	1224.19
475.063	1273.19
475.282	1279.19
475.501	1277.19
475.72	1271.19
475.939	1267.19
476.158	1295.19
476.377	1293.19
476.596	1257.19
476.814	1326.19
477.033	1347.19
477.252	1321.19
477.471	1335.19
477.69	1385.19
477.908	1375.19
478.127	1394.19
478.346	1379.19
478.564	1420.19
478.783	1451.19
479.002	1544.19
479.22	1582.19
479.439	1500.19
479.658	1468.19
479.876	1443.19
480.095	1454.19
480.313	1494.19
480.532	1509.19
480.751	1516.19
480.969	1484.19
481.188	1487.19
481.406	1450.19
481.624	1449.19
481.843	1461.19
482.061	1429.19
482.28	1465.19
482.498	1444.19
482.717	1445.19
482.935	1488.19
483.153	1495.19
483.372	1542.19
483.59	1578.19
483.808	1511.19
484.027	1480.19
484.245	1473.19
484.463	1480.19
484.681	1472.19
484.9	1506.19
485.118	1517.19
485.336	1517.19
485.554	1491.19
485.772	1477.19
485.99	1490.19
486.209	1507.19
486.427	1482.19
486.645	1484.19
486.863	1519.19
487.081	1523.19
487.299	1509.19
487.517	1509.19
487.735	1542.19
487.953	1557.19
488.171	1574.19
488.389	1553.19
488.607	1493.19
488.825	1482.19
489.043	1498.19
489.261	1510.19
489.479	1505.19
489.696	1484.19
489.914	1490.19
490.132	1522.19
490.35	1499.19
490.568	1496.19
490.786	1534.19
491.003	1501.19
491.221	1550.19
491.439	1548.19
491.657	1543.19
491.874	1575.19
492.092	1593.19
492.31	1565.19
492.527	1548.19
