Data from Ni(NO3)2@0.125M.TitratingCurve.Agarose3%dH2O.NegLispCup.LampEnergy10.LIBS07252019_HRD10591_18-09-52-567.txt Node
Date: Thu Jul 25 18:09:52 EDT 2019
User: cochatt
Spectrometer: HR+D1059
Trigger mode: 1
Integration Time (sec): 1.000000E-1
Scans to average: 1
Electric dark correction enabled: true
Nonlinearity correction enabled: false
Boxcar width: 0
XAxis mode: Wavelengths
Number of Pixels in Spectrum: 2048
>>>>>Begin Spectral Data<<<<<
223.165	-13.5
223.4	-13.5
223.635	-13.5
223.869	-8.5
224.104	-21.5
224.338	-10.5
224.573	-1.5
224.808	-10.5
225.042	-5.5
225.277	-4.5
225.511	-7.5
225.746	-0.5
225.98	-0.5
226.215	5.5
226.449	23.5
226.683	10.5
226.918	7.5
227.152	37.5
227.387	35.5
227.621	35.5
227.856	47.5
228.09	39.5
228.324	47.5
228.559	61.5
228.793	63.5
229.027	83.5
229.262	81.5
229.496	95.5
229.73	99.5
229.964	105.5
230.199	99.5
230.433	97.5
230.667	108.5
230.901	99.5
231.136	94.5
231.37	112.5
231.604	106.5
231.838	117.5
232.072	129.5
232.306	124.5
232.541	116.5
232.775	104.5
233.009	114.5
233.243	124.5
233.477	125.5
233.711	107.5
233.945	123.5
234.179	126.5
234.413	112.5
234.647	116.5
234.881	120.5
235.115	109.5
235.349	119.5
235.583	119.5
235.817	118.5
236.051	117.5
236.285	127.5
236.519	99.5
236.753	118.5
236.987	119.5
237.221	108.5
237.455	128.5
237.689	129.5
237.922	124.5
238.156	134.5
238.39	137.5
238.624	112.5
238.858	118.5
239.091	140.5
239.325	127.5
239.559	136.5
239.793	130.5
240.027	128.5
240.26	120.5
240.494	130.5
240.728	137.5
240.961	124.5
241.195	134.5
241.429	130.5
241.662	124.5
241.896	132.5
242.13	114.5
242.363	131.5
242.597	138.5
242.83	150.5
243.064	133.5
243.298	131.5
243.531	144.5
243.765	150.5
243.998	130.5
244.232	132.5
244.465	156.5
244.699	167.5
244.932	143.5
245.166	149.5
245.399	158.5
245.633	157.5
245.866	145.5
246.099	156.5
246.333	147.5
246.566	147.5
246.8	161.5
247.033	157.5
247.266	146.5
247.5	155.5
247.733	164.5
247.966	153.5
248.2	167.5
248.433	174.5
248.666	160.5
248.899	160.5
249.133	163.5
249.366	178.5
249.599	165.5
249.832	186.5
250.066	165.5
250.299	176.5
250.532	168.5
250.765	170.5
250.998	172.5
251.231	180.5
251.465	158.5
251.698	181.5
251.931	175.5
252.164	170.5
252.397	175.5
252.63	173.5
252.863	190.5
253.096	189.5
253.329	192.5
253.562	183.5
253.795	188.5
254.028	193.5
254.261	168.5
254.494	180.5
254.727	182.5
254.96	190.5
255.193	198.5
255.426	180.5
255.659	184.5
255.892	208.5
256.124	184.5
256.357	205.5
256.59	194.5
256.823	203.5
257.056	201.5
257.289	186.5
257.521	187.5
257.754	199.5
257.987	209.5
258.22	215.5
258.452	206.5
258.685	191.5
258.918	218.5
259.151	210.5
259.383	197.5
259.616	213.5
259.849	205.5
260.081	203.5
260.314	205.5
260.547	206.5
260.779	224.5
261.012	202.5
261.244	215.5
261.477	202.5
261.71	215.5
261.942	203.5
262.175	198.5
262.407	210.5
262.64	199.5
262.872	207.5
263.105	213.5
263.337	217.5
263.57	208.5
263.802	218.5
264.035	210.5
264.267	212.5
264.499	208.5
264.732	222.5
264.964	226.5
265.197	224.5
265.429	214.5
265.661	221.5
265.894	228.5
266.126	247.5
266.358	242.5
266.591	213.5
266.823	232.5
267.055	234.5
267.287	233.5
267.52	209.5
267.752	230.5
267.984	246.5
268.216	237.5
268.448	232.5
268.681	240.5
268.913	232.5
269.145	249.5
269.377	236.5
269.609	232.5
269.841	228.5
270.073	244.5
270.306	227.5
270.538	239.5
270.77	240.5
271.002	245.5
271.234	248.5
271.466	239.5
271.698	236.5
271.93	235.5
272.162	240.5
272.394	255.5
272.626	238.5
272.858	245.5
273.09	244.5
273.322	247.5
273.553	251.5
273.785	226.5
274.017	242.5
274.249	253.5
274.481	253.5
274.713	251.5
274.945	254.5
275.176	260.5
275.408	272.5
275.64	256.5
275.872	264.5
276.104	275.5
276.335	258.5
276.567	246.5
276.799	244.5
277.031	242.5
277.262	269.5
277.494	264.5
277.726	273.5
277.957	268.5
278.189	252.5
278.421	273.5
278.652	263.5
278.884	276.5
279.115	295.5
279.347	272.5
279.579	278.5
279.81	263.5
280.042	266.5
280.273	275.5
280.505	280.5
280.736	276.5
280.968	293.5
281.199	297.5
281.431	276.5
281.662	276.5
281.894	268.5
282.125	273.5
282.356	298.5
282.588	267.5
282.819	290.5
283.051	271.5
283.282	296.5
283.513	315.5
283.745	292.5
283.976	299.5
284.207	296.5
284.439	290.5
284.67	290.5
284.901	308.5
285.132	291.5
285.364	297.5
285.595	299.5
285.826	301.5
286.057	295.5
286.288	303.5
286.52	298.5
286.751	304.5
286.982	299.5
287.213	310.5
287.444	310.5
287.675	303.5
287.906	316.5
288.138	306.5
288.369	311.5
288.6	318.5
288.831	317.5
289.062	317.5
289.293	318.5
289.524	314.5
289.755	312.5
289.986	316.5
290.217	308.5
290.448	330.5
290.679	314.5
290.91	311.5
291.141	319.5
291.371	326.5
291.602	318.5
291.833	326.5
292.064	301.5
292.295	309.5
292.526	330.5
292.757	326.5
292.987	320.5
293.218	330.5
293.449	322.5
293.68	331.5
293.91	320.5
294.141	311.5
294.372	303.5
294.603	309.5
294.833	326.5
295.064	340.5
295.295	322.5
295.525	320.5
295.756	341.5
295.987	346.5
296.217	335.5
296.448	328.5
296.679	333.5
296.909	328.5
297.14	326.5
297.37	355.5
297.601	331.5
297.831	348.5
298.062	355.5
298.292	355.5
298.523	363.5
298.753	345.5
298.984	353.5
299.214	349.5
299.445	349.5
299.675	361.5
299.905	355.5
300.136	370.5
300.366	347.5
300.597	354.5
300.827	365.5
301.057	358.5
301.288	360.5
301.518	365.5
301.748	354.5
301.979	376.5
302.209	364.5
302.439	352.5
302.669	360.5
302.9	340.5
303.13	346.5
303.36	354.5
303.59	357.5
303.82	355.5
304.051	376.5
304.281	355.5
304.511	333.5
304.741	367.5
304.971	349.5
305.201	341.5
305.431	366.5
305.661	364.5
305.891	349.5
306.121	344.5
306.352	342.5
306.582	327.5
306.812	351.5
307.042	362.5
307.272	345.5
307.502	340.5
307.731	345.5
307.961	354.5
308.191	344.5
308.421	351.5
308.651	337.5
308.881	341.5
309.111	348.5
309.341	350.5
309.571	343.5
309.8	343.5
310.03	350.5
310.26	357.5
310.49	333.5
310.72	342.5
310.949	354.5
311.179	352.5
311.409	351.5
311.639	363.5
311.868	363.5
312.098	354.5
312.328	347.5
312.557	367.5
312.787	360.5
313.017	365.5
313.246	357.5
313.476	378.5
313.706	372.5
313.935	390.5
314.165	350.5
314.394	373.5
314.624	394.5
314.853	370.5
315.083	371.5
315.312	377.5
315.542	374.5
315.771	366.5
316.001	381.5
316.23	355.5
316.46	363.5
316.689	371.5
316.919	360.5
317.148	361.5
317.377	358.5
317.607	350.5
317.836	376.5
318.065	360.5
318.295	355.5
318.524	348.5
318.753	375.5
318.983	378.5
319.212	370.5
319.441	361.5
319.67	354.5
319.9	371.5
320.129	374.5
320.358	354.5
320.587	371.5
320.816	364.5
321.046	362.5
321.275	367.5
321.504	365.5
321.733	358.5
321.962	379.5
322.191	378.5
322.42	356.5
322.649	380.5
322.878	398.5
323.108	374.5
323.337	366.5
323.566	367.5
323.795	382.5
324.024	374.5
324.253	388.5
324.482	374.5
324.71	371.5
324.939	374.5
325.168	401.5
325.397	387.5
325.626	383.5
325.855	415.5
326.084	410.5
326.313	408.5
326.542	413.5
326.77	440.5
326.999	410.5
327.228	413.5
327.457	386.5
327.686	385.5
327.914	410.5
328.143	388.5
328.372	395.5
328.6	406.5
328.829	398.5
329.058	399.5
329.287	402.5
329.515	420.5
329.744	407.5
329.972	405.5
330.201	410.5
330.43	435.5
330.658	429.5
330.887	426.5
331.115	420.5
331.344	432.5
331.572	434.5
331.801	446.5
332.03	458.5
332.258	452.5
332.486	469.5
332.715	485.5
332.943	512.5
333.172	520.5
333.4	558.5
333.629	536.5
333.857	558.5
334.085	545.5
334.314	530.5
334.542	535.5
334.771	512.5
334.999	516.5
335.227	514.5
335.455	481.5
335.684	494.5
335.912	492.5
336.14	492.5
336.369	495.5
336.597	494.5
336.825	476.5
337.053	510.5
337.281	510.5
337.51	471.5
337.738	482.5
337.966	460.5
338.194	468.5
338.422	465.5
338.65	452.5
338.878	460.5
339.106	452.5
339.334	443.5
339.562	456.5
339.79	411.5
340.018	435.5
340.246	426.5
340.474	429.5
340.702	432.5
340.93	437.5
341.158	442.5
341.386	439.5
341.614	441.5
341.842	413.5
342.07	431.5
342.298	422.5
342.526	427.5
342.754	422.5
342.981	437.5
343.209	427.5
343.437	446.5
343.665	470.5
343.893	486.5
344.12	520.5
344.348	502.5
344.576	476.5
344.804	459.5
345.031	448.5
345.259	450.5
345.487	437.5
345.714	434.5
345.942	438.5
346.17	420.5
346.397	436.5
346.625	417.5
346.853	426.5
347.08	443.5
347.308	437.5
347.535	405.5
347.763	428.5
347.99	436.5
348.218	451.5
348.445	441.5
348.673	442.5
348.9	432.5
349.128	436.5
349.355	402.5
349.583	424.5
349.81	415.5
350.037	411.5
350.265	409.5
350.492	422.5
350.72	376.5
350.947	394.5
351.174	408.5
351.402	392.5
351.629	375.5
351.856	390.5
352.083	399.5
352.311	383.5
352.538	392.5
352.765	421.5
352.992	396.5
353.22	382.5
353.447	403.5
353.674	394.5
353.901	403.5
354.128	408.5
354.355	387.5
354.583	427.5
354.81	415.5
355.037	407.5
355.264	406.5
355.491	390.5
355.718	394.5
355.945	392.5
356.172	391.5
356.399	413.5
356.626	416.5
356.853	414.5
357.08	391.5
357.307	396.5
357.534	409.5
357.761	397.5
357.988	419.5
358.215	407.5
358.441	414.5
358.668	406.5
358.895	419.5
359.122	410.5
359.349	390.5
359.576	406.5
359.802	405.5
360.029	397.5
360.256	400.5
360.483	408.5
360.709	430.5
360.936	426.5
361.163	400.5
361.39	395.5
361.616	414.5
361.843	399.5
362.07	405.5
362.296	403.5
362.523	380.5
362.749	396.5
362.976	401.5
363.203	407.5
363.429	399.5
363.656	415.5
363.882	386.5
364.109	408.5
364.335	401.5
364.562	413.5
364.788	397.5
365.015	380.5
365.241	391.5
365.468	391.5
365.694	396.5
365.92	400.5
366.147	389.5
366.373	412.5
366.599	406.5
366.826	397.5
367.052	400.5
367.278	391.5
367.505	408.5
367.731	399.5
367.957	411.5
368.184	396.5
368.41	409.5
368.636	409.5
368.862	384.5
369.089	419.5
369.315	425.5
369.541	421.5
369.767	418.5
369.993	419.5
370.219	406.5
370.445	430.5
370.672	423.5
370.898	423.5
371.124	419.5
371.35	430.5
371.576	458.5
371.802	439.5
372.028	447.5
372.254	428.5
372.48	443.5
372.706	447.5
372.932	438.5
373.158	458.5
373.384	447.5
373.61	434.5
373.835	409.5
374.061	424.5
374.287	447.5
374.513	454.5
374.739	458.5
374.965	469.5
375.191	479.5
375.416	469.5
375.642	479.5
375.868	478.5
376.094	454.5
376.319	452.5
376.545	458.5
376.771	427.5
376.997	438.5
377.222	454.5
377.448	434.5
377.674	441.5
377.899	418.5
378.125	410.5
378.35	406.5
378.576	427.5
378.802	428.5
379.027	426.5
379.253	406.5
379.478	424.5
379.704	435.5
379.929	444.5
380.155	434.5
380.38	414.5
380.606	410.5
380.831	429.5
381.057	423.5
381.282	425.5
381.507	428.5
381.733	429.5
381.958	454.5
382.184	421.5
382.409	442.5
382.634	449.5
382.86	447.5
383.085	452.5
383.31	463.5
383.535	478.5
383.761	478.5
383.986	458.5
384.211	471.5
384.436	477.5
384.662	543.5
384.887	531.5
385.112	506.5
385.337	519.5
385.562	504.5
385.787	512.5
386.013	517.5
386.238	506.5
386.463	500.5
386.688	515.5
386.913	513.5
387.138	514.5
387.363	504.5
387.588	506.5
387.813	508.5
388.038	492.5
388.263	502.5
388.488	491.5
388.713	496.5
388.938	500.5
389.163	489.5
389.387	471.5
389.612	491.5
389.837	487.5
390.062	487.5
390.287	502.5
390.512	495.5
390.736	487.5
390.961	495.5
391.186	529.5
391.411	519.5
391.636	550.5
391.86	548.5
392.085	584.5
392.31	603.5
392.534	543.5
392.759	549.5
392.984	550.5
393.208	554.5
393.433	548.5
393.658	538.5
393.882	522.5
394.107	550.5
394.331	552.5
394.556	546.5
394.78	544.5
395.005	542.5
395.229	539.5
395.454	574.5
395.678	580.5
395.903	582.5
396.127	564.5
396.352	559.5
396.576	526.5
396.801	529.5
397.025	554.5
397.249	556.5
397.474	582.5
397.698	539.5
397.922	558.5
398.147	566.5
398.371	568.5
398.595	595.5
398.82	600.5
399.044	631.5
399.268	706.5
399.492	814.5
399.717	955.5
399.941	954.5
400.165	811.5
400.389	740.5
400.613	671.5
400.837	621.5
401.062	644.5
401.286	620.5
401.51	651.5
401.734	628.5
401.958	634.5
402.182	637.5
402.406	624.5
402.63	662.5
402.854	676.5
403.078	685.5
403.302	705.5
403.526	690.5
403.75	717.5
403.974	754.5
404.198	759.5
404.422	746.5
404.645	731.5
404.869	711.5
405.093	716.5
405.317	682.5
405.541	710.5
405.765	700.5
405.988	684.5
406.212	690.5
406.436	667.5
406.66	693.5
406.883	722.5
407.107	760.5
407.331	794.5
407.555	845.5
407.778	809.5
408.002	791.5
408.226	751.5
408.449	767.5
408.673	714.5
408.896	744.5
409.12	713.5
409.344	721.5
409.567	707.5
409.791	737.5
410.014	732.5
410.238	757.5
410.461	742.5
410.685	728.5
410.908	703.5
411.132	667.5
411.355	647.5
411.578	668.5
411.802	646.5
412.025	659.5
412.249	671.5
412.472	692.5
412.695	643.5
412.919	628.5
413.142	630.5
413.365	635.5
413.589	655.5
413.812	621.5
414.035	648.5
414.258	644.5
414.482	648.5
414.705	662.5
414.928	667.5
415.151	661.5
415.374	651.5
415.597	643.5
415.821	626.5
416.044	617.5
416.267	626.5
416.49	638.5
416.713	621.5
416.936	623.5
417.159	638.5
417.382	637.5
417.605	626.5
417.828	634.5
418.051	630.5
418.274	637.5
418.497	615.5
418.72	651.5
418.943	658.5
419.166	696.5
419.389	738.5
419.611	719.5
419.834	686.5
420.057	672.5
420.28	635.5
420.503	641.5
420.726	640.5
420.948	632.5
421.171	638.5
421.394	630.5
421.617	624.5
421.839	642.5
422.062	611.5
422.285	623.5
422.507	647.5
422.73	645.5
422.953	657.5
423.175	674.5
423.398	667.5
423.621	654.5
423.843	699.5
424.066	692.5
424.288	674.5
424.511	656.5
424.733	669.5
424.956	659.5
425.178	651.5
425.401	646.5
425.623	644.5
425.846	627.5
426.068	619.5
426.291	617.5
426.513	618.5
426.735	612.5
426.958	606.5
427.18	596.5
427.402	589.5
427.625	595.5
427.847	579.5
428.069	589.5
428.292	570.5
428.514	570.5
428.736	581.5
428.958	588.5
429.181	566.5
429.403	564.5
429.625	571.5
429.847	569.5
430.069	567.5
430.292	560.5
430.514	581.5
430.736	578.5
430.958	579.5
431.18	548.5
431.402	563.5
431.624	562.5
431.846	578.5
432.068	574.5
432.29	588.5
432.512	575.5
432.734	594.5
432.956	569.5
433.178	599.5
433.4	601.5
433.622	592.5
433.844	603.5
434.066	589.5
434.287	610.5
434.509	615.5
434.731	617.5
434.953	638.5
435.175	657.5
435.397	657.5
435.618	627.5
435.84	577.5
436.062	574.5
436.284	582.5
436.505	591.5
436.727	592.5
436.949	594.5
437.17	587.5
437.392	594.5
437.614	598.5
437.835	553.5
438.057	587.5
438.278	568.5
438.5	564.5
438.721	575.5
438.943	570.5
439.165	576.5
439.386	605.5
439.608	597.5
439.829	592.5
440.05	602.5
440.272	580.5
440.493	582.5
440.715	597.5
440.936	602.5
441.158	624.5
441.379	638.5
441.6	668.5
441.822	688.5
442.043	673.5
442.264	662.5
442.486	636.5
442.707	668.5
442.928	660.5
443.149	651.5
443.371	644.5
443.592	647.5
443.813	679.5
444.034	643.5
444.255	696.5
444.476	717.5
444.698	731.5
444.919	802.5
445.14	834.5
445.361	748.5
445.582	688.5
445.803	634.5
446.024	632.5
446.245	619.5
446.466	610.5
446.687	574.5
446.908	624.5
447.129	606.5
447.35	585.5
447.571	598.5
447.792	562.5
448.013	576.5
448.234	563.5
448.455	572.5
448.675	550.5
448.896	541.5
449.117	536.5
449.338	553.5
449.559	547.5
449.779	558.5
450	551.5
450.221	564.5
450.442	548.5
450.662	569.5
450.883	563.5
451.104	588.5
451.324	564.5
451.545	552.5
451.766	567.5
451.986	600.5
452.207	545.5
452.428	558.5
452.648	564.5
452.869	541.5
453.089	576.5
453.31	564.5
453.53	526.5
453.751	540.5
453.971	540.5
454.192	533.5
454.412	484.5
454.633	545.5
454.853	510.5
455.073	531.5
455.294	517.5
455.514	502.5
455.734	512.5
455.955	504.5
456.175	505.5
456.395	502.5
456.616	499.5
456.836	519.5
457.056	508.5
457.276	497.5
457.497	516.5
457.717	522.5
457.937	527.5
458.157	499.5
458.377	520.5
458.598	540.5
458.818	558.5
459.038	558.5
459.258	564.5
459.478	591.5
459.698	596.5
459.918	619.5
460.138	652.5
460.358	704.5
460.578	717.5
460.798	676.5
461.018	725.5
461.238	672.5
461.458	671.5
461.678	698.5
461.898	700.5
462.118	695.5
462.338	707.5
462.558	748.5
462.777	795.5
462.997	823.5
463.217	909.5
463.437	962.5
463.657	878.5
463.876	808.5
464.096	824.5
464.316	833.5
464.536	834.5
464.755	815.5
464.975	728.5
465.195	719.5
465.414	668.5
465.634	650.5
465.854	635.5
466.073	604.5
466.293	599.5
466.512	582.5
466.732	591.5
466.951	572.5
467.171	586.5
467.391	575.5
467.61	590.5
467.829	584.5
468.049	555.5
468.268	556.5
468.488	549.5
468.707	553.5
468.927	537.5
469.146	553.5
469.365	567.5
469.585	548.5
469.804	576.5
470.023	591.5
470.243	576.5
470.462	586.5
470.681	592.5
470.901	570.5
471.12	578.5
471.339	582.5
471.558	576.5
471.777	574.5
471.997	541.5
472.216	560.5
472.435	539.5
472.654	555.5
472.873	540.5
473.092	526.5
473.311	522.5
473.53	550.5
473.749	544.5
473.968	544.5
474.187	520.5
474.406	531.5
474.625	538.5
474.844	547.5
475.063	518.5
475.282	533.5
475.501	532.5
475.72	535.5
475.939	549.5
476.158	539.5
476.377	558.5
476.596	581.5
476.814	572.5
477.033	563.5
477.252	568.5
477.471	592.5
477.69	602.5
477.908	616.5
478.127	621.5
478.346	639.5
478.564	615.5
478.783	654.5
479.002	647.5
479.22	665.5
479.439	658.5
479.658	644.5
479.876	646.5
480.095	645.5
480.313	693.5
480.532	688.5
480.751	704.5
480.969	671.5
481.188	638.5
481.406	614.5
481.624	602.5
481.843	621.5
482.061	607.5
482.28	602.5
482.498	604.5
482.717	577.5
482.935	588.5
483.153	567.5
483.372	593.5
483.59	616.5
483.808	607.5
484.027	604.5
484.245	606.5
484.463	632.5
484.681	641.5
484.9	642.5
485.118	628.5
485.336	623.5
485.554	632.5
485.772	644.5
485.99	667.5
486.209	644.5
486.427	656.5
486.645	653.5
486.863	652.5
487.081	650.5
487.299	638.5
487.517	632.5
487.735	636.5
487.953	649.5
488.171	636.5
488.389	642.5
488.607	635.5
488.825	644.5
489.043	624.5
489.261	616.5
489.479	614.5
489.696	626.5
489.914	636.5
490.132	623.5
490.35	644.5
490.568	612.5
490.786	636.5
491.003	681.5
491.221	647.5
491.439	640.5
491.657	671.5
491.874	653.5
492.092	663.5
492.31	674.5
492.527	668.5
492.745	638.5
492.963	665.5
493.18	658.5
493.398	681.5
493.615	683.5
493.833	676.5
494.05	686.5
494.268	674.5
494.485	699.5
494.703	658.5
494.92	682.5
495.138	680.5
495.355	697.5
495.573	667.5
495.79	669.5
496.008	678.5
496.225	692.5
496.442	692.5
496.66	723.5
496.877	719.5
497.094	703.5
497.312	700.5
497.529	726.5
497.746	751.5
497.963	747.5
498.181	765.5
498.398	808.5
498.615	854.5
498.832	928.5
499.049	987.5
499.267	1054.5
499.484	1174.5
499.701	1305.5
499.918	1439.5
500.135	1671.5
500.352	1935.5
500.569	2072.5
500.786	2018.5
501.003	1843.5
501.22	1635.5
501.437	1447.5
501.654	1233.5
501.871	1148.5
502.088	1028.5
502.305	966.5
502.522	932.5
502.739	881.5
502.956	867.5
503.172	832.5
503.389	798.5
503.606	774.5
503.823	742.5
504.04	739.5
504.256	771.5
504.473	768.5
504.69	800.5
504.907	789.5
505.123	740.5
505.34	688.5
505.557	647.5
505.773	645.5
505.99	643.5
506.207	634.5
506.423	620.5
506.64	607.5
506.856	597.5
507.073	608.5
507.289	611.5
507.506	607.5
507.722	598.5
507.939	587.5
508.155	573.5
508.372	572.5
508.588	570.5
508.805	575.5
509.021	583.5
509.238	542.5
509.454	589.5
509.67	536.5
509.887	560.5
510.103	563.5
510.319	562.5
510.536	552.5
510.752	544.5
510.968	542.5
511.184	549.5
511.401	546.5
511.617	540.5
511.833	544.5
512.049	543.5
512.265	566.5
512.481	551.5
512.698	562.5
512.914	557.5
513.13	539.5
513.346	548.5
513.562	531.5
513.778	549.5
513.994	544.5
514.21	554.5
514.426	564.5
514.642	572.5
514.858	552.5
515.074	554.5
515.29	589.5
515.506	550.5
515.721	570.5
515.937	607.5
516.153	612.5
516.369	601.5
516.585	609.5
516.801	646.5
517.016	684.5
517.232	709.5
517.448	724.5
517.664	774.5
517.879	762.5
518.095	777.5
518.311	751.5
518.527	695.5
518.742	678.5
518.958	644.5
519.173	642.5
519.389	613.5
