Data from Ni(NO3)2@0.0625M.TitratingCurve.Agarose3%dH2O.NegLispCup.LampEnergy10.LIBS07252019_HRD10591_18-15-43-569.txt Node
Date: Thu Jul 25 18:15:43 EDT 2019
User: cochatt
Spectrometer: HR+D1059
Trigger mode: 1
Integration Time (sec): 1.000000E-1
Scans to average: 1
Electric dark correction enabled: true
Nonlinearity correction enabled: false
Boxcar width: 0
XAxis mode: Wavelengths
Number of Pixels in Spectrum: 2048
>>>>>Begin Spectral Data<<<<<
223.165	-17.56
223.4	-17.56
223.635	-17.56
223.869	-17.56
224.104	-22.56
224.338	-33.56
224.573	-10.56
224.808	-13.56
225.042	6.44
225.277	-15.56
225.511	0.44
225.746	19.44
225.98	7.44
226.215	6.44
226.449	12.44
226.683	17.44
226.918	32.44
227.152	28.44
227.387	30.44
227.621	33.44
227.856	37.44
228.09	35.44
228.324	51.44
228.559	58.44
228.793	69.44
229.027	87.44
229.262	110.44
229.496	105.44
229.73	109.44
229.964	109.44
230.199	105.44
230.433	121.44
230.667	105.44
230.901	112.44
231.136	112.44
231.37	124.44
231.604	124.44
231.838	142.44
232.072	127.44
232.306	133.44
232.541	108.44
232.775	116.44
233.009	129.44
233.243	138.44
233.477	128.44
233.711	141.44
233.945	111.44
234.179	124.44
234.413	120.44
234.647	125.44
234.881	126.44
235.115	132.44
235.349	115.44
235.583	138.44
235.817	116.44
236.051	139.44
236.285	130.44
236.519	134.44
236.753	145.44
236.987	127.44
237.221	135.44
237.455	125.44
237.689	131.44
237.922	125.44
238.156	134.44
238.39	131.44
238.624	139.44
238.858	142.44
239.091	147.44
239.325	162.44
239.559	141.44
239.793	144.44
240.027	145.44
240.26	135.44
240.494	141.44
240.728	150.44
240.961	135.44
241.195	152.44
241.429	136.44
241.662	152.44
241.896	155.44
242.13	154.44
242.363	152.44
242.597	145.44
242.83	159.44
243.064	168.44
243.298	160.44
243.531	155.44
243.765	174.44
243.998	166.44
244.232	165.44
244.465	169.44
244.699	159.44
244.932	166.44
245.166	183.44
245.399	174.44
245.633	169.44
245.866	175.44
246.099	171.44
246.333	173.44
246.566	159.44
246.8	166.44
247.033	168.44
247.266	174.44
247.5	178.44
247.733	173.44
247.966	193.44
248.2	182.44
248.433	188.44
248.666	186.44
248.899	178.44
249.133	177.44
249.366	197.44
249.599	197.44
249.832	181.44
250.066	191.44
250.299	186.44
250.532	178.44
250.765	185.44
250.998	181.44
251.231	195.44
251.465	206.44
251.698	208.44
251.931	202.44
252.164	191.44
252.397	201.44
252.63	190.44
252.863	209.44
253.096	209.44
253.329	212.44
253.562	212.44
253.795	192.44
254.028	205.44
254.261	215.44
254.494	204.44
254.727	213.44
254.96	208.44
255.193	211.44
255.426	214.44
255.659	213.44
255.892	212.44
256.124	221.44
256.357	216.44
256.59	216.44
256.823	218.44
257.056	225.44
257.289	237.44
257.521	232.44
257.754	237.44
257.987	224.44
258.22	245.44
258.452	237.44
258.685	251.44
258.918	240.44
259.151	227.44
259.383	226.44
259.616	233.44
259.849	235.44
260.081	226.44
260.314	220.44
260.547	242.44
260.779	222.44
261.012	233.44
261.244	236.44
261.477	241.44
261.71	246.44
261.942	247.44
262.175	232.44
262.407	245.44
262.64	270.44
262.872	256.44
263.105	243.44
263.337	260.44
263.57	234.44
263.802	240.44
264.035	242.44
264.267	267.44
264.499	233.44
264.732	252.44
264.964	250.44
265.197	243.44
265.429	259.44
265.661	242.44
265.894	254.44
266.126	270.44
266.358	250.44
266.591	267.44
266.823	281.44
267.055	268.44
267.287	278.44
267.52	266.44
267.752	285.44
267.984	284.44
268.216	272.44
268.448	270.44
268.681	260.44
268.913	283.44
269.145	283.44
269.377	289.44
269.609	286.44
269.841	286.44
270.073	294.44
270.306	302.44
270.538	281.44
270.77	290.44
271.002	282.44
271.234	282.44
271.466	288.44
271.698	280.44
271.93	273.44
272.162	298.44
272.394	294.44
272.626	304.44
272.858	284.44
273.09	298.44
273.322	297.44
273.553	277.44
273.785	299.44
274.017	308.44
274.249	303.44
274.481	305.44
274.713	309.44
274.945	317.44
275.176	300.44
275.408	302.44
275.64	292.44
275.872	317.44
276.104	299.44
276.335	301.44
276.567	309.44
276.799	315.44
277.031	324.44
277.262	321.44
277.494	307.44
277.726	307.44
277.957	307.44
278.189	325.44
278.421	329.44
278.652	329.44
278.884	332.44
279.115	317.44
279.347	313.44
279.579	318.44
279.81	326.44
280.042	332.44
280.273	319.44
280.505	338.44
280.736	335.44
280.968	342.44
281.199	324.44
281.431	338.44
281.662	324.44
281.894	349.44
282.125	334.44
282.356	339.44
282.588	339.44
282.819	347.44
283.051	354.44
283.282	336.44
283.513	339.44
283.745	350.44
283.976	355.44
284.207	344.44
284.439	356.44
284.67	342.44
284.901	358.44
285.132	362.44
285.364	365.44
285.595	349.44
285.826	375.44
286.057	354.44
286.288	354.44
286.52	363.44
286.751	363.44
286.982	364.44
287.213	356.44
287.444	372.44
287.675	361.44
287.906	380.44
288.138	374.44
288.369	378.44
288.6	368.44
288.831	377.44
289.062	379.44
289.293	386.44
289.524	378.44
289.755	373.44
289.986	364.44
290.217	382.44
290.448	390.44
290.679	380.44
290.91	394.44
291.141	379.44
291.371	394.44
291.602	386.44
291.833	385.44
292.064	391.44
292.295	391.44
292.526	403.44
292.757	386.44
292.987	376.44
293.218	381.44
293.449	389.44
293.68	385.44
293.91	392.44
294.141	390.44
294.372	375.44
294.603	397.44
294.833	391.44
295.064	410.44
295.295	392.44
295.525	400.44
295.756	406.44
295.987	394.44
296.217	415.44
296.448	390.44
296.679	422.44
296.909	392.44
297.14	389.44
297.37	415.44
297.601	420.44
297.831	431.44
298.062	420.44
298.292	433.44
298.523	434.44
298.753	433.44
298.984	445.44
299.214	446.44
299.445	437.44
299.675	433.44
299.905	438.44
300.136	430.44
300.366	422.44
300.597	456.44
300.827	435.44
301.057	446.44
301.288	443.44
301.518	445.44
301.748	444.44
301.979	443.44
302.209	444.44
302.439	437.44
302.669	440.44
302.9	448.44
303.13	423.44
303.36	436.44
303.59	408.44
303.82	456.44
304.051	457.44
304.281	437.44
304.511	438.44
304.741	440.44
304.971	443.44
305.201	428.44
305.431	450.44
305.661	470.44
305.891	446.44
306.121	452.44
306.352	434.44
306.582	427.44
306.812	446.44
307.042	440.44
307.272	444.44
307.502	425.44
307.731	434.44
307.961	406.44
308.191	440.44
308.421	425.44
308.651	406.44
308.881	429.44
309.111	426.44
309.341	413.44
309.571	444.44
309.8	444.44
310.03	437.44
310.26	449.44
310.49	454.44
310.72	418.44
310.949	428.44
311.179	444.44
311.409	429.44
311.639	451.44
311.868	456.44
312.098	459.44
312.328	462.44
312.557	449.44
312.787	454.44
313.017	460.44
313.246	448.44
313.476	464.44
313.706	472.44
313.935	470.44
314.165	480.44
314.394	451.44
314.624	449.44
314.853	461.44
315.083	462.44
315.312	454.44
315.542	456.44
315.771	452.44
316.001	457.44
316.23	446.44
316.46	442.44
316.689	448.44
316.919	451.44
317.148	473.44
317.377	446.44
317.607	435.44
317.836	450.44
318.065	446.44
318.295	444.44
318.524	432.44
318.753	453.44
318.983	436.44
319.212	440.44
319.441	454.44
319.67	442.44
319.9	468.44
320.129	462.44
320.358	446.44
320.587	447.44
320.816	461.44
321.046	453.44
321.275	453.44
321.504	468.44
321.733	448.44
321.962	463.44
322.191	455.44
322.42	462.44
322.649	474.44
322.878	462.44
323.108	461.44
323.337	465.44
323.566	467.44
323.795	468.44
324.024	460.44
324.253	460.44
324.482	474.44
324.71	471.44
324.939	491.44
325.168	481.44
325.397	473.44
325.626	456.44
325.855	476.44
326.084	491.44
326.313	483.44
326.542	508.44
326.77	526.44
326.999	509.44
327.228	486.44
327.457	484.44
327.686	501.44
327.914	492.44
328.143	498.44
328.372	490.44
328.6	508.44
328.829	479.44
329.058	502.44
329.287	489.44
329.515	513.44
329.744	492.44
329.972	523.44
330.201	490.44
330.43	519.44
330.658	493.44
330.887	506.44
331.115	515.44
331.344	528.44
331.572	518.44
331.801	520.44
332.03	579.44
332.258	535.44
332.486	574.44
332.715	594.44
332.943	601.44
333.172	623.44
333.4	663.44
333.629	688.44
333.857	669.44
334.085	646.44
334.314	636.44
334.542	642.44
334.771	614.44
334.999	624.44
335.227	595.44
335.455	624.44
335.684	627.44
335.912	621.44
336.14	612.44
336.369	608.44
336.597	596.44
336.825	593.44
337.053	591.44
337.281	600.44
337.51	591.44
337.738	576.44
337.966	588.44
338.194	542.44
338.422	552.44
338.65	557.44
338.878	519.44
339.106	530.44
339.334	559.44
339.562	540.44
339.79	526.44
340.018	524.44
340.246	538.44
340.474	528.44
340.702	526.44
340.93	515.44
341.158	545.44
341.386	545.44
341.614	590.44
341.842	553.44
342.07	546.44
342.298	522.44
342.526	548.44
342.754	526.44
342.981	531.44
343.209	524.44
343.437	572.44
343.665	588.44
343.893	630.44
344.12	618.44
344.348	617.44
344.576	601.44
344.804	593.44
345.031	576.44
345.259	534.44
345.487	569.44
345.714	536.44
345.942	536.44
346.17	570.44
346.397	557.44
346.625	535.44
346.853	497.44
347.08	510.44
347.308	524.44
347.535	544.44
347.763	524.44
347.99	538.44
348.218	530.44
348.445	490.44
348.673	530.44
348.9	528.44
349.128	527.44
349.355	511.44
349.583	521.44
349.81	516.44
350.037	496.44
350.265	498.44
350.492	489.44
350.72	496.44
350.947	486.44
351.174	521.44
351.402	523.44
351.629	532.44
351.856	522.44
352.083	488.44
352.311	518.44
352.538	508.44
352.765	506.44
352.992	500.44
353.22	491.44
353.447	477.44
353.674	480.44
353.901	482.44
354.128	484.44
354.355	481.44
354.583	480.44
354.81	497.44
355.037	512.44
355.264	493.44
355.491	496.44
355.718	482.44
355.945	502.44
356.172	524.44
356.399	496.44
356.626	500.44
356.853	496.44
357.08	484.44
357.307	503.44
357.534	491.44
357.761	525.44
357.988	510.44
358.215	515.44
358.441	502.44
358.668	477.44
358.895	498.44
359.122	497.44
359.349	489.44
359.576	484.44
359.802	509.44
360.029	496.44
360.256	496.44
360.483	483.44
360.709	485.44
360.936	476.44
361.163	492.44
361.39	504.44
361.616	485.44
361.843	505.44
362.07	522.44
362.296	518.44
362.523	505.44
362.749	492.44
362.976	471.44
363.203	510.44
363.429	477.44
363.656	484.44
363.882	506.44
364.109	501.44
364.335	482.44
364.562	482.44
364.788	485.44
365.015	501.44
365.241	482.44
365.468	488.44
365.694	479.44
365.92	483.44
366.147	499.44
366.373	521.44
366.599	496.44
366.826	501.44
367.052	475.44
367.278	509.44
367.505	496.44
367.731	492.44
367.957	490.44
368.184	498.44
368.41	498.44
368.636	491.44
368.862	516.44
369.089	498.44
369.315	514.44
369.541	520.44
369.767	502.44
369.993	521.44
370.219	516.44
370.445	524.44
370.672	520.44
370.898	530.44
371.124	524.44
371.35	548.44
371.576	555.44
371.802	518.44
372.028	538.44
372.254	526.44
372.48	532.44
372.706	564.44
372.932	566.44
373.158	557.44
373.384	559.44
373.61	550.44
373.835	557.44
374.061	538.44
374.287	556.44
374.513	562.44
374.739	571.44
374.965	591.44
375.191	603.44
375.416	614.44
375.642	572.44
375.868	572.44
376.094	562.44
376.319	562.44
376.545	563.44
376.771	538.44
376.997	526.44
377.222	539.44
377.448	557.44
377.674	567.44
377.899	534.44
378.125	536.44
378.35	538.44
378.576	535.44
378.802	535.44
379.027	517.44
379.253	537.44
379.478	538.44
379.704	520.44
379.929	512.44
380.155	524.44
380.38	541.44
380.606	528.44
380.831	525.44
381.057	560.44
381.282	542.44
381.507	564.44
381.733	560.44
381.958	554.44
382.184	572.44
382.409	566.44
382.634	557.44
382.86	563.44
383.085	588.44
383.31	571.44
383.535	603.44
383.761	607.44
383.986	606.44
384.211	614.44
384.436	629.44
384.662	654.44
384.887	677.44
385.112	636.44
385.337	644.44
385.562	637.44
385.787	642.44
386.013	673.44
386.238	651.44
386.463	665.44
386.688	639.44
386.913	633.44
387.138	617.44
387.363	616.44
387.588	637.44
387.813	632.44
388.038	632.44
388.263	635.44
388.488	638.44
388.713	634.44
388.938	638.44
389.163	620.44
389.387	610.44
389.612	616.44
389.837	607.44
390.062	616.44
390.287	604.44
390.512	616.44
390.736	649.44
390.961	640.44
391.186	636.44
391.411	661.44
391.636	699.44
391.86	729.44
392.085	711.44
392.31	697.44
392.534	683.44
392.759	692.44
392.984	674.44
393.208	668.44
393.433	680.44
393.658	689.44
393.882	650.44
394.107	677.44
394.331	691.44
394.556	665.44
394.78	682.44
395.005	698.44
395.229	686.44
395.454	712.44
395.678	731.44
395.903	714.44
396.127	714.44
396.352	660.44
396.576	685.44
396.801	670.44
397.025	701.44
397.249	693.44
397.474	708.44
397.698	717.44
397.922	718.44
398.147	684.44
398.371	722.44
398.595	759.44
398.82	779.44
399.044	816.44
399.268	931.44
399.492	1050.44
399.717	1226.44
399.941	1250.44
400.165	1070.44
400.389	935.44
400.613	869.44
400.837	832.44
401.062	821.44
401.286	810.44
401.51	769.44
401.734	790.44
401.958	799.44
402.182	817.44
402.406	811.44
402.63	832.44
402.854	869.44
403.078	881.44
403.302	849.44
403.526	880.44
403.75	910.44
403.974	890.44
404.198	903.44
404.422	918.44
404.645	924.44
404.869	877.44
405.093	916.44
405.317	896.44
405.541	906.44
405.765	853.44
405.988	850.44
406.212	873.44
406.436	860.44
406.66	893.44
406.883	920.44
407.107	940.44
407.331	1026.44
407.555	1030.44
407.778	1048.44
408.002	1002.44
408.226	957.44
408.449	942.44
408.673	904.44
408.896	936.44
409.12	898.44
409.344	912.44
409.567	909.44
409.791	900.44
410.014	925.44
410.238	930.44
410.461	916.44
410.685	896.44
410.908	896.44
411.132	872.44
411.355	834.44
411.578	816.44
411.802	818.44
412.025	811.44
412.249	836.44
412.472	828.44
412.695	828.44
412.919	828.44
413.142	795.44
413.365	784.44
413.589	809.44
413.812	790.44
414.035	796.44
414.258	782.44
414.482	816.44
414.705	799.44
414.928	807.44
415.151	806.44
415.374	804.44
415.597	808.44
415.821	778.44
416.044	773.44
416.267	783.44
416.49	782.44
416.713	778.44
416.936	787.44
417.159	779.44
417.382	775.44
417.605	770.44
417.828	792.44
418.051	802.44
418.274	807.44
418.497	809.44
418.72	804.44
418.943	822.44
419.166	836.44
419.389	883.44
419.611	892.44
419.834	855.44
420.057	822.44
420.28	817.44
420.503	775.44
420.726	770.44
420.948	759.44
421.171	772.44
421.394	788.44
421.617	779.44
421.839	781.44
422.062	792.44
422.285	772.44
422.507	807.44
422.73	792.44
422.953	807.44
423.175	829.44
423.398	834.44
423.621	806.44
423.843	840.44
424.066	846.44
424.288	824.44
424.511	804.44
424.733	829.44
424.956	808.44
425.178	830.44
425.401	818.44
425.623	803.44
425.846	809.44
426.068	764.44
426.291	735.44
426.513	749.44
426.735	748.44
426.958	766.44
427.18	733.44
427.402	715.44
427.625	720.44
427.847	698.44
428.069	704.44
428.292	718.44
428.514	685.44
428.736	714.44
428.958	692.44
429.181	706.44
429.403	699.44
429.625	680.44
429.847	709.44
430.069	681.44
430.292	694.44
430.514	697.44
430.736	702.44
430.958	689.44
431.18	690.44
431.402	681.44
431.624	703.44
431.846	684.44
432.068	715.44
432.29	712.44
432.512	690.44
432.734	722.44
432.956	694.44
433.178	705.44
433.4	711.44
433.622	734.44
433.844	739.44
434.066	722.44
434.287	724.44
434.509	764.44
434.731	781.44
434.953	800.44
435.175	790.44
435.397	802.44
435.618	769.44
435.84	773.44
436.062	701.44
436.284	718.44
436.505	721.44
436.727	705.44
436.949	712.44
437.17	714.44
437.392	705.44
437.614	692.44
437.835	696.44
438.057	694.44
438.278	672.44
438.5	684.44
438.721	685.44
438.943	684.44
439.165	721.44
439.386	704.44
439.608	695.44
439.829	713.44
440.05	704.44
440.272	728.44
440.493	722.44
440.715	708.44
440.936	745.44
441.158	773.44
441.379	749.44
441.6	803.44
441.822	809.44
442.043	813.44
442.264	786.44
442.486	781.44
442.707	770.44
442.928	772.44
443.149	784.44
443.371	800.44
443.592	804.44
443.813	805.44
444.034	804.44
444.255	825.44
444.476	879.44
444.698	914.44
444.919	941.44
445.14	1032.44
445.361	898.44
445.582	836.44
445.803	767.44
446.024	772.44
446.245	754.44
446.466	761.44
446.687	719.44
446.908	730.44
447.129	716.44
447.35	713.44
447.571	709.44
447.792	695.44
448.013	692.44
448.234	682.44
448.455	649.44
448.675	663.44
448.896	652.44
449.117	642.44
449.338	660.44
449.559	649.44
449.779	658.44
450	649.44
450.221	661.44
450.442	664.44
450.662	666.44
450.883	681.44
451.104	694.44
451.324	690.44
451.545	681.44
451.766	691.44
451.986	683.44
452.207	654.44
452.428	652.44
452.648	670.44
452.869	637.44
453.089	682.44
453.31	684.44
453.53	658.44
453.751	654.44
453.971	660.44
454.192	639.44
454.412	626.44
454.633	624.44
454.853	631.44
455.073	620.44
455.294	630.44
455.514	621.44
455.734	625.44
455.955	612.44
456.175	634.44
456.395	624.44
456.616	629.44
456.836	624.44
457.056	598.44
457.276	614.44
457.497	625.44
457.717	640.44
457.937	622.44
458.157	611.44
458.377	639.44
458.598	646.44
458.818	660.44
459.038	697.44
459.258	714.44
459.478	728.44
459.698	753.44
459.918	780.44
460.138	800.44
460.358	830.44
460.578	819.44
460.798	854.44
461.018	868.44
461.238	819.44
461.458	810.44
461.678	831.44
461.898	846.44
462.118	851.44
462.338	907.44
462.558	928.44
462.777	946.44
462.997	1052.44
463.217	1146.44
463.437	1164.44
463.657	1101.44
463.876	1000.44
464.096	1001.44
464.316	1002.44
464.536	998.44
464.755	958.44
464.975	918.44
465.195	844.44
465.414	844.44
465.634	783.44
465.854	729.44
466.073	725.44
466.293	720.44
466.512	690.44
466.732	662.44
466.951	705.44
467.171	733.44
467.391	684.44
467.61	687.44
467.829	700.44
468.049	695.44
468.268	700.44
468.488	673.44
468.707	644.44
468.927	660.44
469.146	660.44
469.365	673.44
469.585	657.44
469.804	687.44
470.023	711.44
470.243	709.44
470.462	706.44
470.681	698.44
470.901	715.44
471.12	696.44
471.339	708.44
471.558	681.44
471.777	690.44
471.997	668.44
472.216	676.44
472.435	658.44
472.654	650.44
472.873	663.44
473.092	640.44
473.311	626.44
473.53	648.44
473.749	632.44
473.968	649.44
474.187	650.44
474.406	645.44
474.625	644.44
474.844	654.44
475.063	649.44
475.282	643.44
475.501	655.44
475.72	658.44
475.939	680.44
476.158	667.44
476.377	681.44
476.596	648.44
476.814	686.44
477.033	675.44
477.252	675.44
477.471	710.44
477.69	726.44
477.908	757.44
478.127	745.44
478.346	770.44
478.564	803.44
478.783	797.44
479.002	810.44
479.22	837.44
479.439	804.44
479.658	798.44
479.876	805.44
480.095	824.44
480.313	880.44
480.532	870.44
480.751	884.44
480.969	821.44
481.188	803.44
481.406	756.44
481.624	756.44
481.843	769.44
482.061	750.44
482.28	749.44
482.498	747.44
482.717	774.44
482.935	743.44
483.153	760.44
483.372	770.44
483.59	756.44
483.808	745.44
484.027	738.44
484.245	742.44
484.463	760.44
484.681	766.44
484.9	779.44
485.118	806.44
485.336	798.44
485.554	804.44
485.772	834.44
485.99	806.44
486.209	819.44
486.427	803.44
486.645	826.44
486.863	798.44
487.081	811.44
487.299	804.44
487.517	794.44
487.735	796.44
487.953	811.44
488.171	787.44
488.389	797.44
488.607	760.44
488.825	780.44
489.043	780.44
489.261	780.44
489.479	756.44
489.696	780.44
489.914	788.44
490.132	786.44
490.35	799.44
490.568	796.44
490.786	792.44
491.003	800.44
491.221	793.44
491.439	804.44
491.657	806.44
491.874	819.44
492.092	794.44
492.31	804.44
492.527	822.44
492.745	788.44
492.963	791.44
493.18	803.44
493.398	802.44
493.615	822.44
493.833	807.44
494.05	819.44
494.268	832.44
494.485	801.44
494.703	788.44
494.92	846.44
495.138	825.44
495.355	810.44
495.573	811.44
495.79	814.44
496.008	830.44
496.225	852.44
496.442	851.44
496.66	862.44
496.877	859.44
497.094	877.44
497.312	890.44
497.529	887.44
497.746	919.44
497.963	954.44
498.181	980.44
498.398	1028.44
498.615	1101.44
498.832	1158.44
499.049	1227.44
499.267	1357.44
499.484	1444.44
499.701	1588.44
499.918	1784.44
500.135	2049.44
500.352	2304.44
500.569	2416.44
500.786	2442.44
501.003	2217.44
501.22	2002.44
