Data from Ni(NO3)2@0.0625M.TitratingCurve.Agarose3%dH2O.NegLispCup.LampEnergy10.LIBS07252019_HRD10591_18-13-31-569.txt Node
Date: Thu Jul 25 18:13:31 EDT 2019
User: cochatt
Spectrometer: HR+D1059
Trigger mode: 1
Integration Time (sec): 1.000000E-1
Scans to average: 1
Electric dark correction enabled: true
Nonlinearity correction enabled: false
Boxcar width: 0
XAxis mode: Wavelengths
Number of Pixels in Spectrum: 2048
>>>>>Begin Spectral Data<<<<<
223.165	-17.81
223.4	-17.81
223.635	-17.81
223.869	-24.81
224.104	-18.81
224.338	-10.81
224.573	-6.81
224.808	-11.81
225.042	-7.81
225.277	1.19
225.511	-7.81
225.746	7.19
225.98	6.19
226.215	15.19
226.449	12.19
226.683	19.19
226.918	17.19
227.152	28.19
227.387	40.19
227.621	41.19
227.856	28.19
228.09	42.19
228.324	54.19
228.559	42.19
228.793	67.19
229.027	111.19
229.262	111.19
229.496	93.19
229.73	94.19
229.964	109.19
230.199	104.19
230.433	114.19
230.667	114.19
230.901	121.19
231.136	108.19
231.37	114.19
231.604	126.19
231.838	112.19
232.072	134.19
232.306	120.19
232.541	103.19
232.775	132.19
233.009	135.19
233.243	142.19
233.477	132.19
233.711	130.19
233.945	140.19
234.179	131.19
234.413	120.19
234.647	123.19
234.881	133.19
235.115	130.19
235.349	126.19
235.583	134.19
235.817	112.19
236.051	116.19
236.285	136.19
236.519	145.19
236.753	128.19
236.987	134.19
237.221	138.19
237.455	138.19
237.689	144.19
237.922	140.19
238.156	135.19
238.39	132.19
238.624	131.19
238.858	148.19
239.091	135.19
239.325	139.19
239.559	154.19
239.793	147.19
240.027	150.19
240.26	138.19
240.494	132.19
240.728	129.19
240.961	156.19
241.195	147.19
241.429	166.19
241.662	151.19
241.896	150.19
242.13	170.19
242.363	159.19
242.597	144.19
242.83	167.19
243.064	148.19
243.298	156.19
243.531	177.19
243.765	171.19
243.998	170.19
244.232	182.19
244.465	167.19
244.699	171.19
244.932	169.19
245.166	168.19
245.399	175.19
245.633	182.19
245.866	187.19
246.099	171.19
246.333	182.19
246.566	174.19
246.8	182.19
247.033	185.19
247.266	193.19
247.5	184.19
247.733	197.19
247.966	190.19
248.2	193.19
248.433	191.19
248.666	187.19
248.899	197.19
249.133	193.19
249.366	203.19
249.599	183.19
249.832	182.19
250.066	210.19
250.299	214.19
250.532	202.19
250.765	201.19
250.998	213.19
251.231	220.19
251.465	201.19
251.698	222.19
251.931	222.19
252.164	224.19
252.397	219.19
252.63	216.19
252.863	223.19
253.096	229.19
253.329	217.19
253.562	231.19
253.795	212.19
254.028	222.19
254.261	207.19
254.494	209.19
254.727	231.19
254.96	234.19
255.193	224.19
255.426	213.19
255.659	228.19
255.892	224.19
256.124	228.19
256.357	245.19
256.59	224.19
256.823	247.19
257.056	228.19
257.289	222.19
257.521	235.19
257.754	247.19
257.987	251.19
258.22	243.19
258.452	215.19
258.685	240.19
258.918	230.19
259.151	246.19
259.383	254.19
259.616	243.19
259.849	259.19
260.081	265.19
260.314	263.19
260.547	264.19
260.779	250.19
261.012	255.19
261.244	254.19
261.477	262.19
261.71	272.19
261.942	268.19
262.175	267.19
262.407	253.19
262.64	266.19
262.872	260.19
263.105	272.19
263.337	269.19
263.57	282.19
263.802	276.19
264.035	280.19
264.267	255.19
264.499	288.19
264.732	262.19
264.964	287.19
265.197	273.19
265.429	282.19
265.661	279.19
265.894	278.19
266.126	292.19
266.358	276.19
266.591	291.19
266.823	282.19
267.055	286.19
267.287	291.19
267.52	287.19
267.752	278.19
267.984	286.19
268.216	307.19
268.448	282.19
268.681	274.19
268.913	280.19
269.145	291.19
269.377	288.19
269.609	297.19
269.841	279.19
270.073	293.19
270.306	305.19
270.538	308.19
270.77	318.19
271.002	314.19
271.234	303.19
271.466	280.19
271.698	296.19
271.93	319.19
272.162	327.19
272.394	298.19
272.626	311.19
272.858	316.19
273.09	323.19
273.322	299.19
273.553	308.19
273.785	318.19
274.017	323.19
274.249	322.19
274.481	321.19
274.713	311.19
274.945	336.19
275.176	319.19
275.408	323.19
275.64	332.19
275.872	314.19
276.104	326.19
276.335	332.19
276.567	324.19
276.799	326.19
277.031	331.19
277.262	325.19
277.494	317.19
277.726	321.19
277.957	329.19
278.189	332.19
278.421	332.19
278.652	352.19
278.884	336.19
279.115	343.19
279.347	359.19
279.579	343.19
279.81	360.19
280.042	333.19
280.273	348.19
280.505	354.19
280.736	354.19
280.968	338.19
281.199	356.19
281.431	355.19
281.662	366.19
281.894	367.19
282.125	375.19
282.356	364.19
282.588	356.19
282.819	366.19
283.051	359.19
283.282	342.19
283.513	368.19
283.745	360.19
283.976	370.19
284.207	348.19
284.439	358.19
284.67	378.19
284.901	378.19
285.132	371.19
285.364	377.19
285.595	384.19
285.826	392.19
286.057	395.19
286.288	388.19
286.52	368.19
286.751	392.19
286.982	399.19
287.213	375.19
287.444	392.19
287.675	393.19
287.906	390.19
288.138	394.19
288.369	387.19
288.6	412.19
288.831	390.19
289.062	390.19
289.293	405.19
289.524	379.19
289.755	397.19
289.986	410.19
290.217	401.19
290.448	409.19
290.679	412.19
290.91	400.19
291.141	406.19
291.371	417.19
291.602	404.19
291.833	402.19
292.064	419.19
292.295	417.19
292.526	392.19
292.757	406.19
292.987	384.19
293.218	394.19
293.449	421.19
293.68	407.19
293.91	416.19
294.141	414.19
294.372	399.19
294.603	412.19
294.833	422.19
295.064	415.19
295.295	416.19
295.525	416.19
295.756	426.19
295.987	412.19
296.217	431.19
296.448	441.19
296.679	422.19
296.909	443.19
297.14	434.19
297.37	439.19
297.601	452.19
297.831	459.19
298.062	458.19
298.292	437.19
298.523	464.19
298.753	471.19
298.984	433.19
299.214	450.19
299.445	439.19
299.675	462.19
299.905	462.19
300.136	449.19
300.366	448.19
300.597	476.19
300.827	456.19
301.057	455.19
301.288	471.19
301.518	491.19
301.748	461.19
301.979	471.19
302.209	459.19
302.439	465.19
302.669	451.19
302.9	458.19
303.13	463.19
303.36	442.19
303.59	443.19
303.82	464.19
304.051	450.19
304.281	454.19
304.511	438.19
304.741	466.19
304.971	464.19
305.201	463.19
305.431	460.19
305.661	463.19
305.891	452.19
306.121	469.19
306.352	460.19
306.582	437.19
306.812	440.19
307.042	450.19
307.272	459.19
307.502	445.19
307.731	456.19
307.961	442.19
308.191	448.19
308.421	432.19
308.651	441.19
308.881	455.19
309.111	455.19
309.341	433.19
309.571	476.19
309.8	457.19
310.03	455.19
310.26	440.19
310.49	460.19
310.72	471.19
310.949	438.19
311.179	458.19
311.409	467.19
311.639	458.19
311.868	459.19
312.098	468.19
312.328	455.19
312.557	476.19
312.787	451.19
313.017	466.19
313.246	479.19
313.476	468.19
313.706	482.19
313.935	487.19
314.165	476.19
314.394	465.19
314.624	476.19
314.853	458.19
315.083	503.19
315.312	485.19
315.542	469.19
315.771	448.19
316.001	455.19
316.23	453.19
316.46	456.19
316.689	466.19
316.919	476.19
317.148	455.19
317.377	490.19
317.607	458.19
317.836	479.19
318.065	457.19
318.295	449.19
318.524	459.19
318.753	481.19
318.983	468.19
319.212	469.19
319.441	454.19
319.67	459.19
319.9	484.19
320.129	461.19
320.358	460.19
320.587	463.19
320.816	453.19
321.046	478.19
321.275	499.19
321.504	464.19
321.733	473.19
321.962	462.19
322.191	478.19
322.42	480.19
322.649	458.19
322.878	467.19
323.108	469.19
323.337	462.19
323.566	477.19
323.795	468.19
324.024	481.19
324.253	483.19
324.482	476.19
324.71	458.19
324.939	479.19
325.168	491.19
325.397	496.19
325.626	489.19
325.855	519.19
326.084	512.19
326.313	508.19
326.542	524.19
326.77	543.19
326.999	534.19
327.228	536.19
327.457	490.19
327.686	501.19
327.914	506.19
328.143	513.19
328.372	504.19
328.6	521.19
328.829	537.19
329.058	508.19
329.287	483.19
329.515	518.19
329.744	512.19
329.972	515.19
330.201	527.19
330.43	539.19
330.658	545.19
330.887	532.19
331.115	528.19
331.344	560.19
331.572	527.19
331.801	561.19
332.03	564.19
332.258	593.19
332.486	599.19
332.715	634.19
332.943	652.19
333.172	678.19
333.4	748.19
333.629	708.19
333.857	723.19
334.085	689.19
334.314	692.19
334.542	668.19
334.771	680.19
334.999	673.19
335.227	654.19
335.455	656.19
335.684	622.19
335.912	651.19
336.14	656.19
336.369	632.19
336.597	604.19
336.825	627.19
337.053	631.19
337.281	629.19
337.51	597.19
337.738	581.19
337.966	574.19
338.194	597.19
338.422	568.19
338.65	559.19
338.878	570.19
339.106	582.19
339.334	564.19
339.562	546.19
339.79	531.19
340.018	530.19
340.246	539.19
340.474	566.19
340.702	547.19
340.93	546.19
341.158	546.19
341.386	541.19
341.614	539.19
341.842	560.19
342.07	536.19
342.298	548.19
342.526	534.19
342.754	537.19
342.981	519.19
343.209	541.19
343.437	580.19
343.665	628.19
343.893	683.19
344.12	690.19
344.348	666.19
344.576	614.19
344.804	592.19
345.031	564.19
345.259	574.19
345.487	554.19
345.714	566.19
345.942	525.19
346.17	574.19
346.397	530.19
346.625	536.19
346.853	536.19
347.08	534.19
347.308	539.19
347.535	555.19
347.763	554.19
347.99	576.19
348.218	561.19
348.445	558.19
348.673	543.19
348.9	539.19
349.128	538.19
349.355	520.19
349.583	498.19
349.81	496.19
350.037	521.19
350.265	510.19
350.492	507.19
350.72	500.19
350.947	503.19
351.174	516.19
351.402	527.19
351.629	520.19
351.856	511.19
352.083	496.19
352.311	503.19
352.538	498.19
352.765	502.19
352.992	515.19
353.22	513.19
353.447	521.19
353.674	515.19
353.901	519.19
354.128	500.19
354.355	498.19
354.583	505.19
354.81	491.19
355.037	520.19
355.264	520.19
355.491	508.19
355.718	513.19
355.945	498.19
356.172	504.19
356.399	518.19
356.626	505.19
356.853	510.19
357.08	516.19
357.307	500.19
357.534	510.19
357.761	511.19
357.988	522.19
358.215	516.19
358.441	500.19
358.668	500.19
358.895	510.19
359.122	501.19
359.349	511.19
359.576	515.19
359.802	512.19
360.029	499.19
360.256	512.19
360.483	520.19
360.709	501.19
360.936	518.19
361.163	502.19
361.39	518.19
361.616	498.19
361.843	529.19
362.07	515.19
362.296	528.19
362.523	510.19
362.749	520.19
362.976	511.19
363.203	491.19
363.429	503.19
363.656	515.19
363.882	500.19
364.109	482.19
364.335	469.19
364.562	497.19
364.788	484.19
365.015	527.19
365.241	496.19
365.468	502.19
365.694	513.19
365.92	513.19
366.147	490.19
366.373	507.19
366.599	512.19
366.826	495.19
367.052	494.19
367.278	511.19
367.505	506.19
367.731	503.19
367.957	511.19
368.184	512.19
368.41	523.19
368.636	512.19
368.862	524.19
369.089	502.19
369.315	515.19
369.541	528.19
369.767	542.19
369.993	520.19
370.219	538.19
370.445	539.19
370.672	527.19
370.898	537.19
371.124	550.19
371.35	566.19
371.576	541.19
371.802	558.19
372.028	528.19
372.254	577.19
372.48	553.19
372.706	576.19
372.932	554.19
373.158	570.19
373.384	564.19
373.61	547.19
373.835	560.19
374.061	539.19
374.287	562.19
374.513	580.19
374.739	599.19
374.965	619.19
375.191	607.19
375.416	635.19
375.642	604.19
375.868	598.19
376.094	575.19
376.319	573.19
376.545	575.19
376.771	560.19
376.997	560.19
377.222	569.19
377.448	549.19
377.674	548.19
377.899	554.19
378.125	533.19
378.35	537.19
378.576	543.19
378.802	553.19
379.027	547.19
379.253	568.19
379.478	558.19
379.704	554.19
379.929	549.19
380.155	544.19
380.38	568.19
380.606	544.19
380.831	510.19
381.057	558.19
381.282	563.19
381.507	551.19
381.733	553.19
381.958	554.19
382.184	559.19
382.409	564.19
382.634	606.19
382.86	578.19
383.085	579.19
383.31	608.19
383.535	602.19
383.761	616.19
383.986	621.19
384.211	636.19
384.436	661.19
384.662	667.19
384.887	649.19
385.112	638.19
385.337	677.19
385.562	691.19
385.787	662.19
386.013	684.19
386.238	676.19
386.463	670.19
386.688	658.19
386.913	653.19
387.138	638.19
387.363	647.19
387.588	666.19
387.813	642.19
388.038	647.19
388.263	662.19
388.488	670.19
388.713	650.19
388.938	647.19
389.163	642.19
389.387	642.19
389.612	657.19
389.837	647.19
390.062	659.19
390.287	661.19
390.512	636.19
390.736	652.19
390.961	680.19
391.186	655.19
391.411	698.19
391.636	716.19
391.86	725.19
392.085	752.19
392.31	782.19
392.534	740.19
392.759	712.19
392.984	681.19
393.208	698.19
393.433	687.19
393.658	713.19
393.882	690.19
394.107	725.19
394.331	728.19
394.556	714.19
394.78	726.19
395.005	723.19
395.229	687.19
395.454	735.19
395.678	755.19
395.903	738.19
396.127	762.19
396.352	715.19
396.576	694.19
396.801	681.19
397.025	706.19
397.249	727.19
397.474	716.19
397.698	728.19
397.922	713.19
398.147	748.19
398.371	759.19
398.595	748.19
398.82	802.19
399.044	840.19
399.268	935.19
399.492	1103.19
399.717	1301.19
399.941	1313.19
400.165	1071.19
400.389	1008.19
400.613	924.19
400.837	875.19
401.062	836.19
401.286	820.19
401.51	821.19
401.734	811.19
401.958	835.19
402.182	854.19
402.406	874.19
402.63	856.19
402.854	883.19
403.078	892.19
403.302	930.19
403.526	962.19
403.75	980.19
403.974	998.19
404.198	1003.19
404.422	990.19
404.645	999.19
404.869	971.19
405.093	961.19
405.317	929.19
405.541	939.19
405.765	902.19
405.988	910.19
406.212	928.19
406.436	918.19
406.66	927.19
406.883	937.19
407.107	1028.19
407.331	1034.19
407.555	1148.19
407.778	1100.19
408.002	1039.19
408.226	1044.19
408.449	989.19
408.673	955.19
408.896	919.19
409.12	960.19
409.344	962.19
409.567	971.19
409.791	978.19
410.014	997.19
410.238	985.19
410.461	957.19
410.685	958.19
410.908	906.19
411.132	890.19
411.355	861.19
411.578	864.19
411.802	874.19
412.025	880.19
412.249	879.19
412.472	868.19
412.695	847.19
412.919	818.19
413.142	841.19
413.365	802.19
413.589	846.19
413.812	843.19
414.035	833.19
414.258	829.19
414.482	828.19
414.705	859.19
414.928	839.19
415.151	829.19
415.374	837.19
415.597	861.19
415.821	828.19
416.044	825.19
416.267	819.19
416.49	844.19
416.713	804.19
416.936	803.19
417.159	805.19
417.382	836.19
417.605	830.19
417.828	824.19
418.051	810.19
418.274	826.19
418.497	852.19
418.72	866.19
418.943	863.19
419.166	900.19
419.389	969.19
419.611	942.19
419.834	899.19
420.057	881.19
420.28	848.19
420.503	830.19
420.726	822.19
420.948	807.19
421.171	809.19
421.394	838.19
421.617	822.19
421.839	826.19
422.062	838.19
422.285	838.19
422.507	855.19
422.73	841.19
422.953	865.19
423.175	880.19
423.398	920.19
423.621	864.19
423.843	904.19
424.066	878.19
424.288	880.19
424.511	906.19
424.733	889.19
424.956	846.19
425.178	852.19
425.401	853.19
425.623	824.19
425.846	790.19
426.068	793.19
426.291	793.19
426.513	792.19
426.735	779.19
426.958	759.19
427.18	744.19
427.402	754.19
427.625	743.19
427.847	727.19
428.069	744.19
428.292	753.19
428.514	718.19
428.736	729.19
428.958	739.19
429.181	697.19
429.403	735.19
429.625	722.19
429.847	703.19
430.069	702.19
430.292	715.19
430.514	727.19
430.736	714.19
430.958	730.19
431.18	718.19
431.402	711.19
431.624	719.19
431.846	724.19
432.068	751.19
432.29	730.19
432.512	737.19
432.734	720.19
432.956	746.19
433.178	736.19
433.4	737.19
433.622	763.19
433.844	760.19
434.066	748.19
434.287	743.19
434.509	782.19
434.731	814.19
434.953	850.19
435.175	858.19
435.397	822.19
435.618	785.19
435.84	778.19
436.062	753.19
436.284	744.19
436.505	748.19
436.727	736.19
436.949	731.19
437.17	706.19
437.392	719.19
437.614	716.19
437.835	691.19
438.057	735.19
438.278	714.19
438.5	722.19
438.721	730.19
438.943	722.19
439.165	722.19
439.386	717.19
439.608	745.19
439.829	743.19
440.05	741.19
440.272	754.19
440.493	730.19
440.715	766.19
440.936	766.19
441.158	791.19
441.379	775.19
441.6	855.19
441.822	843.19
442.043	860.19
442.264	840.19
442.486	825.19
442.707	833.19
442.928	800.19
443.149	842.19
443.371	843.19
443.592	866.19
443.813	864.19
444.034	840.19
444.255	865.19
444.476	935.19
444.698	987.19
444.919	1050.19
445.14	1107.19
445.361	979.19
445.582	871.19
445.803	811.19
446.024	787.19
446.245	811.19
446.466	770.19
446.687	754.19
446.908	758.19
447.129	721.19
447.35	741.19
447.571	724.19
447.792	703.19
448.013	700.19
448.234	672.19
448.455	703.19
448.675	714.19
448.896	698.19
449.117	651.19
449.338	710.19
449.559	693.19
449.779	696.19
450	690.19
450.221	674.19
450.442	703.19
450.662	686.19
450.883	696.19
451.104	724.19
451.324	727.19
451.545	696.19
451.766	708.19
451.986	714.19
452.207	733.19
452.428	731.19
452.648	707.19
452.869	702.19
453.089	698.19
453.31	694.19
453.53	691.19
453.751	686.19
453.971	698.19
454.192	688.19
454.412	686.19
454.633	685.19
454.853	663.19
455.073	654.19
455.294	653.19
455.514	649.19
455.734	670.19
455.955	652.19
456.175	628.19
456.395	630.19
456.616	648.19
456.836	627.19
457.056	620.19
457.276	635.19
457.497	668.19
457.717	636.19
457.937	665.19
458.157	659.19
458.377	649.19
458.598	678.19
458.818	684.19
459.038	710.19
459.258	733.19
459.478	760.19
459.698	824.19
459.918	776.19
460.138	863.19
460.358	883.19
460.578	898.19
460.798	914.19
461.018	922.19
461.238	897.19
461.458	879.19
461.678	902.19
461.898	874.19
462.118	896.19
462.338	958.19
462.558	971.19
462.777	1026.19
462.997	1131.19
463.217	1226.19
463.437	1261.19
463.657	1122.19
463.876	1067.19
464.096	1061.19
464.316	1043.19
464.536	1082.19
464.755	1030.19
464.975	986.19
465.195	936.19
465.414	862.19
465.634	802.19
465.854	775.19
466.073	762.19
466.293	762.19
466.512	740.19
466.732	735.19
466.951	735.19
467.171	729.19
467.391	720.19
467.61	727.19
467.829	722.19
468.049	716.19
468.268	705.19
468.488	681.19
468.707	697.19
468.927	695.19
469.146	669.19
469.365	704.19
469.585	706.19
469.804	713.19
470.023	742.19
470.243	734.19
470.462	753.19
470.681	762.19
470.901	761.19
471.12	719.19
471.339	715.19
471.558	703.19
471.777	705.19
471.997	714.19
472.216	692.19
472.435	691.19
472.654	694.19
472.873	685.19
473.092	666.19
473.311	658.19
473.53	651.19
473.749	674.19
473.968	696.19
474.187	681.19
474.406	691.19
474.625	682.19
474.844	672.19
475.063	658.19
475.282	667.19
475.501	667.19
475.72	686.19
475.939	668.19
476.158	692.19
476.377	702.19
476.596	684.19
476.814	694.19
477.033	720.19
477.252	727.19
477.471	740.19
477.69	774.19
477.908	792.19
478.127	804.19
478.346	812.19
478.564	843.19
478.783	839.19
479.002	856.19
479.22	877.19
479.439	855.19
479.658	815.19
479.876	855.19
480.095	831.19
480.313	899.19
480.532	924.19
480.751	912.19
480.969	874.19
481.188	842.19
481.406	832.19
481.624	802.19
481.843	766.19
482.061	759.19
482.28	773.19
482.498	779.19
482.717	784.19
482.935	755.19
483.153	761.19
483.372	736.19
483.59	778.19
483.808	785.19
484.027	798.19
484.245	784.19
484.463	759.19
484.681	794.19
484.9	794.19
485.118	800.19
485.336	806.19
485.554	814.19
485.772	816.19
485.99	811.19
486.209	846.19
486.427	835.19
486.645	816.19
486.863	823.19
487.081	833.19
487.299	814.19
487.517	818.19
487.735	811.19
487.953	815.19
488.171	826.19
488.389	855.19
488.607	806.19
488.825	767.19
489.043	788.19
489.261	778.19
489.479	806.19
489.696	815.19
489.914	788.19
490.132	803.19
490.35	805.19
490.568	817.19
490.786	792.19
491.003	790.19
491.221	785.19
491.439	805.19
491.657	811.19
491.874	829.19
492.092	834.19
492.31	812.19
492.527	830.19
492.745	838.19
492.963	822.19
493.18	837.19
493.398	829.19
493.615	857.19
493.833	844.19
494.05	836.19
494.268	863.19
494.485	854.19
494.703	852.19
494.92	850.19
495.138	884.19
495.355	859.19
495.573	863.19
495.79	849.19
496.008	872.19
496.225	846.19
496.442	865.19
496.66	896.19
496.877	890.19
497.094	896.19
497.312	922.19
497.529	904.19
497.746	935.19
497.963	968.19
498.181	999.19
498.398	1085.19
498.615	1095.19
498.832	1205.19
499.049	1258.19
499.267	1406.19
499.484	1556.19
499.701	1699.19
499.918	1911.19
500.135	2252.19
500.352	2634.19
500.569	2756.19
500.786	2701.19
501.003	2509.19
