Data from Ni(NO3)2@0.0625M.TitratingCurve.Agarose3%dH2O.NegLispCup.LampEnergy10.LIBS07252019_HRD10591_18-13-13-568.txt Node
Date: Thu Jul 25 18:13:13 EDT 2019
User: cochatt
Spectrometer: HR+D1059
Trigger mode: 1
Integration Time (sec): 1.000000E-1
Scans to average: 1
Electric dark correction enabled: true
Nonlinearity correction enabled: false
Boxcar width: 0
XAxis mode: Wavelengths
Number of Pixels in Spectrum: 2048
>>>>>Begin Spectral Data<<<<<
223.165	-10
223.4	-10
223.635	-10
223.869	-22
224.104	-23
224.338	-13
224.573	-17
224.808	-24
225.042	-3
225.277	0
225.511	-4
225.746	12
225.98	11
226.215	20
226.449	17
226.683	16
226.918	6
227.152	34
227.387	41
227.621	32
227.856	33
228.09	45
228.324	57
228.559	60
228.793	71
229.027	99
229.262	108
229.496	112
229.73	99
229.964	110
230.199	132
230.433	112
230.667	118
230.901	125
231.136	117
231.37	128
231.604	118
231.838	109
232.072	126
232.306	139
232.541	118
232.775	135
233.009	130
233.243	118
233.477	125
233.711	130
233.945	124
234.179	120
234.413	135
234.647	133
234.881	140
235.115	128
235.349	123
235.583	156
235.817	135
236.051	143
236.285	145
236.519	145
236.753	141
236.987	141
237.221	140
237.455	137
237.689	148
237.922	144
238.156	142
238.39	139
238.624	133
238.858	140
239.091	152
239.325	156
239.559	156
239.793	141
240.027	150
240.26	141
240.494	148
240.728	148
240.961	154
241.195	162
241.429	164
241.662	160
241.896	160
242.13	162
242.363	134
242.597	161
242.83	179
243.064	174
243.298	172
243.531	180
243.765	180
243.998	185
244.232	178
244.465	172
244.699	173
244.932	179
245.166	176
245.399	201
245.633	185
245.866	192
246.099	184
246.333	173
246.566	197
246.8	182
247.033	197
247.266	194
247.5	183
247.733	194
247.966	195
248.2	198
248.433	205
248.666	215
248.899	207
249.133	204
249.366	196
249.599	209
249.832	220
250.066	206
250.299	206
250.532	196
250.765	204
250.998	217
251.231	216
251.465	213
251.698	210
251.931	212
252.164	207
252.397	223
252.63	219
252.863	226
253.096	219
253.329	210
253.562	210
253.795	228
254.028	248
254.261	238
254.494	239
254.727	228
254.96	230
255.193	244
255.426	236
255.659	244
255.892	227
256.124	238
256.357	245
256.59	240
256.823	238
257.056	237
257.289	253
257.521	256
257.754	245
257.987	222
258.22	252
258.452	237
258.685	237
258.918	244
259.151	256
259.383	235
259.616	264
259.849	251
260.081	261
260.314	260
260.547	254
260.779	283
261.012	272
261.244	280
261.477	269
261.71	286
261.942	284
262.175	269
262.407	263
262.64	264
262.872	262
263.105	254
263.337	270
263.57	275
263.802	293
264.035	288
264.267	296
264.499	301
264.732	275
264.964	266
265.197	309
265.429	308
265.661	291
265.894	293
266.126	305
266.358	270
266.591	301
266.823	305
267.055	289
267.287	294
267.52	300
267.752	287
267.984	298
268.216	306
268.448	314
268.681	274
268.913	292
269.145	304
269.377	295
269.609	304
269.841	310
270.073	315
270.306	292
270.538	301
270.77	319
271.002	326
271.234	315
271.466	308
271.698	310
271.93	311
272.162	312
272.394	316
272.626	312
272.858	302
273.09	329
273.322	339
273.553	334
273.785	324
274.017	335
274.249	338
274.481	344
274.713	338
274.945	346
275.176	337
275.408	330
275.64	340
275.872	334
276.104	341
276.335	337
276.567	342
276.799	336
277.031	352
277.262	333
277.494	354
277.726	355
277.957	358
278.189	361
278.421	313
278.652	339
278.884	349
279.115	350
279.347	356
279.579	360
279.81	367
280.042	352
280.273	364
280.505	365
280.736	378
280.968	372
281.199	384
281.431	367
281.662	380
281.894	378
282.125	382
282.356	393
282.588	396
282.819	372
283.051	369
283.282	372
283.513	380
283.745	373
283.976	376
284.207	386
284.439	388
284.67	390
284.901	406
285.132	380
285.364	398
285.595	393
285.826	401
286.057	405
286.288	382
286.52	420
286.751	415
286.982	421
287.213	413
287.444	420
287.675	421
287.906	416
288.138	444
288.369	413
288.6	413
288.831	427
289.062	414
289.293	414
289.524	429
289.755	434
289.986	450
290.217	421
290.448	443
290.679	424
290.91	418
291.141	429
291.371	422
291.602	421
291.833	439
292.064	424
292.295	422
292.526	424
292.757	441
292.987	422
293.218	411
293.449	425
293.68	423
293.91	422
294.141	428
294.372	409
294.603	420
294.833	432
295.064	422
295.295	418
295.525	441
295.756	428
295.987	440
296.217	436
296.448	434
296.679	446
296.909	454
297.14	458
297.37	462
297.601	441
297.831	465
298.062	441
298.292	453
298.523	493
298.753	506
298.984	482
299.214	455
299.445	461
299.675	453
299.905	479
300.136	472
300.366	466
300.597	492
300.827	481
301.057	482
301.288	500
301.518	502
301.748	492
301.979	495
302.209	476
302.439	471
302.669	489
302.9	477
303.13	476
303.36	474
303.59	467
303.82	506
304.051	460
304.281	496
304.511	460
304.741	472
304.971	460
305.201	466
305.431	464
305.661	484
305.891	480
306.121	459
306.352	487
306.582	480
306.812	480
307.042	460
307.272	481
307.502	463
307.731	474
307.961	503
308.191	466
308.421	468
308.651	486
308.881	469
309.111	469
309.341	490
309.571	478
309.8	480
310.03	470
310.26	466
310.49	475
310.72	485
310.949	481
311.179	486
311.409	519
311.639	476
311.868	475
312.098	501
312.328	487
312.557	488
312.787	489
313.017	512
313.246	488
313.476	496
313.706	497
313.935	501
314.165	528
314.394	514
314.624	519
314.853	512
315.083	505
315.312	487
315.542	504
315.771	513
316.001	507
316.23	493
316.46	469
316.689	484
316.919	506
317.148	496
317.377	508
317.607	507
317.836	490
318.065	508
318.295	506
318.524	512
318.753	488
318.983	496
319.212	483
319.441	486
319.67	497
319.9	491
320.129	484
320.358	497
320.587	487
320.816	496
321.046	526
321.275	485
321.504	476
321.733	522
321.962	513
322.191	512
322.42	510
322.649	518
322.878	496
323.108	504
323.337	515
323.566	495
323.795	507
324.024	515
324.253	517
324.482	516
324.71	516
324.939	516
325.168	546
325.397	534
325.626	531
325.855	512
326.084	562
326.313	550
326.542	530
326.77	556
326.999	536
327.228	563
327.457	532
327.686	540
327.914	538
328.143	532
328.372	566
328.6	565
328.829	553
329.058	537
329.287	542
329.515	547
329.744	560
329.972	566
330.201	550
330.43	565
330.658	571
330.887	565
331.115	575
331.344	565
331.572	584
331.801	605
332.03	613
332.258	631
332.486	642
332.715	688
332.943	704
333.172	735
333.4	725
333.629	756
333.857	739
334.085	768
334.314	729
334.542	722
334.771	711
334.999	700
335.227	673
335.455	678
335.684	680
335.912	681
336.14	681
336.369	649
336.597	682
336.825	676
337.053	673
337.281	668
337.51	640
337.738	637
337.966	630
338.194	616
338.422	613
338.65	611
338.878	596
339.106	618
339.334	598
339.562	586
339.79	605
340.018	578
340.246	599
340.474	581
340.702	587
340.93	583
341.158	600
341.386	584
341.614	567
341.842	575
342.07	576
342.298	566
342.526	569
342.754	587
342.981	571
343.209	588
343.437	620
343.665	672
343.893	694
344.12	729
344.348	691
344.576	651
344.804	621
345.031	609
345.259	606
345.487	594
345.714	568
345.942	579
346.17	578
346.397	577
346.625	563
346.853	562
347.08	582
347.308	579
347.535	553
347.763	574
347.99	568
348.218	586
348.445	586
348.673	563
348.9	578
349.128	581
349.355	560
349.583	578
349.81	554
350.037	527
350.265	560
350.492	544
350.72	550
350.947	549
351.174	524
351.402	533
351.629	551
351.856	571
352.083	539
352.311	536
352.538	554
352.765	538
352.992	517
353.22	528
353.447	550
353.674	540
353.901	534
354.128	539
354.355	557
354.583	539
354.81	560
355.037	576
355.264	577
355.491	552
355.718	565
355.945	558
356.172	530
356.399	537
356.626	544
356.853	560
357.08	562
357.307	552
357.534	562
357.761	564
357.988	548
358.215	524
358.441	540
358.668	552
358.895	541
359.122	551
359.349	564
359.576	546
359.802	539
360.029	548
360.256	557
360.483	540
360.709	565
360.936	550
361.163	566
361.39	542
361.616	546
361.843	536
362.07	529
362.296	540
362.523	536
362.749	538
362.976	523
363.203	562
363.429	552
363.656	545
363.882	527
364.109	539
364.335	562
364.562	553
364.788	534
365.015	536
365.241	548
365.468	546
365.694	524
365.92	532
366.147	532
366.373	545
366.599	525
366.826	557
367.052	547
367.278	558
367.505	561
367.731	549
367.957	548
368.184	546
368.41	550
368.636	545
368.862	554
369.089	560
369.315	578
369.541	571
369.767	580
369.993	575
370.219	563
370.445	578
370.672	589
370.898	580
371.124	580
371.35	607
371.576	613
371.802	592
372.028	612
372.254	583
372.48	579
372.706	601
372.932	605
373.158	608
373.384	609
373.61	611
373.835	608
374.061	585
374.287	610
374.513	616
374.739	631
374.965	665
375.191	666
375.416	660
375.642	638
375.868	644
376.094	640
376.319	612
376.545	618
376.771	614
376.997	596
377.222	585
377.448	567
377.674	570
377.899	594
378.125	609
378.35	588
378.576	581
378.802	570
379.027	604
379.253	591
379.478	585
379.704	575
379.929	591
380.155	582
380.38	564
380.606	559
380.831	600
381.057	594
381.282	573
381.507	578
381.733	607
381.958	586
382.184	605
382.409	610
382.634	614
382.86	633
383.085	633
383.31	648
383.535	673
383.761	673
383.986	666
384.211	659
384.436	679
384.662	677
384.887	723
385.112	713
385.337	724
385.562	730
385.787	705
386.013	716
386.238	718
386.463	717
386.688	712
386.913	714
387.138	708
387.363	690
387.588	663
387.813	714
388.038	709
388.263	694
388.488	700
388.713	707
388.938	721
389.163	696
389.387	702
389.612	704
389.837	688
390.062	706
390.287	698
390.512	720
390.736	707
390.961	704
391.186	753
391.411	730
391.636	765
391.86	794
392.085	787
392.31	788
392.534	789
392.759	756
392.984	750
393.208	747
393.433	728
393.658	777
393.882	771
394.107	765
394.331	772
394.556	739
394.78	745
395.005	756
395.229	785
395.454	790
395.678	797
395.903	800
396.127	746
396.352	748
396.576	745
396.801	725
397.025	748
397.249	756
397.474	781
397.698	794
397.922	804
398.147	807
398.371	809
398.595	857
398.82	877
399.044	901
399.268	1024
399.492	1219
399.717	1371
399.941	1372
400.165	1185
400.389	1070
400.613	954
400.837	915
401.062	890
401.286	900
401.51	891
401.734	893
401.958	889
402.182	877
402.406	922
402.63	940
402.854	957
403.078	967
403.302	1005
403.526	1058
403.75	1052
403.974	1027
404.198	1028
404.422	1032
404.645	1022
404.869	1011
405.093	1019
405.317	990
405.541	984
405.765	946
405.988	941
406.212	939
406.436	929
406.66	1020
406.883	1024
407.107	1073
407.331	1122
407.555	1152
407.778	1160
408.002	1101
408.226	1088
408.449	1054
408.673	1033
408.896	1008
409.12	1010
409.344	1015
409.567	989
409.791	1032
410.014	1007
410.238	1013
410.461	972
410.685	1001
410.908	968
411.132	976
411.355	889
411.578	928
411.802	915
412.025	926
412.249	937
412.472	932
412.695	900
412.919	882
413.142	892
413.365	883
413.589	894
413.812	898
414.035	853
414.258	873
414.482	869
414.705	900
414.928	917
415.151	921
415.374	886
415.597	922
415.821	896
416.044	873
416.267	845
416.49	856
416.713	864
416.936	887
417.159	868
417.382	896
417.605	857
417.828	872
418.051	886
418.274	882
418.497	872
418.72	904
418.943	917
419.166	949
419.389	1021
419.611	1004
419.834	954
420.057	907
420.28	877
420.503	852
420.726	858
420.948	889
421.171	872
421.394	876
421.617	862
421.839	887
422.062	873
422.285	859
422.507	880
422.73	904
422.953	904
423.175	941
423.398	979
423.621	944
423.843	984
424.066	961
424.288	925
424.511	932
424.733	918
424.956	906
425.178	885
425.401	906
425.623	892
425.846	869
426.068	837
426.291	849
426.513	852
426.735	825
426.958	821
427.18	782
427.402	802
427.625	774
427.847	763
428.069	807
428.292	801
428.514	793
428.736	762
428.958	800
429.181	766
429.403	746
429.625	776
429.847	759
430.069	769
430.292	780
430.514	740
430.736	775
430.958	776
431.18	760
431.402	754
431.624	758
431.846	792
432.068	803
432.29	805
432.512	772
432.734	793
432.956	803
433.178	803
433.4	791
433.622	807
433.844	786
434.066	793
434.287	785
434.509	842
434.731	885
434.953	890
435.175	925
435.397	883
435.618	832
435.84	816
436.062	786
436.284	785
436.505	760
436.727	778
436.949	823
437.17	798
437.392	766
437.614	741
437.835	753
438.057	761
438.278	738
438.5	738
438.721	742
438.943	779
439.165	752
439.386	781
439.608	736
439.829	782
440.05	777
440.272	792
440.493	790
440.715	831
440.936	805
441.158	793
441.379	850
441.6	914
441.822	911
442.043	861
442.264	876
442.486	867
442.707	888
442.928	888
443.149	873
443.371	852
443.592	860
443.813	885
444.034	894
444.255	924
444.476	964
444.698	1035
444.919	1065
445.14	1108
445.361	992
445.582	902
445.803	852
446.024	857
446.245	812
446.466	795
446.687	804
446.908	801
447.129	782
447.35	753
447.571	772
447.792	749
448.013	755
448.234	740
448.455	714
448.675	715
448.896	713
449.117	721
449.338	728
449.559	713
449.779	723
450	723
450.221	721
450.442	737
450.662	723
450.883	742
451.104	742
451.324	744
451.545	756
451.766	722
451.986	726
452.207	736
452.428	739
452.648	742
452.869	723
453.089	713
453.31	737
453.53	707
453.751	725
453.971	712
454.192	708
454.412	674
454.633	685
454.853	692
455.073	691
455.294	689
455.514	676
455.734	697
455.955	671
456.175	666
456.395	645
456.616	691
456.836	688
457.056	644
457.276	682
457.497	678
457.717	683
457.937	699
458.157	697
458.377	693
458.598	696
458.818	716
459.038	737
459.258	797
459.478	792
459.698	844
459.918	832
460.138	898
460.358	922
460.578	940
460.798	938
461.018	939
461.238	908
461.458	902
461.678	920
461.898	933
462.118	946
462.338	994
462.558	1039
462.777	1064
462.997	1149
463.217	1286
463.437	1244
463.657	1137
463.876	1106
464.096	1095
464.316	1100
464.536	1145
464.755	1051
464.975	983
465.195	958
465.414	892
465.634	855
465.854	824
466.073	806
466.293	792
466.512	781
466.732	743
466.951	763
467.171	766
467.391	760
467.61	754
467.829	766
468.049	785
468.268	754
468.488	721
468.707	727
468.927	712
469.146	718
469.365	739
469.585	770
469.804	750
470.023	776
470.243	778
470.462	785
470.681	798
470.901	797
471.12	746
471.339	752
471.558	731
471.777	744
471.997	725
472.216	716
472.435	703
472.654	722
472.873	693
473.092	704
473.311	711
473.53	725
473.749	701
473.968	732
474.187	682
474.406	683
474.625	704
474.844	694
475.063	689
475.282	715
475.501	720
475.72	720
475.939	730
476.158	713
476.377	721
476.596	744
476.814	728
477.033	749
477.252	767
477.471	756
477.69	772
477.908	834
478.127	828
478.346	813
478.564	852
478.783	880
479.002	911
479.22	873
479.439	891
479.658	895
479.876	868
480.095	864
480.313	922
480.532	942
480.751	931
480.969	885
481.188	873
481.406	856
481.624	802
481.843	798
482.061	788
482.28	798
482.498	816
482.717	813
482.935	812
483.153	799
483.372	808
483.59	810
483.808	812
484.027	804
484.245	797
484.463	832
484.681	799
484.9	811
485.118	833
485.336	806
485.554	853
485.772	869
485.99	860
486.209	849
486.427	858
486.645	825
486.863	861
487.081	853
487.299	843
487.517	848
487.735	848
487.953	844
488.171	834
488.389	824
488.607	843
488.825	844
489.043	802
489.261	812
489.479	842
489.696	825
489.914	832
490.132	824
490.35	844
490.568	826
490.786	854
491.003	838
491.221	850
491.439	861
491.657	835
491.874	846
492.092	839
492.31	852
492.527	865
492.745	851
492.963	864
493.18	854
493.398	889
493.615	877
493.833	884
494.05	880
494.268	859
494.485	877
494.703	886
494.92	884
495.138	893
495.355	897
495.573	890
495.79	876
496.008	880
496.225	906
496.442	888
496.66	908
496.877	914
497.094	936
497.312	942
497.529	977
497.746	997
497.963	1027
498.181	1062
498.398	1099
498.615	1198
498.832	1253
499.049	1365
499.267	1479
499.484	1652
499.701	1801
499.918	2007
500.135	2337
500.352	2668
500.569	2847
500.786	2816
501.003	2584
501.22	2240
501.437	1995
501.654	1693
501.871	1554
502.088	1444
502.305	1356
502.522	1272
502.739	1202
502.956	1138
503.172	1092
503.389	1030
503.606	998
503.823	984
504.04	976
504.256	1046
504.473	1045
504.69	1070
504.907	1082
505.123	997
505.34	929
505.557	892
505.773	884
505.99	869
506.207	817
506.423	833
506.64	819
506.856	812
507.073	804
507.289	779
507.506	788
507.722	793
507.939	768
508.155	755
508.372	749
508.588	765
508.805	774
509.021	747
509.238	724
509.454	734
509.67	735
509.887	731
510.103	722
510.319	712
510.536	723
510.752	722
510.968	725
511.184	703
511.401	752
511.617	731
511.833	731
512.049	714
512.265	704
512.481	726
512.698	708
512.914	716
513.13	715
513.346	720
513.562	714
513.778	707
513.994	712
514.21	718
514.426	732
514.642	726
514.858	748
515.074	714
515.29	757
515.506	728
515.721	795
515.937	775
516.153	772
516.369	786
516.585	820
516.801	861
517.016	885
517.232	956
517.448	991
517.664	1025
517.879	1053
518.095	1010
518.311	983
518.527	948
518.742	911
518.958	864
519.173	844
519.389	842
519.605	806
519.82	780
520.036	745
520.251	749
520.467	747
520.682	760
520.898	708
521.113	719
521.329	700
521.544	734
521.76	701
521.975	680
522.19	686
522.406	680
522.621	690
522.836	662
523.052	676
523.267	680
523.482	661
523.698	688
523.913	635
524.128	648
524.343	676
524.559	662
524.774	668
524.989	673
525.204	663
525.419	666
525.634	648
525.849	659
526.064	665
526.28	667
526.495	633
526.71	649
526.925	643
527.14	653
527.355	651
527.57	634
527.785	664
527.999	661
528.214	659
528.429	645
528.644	684
528.859	661
529.074	660
529.289	658
529.503	640
529.718	651
529.933	628
530.148	638
530.363	653
530.577	646
530.792	664
531.007	668
531.221	653
531.436	662
531.651	657
531.865	635
532.08	676
532.295	641
532.509	666
532.724	636
532.938	672
533.153	660
533.367	650
533.582	646
533.796	657
534.011	643
534.225	640
534.44	624
534.654	650
534.868	646
535.083	620
535.297	638
535.511	632
535.726	626
535.94	634
536.154	601
536.369	611
536.583	617
536.797	620
537.011	614
537.225	613
537.44	589
537.654	605
537.868	624
538.082	600
538.296	588
538.51	598
538.724	603
538.938	594
539.153	606
539.367	605
539.581	593
539.795	580
540.009	570
540.222	604
540.436	596
540.65	608
540.864	600
541.078	594
541.292	604
541.506	586
541.72	557
541.934	571
542.147	575
542.361	582
542.575	596
542.789	579
543.002	557
543.216	573
543.43	581
543.644	578
543.857	574
544.071	567
544.285	585
544.498	574
544.712	572
544.925	581
545.139	604
545.352	605
545.566	613
545.779	612
545.993	611
546.206	617
546.42	600
546.633	617
546.847	596
547.06	604
547.274	587
547.487	597
547.7	598
547.914	606
548.127	618
548.34	619
548.554	599
548.767	604
548.98	604
549.193	608
549.407	620
549.62	627
549.833	620
550.046	611
550.259	589
550.473	585
550.686	598
550.899	587
551.112	553
551.325	587
551.538	564
551.751	582
551.964	564
552.177	588
552.39	602
552.603	596
552.816	648
553.029	656
553.242	645
553.455	660
553.667	676
553.88	654
554.093	629
554.306	615
554.519	612
554.732	602
554.944	610
555.157	569
555.37	590
555.583	571
555.795	600
556.008	556
556.221	538
556.433	521
556.646	539
556.859	523
557.071	537
557.284	532
557.496	503
557.709	523
557.921	521
558.134	520
558.346	527
558.559	520
558.771	514
558.984	490
559.196	497
559.409	502
559.621	507
559.833	509
560.046	477
560.258	485
560.47	476
560.683	472
560.895	459
561.107	487
561.32	486
561.532	500
561.744	506
