Data from Ni(NO3)2@0.0625M.TitratingCurve.Agarose3%dH2O.NegLispCup.LampEnergy10.LIBS07252019_HRD10591_18-14-11-572.txt Node
Date: Thu Jul 25 18:14:11 EDT 2019
User: cochatt
Spectrometer: HR+D1059
Trigger mode: 1
Integration Time (sec): 1.000000E-1
Scans to average: 1
Electric dark correction enabled: true
Nonlinearity correction enabled: false
Boxcar width: 0
XAxis mode: Wavelengths
Number of Pixels in Spectrum: 2048
>>>>>Begin Spectral Data<<<<<
223.165	-18.62
223.4	-18.62
223.635	-18.62
223.869	-13.62
224.104	-36.62
224.338	-7.62
224.573	-17.62
224.808	-12.62
225.042	-9.62
225.277	2.38
225.511	-3.62
225.746	6.38
225.98	19.38
226.215	11.38
226.449	19.38
226.683	12.38
226.918	16.38
227.152	32.38
227.387	35.38
227.621	30.38
227.856	44.38
228.09	43.38
228.324	55.38
228.559	71.38
228.793	69.38
229.027	108.38
229.262	88.38
229.496	102.38
229.73	96.38
229.964	105.38
230.199	116.38
230.433	118.38
230.667	101.38
230.901	121.38
231.136	114.38
231.37	98.38
231.604	105.38
231.838	120.38
232.072	125.38
232.306	123.38
232.541	124.38
232.775	126.38
233.009	114.38
233.243	112.38
233.477	127.38
233.711	130.38
233.945	124.38
234.179	129.38
234.413	122.38
234.647	115.38
234.881	118.38
235.115	114.38
235.349	132.38
235.583	132.38
235.817	112.38
236.051	126.38
236.285	133.38
236.519	130.38
236.753	122.38
236.987	126.38
237.221	116.38
237.455	131.38
237.689	134.38
237.922	118.38
238.156	134.38
238.39	135.38
238.624	138.38
238.858	122.38
239.091	135.38
239.325	135.38
239.559	122.38
239.793	132.38
240.027	155.38
240.26	148.38
240.494	144.38
240.728	133.38
240.961	143.38
241.195	154.38
241.429	142.38
241.662	139.38
241.896	162.38
242.13	151.38
242.363	142.38
242.597	146.38
242.83	145.38
243.064	152.38
243.298	143.38
243.531	157.38
243.765	132.38
243.998	152.38
244.232	154.38
244.465	140.38
244.699	160.38
244.932	158.38
245.166	153.38
245.399	165.38
245.633	145.38
245.866	178.38
246.099	156.38
246.333	166.38
246.566	159.38
246.8	158.38
247.033	173.38
247.266	174.38
247.5	168.38
247.733	164.38
247.966	178.38
248.2	175.38
248.433	174.38
248.666	182.38
248.899	192.38
249.133	187.38
249.366	182.38
249.599	189.38
249.832	174.38
250.066	174.38
250.299	170.38
250.532	173.38
250.765	183.38
250.998	161.38
251.231	190.38
251.465	190.38
251.698	181.38
251.931	199.38
252.164	202.38
252.397	204.38
252.63	200.38
252.863	184.38
253.096	214.38
253.329	202.38
253.562	192.38
253.795	196.38
254.028	188.38
254.261	187.38
254.494	205.38
254.727	203.38
254.96	191.38
255.193	195.38
255.426	208.38
255.659	193.38
255.892	213.38
256.124	198.38
256.357	207.38
256.59	224.38
256.823	197.38
257.056	212.38
257.289	219.38
257.521	221.38
257.754	216.38
257.987	219.38
258.22	213.38
258.452	223.38
258.685	214.38
258.918	207.38
259.151	214.38
259.383	201.38
259.616	232.38
259.849	228.38
260.081	210.38
260.314	223.38
260.547	219.38
260.779	226.38
261.012	215.38
261.244	228.38
261.477	215.38
261.71	245.38
261.942	239.38
262.175	226.38
262.407	230.38
262.64	221.38
262.872	223.38
263.105	229.38
263.337	239.38
263.57	235.38
263.802	255.38
264.035	246.38
264.267	233.38
264.499	240.38
264.732	244.38
264.964	245.38
265.197	254.38
265.429	264.38
265.661	248.38
265.894	253.38
266.126	254.38
266.358	253.38
266.591	239.38
266.823	255.38
267.055	256.38
267.287	255.38
267.52	229.38
267.752	252.38
267.984	248.38
268.216	268.38
268.448	243.38
268.681	254.38
268.913	258.38
269.145	274.38
269.377	257.38
269.609	271.38
269.841	266.38
270.073	257.38
270.306	270.38
270.538	258.38
270.77	248.38
271.002	263.38
271.234	274.38
271.466	242.38
271.698	267.38
271.93	268.38
272.162	261.38
272.394	258.38
272.626	265.38
272.858	271.38
273.09	263.38
273.322	259.38
273.553	270.38
273.785	272.38
274.017	278.38
274.249	274.38
274.481	275.38
274.713	277.38
274.945	285.38
275.176	273.38
275.408	279.38
275.64	303.38
275.872	285.38
276.104	297.38
276.335	299.38
276.567	290.38
276.799	296.38
277.031	298.38
277.262	282.38
277.494	291.38
277.726	297.38
277.957	292.38
278.189	267.38
278.421	302.38
278.652	286.38
278.884	295.38
279.115	324.38
279.347	314.38
279.579	301.38
279.81	299.38
280.042	313.38
280.273	299.38
280.505	338.38
280.736	319.38
280.968	307.38
281.199	309.38
281.431	314.38
281.662	300.38
281.894	319.38
282.125	293.38
282.356	311.38
282.588	311.38
282.819	314.38
283.051	320.38
283.282	311.38
283.513	323.38
283.745	351.38
283.976	324.38
284.207	332.38
284.439	310.38
284.67	327.38
284.901	328.38
285.132	318.38
285.364	331.38
285.595	313.38
285.826	330.38
286.057	348.38
286.288	345.38
286.52	328.38
286.751	325.38
286.982	327.38
287.213	337.38
287.444	344.38
287.675	333.38
287.906	350.38
288.138	346.38
288.369	349.38
288.6	345.38
288.831	344.38
289.062	354.38
289.293	350.38
289.524	347.38
289.755	368.38
289.986	338.38
290.217	345.38
290.448	334.38
290.679	342.38
290.91	342.38
291.141	360.38
291.371	360.38
291.602	347.38
291.833	366.38
292.064	350.38
292.295	348.38
292.526	346.38
292.757	364.38
292.987	349.38
293.218	348.38
293.449	372.38
293.68	348.38
293.91	346.38
294.141	356.38
294.372	351.38
294.603	372.38
294.833	363.38
295.064	347.38
295.295	371.38
295.525	368.38
295.756	381.38
295.987	371.38
296.217	383.38
296.448	370.38
296.679	358.38
296.909	367.38
297.14	373.38
297.37	386.38
297.601	398.38
297.831	375.38
298.062	376.38
298.292	382.38
298.523	391.38
298.753	386.38
298.984	392.38
299.214	383.38
299.445	396.38
299.675	396.38
299.905	404.38
300.136	383.38
300.366	388.38
300.597	412.38
300.827	410.38
301.057	398.38
301.288	421.38
301.518	412.38
301.748	416.38
301.979	398.38
302.209	408.38
302.439	400.38
302.669	400.38
302.9	386.38
303.13	406.38
303.36	392.38
303.59	411.38
303.82	404.38
304.051	392.38
304.281	399.38
304.511	399.38
304.741	393.38
304.971	391.38
305.201	415.38
305.431	387.38
305.661	409.38
305.891	394.38
306.121	405.38
306.352	415.38
306.582	418.38
306.812	379.38
307.042	396.38
307.272	395.38
307.502	380.38
307.731	395.38
307.961	395.38
308.191	413.38
308.421	396.38
308.651	408.38
308.881	396.38
309.111	389.38
309.341	404.38
309.571	382.38
309.8	382.38
310.03	388.38
310.26	389.38
310.49	384.38
310.72	398.38
310.949	393.38
311.179	400.38
311.409	397.38
311.639	400.38
311.868	392.38
312.098	411.38
312.328	396.38
312.557	427.38
312.787	407.38
313.017	423.38
313.246	416.38
313.476	416.38
313.706	421.38
313.935	410.38
314.165	420.38
314.394	421.38
314.624	416.38
314.853	424.38
315.083	405.38
315.312	424.38
315.542	411.38
315.771	396.38
316.001	421.38
316.23	427.38
316.46	412.38
316.689	392.38
316.919	412.38
317.148	407.38
317.377	412.38
317.607	424.38
317.836	405.38
318.065	419.38
318.295	400.38
318.524	397.38
318.753	400.38
318.983	405.38
319.212	410.38
319.441	416.38
319.67	423.38
319.9	411.38
320.129	424.38
320.358	401.38
320.587	400.38
320.816	431.38
321.046	419.38
321.275	428.38
321.504	422.38
321.733	411.38
321.962	429.38
322.191	425.38
322.42	409.38
322.649	409.38
322.878	407.38
323.108	408.38
323.337	423.38
323.566	413.38
323.795	420.38
324.024	426.38
324.253	438.38
324.482	447.38
324.71	436.38
324.939	418.38
325.168	424.38
325.397	416.38
325.626	445.38
325.855	437.38
326.084	460.38
326.313	458.38
326.542	454.38
326.77	468.38
326.999	437.38
327.228	424.38
327.457	438.38
327.686	436.38
327.914	452.38
328.143	444.38
328.372	453.38
328.6	454.38
328.829	443.38
329.058	448.38
329.287	448.38
329.515	453.38
329.744	451.38
329.972	426.38
330.201	459.38
330.43	462.38
330.658	451.38
330.887	462.38
331.115	459.38
331.344	448.38
331.572	484.38
331.801	486.38
332.03	501.38
332.258	526.38
332.486	534.38
332.715	527.38
332.943	550.38
333.172	579.38
333.4	595.38
333.629	627.38
333.857	623.38
334.085	603.38
334.314	597.38
334.542	580.38
334.771	572.38
334.999	550.38
335.227	551.38
335.455	538.38
335.684	556.38
335.912	555.38
336.14	538.38
336.369	527.38
336.597	560.38
336.825	523.38
337.053	550.38
337.281	512.38
337.51	522.38
337.738	530.38
337.966	505.38
338.194	500.38
338.422	493.38
338.65	492.38
338.878	488.38
339.106	480.38
339.334	507.38
339.562	475.38
339.79	461.38
340.018	481.38
340.246	482.38
340.474	465.38
340.702	464.38
340.93	475.38
341.158	474.38
341.386	483.38
341.614	491.38
341.842	495.38
342.07	450.38
342.298	479.38
342.526	457.38
342.754	461.38
342.981	471.38
343.209	478.38
343.437	504.38
343.665	525.38
343.893	577.38
344.12	613.38
344.348	590.38
344.576	546.38
344.804	526.38
345.031	493.38
345.259	480.38
345.487	492.38
345.714	471.38
345.942	479.38
346.17	493.38
346.397	494.38
346.625	465.38
346.853	467.38
347.08	461.38
347.308	486.38
347.535	467.38
347.763	493.38
347.99	490.38
348.218	463.38
348.445	478.38
348.673	457.38
348.9	472.38
349.128	487.38
349.355	490.38
349.583	446.38
349.81	453.38
350.037	441.38
350.265	459.38
350.492	463.38
350.72	460.38
350.947	468.38
351.174	456.38
351.402	451.38
351.629	462.38
351.856	461.38
352.083	453.38
352.311	455.38
352.538	448.38
352.765	443.38
352.992	449.38
353.22	458.38
353.447	440.38
353.674	444.38
353.901	452.38
354.128	442.38
354.355	456.38
354.583	430.38
354.81	444.38
355.037	450.38
355.264	431.38
355.491	462.38
355.718	452.38
355.945	437.38
356.172	457.38
356.399	474.38
356.626	459.38
356.853	445.38
357.08	437.38
357.307	451.38
357.534	452.38
357.761	431.38
357.988	451.38
358.215	442.38
358.441	442.38
358.668	438.38
358.895	435.38
359.122	450.38
359.349	448.38
359.576	440.38
359.802	456.38
360.029	447.38
360.256	454.38
360.483	423.38
360.709	442.38
360.936	450.38
361.163	463.38
361.39	460.38
361.616	465.38
361.843	468.38
362.07	460.38
362.296	457.38
362.523	473.38
362.749	434.38
362.976	442.38
363.203	466.38
363.429	435.38
363.656	445.38
363.882	443.38
364.109	426.38
364.335	457.38
364.562	441.38
364.788	451.38
365.015	454.38
365.241	431.38
365.468	433.38
365.694	444.38
365.92	447.38
366.147	431.38
366.373	441.38
366.599	442.38
366.826	467.38
367.052	461.38
367.278	461.38
367.505	430.38
367.731	432.38
367.957	465.38
368.184	440.38
368.41	460.38
368.636	459.38
368.862	464.38
369.089	470.38
369.315	472.38
369.541	438.38
369.767	464.38
369.993	463.38
370.219	468.38
370.445	484.38
370.672	472.38
370.898	494.38
371.124	475.38
371.35	484.38
371.576	491.38
371.802	498.38
372.028	478.38
372.254	474.38
372.48	476.38
372.706	484.38
372.932	516.38
373.158	501.38
373.384	477.38
373.61	486.38
373.835	483.38
374.061	470.38
374.287	500.38
374.513	490.38
374.739	524.38
374.965	565.38
375.191	544.38
375.416	536.38
375.642	515.38
375.868	527.38
376.094	504.38
376.319	511.38
376.545	508.38
376.771	483.38
376.997	504.38
377.222	496.38
377.448	500.38
377.674	498.38
377.899	481.38
378.125	496.38
378.35	479.38
378.576	482.38
378.802	486.38
379.027	475.38
379.253	471.38
379.478	464.38
379.704	495.38
379.929	501.38
380.155	472.38
380.38	495.38
380.606	472.38
380.831	481.38
381.057	481.38
381.282	491.38
381.507	478.38
381.733	499.38
381.958	495.38
382.184	481.38
382.409	503.38
382.634	501.38
382.86	507.38
383.085	503.38
383.31	517.38
383.535	546.38
383.761	532.38
383.986	555.38
384.211	566.38
384.436	575.38
384.662	590.38
384.887	571.38
385.112	582.38
385.337	604.38
385.562	581.38
385.787	579.38
386.013	572.38
386.238	577.38
386.463	574.38
386.688	569.38
386.913	575.38
387.138	556.38
387.363	574.38
387.588	557.38
387.813	572.38
388.038	568.38
388.263	563.38
388.488	594.38
388.713	578.38
388.938	580.38
389.163	560.38
389.387	559.38
389.612	560.38
389.837	569.38
390.062	554.38
390.287	578.38
390.512	551.38
390.736	570.38
390.961	603.38
391.186	567.38
391.411	616.38
391.636	621.38
391.86	627.38
392.085	634.38
392.31	646.38
392.534	623.38
392.759	619.38
392.984	580.38
393.208	600.38
393.433	602.38
393.658	595.38
393.882	615.38
394.107	622.38
394.331	618.38
394.556	606.38
394.78	627.38
395.005	622.38
395.229	619.38
395.454	642.38
395.678	652.38
395.903	661.38
396.127	615.38
396.352	616.38
396.576	583.38
396.801	613.38
397.025	630.38
397.249	656.38
397.474	652.38
397.698	665.38
397.922	648.38
398.147	622.38
398.371	648.38
398.595	670.38
398.82	693.38
399.044	750.38
399.268	822.38
399.492	952.38
399.717	1074.38
399.941	1076.38
400.165	931.38
400.389	839.38
400.613	780.38
400.837	751.38
401.062	732.38
401.286	695.38
401.51	699.38
401.734	731.38
401.958	743.38
402.182	746.38
402.406	735.38
402.63	743.38
402.854	774.38
403.078	802.38
403.302	789.38
403.526	807.38
403.75	834.38
403.974	815.38
404.198	848.38
404.422	861.38
404.645	838.38
404.869	824.38
405.093	829.38
405.317	783.38
405.541	776.38
405.765	799.38
405.988	787.38
406.212	780.38
406.436	788.38
406.66	792.38
406.883	827.38
407.107	856.38
407.331	907.38
407.555	923.38
407.778	925.38
408.002	891.38
408.226	862.38
408.449	853.38
408.673	835.38
408.896	802.38
409.12	809.38
409.344	843.38
409.567	830.38
409.791	830.38
410.014	835.38
410.238	820.38
410.461	796.38
410.685	807.38
410.908	774.38
411.132	806.38
411.355	750.38
411.578	744.38
411.802	748.38
412.025	762.38
412.249	771.38
412.472	754.38
412.695	749.38
412.919	696.38
413.142	736.38
413.365	693.38
413.589	727.38
413.812	697.38
414.035	708.38
414.258	736.38
414.482	712.38
414.705	738.38
414.928	764.38
415.151	714.38
415.374	733.38
415.597	734.38
415.821	728.38
416.044	714.38
416.267	690.38
416.49	688.38
416.713	680.38
416.936	715.38
417.159	724.38
417.382	737.38
417.605	694.38
417.828	713.38
418.051	732.38
418.274	735.38
418.497	735.38
418.72	738.38
418.943	720.38
419.166	783.38
419.389	849.38
419.611	778.38
419.834	770.38
420.057	764.38
420.28	715.38
420.503	688.38
420.726	696.38
420.948	722.38
421.171	719.38
421.394	715.38
421.617	696.38
421.839	696.38
422.062	712.38
422.285	687.38
422.507	711.38
422.73	729.38
422.953	734.38
423.175	738.38
423.398	756.38
423.621	749.38
423.843	771.38
424.066	772.38
424.288	754.38
424.511	717.38
424.733	730.38
424.956	725.38
425.178	718.38
425.401	724.38
425.623	717.38
425.846	692.38
426.068	688.38
426.291	693.38
426.513	682.38
426.735	674.38
426.958	664.38
427.18	657.38
427.402	662.38
427.625	638.38
427.847	646.38
428.069	617.38
428.292	629.38
428.514	638.38
428.736	634.38
428.958	636.38
429.181	639.38
429.403	623.38
429.625	599.38
429.847	611.38
430.069	620.38
430.292	628.38
430.514	630.38
430.736	619.38
430.958	628.38
431.18	630.38
431.402	628.38
431.624	629.38
431.846	630.38
432.068	685.38
432.29	661.38
432.512	635.38
432.734	652.38
432.956	642.38
433.178	646.38
433.4	654.38
433.622	653.38
433.844	641.38
434.066	666.38
434.287	655.38
434.509	691.38
434.731	690.38
434.953	711.38
435.175	751.38
435.397	736.38
435.618	692.38
435.84	684.38
436.062	673.38
436.284	653.38
436.505	636.38
436.727	656.38
436.949	647.38
437.17	672.38
437.392	643.38
437.614	627.38
437.835	609.38
438.057	617.38
438.278	647.38
438.5	626.38
438.721	629.38
438.943	649.38
439.165	631.38
439.386	626.38
439.608	639.38
439.829	640.38
440.05	635.38
440.272	663.38
440.493	654.38
440.715	660.38
440.936	674.38
441.158	688.38
441.379	724.38
441.6	734.38
441.822	716.38
442.043	734.38
442.264	697.38
442.486	693.38
442.707	696.38
442.928	706.38
443.149	710.38
443.371	707.38
443.592	710.38
443.813	712.38
444.034	739.38
444.255	794.38
444.476	791.38
444.698	837.38
444.919	884.38
445.14	918.38
445.361	835.38
445.582	726.38
445.803	687.38
446.024	690.38
446.245	664.38
446.466	662.38
446.687	670.38
446.908	644.38
447.129	636.38
447.35	650.38
447.571	629.38
447.792	618.38
448.013	652.38
448.234	609.38
448.455	630.38
448.675	611.38
448.896	607.38
449.117	564.38
449.338	578.38
449.559	615.38
449.779	590.38
450	582.38
450.221	577.38
450.442	593.38
450.662	601.38
450.883	598.38
451.104	630.38
451.324	633.38
451.545	636.38
451.766	608.38
451.986	601.38
452.207	603.38
452.428	608.38
452.648	616.38
452.869	579.38
453.089	593.38
453.31	584.38
453.53	607.38
453.751	586.38
453.971	594.38
454.192	583.38
454.412	590.38
454.633	578.38
454.853	555.38
455.073	567.38
455.294	556.38
455.514	603.38
455.734	568.38
455.955	563.38
456.175	579.38
456.395	574.38
456.616	566.38
456.836	563.38
457.056	601.38
457.276	565.38
457.497	598.38
457.717	569.38
457.937	593.38
458.157	583.38
458.377	598.38
458.598	595.38
458.818	621.38
459.038	600.38
459.258	638.38
459.478	655.38
459.698	669.38
459.918	676.38
460.138	707.38
460.358	744.38
460.578	780.38
460.798	786.38
461.018	771.38
461.238	749.38
461.458	757.38
461.678	748.38
461.898	756.38
462.118	796.38
462.338	801.38
462.558	820.38
462.777	859.38
462.997	933.38
463.217	1036.38
463.437	1032.38
463.657	974.38
463.876	902.38
464.096	909.38
464.316	902.38
464.536	920.38
464.755	858.38
464.975	815.38
465.195	818.38
465.414	749.38
465.634	714.38
465.854	693.38
466.073	666.38
466.293	662.38
466.512	670.38
466.732	654.38
466.951	622.38
467.171	620.38
467.391	639.38
467.61	631.38
467.829	623.38
468.049	622.38
468.268	599.38
468.488	607.38
468.707	615.38
468.927	614.38
469.146	579.38
469.365	590.38
469.585	610.38
469.804	653.38
470.023	643.38
470.243	646.38
470.462	649.38
470.681	647.38
470.901	648.38
471.12	634.38
471.339	634.38
471.558	639.38
471.777	628.38
471.997	611.38
472.216	604.38
472.435	620.38
472.654	607.38
472.873	595.38
473.092	603.38
473.311	596.38
473.53	573.38
473.749	597.38
473.968	582.38
474.187	579.38
474.406	567.38
474.625	571.38
474.844	574.38
475.063	587.38
475.282	599.38
475.501	632.38
475.72	592.38
475.939	621.38
476.158	620.38
476.377	611.38
476.596	623.38
476.814	638.38
477.033	636.38
477.252	648.38
477.471	632.38
477.69	666.38
477.908	688.38
478.127	704.38
478.346	702.38
478.564	699.38
478.783	716.38
479.002	714.38
479.22	733.38
479.439	736.38
479.658	726.38
479.876	728.38
480.095	724.38
480.313	763.38
480.532	814.38
480.751	794.38
480.969	756.38
481.188	703.38
481.406	718.38
481.624	686.38
481.843	695.38
482.061	694.38
482.28	680.38
482.498	678.38
482.717	652.38
482.935	643.38
483.153	667.38
483.372	710.38
483.59	659.38
483.808	671.38
484.027	668.38
484.245	696.38
484.463	684.38
484.681	699.38
484.9	703.38
485.118	721.38
485.336	702.38
485.554	730.38
485.772	725.38
485.99	730.38
486.209	735.38
486.427	734.38
486.645	720.38
486.863	737.38
487.081	686.38
487.299	716.38
487.517	713.38
487.735	692.38
487.953	700.38
488.171	712.38
488.389	715.38
488.607	700.38
488.825	702.38
489.043	700.38
489.261	698.38
489.479	709.38
489.696	716.38
489.914	708.38
490.132	724.38
490.35	730.38
490.568	705.38
490.786	719.38
491.003	717.38
491.221	707.38
491.439	700.38
491.657	733.38
491.874	725.38
492.092	726.38
492.31	737.38
492.527	720.38
492.745	731.38
492.963	734.38
493.18	762.38
493.398	722.38
493.615	735.38
493.833	714.38
494.05	767.38
494.268	734.38
494.485	758.38
494.703	747.38
494.92	746.38
495.138	730.38
495.355	750.38
495.573	772.38
495.79	731.38
496.008	779.38
496.225	759.38
496.442	778.38
496.66	790.38
496.877	791.38
497.094	784.38
497.312	784.38
497.529	815.38
497.746	835.38
497.963	853.38
498.181	882.38
498.398	938.38
498.615	964.38
498.832	1024.38
499.049	1090.38
499.267	1183.38
499.484	1293.38
499.701	1434.38
499.918	1591.38
500.135	1806.38
500.352	2081.38
500.569	2205.38
500.786	2198.38
501.003	2032.38
501.22	1806.38
501.437	1578.38
