Data from Ni(NO3)2@0.25M.TitratingCurve.Agarose3%dH2O.NegLispCup.LampEnergy10.LIBS07252019_HRD10591_18-05-29-566.txt Node
Date: Thu Jul 25 18:05:29 EDT 2019
User: cochatt
Spectrometer: HR+D1059
Trigger mode: 1
Integration Time (sec): 1.000000E-1
Scans to average: 1
Electric dark correction enabled: true
Nonlinearity correction enabled: false
Boxcar width: 0
XAxis mode: Wavelengths
Number of Pixels in Spectrum: 2048
>>>>>Begin Spectral Data<<<<<
223.165	-14.75
223.4	-14.75
223.635	-14.75
223.869	-17.75
224.104	-22.75
224.338	-2.75
224.573	-3.75
224.808	-5.75
225.042	-29.75
225.277	-14.75
225.511	-12.75
225.746	4.25
225.98	6.25
226.215	21.25
226.449	11.25
226.683	18.25
226.918	25.25
227.152	38.25
227.387	27.25
227.621	33.25
227.856	38.25
228.09	49.25
228.324	38.25
228.559	43.25
228.793	73.25
229.027	83.25
229.262	106.25
229.496	101.25
229.73	108.25
229.964	105.25
230.199	113.25
230.433	123.25
230.667	122.25
230.901	127.25
231.136	125.25
231.37	109.25
231.604	120.25
231.838	122.25
232.072	126.25
232.306	111.25
232.541	137.25
232.775	133.25
233.009	123.25
233.243	130.25
233.477	122.25
233.711	139.25
233.945	121.25
234.179	131.25
234.413	124.25
234.647	121.25
234.881	141.25
235.115	138.25
235.349	133.25
235.583	115.25
235.817	128.25
236.051	135.25
236.285	137.25
236.519	139.25
236.753	118.25
236.987	142.25
237.221	138.25
237.455	133.25
237.689	134.25
237.922	136.25
238.156	149.25
238.39	135.25
238.624	126.25
238.858	130.25
239.091	142.25
239.325	146.25
239.559	152.25
239.793	144.25
240.027	148.25
240.26	139.25
240.494	155.25
240.728	156.25
240.961	139.25
241.195	153.25
241.429	148.25
241.662	148.25
241.896	150.25
242.13	147.25
242.363	149.25
242.597	153.25
242.83	169.25
243.064	152.25
243.298	163.25
243.531	155.25
243.765	163.25
243.998	169.25
244.232	169.25
244.465	170.25
244.699	170.25
244.932	165.25
245.166	179.25
245.399	170.25
245.633	168.25
245.866	162.25
246.099	181.25
246.333	187.25
246.566	173.25
246.8	171.25
247.033	183.25
247.266	175.25
247.5	196.25
247.733	192.25
247.966	178.25
248.2	188.25
248.433	193.25
248.666	191.25
248.899	199.25
249.133	180.25
249.366	182.25
249.599	210.25
249.832	203.25
250.066	202.25
250.299	185.25
250.532	204.25
250.765	199.25
250.998	190.25
251.231	195.25
251.465	206.25
251.698	196.25
251.931	204.25
252.164	195.25
252.397	228.25
252.63	213.25
252.863	228.25
253.096	226.25
253.329	225.25
253.562	232.25
253.795	212.25
254.028	218.25
254.261	222.25
254.494	236.25
254.727	227.25
254.96	211.25
255.193	214.25
255.426	232.25
255.659	211.25
255.892	238.25
256.124	236.25
256.357	229.25
256.59	226.25
256.823	237.25
257.056	253.25
257.289	244.25
257.521	247.25
257.754	254.25
257.987	255.25
258.22	242.25
258.452	234.25
258.685	246.25
258.918	233.25
259.151	248.25
259.383	250.25
259.616	260.25
259.849	251.25
260.081	249.25
260.314	242.25
260.547	248.25
260.779	258.25
261.012	251.25
261.244	260.25
261.477	265.25
261.71	265.25
261.942	271.25
262.175	258.25
262.407	259.25
262.64	261.25
262.872	256.25
263.105	282.25
263.337	285.25
263.57	286.25
263.802	270.25
264.035	270.25
264.267	281.25
264.499	271.25
264.732	272.25
264.964	300.25
265.197	293.25
265.429	298.25
265.661	283.25
265.894	277.25
266.126	291.25
266.358	288.25
266.591	286.25
266.823	298.25
267.055	282.25
267.287	298.25
267.52	287.25
267.752	303.25
267.984	284.25
268.216	306.25
268.448	293.25
268.681	322.25
268.913	289.25
269.145	309.25
269.377	320.25
269.609	292.25
269.841	289.25
270.073	300.25
270.306	312.25
270.538	290.25
270.77	309.25
271.002	314.25
271.234	303.25
271.466	313.25
271.698	300.25
271.93	301.25
272.162	306.25
272.394	321.25
272.626	328.25
272.858	332.25
273.09	324.25
273.322	325.25
273.553	330.25
273.785	302.25
274.017	314.25
274.249	309.25
274.481	315.25
274.713	310.25
274.945	320.25
275.176	321.25
275.408	343.25
275.64	338.25
275.872	340.25
276.104	345.25
276.335	341.25
276.567	335.25
276.799	333.25
277.031	330.25
277.262	355.25
277.494	347.25
277.726	339.25
277.957	338.25
278.189	349.25
278.421	332.25
278.652	335.25
278.884	352.25
279.115	337.25
279.347	346.25
279.579	343.25
279.81	351.25
280.042	347.25
280.273	355.25
280.505	359.25
280.736	362.25
280.968	364.25
281.199	352.25
281.431	354.25
281.662	346.25
281.894	369.25
282.125	370.25
282.356	355.25
282.588	376.25
282.819	371.25
283.051	361.25
283.282	369.25
283.513	372.25
283.745	355.25
283.976	375.25
284.207	379.25
284.439	389.25
284.67	380.25
284.901	377.25
285.132	353.25
285.364	374.25
285.595	387.25
285.826	369.25
286.057	387.25
286.288	392.25
286.52	389.25
286.751	384.25
286.982	389.25
287.213	392.25
287.444	380.25
287.675	395.25
287.906	415.25
288.138	399.25
288.369	387.25
288.6	402.25
288.831	397.25
289.062	391.25
289.293	393.25
289.524	409.25
289.755	385.25
289.986	384.25
290.217	425.25
290.448	416.25
290.679	374.25
290.91	396.25
291.141	406.25
291.371	403.25
291.602	402.25
291.833	382.25
292.064	403.25
292.295	416.25
292.526	404.25
292.757	420.25
292.987	390.25
293.218	384.25
293.449	407.25
293.68	391.25
293.91	420.25
294.141	405.25
294.372	387.25
294.603	403.25
294.833	400.25
295.064	408.25
295.295	422.25
295.525	412.25
295.756	410.25
295.987	415.25
296.217	408.25
296.448	407.25
296.679	428.25
296.909	441.25
297.14	413.25
297.37	419.25
297.601	432.25
297.831	424.25
298.062	440.25
298.292	436.25
298.523	439.25
298.753	441.25
298.984	428.25
299.214	424.25
299.445	435.25
299.675	430.25
299.905	421.25
300.136	449.25
300.366	445.25
300.597	459.25
300.827	441.25
301.057	450.25
301.288	447.25
301.518	478.25
301.748	461.25
301.979	465.25
302.209	474.25
302.439	449.25
302.669	462.25
302.9	453.25
303.13	458.25
303.36	462.25
303.59	452.25
303.82	475.25
304.051	479.25
304.281	475.25
304.511	438.25
304.741	461.25
304.971	457.25
305.201	464.25
305.431	463.25
305.661	457.25
305.891	462.25
306.121	448.25
306.352	475.25
306.582	468.25
306.812	447.25
307.042	450.25
307.272	438.25
307.502	473.25
307.731	461.25
307.961	443.25
308.191	431.25
308.421	444.25
308.651	467.25
308.881	453.25
309.111	438.25
309.341	445.25
309.571	469.25
309.8	451.25
310.03	456.25
310.26	467.25
310.49	463.25
310.72	438.25
310.949	444.25
311.179	453.25
311.409	477.25
311.639	439.25
311.868	481.25
312.098	473.25
312.328	460.25
312.557	453.25
312.787	476.25
313.017	469.25
313.246	489.25
313.476	504.25
313.706	479.25
313.935	503.25
314.165	487.25
314.394	497.25
314.624	507.25
314.853	508.25
315.083	480.25
315.312	497.25
315.542	497.25
315.771	488.25
316.001	500.25
316.23	480.25
316.46	485.25
316.689	487.25
316.919	481.25
317.148	490.25
317.377	475.25
317.607	501.25
317.836	504.25
318.065	497.25
318.295	511.25
318.524	500.25
318.753	499.25
318.983	492.25
319.212	489.25
319.441	469.25
319.67	483.25
319.9	487.25
320.129	503.25
320.358	492.25
320.587	476.25
320.816	492.25
321.046	515.25
321.275	501.25
321.504	511.25
321.733	505.25
321.962	530.25
322.191	528.25
322.42	520.25
322.649	528.25
322.878	521.25
323.108	503.25
323.337	527.25
323.566	512.25
323.795	526.25
324.024	528.25
324.253	553.25
324.482	521.25
324.71	524.25
324.939	543.25
325.168	532.25
325.397	555.25
325.626	545.25
325.855	552.25
326.084	554.25
326.313	580.25
326.542	558.25
326.77	594.25
326.999	565.25
327.228	565.25
327.457	572.25
327.686	570.25
327.914	548.25
328.143	557.25
328.372	569.25
328.6	572.25
328.829	565.25
329.058	561.25
329.287	569.25
329.515	589.25
329.744	582.25
329.972	584.25
330.201	590.25
330.43	592.25
330.658	609.25
330.887	606.25
331.115	585.25
331.344	607.25
331.572	630.25
331.801	631.25
332.03	651.25
332.258	654.25
332.486	644.25
332.715	675.25
332.943	694.25
333.172	695.25
333.4	700.25
333.629	710.25
333.857	738.25
334.085	708.25
334.314	741.25
334.542	727.25
334.771	722.25
334.999	733.25
335.227	725.25
335.455	707.25
335.684	698.25
335.912	721.25
336.14	695.25
336.369	716.25
336.597	720.25
336.825	699.25
337.053	718.25
337.281	691.25
337.51	670.25
337.738	674.25
337.966	633.25
338.194	656.25
338.422	649.25
338.65	631.25
338.878	653.25
339.106	652.25
339.334	631.25
339.562	653.25
339.79	599.25
340.018	611.25
340.246	605.25
340.474	590.25
340.702	605.25
340.93	623.25
341.158	627.25
341.386	607.25
341.614	633.25
341.842	636.25
342.07	611.25
342.298	629.25
342.526	594.25
342.754	613.25
342.981	622.25
343.209	636.25
343.437	678.25
343.665	690.25
343.893	727.25
344.12	745.25
344.348	719.25
344.576	703.25
344.804	707.25
345.031	663.25
345.259	645.25
345.487	627.25
345.714	635.25
345.942	605.25
346.17	641.25
346.397	622.25
346.625	600.25
346.853	618.25
347.08	597.25
347.308	597.25
347.535	598.25
347.763	590.25
347.99	594.25
348.218	598.25
348.445	593.25
348.673	594.25
348.9	599.25
349.128	616.25
349.355	607.25
349.583	588.25
349.81	572.25
350.037	589.25
350.265	570.25
350.492	580.25
350.72	569.25
350.947	581.25
351.174	594.25
351.402	593.25
351.629	588.25
351.856	601.25
352.083	584.25
352.311	574.25
352.538	579.25
352.765	589.25
352.992	563.25
353.22	580.25
353.447	586.25
353.674	550.25
353.901	574.25
354.128	579.25
354.355	582.25
354.583	596.25
354.81	558.25
355.037	575.25
355.264	552.25
355.491	569.25
355.718	582.25
355.945	587.25
356.172	562.25
356.399	595.25
356.626	589.25
356.853	585.25
357.08	602.25
357.307	600.25
357.534	583.25
357.761	586.25
357.988	579.25
358.215	563.25
358.441	585.25
358.668	576.25
358.895	585.25
359.122	574.25
359.349	576.25
359.576	595.25
359.802	596.25
360.029	572.25
360.256	552.25
360.483	585.25
360.709	590.25
360.936	592.25
361.163	587.25
361.39	590.25
361.616	617.25
361.843	582.25
362.07	595.25
362.296	609.25
362.523	580.25
362.749	581.25
362.976	581.25
363.203	570.25
363.429	586.25
363.656	565.25
363.882	574.25
364.109	555.25
364.335	569.25
364.562	572.25
364.788	587.25
365.015	572.25
365.241	570.25
365.468	549.25
365.694	556.25
365.92	581.25
366.147	568.25
366.373	565.25
366.599	597.25
366.826	597.25
367.052	565.25
367.278	562.25
367.505	577.25
367.731	577.25
367.957	562.25
368.184	561.25
368.41	588.25
368.636	603.25
368.862	577.25
369.089	583.25
369.315	593.25
369.541	600.25
369.767	596.25
369.993	607.25
370.219	583.25
370.445	591.25
370.672	614.25
370.898	590.25
371.124	619.25
371.35	601.25
371.576	633.25
371.802	631.25
372.028	615.25
372.254	626.25
372.48	638.25
372.706	646.25
372.932	639.25
373.158	599.25
373.384	621.25
373.61	609.25
373.835	630.25
374.061	598.25
374.287	633.25
374.513	649.25
374.739	677.25
374.965	671.25
375.191	676.25
375.416	659.25
375.642	653.25
375.868	647.25
376.094	642.25
376.319	644.25
376.545	616.25
376.771	618.25
376.997	614.25
377.222	614.25
377.448	613.25
377.674	609.25
377.899	599.25
378.125	607.25
378.35	615.25
378.576	604.25
378.802	625.25
379.027	613.25
379.253	601.25
379.478	598.25
379.704	627.25
379.929	602.25
380.155	607.25
380.38	600.25
380.606	617.25
380.831	614.25
381.057	614.25
381.282	614.25
381.507	590.25
381.733	621.25
381.958	606.25
382.184	616.25
382.409	631.25
382.634	633.25
382.86	645.25
383.085	629.25
383.31	650.25
383.535	640.25
383.761	643.25
383.986	695.25
384.211	667.25
384.436	653.25
384.662	674.25
384.887	705.25
385.112	700.25
385.337	731.25
385.562	707.25
385.787	707.25
386.013	741.25
386.238	702.25
386.463	724.25
386.688	743.25
386.913	739.25
387.138	716.25
387.363	733.25
387.588	716.25
387.813	726.25
388.038	745.25
388.263	717.25
388.488	732.25
388.713	736.25
388.938	714.25
389.163	690.25
389.387	708.25
389.612	709.25
389.837	700.25
390.062	701.25
390.287	710.25
390.512	728.25
390.736	719.25
390.961	738.25
391.186	747.25
391.411	743.25
391.636	760.25
391.86	807.25
392.085	798.25
392.31	787.25
392.534	780.25
392.759	791.25
392.984	787.25
393.208	790.25
393.433	762.25
393.658	742.25
393.882	755.25
394.107	747.25
394.331	760.25
394.556	750.25
394.78	805.25
395.005	767.25
395.229	755.25
395.454	792.25
395.678	809.25
395.903	794.25
396.127	779.25
396.352	786.25
396.576	766.25
396.801	789.25
397.025	803.25
397.249	776.25
397.474	821.25
397.698	777.25
397.922	824.25
398.147	827.25
398.371	835.25
398.595	850.25
398.82	891.25
399.044	945.25
399.268	1047.25
399.492	1141.25
399.717	1231.25
399.941	1252.25
400.165	1169.25
400.389	1082.25
400.613	1025.25
400.837	957.25
401.062	937.25
401.286	944.25
401.51	935.25
401.734	915.25
401.958	897.25
402.182	920.25
402.406	932.25
402.63	911.25
402.854	930.25
403.078	933.25
403.302	933.25
403.526	992.25
403.75	980.25
403.974	981.25
404.198	1024.25
404.422	1011.25
404.645	994.25
404.869	971.25
405.093	973.25
405.317	987.25
405.541	983.25
405.765	977.25
405.988	975.25
406.212	1010.25
406.436	989.25
406.66	1016.25
406.883	1036.25
407.107	1046.25
407.331	1094.25
407.555	1158.25
407.778	1164.25
408.002	1107.25
408.226	1080.25
408.449	1073.25
408.673	1054.25
408.896	1052.25
409.12	1041.25
409.344	1048.25
409.567	1040.25
409.791	1035.25
410.014	1027.25
410.238	1011.25
410.461	992.25
410.685	978.25
410.908	992.25
411.132	957.25
411.355	955.25
411.578	983.25
411.802	957.25
412.025	954.25
412.249	982.25
412.472	966.25
412.695	926.25
412.919	906.25
413.142	950.25
413.365	906.25
413.589	952.25
413.812	897.25
414.035	901.25
414.258	917.25
414.482	935.25
414.705	927.25
414.928	939.25
415.151	919.25
415.374	910.25
415.597	902.25
415.821	906.25
416.044	908.25
416.267	906.25
416.49	887.25
416.713	895.25
416.936	903.25
417.159	910.25
417.382	860.25
417.605	877.25
417.828	887.25
418.051	886.25
418.274	934.25
418.497	916.25
418.72	919.25
418.943	918.25
419.166	992.25
419.389	1037.25
419.611	1003.25
419.834	988.25
420.057	933.25
420.28	954.25
420.503	907.25
420.726	915.25
420.948	913.25
421.171	901.25
421.394	899.25
421.617	907.25
421.839	911.25
422.062	947.25
422.285	932.25
422.507	929.25
422.73	920.25
422.953	926.25
423.175	908.25
423.398	955.25
423.621	930.25
423.843	930.25
424.066	930.25
424.288	938.25
424.511	942.25
424.733	924.25
424.956	897.25
425.178	930.25
425.401	924.25
425.623	908.25
425.846	916.25
426.068	893.25
426.291	894.25
426.513	883.25
426.735	869.25
426.958	866.25
427.18	871.25
427.402	838.25
427.625	863.25
427.847	847.25
428.069	853.25
428.292	873.25
428.514	814.25
428.736	813.25
428.958	841.25
429.181	840.25
429.403	812.25
429.625	827.25
429.847	830.25
430.069	830.25
430.292	824.25
430.514	818.25
430.736	843.25
430.958	828.25
431.18	795.25
431.402	810.25
431.624	834.25
431.846	822.25
432.068	838.25
432.29	869.25
432.512	835.25
432.734	845.25
432.956	844.25
433.178	846.25
433.4	830.25
433.622	859.25
433.844	859.25
434.066	854.25
434.287	857.25
434.509	894.25
434.731	883.25
434.953	916.25
435.175	952.25
435.397	933.25
435.618	907.25
435.84	863.25
436.062	853.25
436.284	824.25
436.505	829.25
436.727	845.25
436.949	838.25
437.17	824.25
437.392	830.25
437.614	825.25
437.835	801.25
438.057	799.25
438.278	789.25
438.5	797.25
438.721	830.25
438.943	824.25
439.165	809.25
439.386	811.25
439.608	814.25
439.829	831.25
440.05	845.25
440.272	839.25
440.493	827.25
440.715	876.25
440.936	881.25
441.158	881.25
441.379	898.25
441.6	912.25
441.822	914.25
442.043	921.25
442.264	902.25
442.486	898.25
442.707	890.25
442.928	904.25
443.149	946.25
443.371	897.25
443.592	917.25
443.813	906.25
444.034	919.25
444.255	961.25
444.476	998.25
444.698	992.25
444.919	1050.25
445.14	1149.25
445.361	1055.25
445.582	966.25
445.803	933.25
446.024	912.25
446.245	904.25
446.466	865.25
446.687	860.25
446.908	835.25
447.129	830.25
447.35	853.25
447.571	838.25
447.792	814.25
448.013	818.25
448.234	776.25
448.455	771.25
448.675	777.25
448.896	764.25
449.117	769.25
449.338	783.25
449.559	778.25
449.779	778.25
450	780.25
450.221	774.25
450.442	784.25
450.662	788.25
450.883	796.25
451.104	818.25
451.324	820.25
451.545	801.25
451.766	801.25
451.986	781.25
452.207	761.25
452.428	762.25
452.648	783.25
452.869	734.25
453.089	755.25
453.31	765.25
453.53	753.25
453.751	753.25
453.971	736.25
454.192	719.25
454.412	733.25
454.633	732.25
454.853	745.25
455.073	740.25
455.294	740.25
455.514	728.25
455.734	740.25
455.955	719.25
456.175	723.25
456.395	718.25
456.616	716.25
456.836	727.25
457.056	723.25
457.276	686.25
457.497	742.25
457.717	739.25
457.937	716.25
458.157	740.25
458.377	733.25
458.598	757.25
458.818	780.25
459.038	805.25
459.258	818.25
459.478	833.25
459.698	845.25
459.918	895.25
460.138	900.25
460.358	934.25
460.578	929.25
460.798	937.25
461.018	979.25
461.238	951.25
461.458	967.25
461.678	968.25
461.898	977.25
462.118	1002.25
462.338	1041.25
462.558	1057.25
462.777	1109.25
462.997	1171.25
463.217	1229.25
463.437	1176.25
463.657	1179.25
463.876	1157.25
464.096	1164.25
464.316	1122.25
464.536	1102.25
464.755	1077.25
464.975	1033.25
465.195	1008.25
465.414	921.25
465.634	919.25
465.854	893.25
466.073	879.25
466.293	850.25
466.512	830.25
466.732	824.25
466.951	808.25
467.171	793.25
467.391	795.25
467.61	803.25
467.829	814.25
468.049	813.25
468.268	787.25
468.488	792.25
468.707	783.25
468.927	775.25
469.146	773.25
469.365	779.25
469.585	808.25
469.804	791.25
470.023	812.25
470.243	827.25
470.462	826.25
470.681	830.25
470.901	837.25
471.12	824.25
471.339	808.25
471.558	784.25
471.777	797.25
471.997	799.25
472.216	777.25
472.435	779.25
472.654	779.25
472.873	741.25
473.092	784.25
473.311	731.25
473.53	742.25
473.749	747.25
473.968	764.25
474.187	755.25
474.406	747.25
474.625	790.25
474.844	771.25
475.063	774.25
475.282	746.25
475.501	756.25
475.72	753.25
475.939	775.25
476.158	810.25
476.377	787.25
476.596	801.25
476.814	826.25
477.033	852.25
477.252	823.25
477.471	835.25
477.69	861.25
477.908	884.25
478.127	913.25
478.346	907.25
478.564	937.25
478.783	934.25
479.002	939.25
479.22	918.25
479.439	921.25
479.658	934.25
479.876	927.25
480.095	921.25
480.313	956.25
480.532	955.25
480.751	980.25
480.969	959.25
481.188	920.25
481.406	885.25
481.624	881.25
481.843	853.25
482.061	883.25
482.28	888.25
482.498	876.25
482.717	831.25
482.935	860.25
483.153	877.25
483.372	891.25
483.59	881.25
483.808	886.25
484.027	876.25
484.245	866.25
484.463	871.25
484.681	878.25
484.9	887.25
485.118	915.25
485.336	900.25
485.554	912.25
485.772	892.25
485.99	870.25
486.209	901.25
486.427	898.25
486.645	897.25
486.863	920.25
487.081	910.25
487.299	939.25
487.517	915.25
487.735	907.25
487.953	896.25
488.171	921.25
488.389	900.25
488.607	885.25
488.825	891.25
489.043	866.25
489.261	873.25
489.479	860.25
489.696	905.25
489.914	894.25
490.132	912.25
490.35	926.25
490.568	919.25
490.786	922.25
491.003	929.25
491.221	937.25
491.439	922.25
491.657	922.25
491.874	966.25
492.092	960.25
492.31	927.25
492.527	968.25
492.745	949.25
492.963	974.25
493.18	955.25
493.398	961.25
493.615	961.25
493.833	968.25
494.05	972.25
494.268	992.25
494.485	976.25
494.703	981.25
494.92	966.25
495.138	986.25
495.355	956.25
495.573	959.25
495.79	985.25
496.008	1025.25
496.225	1006.25
496.442	1045.25
496.66	1022.25
496.877	1023.25
497.094	1043.25
497.312	1076.25
497.529	1092.25
497.746	1130.25
497.963	1124.25
498.181	1184.25
498.398	1247.25
498.615	1290.25
498.832	1393.25
499.049	1443.25
499.267	1569.25
499.484	1741.25
499.701	1862.25
499.918	2050.25
500.135	2217.25
500.352	2413.25
500.569	2540.25
