Data from Ni(NO3)2@0.125M.TitratingCurve.Agarose3%dH2O.NegLispCup.LampEnergy10.LIBS07252019_HRD10591_18-08-39-568.txt Node
Date: Thu Jul 25 18:08:39 EDT 2019
User: cochatt
Spectrometer: HR+D1059
Trigger mode: 1
Integration Time (sec): 1.000000E-1
Scans to average: 1
Electric dark correction enabled: true
Nonlinearity correction enabled: false
Boxcar width: 0
XAxis mode: Wavelengths
Number of Pixels in Spectrum: 2048
>>>>>Begin Spectral Data<<<<<
223.165	-25
223.4	-25
223.635	-25
223.869	-24
224.104	-16
224.338	-24
224.573	-8
224.808	-21
225.042	-6
225.277	3
225.511	3
225.746	8
225.98	6
226.215	21
226.449	15
226.683	29
226.918	4
227.152	35
227.387	23
227.621	38
227.856	42
228.09	39
228.324	51
228.559	47
228.793	60
229.027	111
229.262	106
229.496	125
229.73	126
229.964	120
230.199	123
230.433	128
230.667	129
230.901	133
231.136	129
231.37	133
231.604	143
231.838	147
232.072	146
232.306	162
232.541	143
232.775	137
233.009	144
233.243	134
233.477	157
233.711	161
233.945	161
234.179	152
234.413	151
234.647	163
234.881	152
235.115	157
235.349	156
235.583	153
235.817	159
236.051	169
236.285	150
236.519	154
236.753	176
236.987	151
237.221	163
237.455	171
237.689	172
237.922	176
238.156	171
238.39	175
238.624	162
238.858	174
239.091	180
239.325	171
239.559	180
239.793	177
240.027	189
240.26	184
240.494	185
240.728	183
240.961	197
241.195	202
241.429	199
241.662	189
241.896	191
242.13	189
242.363	208
242.597	195
242.83	196
243.064	210
243.298	206
243.531	198
243.765	193
243.998	218
244.232	221
244.465	220
244.699	206
244.932	205
245.166	227
245.399	219
245.633	223
245.866	215
246.099	224
246.333	242
246.566	246
246.8	242
247.033	227
247.266	219
247.5	245
247.733	253
247.966	243
248.2	256
248.433	248
248.666	242
248.899	253
249.133	261
249.366	260
249.599	267
249.832	261
250.066	267
250.299	266
250.532	262
250.765	276
250.998	275
251.231	269
251.465	269
251.698	285
251.931	280
252.164	295
252.397	275
252.63	293
252.863	311
253.096	272
253.329	277
253.562	276
253.795	295
254.028	290
254.261	305
254.494	305
254.727	306
254.96	310
255.193	303
255.426	315
255.659	297
255.892	313
256.124	281
256.357	322
256.59	331
256.823	318
257.056	329
257.289	325
257.521	323
257.754	317
257.987	345
258.22	343
258.452	343
258.685	334
258.918	334
259.151	349
259.383	339
259.616	328
259.849	349
260.081	342
260.314	334
260.547	350
260.779	345
261.012	366
261.244	340
261.477	348
261.71	346
261.942	351
262.175	356
262.407	345
262.64	362
262.872	360
263.105	362
263.337	361
263.57	378
263.802	375
264.035	347
264.267	362
264.499	363
264.732	371
264.964	377
265.197	366
265.429	385
265.661	383
265.894	374
266.126	392
266.358	383
266.591	393
266.823	392
267.055	385
267.287	400
267.52	392
267.752	389
267.984	406
268.216	406
268.448	403
268.681	394
268.913	411
269.145	426
269.377	395
269.609	408
269.841	408
270.073	412
270.306	389
270.538	398
270.77	415
271.002	409
271.234	446
271.466	433
271.698	414
271.93	423
272.162	422
272.394	423
272.626	422
272.858	412
273.09	425
273.322	424
273.553	416
273.785	447
274.017	433
274.249	442
274.481	459
274.713	433
274.945	434
275.176	451
275.408	456
275.64	447
275.872	469
276.104	460
276.335	459
276.567	459
276.799	463
277.031	467
277.262	453
277.494	471
277.726	477
277.957	481
278.189	460
278.421	474
278.652	482
278.884	474
279.115	481
279.347	485
279.579	494
279.81	481
280.042	477
280.273	486
280.505	471
280.736	506
280.968	498
281.199	499
281.431	487
281.662	505
281.894	510
282.125	507
282.356	502
282.588	530
282.819	497
283.051	526
283.282	527
283.513	521
283.745	551
283.976	514
284.207	496
284.439	510
284.67	529
284.901	529
285.132	553
285.364	522
285.595	546
285.826	538
286.057	510
286.288	527
286.52	542
286.751	522
286.982	529
287.213	547
287.444	551
287.675	548
287.906	555
288.138	546
288.369	549
288.6	573
288.831	551
289.062	579
289.293	567
289.524	560
289.755	550
289.986	555
290.217	571
290.448	561
290.679	550
290.91	591
291.141	546
291.371	582
291.602	571
291.833	580
292.064	573
292.295	570
292.526	582
292.757	575
292.987	593
293.218	603
293.449	582
293.68	561
293.91	565
294.141	579
294.372	571
294.603	582
294.833	580
295.064	575
295.295	557
295.525	595
295.756	591
295.987	581
296.217	585
296.448	584
296.679	574
296.909	608
297.14	610
297.37	624
297.601	610
297.831	598
298.062	599
298.292	616
298.523	637
298.753	631
298.984	592
299.214	618
299.445	599
299.675	606
299.905	607
300.136	612
300.366	643
300.597	633
300.827	643
301.057	636
301.288	671
301.518	656
301.748	670
301.979	645
302.209	653
302.439	645
302.669	667
302.9	658
303.13	614
303.36	632
303.59	659
303.82	647
304.051	663
304.281	633
304.511	622
304.741	644
304.971	645
305.201	642
305.431	627
305.661	640
305.891	637
306.121	644
306.352	634
306.582	626
306.812	625
307.042	611
307.272	641
307.502	621
307.731	635
307.961	645
308.191	639
308.421	634
308.651	637
308.881	617
309.111	599
309.341	627
309.571	629
309.8	633
310.03	651
310.26	673
310.49	635
310.72	627
310.949	649
311.179	650
311.409	643
311.639	632
311.868	651
312.098	657
312.328	647
312.557	661
312.787	656
313.017	670
313.246	680
313.476	680
313.706	694
313.935	681
314.165	697
314.394	687
314.624	689
314.853	663
315.083	674
315.312	674
315.542	665
315.771	688
316.001	682
316.23	677
316.46	655
316.689	689
316.919	694
317.148	698
317.377	697
317.607	667
317.836	646
318.065	673
318.295	665
318.524	707
318.753	703
318.983	682
319.212	689
319.441	680
319.67	677
319.9	675
320.129	675
320.358	680
320.587	667
320.816	695
321.046	701
321.275	693
321.504	677
321.733	668
321.962	691
322.191	689
322.42	690
322.649	693
322.878	683
323.108	703
323.337	712
323.566	691
323.795	705
324.024	702
324.253	705
324.482	701
324.71	705
324.939	690
325.168	721
325.397	714
325.626	730
325.855	756
326.084	737
326.313	743
326.542	773
326.77	777
326.999	767
327.228	754
327.457	779
327.686	775
327.914	753
328.143	767
328.372	772
328.6	785
328.829	761
329.058	755
329.287	779
329.515	756
329.744	787
329.972	769
330.201	786
330.43	782
330.658	779
330.887	790
331.115	822
331.344	810
331.572	816
331.801	827
332.03	863
332.258	875
332.486	893
332.715	921
332.943	964
333.172	1004
333.4	1052
333.629	1051
333.857	1077
334.085	1056
334.314	1018
334.542	1023
334.771	1006
334.999	979
335.227	973
335.455	961
335.684	947
335.912	961
336.14	944
336.369	925
336.597	928
336.825	914
337.053	923
337.281	919
337.51	874
337.738	886
337.966	871
338.194	893
338.422	854
338.65	843
338.878	881
339.106	851
339.334	862
339.562	843
339.79	857
340.018	818
340.246	814
340.474	787
340.702	810
340.93	823
341.158	821
341.386	847
341.614	860
341.842	840
342.07	789
342.298	773
342.526	811
342.754	806
342.981	802
343.209	825
343.437	886
343.665	925
343.893	1006
344.12	1017
344.348	988
344.576	900
344.804	879
345.031	863
345.259	833
345.487	810
345.714	828
345.942	805
346.17	813
346.397	791
346.625	788
346.853	792
347.08	785
347.308	781
347.535	806
347.763	815
347.99	781
348.218	807
348.445	785
348.673	787
348.9	796
349.128	791
349.355	763
349.583	774
349.81	741
350.037	752
350.265	761
350.492	729
350.72	758
350.947	751
351.174	752
351.402	752
351.629	772
351.856	754
352.083	756
352.311	736
352.538	750
352.765	758
352.992	743
353.22	742
353.447	745
353.674	719
353.901	773
354.128	732
354.355	769
354.583	782
354.81	755
355.037	750
355.264	737
355.491	730
355.718	745
355.945	763
356.172	751
356.399	755
356.626	760
356.853	742
357.08	754
357.307	715
357.534	767
357.761	773
357.988	777
358.215	751
358.441	735
358.668	735
358.895	749
359.122	746
359.349	769
359.576	744
359.802	756
360.029	776
360.256	746
360.483	751
360.709	752
360.936	783
361.163	751
361.39	746
361.616	758
361.843	747
362.07	779
362.296	785
362.523	770
362.749	750
362.976	758
363.203	763
363.429	744
363.656	763
363.882	746
364.109	754
364.335	728
364.562	727
364.788	747
365.015	755
365.241	727
365.468	729
365.694	734
365.92	745
366.147	734
366.373	744
366.599	752
366.826	764
367.052	768
367.278	717
367.505	737
367.731	766
367.957	733
368.184	767
368.41	746
368.636	771
368.862	756
369.089	746
369.315	798
369.541	773
369.767	756
369.993	774
370.219	789
370.445	811
370.672	787
370.898	792
371.124	819
371.35	816
371.576	820
371.802	825
372.028	816
372.254	819
372.48	811
372.706	816
372.932	843
373.158	848
373.384	825
373.61	827
373.835	824
374.061	841
374.287	828
374.513	845
374.739	882
374.965	903
375.191	907
375.416	905
375.642	869
375.868	860
376.094	842
376.319	817
376.545	805
376.771	826
376.997	834
377.222	826
377.448	826
377.674	797
377.899	801
378.125	823
378.35	791
378.576	810
378.802	806
379.027	816
379.253	821
379.478	809
379.704	797
379.929	805
380.155	769
380.38	777
380.606	797
380.831	795
381.057	828
381.282	809
381.507	821
381.733	807
381.958	798
382.184	818
382.409	792
382.634	821
382.86	887
383.085	861
383.31	874
383.535	901
383.761	891
383.986	889
384.211	915
384.436	956
384.662	980
384.887	977
385.112	969
385.337	995
385.562	983
385.787	972
386.013	999
386.238	1007
386.463	960
386.688	984
386.913	962
387.138	982
387.363	951
387.588	930
387.813	937
388.038	916
388.263	929
388.488	955
388.713	979
388.938	928
389.163	938
389.387	934
389.612	934
389.837	939
390.062	924
390.287	947
390.512	945
390.736	949
390.961	991
391.186	1006
391.411	1019
391.636	1057
391.86	1095
392.085	1109
392.31	1095
392.534	1075
392.759	1054
392.984	1046
393.208	1007
393.433	1021
393.658	1036
393.882	1039
394.107	1026
394.331	1024
394.556	1012
394.78	1050
395.005	1026
395.229	1034
395.454	1098
395.678	1111
395.903	1115
396.127	1049
396.352	1017
396.576	1022
396.801	1005
397.025	1041
397.249	1048
397.474	1063
397.698	1078
397.922	1081
398.147	1046
398.371	1103
398.595	1140
398.82	1176
399.044	1301
399.268	1430
399.492	1677
399.717	1936
399.941	1911
400.165	1629
400.389	1444
400.613	1308
400.837	1278
401.062	1215
401.286	1225
401.51	1215
401.734	1227
401.958	1227
402.182	1254
402.406	1239
402.63	1267
402.854	1300
403.078	1359
403.302	1398
403.526	1381
403.75	1421
403.974	1488
404.198	1486
404.422	1479
404.645	1474
404.869	1357
405.093	1397
405.317	1348
405.541	1335
405.765	1354
405.988	1322
406.212	1365
406.436	1348
406.66	1391
406.883	1393
407.107	1494
407.331	1565
407.555	1586
407.778	1553
408.002	1571
408.226	1537
408.449	1456
408.673	1401
408.896	1414
409.12	1383
409.344	1377
409.567	1387
409.791	1396
410.014	1415
410.238	1384
410.461	1377
410.685	1338
410.908	1345
411.132	1317
411.355	1258
411.578	1295
411.802	1283
412.025	1278
412.249	1318
412.472	1288
412.695	1266
412.919	1241
413.142	1213
413.365	1215
413.589	1238
413.812	1244
414.035	1194
414.258	1213
414.482	1227
414.705	1242
414.928	1245
415.151	1240
415.374	1231
415.597	1226
415.821	1204
416.044	1169
416.267	1203
416.49	1198
416.713	1183
416.936	1210
417.159	1195
417.382	1218
417.605	1207
417.828	1199
418.051	1215
418.274	1215
418.497	1224
418.72	1270
418.943	1258
419.166	1292
419.389	1378
419.611	1403
419.834	1335
420.057	1289
420.28	1248
420.503	1226
420.726	1235
420.948	1231
421.171	1240
421.394	1214
421.617	1188
421.839	1231
422.062	1238
422.285	1220
422.507	1248
422.73	1286
422.953	1267
423.175	1303
423.398	1319
423.621	1313
423.843	1347
424.066	1328
424.288	1322
424.511	1314
424.733	1271
424.956	1262
425.178	1253
425.401	1219
425.623	1241
425.846	1204
426.068	1171
426.291	1197
426.513	1141
426.735	1139
426.958	1153
427.18	1141
427.402	1134
427.625	1102
427.847	1094
428.069	1075
428.292	1111
428.514	1073
428.736	1090
428.958	1090
429.181	1074
429.403	1041
429.625	1062
429.847	1066
430.069	1059
430.292	1043
430.514	1049
430.736	1090
430.958	1073
431.18	1068
431.402	1066
431.624	1057
431.846	1070
432.068	1088
432.29	1141
432.512	1079
432.734	1079
432.956	1104
433.178	1087
433.4	1073
433.622	1116
433.844	1086
434.066	1098
434.287	1106
434.509	1161
434.731	1192
434.953	1238
435.175	1266
435.397	1228
435.618	1163
435.84	1124
436.062	1084
436.284	1066
436.505	1099
436.727	1078
436.949	1105
437.17	1114
437.392	1054
437.614	1041
437.835	1024
438.057	1058
438.278	1047
438.5	1050
438.721	1029
438.943	1068
439.165	1027
439.386	1070
439.608	1083
439.829	1069
440.05	1075
440.272	1110
440.493	1101
440.715	1137
440.936	1122
441.158	1149
441.379	1167
441.6	1273
441.822	1266
442.043	1266
442.264	1202
442.486	1217
442.707	1223
442.928	1234
443.149	1205
443.371	1199
443.592	1205
443.813	1233
444.034	1251
444.255	1317
444.476	1392
444.698	1485
444.919	1522
445.14	1598
445.361	1423
445.582	1297
445.803	1201
446.024	1194
446.245	1163
446.466	1136
446.687	1119
446.908	1134
447.129	1084
447.35	1067
447.571	1061
447.792	1022
448.013	1049
448.234	1047
448.455	1013
448.675	1015
448.896	1014
449.117	979
449.338	1005
449.559	967
449.779	992
450	1002
450.221	981
450.442	999
450.662	1030
450.883	1009
451.104	1050
451.324	1035
451.545	1003
451.766	1032
451.986	1030
452.207	1002
452.428	994
452.648	998
452.869	985
453.089	958
453.31	991
453.53	999
453.751	999
453.971	978
454.192	978
454.412	953
454.633	933
454.853	941
455.073	932
455.294	962
455.514	924
455.734	937
455.955	907
456.175	916
456.395	927
456.616	924
456.836	942
457.056	969
457.276	945
457.497	950
457.717	889
457.937	932
458.157	948
458.377	971
458.598	959
458.818	954
459.038	1049
459.258	1075
459.478	1100
459.698	1137
459.918	1182
460.138	1248
460.358	1275
460.578	1291
460.798	1319
461.018	1366
461.238	1311
461.458	1305
461.678	1306
461.898	1285
462.118	1292
462.338	1392
462.558	1412
462.777	1459
462.997	1614
463.217	1800
463.437	1854
463.657	1629
463.876	1521
464.096	1558
464.316	1543
464.536	1548
464.755	1498
464.975	1421
465.195	1330
465.414	1271
465.634	1184
465.854	1142
466.073	1126
466.293	1130
466.512	1079
466.732	1017
466.951	1063
467.171	1043
467.391	1047
467.61	1061
467.829	1038
468.049	1023
468.268	1001
468.488	1023
468.707	977
468.927	988
469.146	987
469.365	1000
469.585	1019
469.804	1065
470.023	1066
470.243	1057
470.462	1079
470.681	1109
470.901	1109
471.12	1052
471.339	1067
471.558	1051
471.777	1027
471.997	1025
472.216	1005
472.435	969
472.654	969
472.873	964
473.092	976
473.311	976
473.53	968
473.749	968
473.968	942
474.187	951
474.406	969
474.625	986
474.844	988
475.063	981
475.282	1014
475.501	982
475.72	993
475.939	965
476.158	1029
476.377	995
476.596	1021
476.814	1018
477.033	1026
477.252	1051
477.471	1059
477.69	1099
477.908	1135
478.127	1129
478.346	1188
478.564	1175
478.783	1219
479.002	1249
479.22	1247
479.439	1209
479.658	1187
479.876	1213
480.095	1222
480.313	1287
480.532	1352
480.751	1307
480.969	1249
481.188	1197
481.406	1166
481.624	1137
481.843	1123
482.061	1110
482.28	1118
482.498	1106
482.717	1111
482.935	1099
483.153	1124
483.372	1125
483.59	1096
483.808	1089
484.027	1099
484.245	1115
484.463	1105
484.681	1171
484.9	1154
485.118	1145
485.336	1144
485.554	1120
485.772	1153
485.99	1163
486.209	1186
486.427	1197
486.645	1199
486.863	1160
487.081	1175
487.299	1175
487.517	1163
487.735	1175
487.953	1168
488.171	1163
488.389	1155
488.607	1152
488.825	1126
489.043	1153
489.261	1150
489.479	1148
489.696	1207
489.914	1202
490.132	1169
490.35	1159
490.568	1160
490.786	1181
491.003	1183
491.221	1184
491.439	1181
491.657	1187
491.874	1197
492.092	1177
492.31	1201
492.527	1213
492.745	1224
492.963	1245
493.18	1224
493.398	1220
493.615	1236
493.833	1223
494.05	1242
494.268	1226
494.485	1212
494.703	1266
494.92	1231
495.138	1230
495.355	1220
495.573	1257
495.79	1257
496.008	1261
496.225	1205
496.442	1263
496.66	1261
496.877	1280
497.094	1332
497.312	1342
497.529	1356
497.746	1407
497.963	1439
498.181	1525
498.398	1620
498.615	1665
498.832	1770
499.049	1929
499.267	2083
499.484	2299
499.701	2581
499.918	2853
500.135	3290
500.352	3897
500.569	4063
500.786	4003
501.003	3690
501.22	3196
501.437	2813
501.654	2455
501.871	2235
502.088	2061
502.305	1862
502.522	1787
502.739	1753
502.956	1631
503.172	1554
503.389	1479
503.606	1392
503.823	1406
504.04	1414
504.256	1404
504.473	1447
504.69	1561
504.907	1474
505.123	1390
505.34	1326
505.557	1238
505.773	1251
505.99	1191
506.207	1145
506.423	1169
506.64	1145
506.856	1121
507.073	1131
507.289	1114
507.506	1064
507.722	1083
507.939	1081
508.155	1060
508.372	1038
508.588	1043
508.805	1046
509.021	1040
509.238	1049
509.454	1014
509.67	1026
509.887	1012
510.103	1005
510.319	1010
510.536	1005
510.752	988
510.968	996
511.184	976
511.401	990
511.617	983
511.833	977
512.049	980
512.265	1013
512.481	1010
512.698	1008
512.914	977
513.13	1026
513.346	1010
513.562	1009
513.778	977
513.994	995
514.21	994
514.426	982
514.642	1031
514.858	1019
515.074	1051
515.29	1046
515.506	1045
515.721	1048
515.937	1071
516.153	1115
516.369	1141
516.585	1161
516.801	1176
517.016	1210
517.232	1317
517.448	1376
517.664	1417
517.879	1437
518.095	1449
518.311	1412
518.527	1303
518.742	1258
518.958	1209
519.173	1177
519.389	1134
519.605	1114
519.82	1091
520.036	1071
520.251	1018
520.467	1021
520.682	1025
520.898	1023
521.113	992
521.329	990
521.544	958
521.76	964
521.975	946
522.19	928
522.406	952
522.621	929
522.836	916
523.052	926
523.267	928
523.482	902
523.698	905
523.913	903
524.128	948
524.343	914
524.559	928
524.774	903
524.989	896
525.204	910
525.419	912
525.634	908
525.849	894
526.064	883
526.28	889
526.495	904
526.71	897
526.925	880
527.14	906
527.355	879
527.57	892
527.785	879
527.999	872
528.214	904
528.429	896
528.644	947
528.859	917
529.074	885
529.289	941
529.503	908
529.718	878
529.933	870
530.148	890
530.363	907
530.577	885
530.792	900
531.007	885
531.221	904
531.436	884
531.651	899
531.865	890
532.08	934
532.295	918
532.509	918
532.724	898
532.938	918
533.153	885
533.367	894
533.582	901
533.796	874
534.011	909
534.225	882
534.44	887
534.654	866
534.868	878
535.083	867
535.297	865
535.511	858
535.726	877
535.94	843
536.154	820
536.369	837
536.583	836
536.797	819
537.011	840
537.225	852
537.44	842
537.654	849
537.868	807
538.082	816
538.296	820
538.51	807
538.724	822
538.938	825
539.153	814
539.367	841
539.581	800
539.795	834
540.009	826
540.222	826
540.436	827
540.65	785
540.864	804
541.078	821
541.292	821
541.506	841
541.72	835
541.934	789
542.147	819
542.361	815
542.575	783
542.789	818
543.002	792
543.216	804
543.43	797
543.644	808
543.857	827
544.071	792
544.285	785
544.498	823
544.712	823
544.925	809
545.139	852
545.352	841
545.566	847
545.779	851
545.993	859
546.206	824
546.42	816
546.633	825
546.847	808
547.06	833
547.274	820
547.487	809
547.7	824
547.914	841
548.127	829
548.34	861
548.554	861
548.767	851
548.98	842
549.193	862
549.407	869
549.62	889
549.833	880
550.046	852
550.259	829
550.473	831
550.686	821
550.899	808
551.112	837
551.325	771
551.538	797
551.751	799
551.964	802
552.177	822
552.39	807
552.603	854
552.816	887
553.029	906
553.242	934
553.455	941
553.667	923
553.88	901
554.093	903
554.306	850
554.519	867
