Data from Ni(NO3)2@0.25M.TitratingCurve.Agarose3%dH2O.NegLispCup.LampEnergy10.LIBS07252019_HRD10591_18-05-04-566.txt Node
Date: Thu Jul 25 18:05:04 EDT 2019
User: cochatt
Spectrometer: HR+D1059
Trigger mode: 1
Integration Time (sec): 1.000000E-1
Scans to average: 1
Electric dark correction enabled: true
Nonlinearity correction enabled: false
Boxcar width: 0
XAxis mode: Wavelengths
Number of Pixels in Spectrum: 2048
>>>>>Begin Spectral Data<<<<<
223.165	-24.69
223.4	-24.69
223.635	-24.69
223.869	-2.69
224.104	-20.69
224.338	-21.69
224.573	-15.69
224.808	-3.69
225.042	-27.69
225.277	-4.69
225.511	-9.69
225.746	-0.69
225.98	16.31
226.215	12.31
226.449	17.31
226.683	14.31
226.918	32.31
227.152	39.31
227.387	29.31
227.621	36.31
227.856	49.31
228.09	57.31
228.324	61.31
228.559	56.31
228.793	48.31
229.027	78.31
229.262	81.31
229.496	91.31
229.73	101.31
229.964	108.31
230.199	100.31
230.433	99.31
230.667	100.31
230.901	95.31
231.136	101.31
231.37	115.31
231.604	116.31
231.838	95.31
232.072	109.31
232.306	119.31
232.541	120.31
232.775	108.31
233.009	106.31
233.243	112.31
233.477	119.31
233.711	102.31
233.945	111.31
234.179	111.31
234.413	106.31
234.647	115.31
234.881	124.31
235.115	123.31
235.349	112.31
235.583	112.31
235.817	124.31
236.051	131.31
236.285	120.31
236.519	114.31
236.753	121.31
236.987	115.31
237.221	124.31
237.455	118.31
237.689	117.31
237.922	115.31
238.156	122.31
238.39	122.31
238.624	116.31
238.858	129.31
239.091	126.31
239.325	125.31
239.559	127.31
239.793	128.31
240.027	132.31
240.26	123.31
240.494	136.31
240.728	131.31
240.961	145.31
241.195	130.31
241.429	124.31
241.662	138.31
241.896	136.31
242.13	138.31
242.363	142.31
242.597	137.31
242.83	135.31
243.064	125.31
243.298	149.31
243.531	148.31
243.765	142.31
243.998	157.31
244.232	138.31
244.465	147.31
244.699	146.31
244.932	151.31
245.166	153.31
245.399	153.31
245.633	157.31
245.866	146.31
246.099	156.31
246.333	145.31
246.566	157.31
246.8	157.31
247.033	158.31
247.266	141.31
247.5	171.31
247.733	151.31
247.966	158.31
248.2	153.31
248.433	169.31
248.666	185.31
248.899	168.31
249.133	167.31
249.366	179.31
249.599	170.31
249.832	160.31
250.066	185.31
250.299	183.31
250.532	186.31
250.765	195.31
250.998	169.31
251.231	175.31
251.465	180.31
251.698	179.31
251.931	189.31
252.164	187.31
252.397	196.31
252.63	192.31
252.863	207.31
253.096	205.31
253.329	201.31
253.562	212.31
253.795	208.31
254.028	205.31
254.261	219.31
254.494	216.31
254.727	204.31
254.96	215.31
255.193	212.31
255.426	220.31
255.659	201.31
255.892	213.31
256.124	232.31
256.357	216.31
256.59	233.31
256.823	227.31
257.056	199.31
257.289	240.31
257.521	251.31
257.754	237.31
257.987	252.31
258.22	236.31
258.452	226.31
258.685	238.31
258.918	232.31
259.151	235.31
259.383	248.31
259.616	235.31
259.849	251.31
260.081	245.31
260.314	255.31
260.547	232.31
260.779	243.31
261.012	259.31
261.244	252.31
261.477	230.31
261.71	253.31
261.942	259.31
262.175	272.31
262.407	243.31
262.64	259.31
262.872	271.31
263.105	257.31
263.337	263.31
263.57	254.31
263.802	269.31
264.035	262.31
264.267	274.31
264.499	277.31
264.732	274.31
264.964	283.31
265.197	271.31
265.429	276.31
265.661	261.31
265.894	255.31
266.126	261.31
266.358	271.31
266.591	264.31
266.823	269.31
267.055	257.31
267.287	271.31
267.52	292.31
267.752	288.31
267.984	296.31
268.216	277.31
268.448	297.31
268.681	279.31
268.913	272.31
269.145	297.31
269.377	297.31
269.609	271.31
269.841	316.31
270.073	291.31
270.306	295.31
270.538	296.31
270.77	286.31
271.002	283.31
271.234	293.31
271.466	288.31
271.698	304.31
271.93	277.31
272.162	298.31
272.394	299.31
272.626	300.31
272.858	291.31
273.09	311.31
273.322	311.31
273.553	310.31
273.785	303.31
274.017	312.31
274.249	300.31
274.481	303.31
274.713	302.31
274.945	311.31
275.176	309.31
275.408	318.31
275.64	326.31
275.872	298.31
276.104	301.31
276.335	316.31
276.567	317.31
276.799	280.31
277.031	304.31
277.262	313.31
277.494	322.31
277.726	333.31
277.957	327.31
278.189	321.31
278.421	325.31
278.652	319.31
278.884	329.31
279.115	348.31
279.347	334.31
279.579	341.31
279.81	317.31
280.042	325.31
280.273	331.31
280.505	321.31
280.736	325.31
280.968	363.31
281.199	322.31
281.431	334.31
281.662	326.31
281.894	334.31
282.125	340.31
282.356	345.31
282.588	335.31
282.819	341.31
283.051	342.31
283.282	339.31
283.513	349.31
283.745	335.31
283.976	334.31
284.207	340.31
284.439	369.31
284.67	353.31
284.901	361.31
285.132	347.31
285.364	353.31
285.595	344.31
285.826	344.31
286.057	353.31
286.288	339.31
286.52	342.31
286.751	346.31
286.982	367.31
287.213	347.31
287.444	345.31
287.675	357.31
287.906	346.31
288.138	386.31
288.369	348.31
288.6	336.31
288.831	362.31
289.062	378.31
289.293	360.31
289.524	350.31
289.755	358.31
289.986	365.31
290.217	365.31
290.448	345.31
290.679	363.31
290.91	356.31
291.141	348.31
291.371	360.31
291.602	360.31
291.833	371.31
292.064	368.31
292.295	381.31
292.526	358.31
292.757	341.31
292.987	373.31
293.218	374.31
293.449	369.31
293.68	355.31
293.91	379.31
294.141	341.31
294.372	361.31
294.603	342.31
294.833	384.31
295.064	360.31
295.295	367.31
295.525	371.31
295.756	363.31
295.987	383.31
296.217	360.31
296.448	384.31
296.679	367.31
296.909	377.31
297.14	392.31
297.37	389.31
297.601	392.31
297.831	391.31
298.062	378.31
298.292	397.31
298.523	400.31
298.753	415.31
298.984	373.31
299.214	391.31
299.445	389.31
299.675	397.31
299.905	391.31
300.136	396.31
300.366	383.31
300.597	423.31
300.827	392.31
301.057	399.31
301.288	391.31
301.518	409.31
301.748	414.31
301.979	408.31
302.209	410.31
302.439	395.31
302.669	410.31
302.9	404.31
303.13	385.31
303.36	400.31
303.59	407.31
303.82	401.31
304.051	407.31
304.281	400.31
304.511	419.31
304.741	399.31
304.971	398.31
305.201	417.31
305.431	426.31
305.661	404.31
305.891	400.31
306.121	423.31
306.352	415.31
306.582	413.31
306.812	406.31
307.042	416.31
307.272	397.31
307.502	410.31
307.731	399.31
307.961	423.31
308.191	396.31
308.421	422.31
308.651	403.31
308.881	400.31
309.111	403.31
309.341	395.31
309.571	418.31
309.8	428.31
310.03	412.31
310.26	427.31
310.49	440.31
310.72	410.31
310.949	449.31
311.179	423.31
311.409	441.31
311.639	425.31
311.868	441.31
312.098	448.31
312.328	438.31
312.557	435.31
312.787	440.31
313.017	427.31
313.246	453.31
313.476	446.31
313.706	448.31
313.935	459.31
314.165	469.31
314.394	473.31
314.624	474.31
314.853	473.31
315.083	470.31
315.312	480.31
315.542	449.31
315.771	468.31
316.001	462.31
316.23	463.31
316.46	455.31
316.689	472.31
316.919	452.31
317.148	457.31
317.377	472.31
317.607	450.31
317.836	468.31
318.065	466.31
318.295	468.31
318.524	488.31
318.753	472.31
318.983	475.31
319.212	478.31
319.441	487.31
319.67	471.31
319.9	471.31
320.129	474.31
320.358	484.31
320.587	484.31
320.816	479.31
321.046	491.31
321.275	497.31
321.504	477.31
321.733	479.31
321.962	502.31
322.191	528.31
322.42	478.31
322.649	490.31
322.878	530.31
323.108	500.31
323.337	512.31
323.566	515.31
323.795	519.31
324.024	548.31
324.253	531.31
324.482	517.31
324.71	539.31
324.939	530.31
325.168	544.31
325.397	539.31
325.626	548.31
325.855	577.31
326.084	548.31
326.313	589.31
326.542	584.31
326.77	573.31
326.999	549.31
327.228	560.31
327.457	557.31
327.686	583.31
327.914	590.31
328.143	577.31
328.372	563.31
328.6	569.31
328.829	566.31
329.058	571.31
329.287	563.31
329.515	588.31
329.744	603.31
329.972	581.31
330.201	580.31
330.43	589.31
330.658	595.31
330.887	608.31
331.115	635.31
331.344	615.31
331.572	607.31
331.801	632.31
332.03	651.31
332.258	659.31
332.486	653.31
332.715	643.31
332.943	696.31
333.172	703.31
333.4	748.31
333.629	719.31
333.857	756.31
334.085	755.31
334.314	748.31
334.542	740.31
334.771	751.31
334.999	741.31
335.227	736.31
335.455	742.31
335.684	735.31
335.912	745.31
336.14	720.31
336.369	714.31
336.597	732.31
336.825	726.31
337.053	715.31
337.281	723.31
337.51	694.31
337.738	689.31
337.966	700.31
338.194	689.31
338.422	691.31
338.65	675.31
338.878	662.31
339.106	640.31
339.334	663.31
339.562	685.31
339.79	643.31
340.018	651.31
340.246	642.31
340.474	649.31
340.702	657.31
340.93	640.31
341.158	662.31
341.386	666.31
341.614	664.31
341.842	657.31
342.07	638.31
342.298	644.31
342.526	634.31
342.754	655.31
342.981	631.31
343.209	664.31
343.437	673.31
343.665	719.31
343.893	757.31
344.12	773.31
344.348	739.31
344.576	732.31
344.804	704.31
345.031	686.31
345.259	670.31
345.487	683.31
345.714	643.31
345.942	663.31
346.17	659.31
346.397	640.31
346.625	627.31
346.853	621.31
347.08	613.31
347.308	664.31
347.535	624.31
347.763	643.31
347.99	629.31
348.218	635.31
348.445	618.31
348.673	616.31
348.9	605.31
349.128	614.31
349.355	596.31
349.583	618.31
349.81	613.31
350.037	606.31
350.265	593.31
350.492	609.31
350.72	615.31
350.947	614.31
351.174	633.31
351.402	624.31
351.629	604.31
351.856	621.31
352.083	627.31
352.311	610.31
352.538	635.31
352.765	637.31
352.992	591.31
353.22	585.31
353.447	584.31
353.674	586.31
353.901	615.31
354.128	617.31
354.355	594.31
354.583	592.31
354.81	622.31
355.037	605.31
355.264	579.31
355.491	603.31
355.718	600.31
355.945	594.31
356.172	641.31
356.399	611.31
356.626	629.31
356.853	603.31
357.08	592.31
357.307	611.31
357.534	597.31
357.761	596.31
357.988	618.31
358.215	600.31
358.441	619.31
358.668	603.31
358.895	635.31
359.122	613.31
359.349	605.31
359.576	612.31
359.802	609.31
360.029	581.31
360.256	614.31
360.483	593.31
360.709	597.31
360.936	605.31
361.163	617.31
361.39	594.31
361.616	609.31
361.843	597.31
362.07	611.31
362.296	613.31
362.523	594.31
362.749	570.31
362.976	608.31
363.203	586.31
363.429	601.31
363.656	603.31
363.882	597.31
364.109	591.31
364.335	569.31
364.562	592.31
364.788	593.31
365.015	613.31
365.241	601.31
365.468	614.31
365.694	591.31
365.92	605.31
366.147	577.31
366.373	599.31
366.599	599.31
366.826	576.31
367.052	589.31
367.278	612.31
367.505	631.31
367.731	637.31
367.957	603.31
368.184	603.31
368.41	604.31
368.636	605.31
368.862	623.31
369.089	642.31
369.315	620.31
369.541	628.31
369.767	612.31
369.993	604.31
370.219	608.31
370.445	623.31
370.672	608.31
370.898	617.31
371.124	651.31
371.35	643.31
371.576	637.31
371.802	626.31
372.028	639.31
372.254	655.31
372.48	639.31
372.706	640.31
372.932	650.31
373.158	636.31
373.384	636.31
373.61	632.31
373.835	641.31
374.061	627.31
374.287	621.31
374.513	656.31
374.739	651.31
374.965	663.31
375.191	666.31
375.416	676.31
375.642	676.31
375.868	670.31
376.094	657.31
376.319	634.31
376.545	635.31
376.771	622.31
376.997	620.31
377.222	614.31
377.448	635.31
377.674	624.31
377.899	616.31
378.125	613.31
378.35	611.31
378.576	623.31
378.802	587.31
379.027	600.31
379.253	609.31
379.478	599.31
379.704	601.31
379.929	609.31
380.155	613.31
380.38	594.31
380.606	600.31
380.831	603.31
381.057	639.31
381.282	629.31
381.507	595.31
381.733	620.31
381.958	626.31
382.184	613.31
382.409	641.31
382.634	633.31
382.86	619.31
383.085	634.31
383.31	655.31
383.535	665.31
383.761	646.31
383.986	661.31
384.211	668.31
384.436	681.31
384.662	680.31
384.887	699.31
385.112	701.31
385.337	713.31
385.562	711.31
385.787	719.31
386.013	725.31
386.238	716.31
386.463	720.31
386.688	733.31
386.913	717.31
387.138	718.31
387.363	717.31
387.588	707.31
387.813	759.31
388.038	717.31
388.263	720.31
388.488	705.31
388.713	719.31
388.938	720.31
389.163	712.31
389.387	737.31
389.612	699.31
389.837	701.31
390.062	687.31
390.287	699.31
390.512	710.31
390.736	734.31
390.961	729.31
391.186	745.31
391.411	751.31
391.636	787.31
391.86	801.31
392.085	783.31
392.31	810.31
392.534	761.31
392.759	775.31
392.984	772.31
393.208	757.31
393.433	761.31
393.658	747.31
393.882	739.31
394.107	772.31
394.331	775.31
394.556	763.31
394.78	771.31
395.005	764.31
395.229	776.31
395.454	785.31
395.678	809.31
395.903	797.31
396.127	812.31
396.352	786.31
396.576	777.31
396.801	805.31
397.025	782.31
397.249	806.31
397.474	821.31
397.698	829.31
397.922	786.31
398.147	822.31
398.371	853.31
398.595	876.31
398.82	884.31
399.044	935.31
399.268	1003.31
399.492	1103.31
399.717	1159.31
399.941	1206.31
400.165	1109.31
400.389	1050.31
400.613	996.31
400.837	959.31
401.062	931.31
401.286	905.31
401.51	920.31
401.734	906.31
401.958	907.31
402.182	933.31
402.406	919.31
402.63	925.31
402.854	943.31
403.078	954.31
403.302	951.31
403.526	976.31
403.75	966.31
403.974	972.31
404.198	984.31
404.422	967.31
404.645	940.31
404.869	950.31
405.093	963.31
405.317	946.31
405.541	987.31
405.765	975.31
405.988	983.31
406.212	964.31
406.436	979.31
406.66	994.31
406.883	1003.31
407.107	1057.31
407.331	1083.31
407.555	1115.31
407.778	1121.31
408.002	1115.31
408.226	1091.31
408.449	1058.31
408.673	1048.31
408.896	1060.31
409.12	1035.31
409.344	1025.31
409.567	1011.31
409.791	969.31
410.014	999.31
410.238	1003.31
410.461	997.31
410.685	980.31
410.908	977.31
411.132	977.31
411.355	947.31
411.578	967.31
411.802	961.31
412.025	954.31
412.249	977.31
412.472	981.31
412.695	931.31
412.919	931.31
413.142	939.31
413.365	918.31
413.589	923.31
413.812	925.31
414.035	878.31
414.258	915.31
414.482	941.31
414.705	946.31
414.928	939.31
415.151	939.31
415.374	921.31
415.597	919.31
415.821	907.31
416.044	902.31
416.267	921.31
416.49	929.31
416.713	930.31
416.936	907.31
417.159	916.31
417.382	870.31
417.605	913.31
417.828	917.31
418.051	925.31
418.274	909.31
418.497	912.31
418.72	960.31
418.943	940.31
419.166	983.31
419.389	1045.31
419.611	1028.31
419.834	984.31
420.057	932.31
420.28	930.31
420.503	908.31
420.726	937.31
420.948	926.31
421.171	925.31
421.394	923.31
421.617	905.31
421.839	902.31
422.062	955.31
422.285	925.31
422.507	947.31
422.73	915.31
422.953	912.31
423.175	945.31
423.398	963.31
423.621	955.31
423.843	964.31
424.066	966.31
424.288	968.31
424.511	950.31
424.733	949.31
424.956	949.31
425.178	949.31
425.401	936.31
425.623	953.31
425.846	897.31
426.068	901.31
426.291	923.31
426.513	911.31
426.735	910.31
426.958	913.31
427.18	876.31
427.402	890.31
427.625	894.31
427.847	875.31
428.069	886.31
428.292	891.31
428.514	894.31
428.736	862.31
428.958	870.31
429.181	865.31
429.403	866.31
429.625	830.31
429.847	849.31
430.069	855.31
430.292	862.31
430.514	852.31
430.736	841.31
430.958	871.31
431.18	863.31
431.402	874.31
431.624	889.31
431.846	859.31
432.068	867.31
432.29	858.31
432.512	875.31
432.734	886.31
432.956	879.31
433.178	862.31
433.4	887.31
433.622	893.31
433.844	909.31
434.066	880.31
434.287	905.31
434.509	891.31
434.731	900.31
434.953	936.31
435.175	952.31
435.397	979.31
435.618	899.31
435.84	905.31
436.062	842.31
436.284	877.31
436.505	890.31
436.727	887.31
436.949	865.31
437.17	889.31
437.392	907.31
437.614	867.31
437.835	827.31
438.057	860.31
438.278	823.31
438.5	820.31
438.721	852.31
438.943	863.31
439.165	861.31
439.386	840.31
439.608	870.31
439.829	884.31
440.05	870.31
440.272	883.31
440.493	886.31
440.715	904.31
440.936	908.31
441.158	923.31
441.379	892.31
441.6	971.31
441.822	939.31
442.043	967.31
442.264	952.31
442.486	940.31
442.707	955.31
442.928	972.31
443.149	950.31
443.371	974.31
443.592	960.31
443.813	982.31
444.034	970.31
444.255	1009.31
444.476	1024.31
444.698	1065.31
444.919	1086.31
445.14	1191.31
445.361	1059.31
445.582	1002.31
445.803	936.31
446.024	914.31
446.245	936.31
446.466	898.31
446.687	931.31
446.908	934.31
447.129	872.31
447.35	876.31
447.571	878.31
447.792	856.31
448.013	856.31
448.234	829.31
448.455	836.31
448.675	825.31
448.896	831.31
449.117	800.31
449.338	810.31
449.559	821.31
449.779	832.31
450	803.31
450.221	825.31
450.442	828.31
450.662	836.31
450.883	815.31
451.104	829.31
451.324	825.31
451.545	807.31
451.766	798.31
451.986	840.31
452.207	846.31
452.428	793.31
452.648	816.31
452.869	784.31
453.089	782.31
453.31	789.31
453.53	797.31
453.751	780.31
453.971	753.31
454.192	793.31
454.412	749.31
454.633	775.31
454.853	755.31
455.073	758.31
455.294	752.31
455.514	763.31
455.734	753.31
455.955	747.31
456.175	736.31
456.395	758.31
456.616	796.31
456.836	771.31
457.056	775.31
457.276	725.31
457.497	755.31
457.717	769.31
457.937	798.31
458.157	769.31
458.377	773.31
458.598	793.31
458.818	842.31
459.038	839.31
459.258	855.31
459.478	848.31
459.698	895.31
459.918	926.31
460.138	962.31
460.358	973.31
460.578	999.31
460.798	1007.31
461.018	985.31
461.238	992.31
461.458	1002.31
461.678	960.31
461.898	996.31
462.118	1018.31
462.338	1063.31
462.558	1087.31
462.777	1125.31
462.997	1180.31
463.217	1205.31
463.437	1256.31
463.657	1187.31
463.876	1155.31
464.096	1159.31
464.316	1143.31
464.536	1140.31
464.755	1105.31
464.975	1045.31
465.195	1030.31
465.414	997.31
465.634	935.31
465.854	925.31
466.073	890.31
466.293	877.31
466.512	880.31
466.732	840.31
466.951	863.31
467.171	839.31
467.391	865.31
467.61	851.31
467.829	841.31
468.049	858.31
468.268	853.31
468.488	815.31
468.707	854.31
468.927	793.31
469.146	825.31
469.365	831.31
469.585	844.31
469.804	805.31
470.023	858.31
470.243	848.31
470.462	861.31
470.681	877.31
470.901	857.31
471.12	867.31
471.339	871.31
471.558	852.31
471.777	863.31
471.997	837.31
472.216	832.31
472.435	815.31
472.654	815.31
472.873	797.31
473.092	797.31
473.311	801.31
473.53	823.31
473.749	801.31
473.968	817.31
474.187	776.31
474.406	815.31
474.625	816.31
474.844	785.31
475.063	791.31
475.282	821.31
475.501	831.31
475.72	855.31
475.939	837.31
476.158	823.31
476.377	849.31
476.596	864.31
476.814	854.31
477.033	863.31
477.252	879.31
477.471	904.31
477.69	910.31
477.908	922.31
478.127	938.31
478.346	943.31
478.564	956.31
478.783	956.31
479.002	980.31
479.22	1004.31
479.439	989.31
479.658	986.31
479.876	1012.31
480.095	996.31
480.313	1019.31
480.532	1033.31
480.751	1023.31
480.969	987.31
481.188	962.31
481.406	972.31
481.624	920.31
481.843	920.31
482.061	913.31
482.28	941.31
482.498	929.31
482.717	897.31
482.935	956.31
483.153	890.31
483.372	940.31
483.59	949.31
483.808	910.31
484.027	929.31
484.245	941.31
484.463	926.31
484.681	927.31
484.9	932.31
485.118	947.31
485.336	951.31
485.554	956.31
485.772	977.31
485.99	953.31
486.209	953.31
486.427	965.31
486.645	976.31
486.863	970.31
487.081	964.31
487.299	940.31
487.517	944.31
487.735	981.31
487.953	981.31
488.171	989.31
488.389	982.31
488.607	986.31
488.825	951.31
489.043	939.31
489.261	982.31
489.479	957.31
489.696	994.31
489.914	958.31
490.132	972.31
490.35	982.31
490.568	973.31
490.786	984.31
491.003	969.31
491.221	1017.31
491.439	1009.31
491.657	1008.31
491.874	1003.31
492.092	1025.31
492.31	1033.31
492.527	1014.31
492.745	1051.31
492.963	1033.31
493.18	1033.31
493.398	1004.31
493.615	1048.31
493.833	1011.31
494.05	1016.31
494.268	1044.31
494.485	1048.31
494.703	1038.31
494.92	1054.31
495.138	1053.31
495.355	1063.31
495.573	1079.31
495.79	1062.31
496.008	1069.31
496.225	1075.31
496.442	1088.31
496.66	1104.31
496.877	1120.31
497.094	1152.31
497.312	1192.31
497.529	1181.31
497.746	1213.31
497.963	1265.31
498.181	1301.31
498.398	1326.31
498.615	1407.31
498.832	1476.31
499.049	1548.31
499.267	1650.31
499.484	1789.31
499.701	1876.31
499.918	2038.31
500.135	2284.31
500.352	2433.31
