Data from Ni(NO3)2Standard.Agarose3%.GreenCap.LampEnergy5.5.E.O_HRD10591_14-42-45-189.txt Node
Date: Mon Jul 22 14:42:45 EDT 2019
User: cochatt
Spectrometer: HR+D1059
Trigger mode: 1
Integration Time (sec): 1.000000E-1
Scans to average: 1
Electric dark correction enabled: true
Nonlinearity correction enabled: false
Boxcar width: 0
XAxis mode: Wavelengths
Number of Pixels in Spectrum: 2048
>>>>>Begin Spectral Data<<<<<
223.165	-11.38
223.4	-11.38
223.635	-11.38
223.869	-24.38
224.104	-18.38
224.338	-14.38
224.573	-17.38
224.808	-13.38
225.042	-15.38
225.277	-4.38
225.511	0.62
225.746	-12.38
225.98	-0.38
226.215	20.62
226.449	16.62
226.683	13.62
226.918	42.62
227.152	37.62
227.387	21.62
227.621	31.62
227.856	34.62
228.09	33.62
228.324	42.62
228.559	61.62
228.793	56.62
229.027	48.62
229.262	60.62
229.496	53.62
229.73	67.62
229.964	73.62
230.199	89.62
230.433	66.62
230.667	73.62
230.901	66.62
231.136	74.62
231.37	80.62
231.604	79.62
231.838	81.62
232.072	76.62
232.306	87.62
232.541	85.62
232.775	69.62
233.009	91.62
233.243	81.62
233.477	80.62
233.711	71.62
233.945	81.62
234.179	75.62
234.413	72.62
234.647	75.62
234.881	73.62
235.115	79.62
235.349	82.62
235.583	78.62
235.817	81.62
236.051	79.62
236.285	75.62
236.519	75.62
236.753	76.62
236.987	87.62
237.221	84.62
237.455	86.62
237.689	75.62
237.922	57.62
238.156	75.62
238.39	75.62
238.624	74.62
238.858	82.62
239.091	65.62
239.325	75.62
239.559	67.62
239.793	74.62
240.027	86.62
240.26	75.62
240.494	66.62
240.728	63.62
240.961	69.62
241.195	81.62
241.429	75.62
241.662	64.62
241.896	72.62
242.13	58.62
242.363	82.62
242.597	75.62
242.83	74.62
243.064	64.62
243.298	81.62
243.531	83.62
243.765	64.62
243.998	70.62
244.232	81.62
244.465	77.62
244.699	76.62
244.932	72.62
245.166	80.62
245.399	75.62
245.633	84.62
245.866	88.62
246.099	82.62
246.333	77.62
246.566	71.62
246.8	71.62
247.033	66.62
247.266	78.62
247.5	90.62
247.733	78.62
247.966	74.62
248.2	81.62
248.433	82.62
248.666	76.62
248.899	88.62
249.133	74.62
249.366	83.62
249.599	84.62
249.832	73.62
250.066	65.62
250.299	71.62
250.532	75.62
250.765	87.62
250.998	81.62
251.231	66.62
251.465	75.62
251.698	79.62
251.931	74.62
252.164	95.62
252.397	74.62
252.63	68.62
252.863	65.62
253.096	75.62
253.329	56.62
253.562	69.62
253.795	89.62
254.028	80.62
254.261	90.62
254.494	81.62
254.727	67.62
254.96	74.62
255.193	71.62
255.426	75.62
255.659	84.62
255.892	79.62
256.124	93.62
256.357	60.62
256.59	80.62
256.823	78.62
257.056	75.62
257.289	63.62
257.521	76.62
257.754	66.62
257.987	94.62
258.22	73.62
258.452	84.62
258.685	87.62
258.918	71.62
259.151	86.62
259.383	75.62
259.616	81.62
259.849	75.62
260.081	84.62
260.314	64.62
260.547	75.62
260.779	80.62
261.012	65.62
261.244	81.62
261.477	93.62
261.71	72.62
261.942	83.62
262.175	93.62
262.407	72.62
262.64	81.62
262.872	88.62
263.105	81.62
263.337	77.62
263.57	76.62
263.802	74.62
264.035	84.62
264.267	91.62
264.499	85.62
264.732	79.62
264.964	76.62
265.197	77.62
265.429	82.62
265.661	74.62
265.894	76.62
266.126	67.62
266.358	72.62
266.591	73.62
266.823	73.62
267.055	83.62
267.287	86.62
267.52	69.62
267.752	58.62
267.984	85.62
268.216	73.62
268.448	84.62
268.681	84.62
268.913	84.62
269.145	84.62
269.377	80.62
269.609	82.62
269.841	82.62
270.073	98.62
270.306	86.62
270.538	95.62
270.77	81.62
271.002	84.62
271.234	67.62
271.466	76.62
271.698	72.62
271.93	88.62
272.162	87.62
272.394	84.62
272.626	81.62
272.858	102.62
273.09	75.62
273.322	74.62
273.553	57.62
273.785	87.62
274.017	75.62
274.249	85.62
274.481	70.62
274.713	78.62
274.945	89.62
275.176	86.62
275.408	84.62
275.64	78.62
275.872	83.62
276.104	83.62
276.335	91.62
276.567	83.62
276.799	83.62
277.031	88.62
277.262	85.62
277.494	81.62
277.726	73.62
277.957	87.62
278.189	83.62
278.421	71.62
278.652	75.62
278.884	77.62
279.115	82.62
279.347	91.62
279.579	87.62
279.81	90.62
280.042	71.62
280.273	70.62
280.505	96.62
280.736	84.62
280.968	78.62
281.199	87.62
281.431	65.62
281.662	84.62
281.894	82.62
282.125	94.62
282.356	86.62
282.588	87.62
282.819	73.62
283.051	74.62
283.282	77.62
283.513	82.62
283.745	88.62
283.976	80.62
284.207	82.62
284.439	80.62
284.67	96.62
284.901	75.62
285.132	76.62
285.364	90.62
285.595	81.62
285.826	87.62
286.057	85.62
286.288	84.62
286.52	87.62
286.751	84.62
286.982	73.62
287.213	89.62
287.444	85.62
287.675	85.62
287.906	81.62
288.138	82.62
288.369	85.62
288.6	83.62
288.831	95.62
289.062	88.62
289.293	80.62
289.524	83.62
289.755	77.62
289.986	86.62
290.217	90.62
290.448	86.62
290.679	83.62
290.91	89.62
291.141	81.62
291.371	67.62
291.602	85.62
291.833	72.62
292.064	68.62
292.295	84.62
292.526	79.62
292.757	79.62
292.987	95.62
293.218	89.62
293.449	88.62
293.68	79.62
293.91	77.62
294.141	83.62
294.372	81.62
294.603	84.62
294.833	83.62
295.064	90.62
295.295	87.62
295.525	82.62
295.756	75.62
295.987	92.62
296.217	72.62
296.448	89.62
296.679	94.62
296.909	89.62
297.14	103.62
297.37	97.62
297.601	89.62
297.831	89.62
298.062	73.62
298.292	85.62
298.523	100.62
298.753	71.62
298.984	79.62
299.214	72.62
299.445	76.62
299.675	67.62
299.905	75.62
300.136	86.62
300.366	85.62
300.597	85.62
300.827	85.62
301.057	68.62
301.288	93.62
301.518	84.62
301.748	89.62
301.979	83.62
302.209	81.62
302.439	79.62
302.669	80.62
302.9	89.62
303.13	85.62
303.36	85.62
303.59	78.62
303.82	81.62
304.051	96.62
304.281	101.62
304.511	73.62
304.741	82.62
304.971	77.62
305.201	80.62
305.431	81.62
305.661	74.62
305.891	81.62
306.121	89.62
306.352	81.62
306.582	89.62
306.812	84.62
307.042	90.62
307.272	81.62
307.502	75.62
307.731	86.62
307.961	77.62
308.191	79.62
308.421	73.62
308.651	81.62
308.881	89.62
309.111	79.62
309.341	83.62
309.571	84.62
309.8	92.62
310.03	82.62
310.26	88.62
310.49	86.62
310.72	91.62
310.949	86.62
311.179	86.62
311.409	93.62
311.639	93.62
311.868	80.62
312.098	74.62
312.328	73.62
312.557	79.62
312.787	81.62
313.017	74.62
313.246	83.62
313.476	84.62
313.706	88.62
313.935	89.62
314.165	82.62
314.394	73.62
314.624	75.62
314.853	66.62
315.083	86.62
315.312	80.62
315.542	74.62
315.771	81.62
316.001	85.62
316.23	67.62
316.46	89.62
316.689	90.62
316.919	104.62
317.148	82.62
317.377	81.62
317.607	85.62
317.836	80.62
318.065	85.62
318.295	85.62
318.524	90.62
318.753	85.62
318.983	73.62
319.212	89.62
319.441	78.62
319.67	73.62
319.9	75.62
320.129	78.62
320.358	73.62
320.587	75.62
320.816	74.62
321.046	84.62
321.275	84.62
321.504	88.62
321.733	97.62
321.962	90.62
322.191	93.62
322.42	84.62
322.649	93.62
322.878	79.62
323.108	78.62
323.337	82.62
323.566	85.62
323.795	78.62
324.024	95.62
324.253	84.62
324.482	69.62
324.71	78.62
324.939	80.62
325.168	78.62
325.397	67.62
325.626	84.62
325.855	73.62
326.084	93.62
326.313	77.62
326.542	73.62
326.77	77.62
326.999	75.62
327.228	93.62
327.457	82.62
327.686	79.62
327.914	96.62
328.143	88.62
328.372	88.62
328.6	84.62
328.829	91.62
329.058	83.62
329.287	74.62
329.515	89.62
329.744	86.62
329.972	83.62
330.201	91.62
330.43	87.62
330.658	68.62
330.887	83.62
331.115	80.62
331.344	73.62
331.572	77.62
331.801	94.62
332.03	72.62
332.258	80.62
332.486	90.62
332.715	81.62
332.943	58.62
333.172	80.62
333.4	73.62
333.629	89.62
333.857	83.62
334.085	87.62
334.314	84.62
334.542	71.62
334.771	83.62
334.999	67.62
335.227	90.62
335.455	94.62
335.684	88.62
335.912	83.62
336.14	98.62
336.369	100.62
336.597	86.62
336.825	69.62
337.053	84.62
337.281	79.62
337.51	88.62
337.738	87.62
337.966	86.62
338.194	75.62
338.422	75.62
338.65	85.62
338.878	94.62
339.106	94.62
339.334	86.62
339.562	79.62
339.79	89.62
340.018	76.62
340.246	87.62
340.474	85.62
340.702	82.62
340.93	86.62
341.158	93.62
341.386	84.62
341.614	83.62
341.842	71.62
342.07	85.62
342.298	88.62
342.526	89.62
342.754	81.62
342.981	87.62
343.209	86.62
343.437	74.62
343.665	78.62
343.893	80.62
344.12	95.62
344.348	85.62
344.576	84.62
344.804	80.62
345.031	85.62
345.259	81.62
345.487	89.62
345.714	93.62
345.942	87.62
346.17	82.62
346.397	78.62
346.625	75.62
346.853	83.62
347.08	84.62
347.308	82.62
347.535	89.62
347.763	82.62
347.99	82.62
348.218	78.62
348.445	78.62
348.673	80.62
348.9	81.62
349.128	95.62
349.355	81.62
349.583	78.62
349.81	77.62
350.037	98.62
350.265	81.62
350.492	76.62
350.72	67.62
350.947	84.62
351.174	95.62
351.402	86.62
351.629	88.62
351.856	86.62
352.083	75.62
352.311	81.62
352.538	91.62
352.765	79.62
352.992	92.62
353.22	76.62
353.447	88.62
353.674	94.62
353.901	86.62
354.128	100.62
354.355	83.62
354.583	94.62
354.81	73.62
355.037	84.62
355.264	90.62
355.491	69.62
355.718	98.62
355.945	90.62
356.172	83.62
356.399	82.62
356.626	82.62
356.853	69.62
357.08	81.62
357.307	87.62
357.534	91.62
357.761	100.62
357.988	76.62
358.215	78.62
358.441	86.62
358.668	84.62
358.895	82.62
359.122	71.62
359.349	82.62
359.576	76.62
359.802	64.62
360.029	90.62
360.256	84.62
360.483	80.62
360.709	83.62
360.936	83.62
361.163	85.62
361.39	86.62
361.616	92.62
361.843	94.62
362.07	75.62
362.296	85.62
362.523	71.62
362.749	103.62
362.976	69.62
363.203	88.62
363.429	95.62
363.656	69.62
363.882	73.62
364.109	93.62
364.335	78.62
364.562	92.62
364.788	82.62
365.015	90.62
365.241	74.62
365.468	86.62
365.694	81.62
365.92	93.62
366.147	89.62
366.373	73.62
366.599	82.62
366.826	99.62
367.052	88.62
367.278	83.62
367.505	71.62
367.731	89.62
367.957	93.62
368.184	79.62
368.41	90.62
368.636	80.62
368.862	70.62
369.089	69.62
369.315	93.62
369.541	95.62
369.767	95.62
369.993	98.62
370.219	76.62
370.445	80.62
370.672	94.62
370.898	74.62
371.124	91.62
371.35	79.62
371.576	82.62
371.802	80.62
372.028	85.62
372.254	83.62
372.48	88.62
372.706	65.62
372.932	77.62
373.158	71.62
373.384	84.62
373.61	94.62
373.835	79.62
374.061	87.62
374.287	75.62
374.513	76.62
374.739	87.62
374.965	75.62
375.191	78.62
375.416	87.62
375.642	104.62
375.868	101.62
376.094	86.62
376.319	89.62
376.545	84.62
376.771	70.62
376.997	76.62
377.222	77.62
377.448	91.62
377.674	72.62
377.899	67.62
378.125	84.62
378.35	85.62
378.576	83.62
378.802	86.62
379.027	94.62
379.253	87.62
379.478	83.62
379.704	81.62
379.929	80.62
380.155	94.62
380.38	90.62
380.606	73.62
380.831	78.62
381.057	81.62
381.282	97.62
381.507	82.62
381.733	90.62
381.958	84.62
382.184	72.62
382.409	85.62
382.634	75.62
382.86	68.62
383.085	69.62
383.31	74.62
383.535	97.62
383.761	71.62
383.986	89.62
384.211	83.62
384.436	85.62
384.662	71.62
384.887	71.62
385.112	96.62
385.337	75.62
385.562	80.62
385.787	81.62
386.013	88.62
386.238	73.62
386.463	73.62
386.688	88.62
386.913	87.62
387.138	75.62
387.363	86.62
387.588	87.62
387.813	72.62
388.038	91.62
388.263	76.62
388.488	77.62
388.713	93.62
388.938	90.62
389.163	85.62
389.387	76.62
389.612	76.62
389.837	78.62
390.062	84.62
390.287	72.62
390.512	76.62
390.736	81.62
390.961	88.62
391.186	82.62
391.411	87.62
391.636	76.62
391.86	95.62
392.085	82.62
392.31	69.62
392.534	93.62
392.759	89.62
392.984	74.62
393.208	78.62
393.433	77.62
393.658	96.62
393.882	69.62
394.107	78.62
394.331	74.62
394.556	72.62
394.78	80.62
395.005	74.62
395.229	84.62
395.454	95.62
395.678	83.62
395.903	80.62
396.127	77.62
396.352	86.62
396.576	87.62
396.801	99.62
397.025	81.62
397.249	86.62
397.474	94.62
397.698	86.62
397.922	78.62
398.147	102.62
398.371	88.62
398.595	96.62
398.82	83.62
399.044	64.62
399.268	83.62
399.492	87.62
399.717	93.62
399.941	74.62
400.165	83.62
400.389	80.62
400.613	89.62
400.837	75.62
401.062	72.62
401.286	87.62
401.51	81.62
401.734	86.62
401.958	72.62
402.182	96.62
402.406	90.62
402.63	80.62
402.854	86.62
403.078	87.62
403.302	85.62
403.526	75.62
403.75	85.62
403.974	80.62
404.198	69.62
404.422	74.62
404.645	87.62
404.869	80.62
405.093	86.62
405.317	81.62
405.541	79.62
405.765	89.62
405.988	95.62
406.212	93.62
406.436	83.62
406.66	85.62
406.883	85.62
407.107	93.62
407.331	79.62
407.555	77.62
407.778	80.62
408.002	91.62
408.226	86.62
408.449	81.62
408.673	87.62
408.896	75.62
409.12	72.62
409.344	93.62
409.567	87.62
409.791	88.62
410.014	95.62
410.238	99.62
410.461	109.62
410.685	87.62
410.908	85.62
411.132	79.62
411.355	79.62
411.578	87.62
411.802	80.62
412.025	86.62
412.249	73.62
412.472	79.62
412.695	87.62
412.919	72.62
413.142	97.62
413.365	81.62
413.589	85.62
413.812	67.62
414.035	87.62
414.258	95.62
414.482	82.62
414.705	71.62
414.928	83.62
415.151	82.62
415.374	88.62
415.597	90.62
415.821	97.62
416.044	86.62
416.267	96.62
416.49	96.62
416.713	78.62
416.936	70.62
417.159	87.62
417.382	86.62
417.605	83.62
417.828	84.62
418.051	81.62
418.274	87.62
418.497	79.62
418.72	66.62
418.943	85.62
419.166	86.62
419.389	82.62
419.611	83.62
419.834	88.62
420.057	81.62
420.28	86.62
420.503	83.62
420.726	76.62
420.948	84.62
421.171	104.62
421.394	92.62
421.617	66.62
421.839	83.62
422.062	79.62
422.285	92.62
422.507	75.62
422.73	70.62
422.953	76.62
423.175	60.62
423.398	82.62
423.621	90.62
423.843	83.62
424.066	83.62
424.288	88.62
424.511	82.62
424.733	71.62
424.956	93.62
425.178	80.62
425.401	85.62
425.623	71.62
425.846	74.62
426.068	72.62
426.291	78.62
426.513	83.62
426.735	78.62
426.958	82.62
427.18	67.62
427.402	88.62
427.625	76.62
427.847	83.62
428.069	106.62
428.292	83.62
428.514	86.62
428.736	85.62
428.958	90.62
429.181	74.62
429.403	75.62
429.625	69.62
429.847	89.62
430.069	81.62
430.292	91.62
430.514	94.62
430.736	81.62
430.958	85.62
431.18	81.62
431.402	88.62
431.624	85.62
431.846	101.62
432.068	79.62
432.29	74.62
432.512	90.62
432.734	75.62
432.956	85.62
433.178	97.62
433.4	91.62
433.622	84.62
433.844	88.62
434.066	80.62
434.287	91.62
434.509	77.62
434.731	89.62
434.953	84.62
435.175	94.62
435.397	86.62
435.618	85.62
435.84	94.62
436.062	95.62
436.284	93.62
436.505	89.62
436.727	88.62
436.949	103.62
437.17	79.62
437.392	87.62
437.614	70.62
437.835	80.62
438.057	81.62
438.278	78.62
438.5	81.62
438.721	76.62
438.943	86.62
439.165	70.62
439.386	81.62
439.608	87.62
439.829	88.62
440.05	81.62
440.272	73.62
440.493	91.62
440.715	76.62
440.936	73.62
441.158	77.62
441.379	89.62
441.6	82.62
441.822	78.62
442.043	83.62
442.264	84.62
442.486	85.62
442.707	78.62
442.928	87.62
443.149	88.62
443.371	94.62
443.592	74.62
443.813	82.62
444.034	81.62
444.255	70.62
444.476	87.62
444.698	80.62
444.919	86.62
445.14	196.62
445.361	127.62
445.582	91.62
445.803	93.62
446.024	90.62
446.245	97.62
446.466	83.62
446.687	107.62
446.908	86.62
447.129	81.62
447.35	74.62
447.571	84.62
447.792	88.62
448.013	85.62
448.234	79.62
448.455	84.62
448.675	83.62
448.896	85.62
449.117	82.62
449.338	75.62
449.559	92.62
449.779	89.62
450	100.62
450.221	82.62
450.442	90.62
450.662	89.62
450.883	82.62
451.104	89.62
451.324	72.62
451.545	75.62
451.766	81.62
451.986	82.62
452.207	72.62
452.428	83.62
452.648	83.62
452.869	79.62
453.089	81.62
453.31	79.62
453.53	83.62
453.751	89.62
453.971	74.62
454.192	82.62
454.412	90.62
454.633	104.62
454.853	100.62
455.073	101.62
455.294	79.62
455.514	90.62
455.734	73.62
455.955	98.62
456.175	82.62
456.395	63.62
456.616	89.62
456.836	84.62
457.056	77.62
457.276	81.62
457.497	79.62
457.717	96.62
457.937	87.62
458.157	79.62
458.377	82.62
458.598	75.62
458.818	74.62
459.038	86.62
459.258	68.62
459.478	88.62
459.698	78.62
459.918	80.62
460.138	82.62
460.358	72.62
460.578	83.62
460.798	86.62
461.018	81.62
461.238	80.62
461.458	86.62
461.678	78.62
461.898	86.62
462.118	82.62
462.338	82.62
462.558	90.62
462.777	95.62
462.997	80.62
463.217	90.62
463.437	95.62
463.657	73.62
463.876	74.62
464.096	85.62
464.316	67.62
464.536	85.62
464.755	98.62
464.975	85.62
465.195	75.62
465.414	77.62
465.634	91.62
465.854	83.62
466.073	72.62
466.293	78.62
466.512	81.62
466.732	70.62
466.951	82.62
467.171	74.62
467.391	72.62
467.61	78.62
467.829	91.62
468.049	81.62
468.268	87.62
468.488	89.62
468.707	81.62
468.927	68.62
469.146	83.62
469.365	78.62
469.585	81.62
469.804	82.62
470.023	71.62
470.243	75.62
470.462	93.62
470.681	84.62
470.901	88.62
471.12	84.62
471.339	85.62
471.558	84.62
471.777	83.62
471.997	90.62
472.216	88.62
472.435	82.62
472.654	81.62
472.873	82.62
473.092	80.62
473.311	77.62
473.53	87.62
473.749	83.62
473.968	76.62
474.187	93.62
474.406	92.62
474.625	82.62
474.844	87.62
475.063	81.62
475.282	89.62
475.501	83.62
475.72	87.62
475.939	74.62
476.158	87.62
476.377	97.62
476.596	96.62
476.814	76.62
477.033	71.62
477.252	77.62
477.471	90.62
477.69	81.62
477.908	90.62
478.127	80.62
478.346	82.62
478.564	79.62
478.783	75.62
479.002	73.62
479.22	77.62
479.439	89.62
479.658	73.62
479.876	84.62
480.095	64.62
480.313	81.62
480.532	83.62
480.751	86.62
480.969	93.62
481.188	90.62
481.406	72.62
481.624	79.62
481.843	72.62
482.061	82.62
482.28	90.62
482.498	81.62
482.717	89.62
482.935	81.62
483.153	83.62
483.372	93.62
483.59	87.62
483.808	88.62
484.027	81.62
484.245	92.62
484.463	100.62
484.681	89.62
484.9	84.62
485.118	85.62
485.336	85.62
485.554	77.62
485.772	95.62
485.99	85.62
486.209	92.62
486.427	84.62
486.645	83.62
486.863	78.62
487.081	81.62
487.299	77.62
487.517	76.62
487.735	90.62
487.953	81.62
488.171	90.62
488.389	90.62
488.607	86.62
488.825	80.62
489.043	74.62
489.261	69.62
489.479	78.62
489.696	70.62
489.914	93.62
490.132	109.62
490.35	89.62
490.568	102.62
490.786	94.62
491.003	72.62
491.221	95.62
491.439	92.62
491.657	86.62
491.874	99.62
492.092	88.62
492.31	86.62
492.527	98.62
492.745	88.62
492.963	88.62
493.18	88.62
493.398	102.62
493.615	87.62
493.833	79.62
494.05	79.62
494.268	89.62
494.485	94.62
494.703	95.62
494.92	92.62
495.138	93.62
495.355	86.62
495.573	93.62
495.79	102.62
496.008	86.62
496.225	88.62
496.442	94.62
496.66	87.62
496.877	94.62
497.094	90.62
497.312	97.62
497.529	95.62
497.746	106.62
497.963	99.62
498.181	93.62
498.398	96.62
498.615	88.62
498.832	103.62
499.049	102.62
499.267	88.62
499.484	89.62
499.701	108.62
499.918	97.62
500.135	97.62
500.352	111.62
500.569	105.62
500.786	117.62
501.003	117.62
501.22	89.62
501.437	89.62
501.654	97.62
501.871	102.62
502.088	88.62
502.305	97.62
502.522	102.62
502.739	77.62
502.956	81.62
503.172	92.62
503.389	67.62
503.606	91.62
503.823	84.62
504.04	87.62
504.256	86.62
504.473	97.62
504.69	87.62
504.907	96.62
505.123	100.62
505.34	94.62
505.557	98.62
505.773	93.62
505.99	83.62
506.207	79.62
506.423	86.62
506.64	98.62
506.856	95.62
507.073	88.62
507.289	94.62
507.506	89.62
507.722	86.62
507.939	91.62
508.155	101.62
508.372	86.62
508.588	89.62
508.805	105.62
509.021	93.62
509.238	88.62
509.454	101.62
509.67	89.62
509.887	94.62
510.103	83.62
510.319	77.62
510.536	69.62
510.752	83.62
510.968	74.62
511.184	93.62
511.401	88.62
511.617	88.62
511.833	88.62
512.049	82.62
512.265	79.62
512.481	90.62
512.698	84.62
512.914	94.62
513.13	84.62
513.346	84.62
513.562	89.62
513.778	83.62
513.994	85.62
514.21	88.62
514.426	74.62
514.642	96.62
514.858	93.62
515.074	87.62
515.29	90.62
515.506	79.62
515.721	93.62
515.937	83.62
516.153	95.62
516.369	84.62
516.585	92.62
516.801	87.62
517.016	96.62
517.232	100.62
517.448	106.62
517.664	86.62
517.879	82.62
518.095	95.62
518.311	93.62
518.527	85.62
518.742	87.62
