Data from Ni(NO3)2@0.125M.TitratingCurve.Agarose3%dH2O.NegLispCup.LampEnergy10.LIBS07252019_HRD10591_18-11-11-568.txt Node
Date: Thu Jul 25 18:11:11 EDT 2019
User: cochatt
Spectrometer: HR+D1059
Trigger mode: 1
Integration Time (sec): 1.000000E-1
Scans to average: 1
Electric dark correction enabled: true
Nonlinearity correction enabled: false
Boxcar width: 0
XAxis mode: Wavelengths
Number of Pixels in Spectrum: 2048
>>>>>Begin Spectral Data<<<<<
223.165	-13.5
223.4	-13.5
223.635	-13.5
223.869	-18.5
224.104	-18.5
224.338	-18.5
224.573	-15.5
224.808	-11.5
225.042	-1.5
225.277	-5.5
225.511	1.5
225.746	9.5
225.98	13.5
226.215	5.5
226.449	11.5
226.683	11.5
226.918	13.5
227.152	36.5
227.387	45.5
227.621	39.5
227.856	44.5
228.09	39.5
228.324	35.5
228.559	61.5
228.793	60.5
229.027	101.5
229.262	125.5
229.496	121.5
229.73	116.5
229.964	116.5
230.199	150.5
230.433	134.5
230.667	142.5
230.901	133.5
231.136	136.5
231.37	140.5
231.604	140.5
231.838	138.5
232.072	143.5
232.306	139.5
232.541	140.5
232.775	157.5
233.009	141.5
233.243	146.5
233.477	153.5
233.711	149.5
233.945	157.5
234.179	149.5
234.413	160.5
234.647	169.5
234.881	165.5
235.115	158.5
235.349	162.5
235.583	165.5
235.817	163.5
236.051	171.5
236.285	168.5
236.519	163.5
236.753	165.5
236.987	160.5
237.221	160.5
237.455	163.5
237.689	170.5
237.922	163.5
238.156	161.5
238.39	163.5
238.624	169.5
238.858	188.5
239.091	176.5
239.325	179.5
239.559	179.5
239.793	176.5
240.027	197.5
240.26	184.5
240.494	174.5
240.728	189.5
240.961	190.5
241.195	194.5
241.429	205.5
241.662	205.5
241.896	213.5
242.13	184.5
242.363	212.5
242.597	200.5
242.83	210.5
243.064	218.5
243.298	208.5
243.531	204.5
243.765	215.5
243.998	207.5
244.232	213.5
244.465	218.5
244.699	218.5
244.932	220.5
245.166	215.5
245.399	234.5
245.633	248.5
245.866	226.5
246.099	225.5
246.333	219.5
246.566	240.5
246.8	224.5
247.033	227.5
247.266	245.5
247.5	228.5
247.733	240.5
247.966	238.5
248.2	239.5
248.433	253.5
248.666	231.5
248.899	262.5
249.133	259.5
249.366	260.5
249.599	237.5
249.832	271.5
250.066	267.5
250.299	269.5
250.532	280.5
250.765	270.5
250.998	272.5
251.231	281.5
251.465	281.5
251.698	297.5
251.931	276.5
252.164	276.5
252.397	278.5
252.63	254.5
252.863	279.5
253.096	267.5
253.329	273.5
253.562	286.5
253.795	288.5
254.028	304.5
254.261	301.5
254.494	289.5
254.727	281.5
254.96	299.5
255.193	300.5
255.426	289.5
255.659	301.5
255.892	311.5
256.124	294.5
256.357	302.5
256.59	296.5
256.823	313.5
257.056	283.5
257.289	317.5
257.521	314.5
257.754	311.5
257.987	310.5
258.22	315.5
258.452	321.5
258.685	330.5
258.918	320.5
259.151	338.5
259.383	334.5
259.616	338.5
259.849	341.5
260.081	340.5
260.314	357.5
260.547	350.5
260.779	349.5
261.012	329.5
261.244	349.5
261.477	345.5
261.71	357.5
261.942	346.5
262.175	373.5
262.407	339.5
262.64	333.5
262.872	345.5
263.105	349.5
263.337	345.5
263.57	369.5
263.802	360.5
264.035	365.5
264.267	357.5
264.499	358.5
264.732	361.5
264.964	360.5
265.197	364.5
265.429	350.5
265.661	381.5
265.894	388.5
266.126	355.5
266.358	358.5
266.591	395.5
266.823	377.5
267.055	384.5
267.287	401.5
267.52	374.5
267.752	396.5
267.984	387.5
268.216	377.5
268.448	374.5
268.681	402.5
268.913	382.5
269.145	411.5
269.377	392.5
269.609	386.5
269.841	380.5
270.073	394.5
270.306	418.5
270.538	387.5
270.77	415.5
271.002	400.5
271.234	409.5
271.466	430.5
271.698	402.5
271.93	425.5
272.162	409.5
272.394	408.5
272.626	408.5
272.858	422.5
273.09	413.5
273.322	420.5
273.553	400.5
273.785	424.5
274.017	438.5
274.249	412.5
274.481	450.5
274.713	420.5
274.945	461.5
275.176	444.5
275.408	453.5
275.64	439.5
275.872	440.5
276.104	469.5
276.335	428.5
276.567	450.5
276.799	442.5
277.031	467.5
277.262	461.5
277.494	455.5
277.726	442.5
277.957	446.5
278.189	478.5
278.421	452.5
278.652	465.5
278.884	477.5
279.115	475.5
279.347	477.5
279.579	476.5
279.81	493.5
280.042	476.5
280.273	460.5
280.505	482.5
280.736	466.5
280.968	490.5
281.199	496.5
281.431	485.5
281.662	493.5
281.894	491.5
282.125	496.5
282.356	499.5
282.588	512.5
282.819	497.5
283.051	497.5
283.282	490.5
283.513	501.5
283.745	486.5
283.976	508.5
284.207	498.5
284.439	496.5
284.67	508.5
284.901	508.5
285.132	496.5
285.364	523.5
285.595	513.5
285.826	491.5
286.057	527.5
286.288	522.5
286.52	533.5
286.751	553.5
286.982	551.5
287.213	516.5
287.444	533.5
287.675	560.5
287.906	536.5
288.138	537.5
288.369	554.5
288.6	545.5
288.831	548.5
289.062	568.5
289.293	533.5
289.524	558.5
289.755	538.5
289.986	543.5
290.217	540.5
290.448	563.5
290.679	550.5
290.91	540.5
291.141	551.5
291.371	544.5
291.602	554.5
291.833	557.5
292.064	554.5
292.295	558.5
292.526	582.5
292.757	558.5
292.987	576.5
293.218	560.5
293.449	567.5
293.68	567.5
293.91	583.5
294.141	574.5
294.372	556.5
294.603	563.5
294.833	586.5
295.064	562.5
295.295	574.5
295.525	576.5
295.756	553.5
295.987	574.5
296.217	602.5
296.448	581.5
296.679	576.5
296.909	572.5
297.14	579.5
297.37	599.5
297.601	615.5
297.831	600.5
298.062	592.5
298.292	609.5
298.523	604.5
298.753	603.5
298.984	612.5
299.214	624.5
299.445	606.5
299.675	621.5
299.905	602.5
300.136	598.5
300.366	608.5
300.597	609.5
300.827	626.5
301.057	628.5
301.288	622.5
301.518	651.5
301.748	646.5
301.979	652.5
302.209	643.5
302.439	650.5
302.669	646.5
302.9	630.5
303.13	645.5
303.36	625.5
303.59	602.5
303.82	622.5
304.051	639.5
304.281	654.5
304.511	635.5
304.741	627.5
304.971	634.5
305.201	646.5
305.431	646.5
305.661	630.5
305.891	629.5
306.121	631.5
306.352	634.5
306.582	630.5
306.812	629.5
307.042	637.5
307.272	613.5
307.502	626.5
307.731	638.5
307.961	624.5
308.191	598.5
308.421	619.5
308.651	638.5
308.881	628.5
309.111	635.5
309.341	637.5
309.571	628.5
309.8	621.5
310.03	638.5
310.26	634.5
310.49	624.5
310.72	613.5
310.949	606.5
311.179	629.5
311.409	625.5
311.639	613.5
311.868	654.5
312.098	646.5
312.328	655.5
312.557	636.5
312.787	658.5
313.017	660.5
313.246	661.5
313.476	664.5
313.706	681.5
313.935	675.5
314.165	667.5
314.394	662.5
314.624	671.5
314.853	675.5
315.083	651.5
315.312	681.5
315.542	672.5
315.771	695.5
316.001	666.5
316.23	660.5
316.46	674.5
316.689	682.5
316.919	648.5
317.148	665.5
317.377	689.5
317.607	655.5
317.836	641.5
318.065	649.5
318.295	663.5
318.524	675.5
318.753	675.5
318.983	645.5
319.212	641.5
319.441	661.5
319.67	640.5
319.9	648.5
320.129	660.5
320.358	652.5
320.587	632.5
320.816	666.5
321.046	667.5
321.275	668.5
321.504	640.5
321.733	684.5
321.962	666.5
322.191	673.5
322.42	672.5
322.649	673.5
322.878	654.5
323.108	651.5
323.337	677.5
323.566	664.5
323.795	688.5
324.024	679.5
324.253	681.5
324.482	665.5
324.71	675.5
324.939	688.5
325.168	698.5
325.397	705.5
325.626	673.5
325.855	703.5
326.084	724.5
326.313	730.5
326.542	743.5
326.77	740.5
326.999	734.5
327.228	731.5
327.457	709.5
327.686	700.5
327.914	734.5
328.143	697.5
328.372	721.5
328.6	730.5
328.829	709.5
329.058	724.5
329.287	728.5
329.515	727.5
329.744	718.5
329.972	754.5
330.201	764.5
330.43	728.5
330.658	762.5
330.887	753.5
331.115	747.5
331.344	772.5
331.572	772.5
331.801	802.5
332.03	825.5
332.258	828.5
332.486	849.5
332.715	872.5
332.943	906.5
333.172	934.5
333.4	1003.5
333.629	1037.5
333.857	1013.5
334.085	1008.5
334.314	954.5
334.542	949.5
334.771	946.5
334.999	923.5
335.227	909.5
335.455	924.5
335.684	910.5
335.912	888.5
336.14	895.5
336.369	882.5
336.597	892.5
336.825	893.5
337.053	875.5
337.281	862.5
337.51	841.5
337.738	837.5
337.966	828.5
338.194	804.5
338.422	800.5
338.65	803.5
338.878	811.5
339.106	808.5
339.334	806.5
339.562	802.5
339.79	793.5
340.018	760.5
340.246	768.5
340.474	759.5
340.702	764.5
340.93	752.5
341.158	790.5
341.386	770.5
341.614	786.5
341.842	769.5
342.07	777.5
342.298	787.5
342.526	747.5
342.754	746.5
342.981	760.5
343.209	789.5
343.437	813.5
343.665	869.5
343.893	928.5
344.12	964.5
344.348	957.5
344.576	848.5
344.804	835.5
345.031	804.5
345.259	812.5
345.487	795.5
345.714	760.5
345.942	741.5
346.17	752.5
346.397	749.5
346.625	745.5
346.853	746.5
347.08	753.5
347.308	752.5
347.535	774.5
347.763	753.5
347.99	746.5
348.218	768.5
348.445	747.5
348.673	760.5
348.9	768.5
349.128	755.5
349.355	740.5
349.583	725.5
349.81	737.5
350.037	718.5
350.265	719.5
350.492	726.5
350.72	706.5
350.947	713.5
351.174	715.5
351.402	716.5
351.629	714.5
351.856	714.5
352.083	725.5
352.311	710.5
352.538	701.5
352.765	696.5
352.992	699.5
353.22	728.5
353.447	733.5
353.674	694.5
353.901	725.5
354.128	709.5
354.355	726.5
354.583	698.5
354.81	718.5
355.037	690.5
355.264	712.5
355.491	694.5
355.718	723.5
355.945	746.5
356.172	720.5
356.399	692.5
356.626	726.5
356.853	710.5
357.08	718.5
357.307	707.5
357.534	719.5
357.761	698.5
357.988	726.5
358.215	720.5
358.441	722.5
358.668	701.5
358.895	708.5
359.122	718.5
359.349	728.5
359.576	724.5
359.802	718.5
360.029	704.5
360.256	706.5
360.483	712.5
360.709	722.5
360.936	722.5
361.163	717.5
361.39	722.5
361.616	726.5
361.843	733.5
362.07	700.5
362.296	722.5
362.523	717.5
362.749	708.5
362.976	693.5
363.203	685.5
363.429	705.5
363.656	710.5
363.882	677.5
364.109	705.5
364.335	715.5
364.562	710.5
364.788	705.5
365.015	723.5
365.241	723.5
365.468	684.5
365.694	692.5
365.92	714.5
366.147	700.5
366.373	718.5
366.599	703.5
366.826	705.5
367.052	701.5
367.278	720.5
367.505	706.5
367.731	718.5
367.957	731.5
368.184	725.5
368.41	733.5
368.636	713.5
368.862	728.5
369.089	742.5
369.315	739.5
369.541	705.5
369.767	732.5
369.993	736.5
370.219	731.5
370.445	731.5
370.672	761.5
370.898	762.5
371.124	773.5
371.35	777.5
371.576	789.5
371.802	761.5
372.028	756.5
372.254	797.5
372.48	789.5
372.706	797.5
372.932	809.5
373.158	811.5
373.384	811.5
373.61	763.5
373.835	781.5
374.061	758.5
374.287	783.5
374.513	809.5
374.739	840.5
374.965	854.5
375.191	872.5
375.416	851.5
375.642	811.5
375.868	832.5
376.094	804.5
376.319	802.5
376.545	788.5
376.771	788.5
376.997	772.5
377.222	772.5
377.448	793.5
377.674	783.5
377.899	801.5
378.125	770.5
378.35	762.5
378.576	773.5
378.802	758.5
379.027	777.5
379.253	786.5
379.478	765.5
379.704	800.5
379.929	779.5
380.155	758.5
380.38	729.5
380.606	776.5
380.831	768.5
381.057	754.5
381.282	780.5
381.507	770.5
381.733	756.5
381.958	785.5
382.184	788.5
382.409	804.5
382.634	832.5
382.86	823.5
383.085	853.5
383.31	834.5
383.535	835.5
383.761	850.5
383.986	881.5
384.211	890.5
384.436	952.5
384.662	918.5
384.887	950.5
385.112	944.5
385.337	941.5
385.562	928.5
385.787	932.5
386.013	941.5
386.238	949.5
386.463	949.5
386.688	940.5
386.913	931.5
387.138	917.5
387.363	954.5
387.588	906.5
387.813	916.5
388.038	944.5
388.263	939.5
388.488	920.5
388.713	941.5
388.938	881.5
389.163	899.5
389.387	917.5
389.612	902.5
389.837	918.5
390.062	896.5
390.287	908.5
390.512	913.5
390.736	944.5
390.961	923.5
391.186	960.5
391.411	1005.5
391.636	1014.5
391.86	1056.5
392.085	1082.5
392.31	1051.5
392.534	1004.5
392.759	1038.5
392.984	1016.5
393.208	971.5
393.433	982.5
393.658	999.5
393.882	1002.5
394.107	1008.5
394.331	996.5
394.556	988.5
394.78	1002.5
395.005	997.5
395.229	999.5
395.454	1057.5
395.678	1052.5
395.903	1042.5
396.127	1004.5
396.352	1000.5
396.576	988.5
396.801	982.5
397.025	1008.5
397.249	997.5
397.474	1058.5
397.698	1030.5
397.922	1038.5
398.147	996.5
398.371	1056.5
398.595	1105.5
398.82	1156.5
399.044	1216.5
399.268	1354.5
399.492	1612.5
399.717	1881.5
399.941	1806.5
400.165	1579.5
400.389	1408.5
400.613	1305.5
400.837	1219.5
401.062	1204.5
401.286	1191.5
401.51	1148.5
401.734	1150.5
401.958	1141.5
402.182	1186.5
402.406	1193.5
402.63	1234.5
402.854	1260.5
403.078	1293.5
403.302	1328.5
403.526	1360.5
403.75	1385.5
403.974	1392.5
404.198	1418.5
404.422	1368.5
404.645	1377.5
404.869	1340.5
405.093	1329.5
405.317	1298.5
405.541	1316.5
405.765	1290.5
405.988	1332.5
406.212	1326.5
406.436	1298.5
406.66	1329.5
406.883	1322.5
407.107	1428.5
407.331	1500.5
407.555	1559.5
407.778	1558.5
408.002	1478.5
408.226	1451.5
408.449	1436.5
408.673	1355.5
408.896	1334.5
409.12	1324.5
409.344	1333.5
409.567	1333.5
409.791	1362.5
410.014	1345.5
410.238	1327.5
410.461	1324.5
410.685	1286.5
410.908	1276.5
411.132	1250.5
411.355	1194.5
411.578	1180.5
411.802	1226.5
412.025	1231.5
412.249	1224.5
412.472	1218.5
412.695	1191.5
412.919	1162.5
413.142	1172.5
413.365	1155.5
413.589	1175.5
413.812	1150.5
414.035	1179.5
414.258	1140.5
414.482	1162.5
414.705	1190.5
414.928	1147.5
415.151	1184.5
415.374	1200.5
415.597	1170.5
415.821	1131.5
416.044	1141.5
416.267	1147.5
416.49	1111.5
416.713	1142.5
416.936	1160.5
417.159	1167.5
417.382	1132.5
417.605	1161.5
417.828	1153.5
418.051	1182.5
418.274	1172.5
418.497	1169.5
418.72	1176.5
418.943	1197.5
419.166	1266.5
419.389	1354.5
419.611	1323.5
419.834	1245.5
420.057	1241.5
420.28	1186.5
420.503	1152.5
420.726	1139.5
420.948	1113.5
421.171	1160.5
421.394	1169.5
421.617	1173.5
421.839	1128.5
422.062	1122.5
422.285	1163.5
422.507	1178.5
422.73	1226.5
422.953	1177.5
423.175	1202.5
423.398	1251.5
423.621	1208.5
423.843	1261.5
424.066	1226.5
424.288	1235.5
424.511	1245.5
424.733	1213.5
424.956	1162.5
425.178	1185.5
425.401	1139.5
425.623	1160.5
425.846	1144.5
426.068	1121.5
426.291	1145.5
426.513	1096.5
426.735	1101.5
426.958	1116.5
427.18	1068.5
427.402	1036.5
427.625	1046.5
427.847	1030.5
428.069	1028.5
428.292	1043.5
428.514	1052.5
428.736	1027.5
428.958	1042.5
429.181	996.5
429.403	1013.5
429.625	997.5
429.847	969.5
430.069	992.5
430.292	977.5
430.514	995.5
430.736	1005.5
430.958	995.5
431.18	1004.5
431.402	973.5
431.624	1031.5
431.846	1035.5
432.068	1053.5
432.29	1047.5
432.512	1008.5
432.734	1028.5
432.956	1040.5
433.178	1015.5
433.4	1038.5
433.622	1034.5
433.844	1052.5
434.066	1045.5
434.287	1065.5
434.509	1099.5
434.731	1136.5
434.953	1157.5
435.175	1204.5
435.397	1136.5
435.618	1088.5
435.84	1061.5
436.062	1048.5
436.284	1020.5
436.505	1025.5
436.727	1057.5
436.949	1025.5
437.17	1013.5
437.392	986.5
437.614	997.5
437.835	957.5
438.057	973.5
438.278	971.5
438.5	978.5
438.721	1014.5
438.943	999.5
439.165	973.5
439.386	961.5
439.608	1006.5
439.829	1012.5
440.05	1022.5
440.272	1010.5
440.493	1043.5
440.715	1044.5
440.936	1062.5
441.158	1100.5
441.379	1118.5
441.6	1150.5
441.822	1197.5
442.043	1188.5
442.264	1150.5
442.486	1141.5
442.707	1125.5
442.928	1115.5
443.149	1130.5
443.371	1144.5
443.592	1146.5
443.813	1139.5
444.034	1174.5
444.255	1213.5
444.476	1252.5
444.698	1364.5
444.919	1435.5
445.14	1470.5
445.361	1330.5
445.582	1189.5
445.803	1122.5
446.024	1100.5
446.245	1055.5
446.466	1066.5
446.687	1040.5
446.908	1012.5
447.129	1019.5
447.35	985.5
447.571	984.5
447.792	974.5
448.013	982.5
448.234	973.5
448.455	959.5
448.675	944.5
448.896	937.5
449.117	935.5
449.338	941.5
449.559	922.5
449.779	932.5
450	923.5
450.221	944.5
450.442	936.5
450.662	927.5
450.883	941.5
451.104	921.5
451.324	960.5
451.545	958.5
451.766	981.5
451.986	951.5
452.207	922.5
452.428	926.5
452.648	935.5
452.869	922.5
453.089	922.5
453.31	968.5
453.53	921.5
453.751	914.5
453.971	892.5
454.192	918.5
454.412	857.5
454.633	898.5
454.853	894.5
455.073	874.5
455.294	891.5
455.514	848.5
455.734	877.5
455.955	889.5
456.175	845.5
456.395	873.5
456.616	883.5
456.836	898.5
457.056	857.5
457.276	864.5
457.497	869.5
457.717	852.5
457.937	871.5
458.157	888.5
458.377	924.5
458.598	913.5
458.818	931.5
459.038	972.5
459.258	958.5
459.478	1050.5
459.698	1104.5
459.918	1090.5
460.138	1140.5
460.358	1221.5
460.578	1208.5
460.798	1230.5
461.018	1278.5
461.238	1163.5
461.458	1222.5
461.678	1212.5
461.898	1208.5
462.118	1231.5
462.338	1324.5
462.558	1316.5
462.777	1366.5
462.997	1529.5
463.217	1685.5
463.437	1686.5
463.657	1535.5
463.876	1454.5
464.096	1402.5
464.316	1408.5
464.536	1451.5
464.755	1384.5
464.975	1316.5
465.195	1257.5
465.414	1182.5
465.634	1110.5
465.854	1080.5
466.073	1074.5
466.293	1054.5
466.512	1015.5
466.732	984.5
466.951	1002.5
467.171	968.5
467.391	991.5
467.61	952.5
467.829	976.5
468.049	996.5
468.268	956.5
468.488	951.5
468.707	946.5
468.927	923.5
469.146	931.5
469.365	917.5
469.585	964.5
469.804	956.5
470.023	990.5
470.243	997.5
470.462	1029.5
470.681	1034.5
470.901	1019.5
471.12	989.5
471.339	944.5
471.558	987.5
471.777	961.5
471.997	939.5
472.216	935.5
472.435	917.5
472.654	924.5
472.873	916.5
473.092	951.5
473.311	899.5
473.53	905.5
473.749	895.5
473.968	929.5
474.187	904.5
474.406	899.5
474.625	932.5
474.844	905.5
475.063	904.5
475.282	896.5
475.501	911.5
475.72	900.5
475.939	884.5
476.158	973.5
476.377	951.5
476.596	949.5
476.814	951.5
477.033	965.5
477.252	983.5
477.471	1006.5
477.69	1016.5
477.908	1065.5
478.127	1090.5
478.346	1110.5
478.564	1145.5
478.783	1085.5
479.002	1159.5
479.22	1172.5
479.439	1128.5
479.658	1124.5
479.876	1121.5
480.095	1173.5
480.313	1209.5
480.532	1265.5
480.751	1245.5
480.969	1168.5
481.188	1129.5
481.406	1105.5
481.624	1076.5
481.843	1044.5
482.061	1028.5
482.28	1053.5
482.498	1046.5
482.717	1027.5
482.935	1043.5
483.153	1040.5
483.372	1027.5
483.59	1018.5
483.808	1038.5
484.027	1069.5
484.245	1037.5
484.463	1058.5
484.681	1067.5
484.9	1076.5
485.118	1131.5
485.336	1085.5
485.554	1099.5
485.772	1111.5
485.99	1110.5
486.209	1102.5
486.427	1120.5
486.645	1112.5
486.863	1128.5
487.081	1110.5
487.299	1093.5
487.517	1120.5
487.735	1094.5
487.953	1101.5
488.171	1079.5
488.389	1108.5
488.607	1066.5
488.825	1062.5
489.043	1072.5
489.261	1069.5
489.479	1078.5
489.696	1080.5
489.914	1083.5
490.132	1093.5
490.35	1106.5
490.568	1076.5
490.786	1094.5
491.003	1105.5
491.221	1099.5
491.439	1104.5
491.657	1086.5
491.874	1105.5
492.092	1105.5
492.31	1128.5
492.527	1115.5
492.745	1122.5
492.963	1130.5
493.18	1114.5
493.398	1161.5
493.615	1136.5
493.833	1102.5
494.05	1144.5
494.268	1140.5
494.485	1149.5
494.703	1142.5
494.92	1171.5
495.138	1151.5
495.355	1161.5
495.573	1175.5
495.79	1141.5
496.008	1166.5
496.225	1160.5
496.442	1195.5
496.66	1212.5
496.877	1231.5
497.094	1238.5
497.312	1256.5
497.529	1290.5
497.746	1270.5
497.963	1322.5
498.181	1393.5
498.398	1467.5
498.615	1556.5
498.832	1716.5
499.049	1835.5
499.267	1934.5
499.484	2122.5
499.701	2392.5
499.918	2622.5
500.135	3059.5
500.352	3565.5
500.569	3748.5
500.786	3692.5
501.003	3334.5
501.22	2968.5
501.437	2610.5
501.654	2224.5
501.871	2049.5
502.088	1936.5
502.305	1748.5
502.522	1659.5
502.739	1606.5
502.956	1510.5
503.172	1441.5
503.389	1389.5
503.606	1347.5
503.823	1334.5
504.04	1328.5
504.256	1372.5
504.473	1375.5
504.69	1387.5
504.907	1385.5
505.123	1281.5
505.34	1205.5
505.557	1127.5
505.773	1125.5
505.99	1123.5
506.207	1098.5
506.423	1046.5
506.64	1042.5
506.856	1051.5
507.073	1016.5
507.289	1006.5
507.506	1035.5
507.722	1043.5
507.939	985.5
508.155	995.5
508.372	982.5
508.588	989.5
508.805	977.5
509.021	964.5
509.238	965.5
509.454	962.5
509.67	947.5
509.887	924.5
510.103	924.5
510.319	945.5
510.536	931.5
510.752	914.5
510.968	918.5
511.184	922.5
511.401	929.5
511.617	918.5
511.833	943.5
512.049	952.5
512.265	911.5
512.481	924.5
512.698	907.5
512.914	921.5
513.13	909.5
513.346	920.5
513.562	953.5
