Data from Ni(NO3)2@0.25M.TitratingCurve.Agarose3%dH2O.NegLispCup.LampEnergy10.LIBS07252019_HRD10591_18-04-06-566.txt Node
Date: Thu Jul 25 18:04:06 EDT 2019
User: cochatt
Spectrometer: HR+D1059
Trigger mode: 1
Integration Time (sec): 1.000000E-1
Scans to average: 1
Electric dark correction enabled: true
Nonlinearity correction enabled: false
Boxcar width: 0
XAxis mode: Wavelengths
Number of Pixels in Spectrum: 2048
>>>>>Begin Spectral Data<<<<<
223.165	-2.31
223.4	-2.31
223.635	-2.31
223.869	-31.31
224.104	-20.31
224.338	-24.31
224.573	-20.31
224.808	-11.31
225.042	-11.31
225.277	2.69
225.511	2.69
225.746	-5.31
225.98	14.69
226.215	16.69
226.449	15.69
226.683	14.69
226.918	22.69
227.152	36.69
227.387	23.69
227.621	44.69
227.856	42.69
228.09	52.69
228.324	55.69
228.559	60.69
228.793	70.69
229.027	74.69
229.262	86.69
229.496	90.69
229.73	92.69
229.964	99.69
230.199	102.69
230.433	101.69
230.667	113.69
230.901	105.69
231.136	102.69
231.37	103.69
231.604	111.69
231.838	117.69
232.072	121.69
232.306	102.69
232.541	122.69
232.775	110.69
233.009	98.69
233.243	89.69
233.477	109.69
233.711	115.69
233.945	107.69
234.179	108.69
234.413	119.69
234.647	123.69
234.881	123.69
235.115	106.69
235.349	98.69
235.583	93.69
235.817	98.69
236.051	103.69
236.285	106.69
236.519	100.69
236.753	103.69
236.987	121.69
237.221	117.69
237.455	111.69
237.689	110.69
237.922	111.69
238.156	132.69
238.39	123.69
238.624	112.69
238.858	118.69
239.091	129.69
239.325	132.69
239.559	129.69
239.793	118.69
240.027	121.69
240.26	122.69
240.494	107.69
240.728	122.69
240.961	122.69
241.195	124.69
241.429	116.69
241.662	121.69
241.896	135.69
242.13	125.69
242.363	121.69
242.597	128.69
242.83	137.69
243.064	120.69
243.298	132.69
243.531	120.69
243.765	120.69
243.998	150.69
244.232	131.69
244.465	132.69
244.699	142.69
244.932	137.69
245.166	137.69
245.399	138.69
245.633	136.69
245.866	129.69
246.099	133.69
246.333	140.69
246.566	139.69
246.8	141.69
247.033	143.69
247.266	151.69
247.5	142.69
247.733	147.69
247.966	140.69
248.2	141.69
248.433	145.69
248.666	154.69
248.899	151.69
249.133	147.69
249.366	151.69
249.599	171.69
249.832	149.69
250.066	166.69
250.299	164.69
250.532	150.69
250.765	168.69
250.998	164.69
251.231	157.69
251.465	177.69
251.698	157.69
251.931	150.69
252.164	151.69
252.397	171.69
252.63	162.69
252.863	170.69
253.096	155.69
253.329	172.69
253.562	170.69
253.795	181.69
254.028	185.69
254.261	162.69
254.494	177.69
254.727	182.69
254.96	166.69
255.193	183.69
255.426	164.69
255.659	201.69
255.892	193.69
256.124	178.69
256.357	171.69
256.59	195.69
256.823	211.69
257.056	176.69
257.289	187.69
257.521	177.69
257.754	187.69
257.987	186.69
258.22	184.69
258.452	186.69
258.685	188.69
258.918	201.69
259.151	198.69
259.383	187.69
259.616	195.69
259.849	203.69
260.081	201.69
260.314	184.69
260.547	206.69
260.779	196.69
261.012	186.69
261.244	189.69
261.477	212.69
261.71	202.69
261.942	204.69
262.175	220.69
262.407	218.69
262.64	198.69
262.872	210.69
263.105	214.69
263.337	225.69
263.57	219.69
263.802	215.69
264.035	212.69
264.267	204.69
264.499	200.69
264.732	198.69
264.964	221.69
265.197	205.69
265.429	216.69
265.661	209.69
265.894	227.69
266.126	216.69
266.358	228.69
266.591	202.69
266.823	229.69
267.055	215.69
267.287	217.69
267.52	211.69
267.752	229.69
267.984	207.69
268.216	230.69
268.448	237.69
268.681	219.69
268.913	219.69
269.145	222.69
269.377	237.69
269.609	240.69
269.841	254.69
270.073	229.69
270.306	228.69
270.538	223.69
270.77	229.69
271.002	221.69
271.234	227.69
271.466	233.69
271.698	232.69
271.93	244.69
272.162	239.69
272.394	249.69
272.626	241.69
272.858	275.69
273.09	243.69
273.322	242.69
273.553	246.69
273.785	235.69
274.017	254.69
274.249	255.69
274.481	240.69
274.713	241.69
274.945	242.69
275.176	261.69
275.408	246.69
275.64	229.69
275.872	261.69
276.104	250.69
276.335	239.69
276.567	244.69
276.799	257.69
277.031	262.69
277.262	241.69
277.494	260.69
277.726	245.69
277.957	263.69
278.189	277.69
278.421	290.69
278.652	259.69
278.884	271.69
279.115	258.69
279.347	247.69
279.579	259.69
279.81	267.69
280.042	267.69
280.273	259.69
280.505	260.69
280.736	254.69
280.968	255.69
281.199	259.69
281.431	273.69
281.662	286.69
281.894	262.69
282.125	250.69
282.356	280.69
282.588	278.69
282.819	258.69
283.051	279.69
283.282	261.69
283.513	277.69
283.745	265.69
283.976	274.69
284.207	277.69
284.439	281.69
284.67	270.69
284.901	285.69
285.132	267.69
285.364	283.69
285.595	280.69
285.826	284.69
286.057	281.69
286.288	259.69
286.52	285.69
286.751	293.69
286.982	279.69
287.213	282.69
287.444	292.69
287.675	306.69
287.906	285.69
288.138	281.69
288.369	290.69
288.6	292.69
288.831	271.69
289.062	286.69
289.293	284.69
289.524	300.69
289.755	300.69
289.986	297.69
290.217	292.69
290.448	298.69
290.679	307.69
290.91	298.69
291.141	293.69
291.371	289.69
291.602	299.69
291.833	283.69
292.064	307.69
292.295	307.69
292.526	316.69
292.757	294.69
292.987	292.69
293.218	286.69
293.449	282.69
293.68	286.69
293.91	285.69
294.141	304.69
294.372	284.69
294.603	276.69
294.833	311.69
295.064	303.69
295.295	301.69
295.525	286.69
295.756	297.69
295.987	306.69
296.217	305.69
296.448	317.69
296.679	295.69
296.909	312.69
297.14	286.69
297.37	305.69
297.601	309.69
297.831	300.69
298.062	327.69
298.292	322.69
298.523	315.69
298.753	324.69
298.984	322.69
299.214	310.69
299.445	319.69
299.675	321.69
299.905	335.69
300.136	339.69
300.366	321.69
300.597	315.69
300.827	335.69
301.057	340.69
301.288	332.69
301.518	324.69
301.748	321.69
301.979	311.69
302.209	340.69
302.439	355.69
302.669	329.69
302.9	321.69
303.13	323.69
303.36	328.69
303.59	346.69
303.82	345.69
304.051	318.69
304.281	336.69
304.511	318.69
304.741	334.69
304.971	329.69
305.201	331.69
305.431	331.69
305.661	340.69
305.891	335.69
306.121	334.69
306.352	334.69
306.582	333.69
306.812	318.69
307.042	359.69
307.272	335.69
307.502	330.69
307.731	319.69
307.961	332.69
308.191	331.69
308.421	330.69
308.651	331.69
308.881	341.69
309.111	348.69
309.341	322.69
309.571	327.69
309.8	339.69
310.03	345.69
310.26	358.69
310.49	329.69
310.72	343.69
310.949	345.69
311.179	343.69
311.409	352.69
311.639	348.69
311.868	347.69
312.098	342.69
312.328	369.69
312.557	361.69
312.787	367.69
313.017	374.69
313.246	367.69
313.476	332.69
313.706	361.69
313.935	373.69
314.165	339.69
314.394	373.69
314.624	367.69
314.853	369.69
315.083	353.69
315.312	362.69
315.542	365.69
315.771	364.69
316.001	388.69
316.23	365.69
316.46	371.69
316.689	365.69
316.919	371.69
317.148	364.69
317.377	364.69
317.607	353.69
317.836	354.69
318.065	362.69
318.295	335.69
318.524	365.69
318.753	370.69
318.983	371.69
319.212	374.69
319.441	362.69
319.67	377.69
319.9	389.69
320.129	397.69
320.358	386.69
320.587	396.69
320.816	403.69
321.046	374.69
321.275	375.69
321.504	379.69
321.733	380.69
321.962	369.69
322.191	390.69
322.42	372.69
322.649	387.69
322.878	400.69
323.108	382.69
323.337	398.69
323.566	418.69
323.795	391.69
324.024	411.69
324.253	413.69
324.482	416.69
324.71	414.69
324.939	415.69
325.168	407.69
325.397	419.69
325.626	411.69
325.855	409.69
326.084	428.69
326.313	420.69
326.542	407.69
326.77	448.69
326.999	417.69
327.228	430.69
327.457	430.69
327.686	443.69
327.914	446.69
328.143	447.69
328.372	439.69
328.6	438.69
328.829	437.69
329.058	439.69
329.287	429.69
329.515	460.69
329.744	457.69
329.972	445.69
330.201	443.69
330.43	468.69
330.658	460.69
330.887	459.69
331.115	455.69
331.344	457.69
331.572	442.69
331.801	469.69
332.03	478.69
332.258	499.69
332.486	502.69
332.715	514.69
332.943	526.69
333.172	536.69
333.4	528.69
333.629	538.69
333.857	561.69
334.085	545.69
334.314	566.69
334.542	547.69
334.771	549.69
334.999	558.69
335.227	587.69
335.455	577.69
335.684	551.69
335.912	546.69
336.14	517.69
336.369	540.69
336.597	543.69
336.825	539.69
337.053	559.69
337.281	534.69
337.51	547.69
337.738	524.69
337.966	527.69
338.194	521.69
338.422	505.69
338.65	516.69
338.878	502.69
339.106	497.69
339.334	514.69
339.562	502.69
339.79	485.69
340.018	492.69
340.246	473.69
340.474	490.69
340.702	497.69
340.93	482.69
341.158	509.69
341.386	491.69
341.614	509.69
341.842	503.69
342.07	501.69
342.298	472.69
342.526	491.69
342.754	493.69
342.981	482.69
343.209	489.69
343.437	517.69
343.665	539.69
343.893	547.69
344.12	554.69
344.348	553.69
344.576	555.69
344.804	515.69
345.031	502.69
345.259	498.69
345.487	499.69
345.714	496.69
345.942	490.69
346.17	502.69
346.397	474.69
346.625	479.69
346.853	468.69
347.08	475.69
347.308	477.69
347.535	489.69
347.763	494.69
347.99	470.69
348.218	485.69
348.445	470.69
348.673	484.69
348.9	473.69
349.128	461.69
349.355	478.69
349.583	463.69
349.81	471.69
350.037	456.69
350.265	460.69
350.492	460.69
350.72	473.69
350.947	454.69
351.174	451.69
351.402	472.69
351.629	461.69
351.856	476.69
352.083	464.69
352.311	487.69
352.538	490.69
352.765	475.69
352.992	467.69
353.22	445.69
353.447	445.69
353.674	475.69
353.901	445.69
354.128	459.69
354.355	454.69
354.583	451.69
354.81	460.69
355.037	468.69
355.264	473.69
355.491	446.69
355.718	454.69
355.945	445.69
356.172	445.69
356.399	436.69
356.626	453.69
356.853	464.69
357.08	469.69
357.307	441.69
357.534	450.69
357.761	449.69
357.988	470.69
358.215	476.69
358.441	447.69
358.668	450.69
358.895	464.69
359.122	441.69
359.349	463.69
359.576	452.69
359.802	450.69
360.029	441.69
360.256	455.69
360.483	445.69
360.709	483.69
360.936	460.69
361.163	462.69
361.39	456.69
361.616	458.69
361.843	470.69
362.07	459.69
362.296	474.69
362.523	454.69
362.749	458.69
362.976	452.69
363.203	450.69
363.429	459.69
363.656	477.69
363.882	446.69
364.109	449.69
364.335	425.69
364.562	452.69
364.788	464.69
365.015	470.69
365.241	458.69
365.468	447.69
365.694	470.69
365.92	457.69
366.147	449.69
366.373	447.69
366.599	457.69
366.826	463.69
367.052	446.69
367.278	456.69
367.505	463.69
367.731	463.69
367.957	423.69
368.184	435.69
368.41	484.69
368.636	470.69
368.862	455.69
369.089	480.69
369.315	478.69
369.541	463.69
369.767	458.69
369.993	467.69
370.219	473.69
370.445	477.69
370.672	499.69
370.898	486.69
371.124	484.69
371.35	467.69
371.576	483.69
371.802	486.69
372.028	467.69
372.254	492.69
372.48	507.69
372.706	485.69
372.932	495.69
373.158	496.69
373.384	490.69
373.61	461.69
373.835	457.69
374.061	467.69
374.287	477.69
374.513	507.69
374.739	520.69
374.965	525.69
375.191	515.69
375.416	500.69
375.642	505.69
375.868	497.69
376.094	478.69
376.319	488.69
376.545	495.69
376.771	463.69
376.997	482.69
377.222	473.69
377.448	487.69
377.674	481.69
377.899	475.69
378.125	479.69
378.35	471.69
378.576	483.69
378.802	463.69
379.027	466.69
379.253	473.69
379.478	464.69
379.704	499.69
379.929	481.69
380.155	472.69
380.38	466.69
380.606	475.69
380.831	474.69
381.057	475.69
381.282	470.69
381.507	472.69
381.733	468.69
381.958	486.69
382.184	463.69
382.409	492.69
382.634	482.69
382.86	504.69
383.085	515.69
383.31	506.69
383.535	505.69
383.761	515.69
383.986	522.69
384.211	542.69
384.436	511.69
384.662	530.69
384.887	547.69
385.112	530.69
385.337	545.69
385.562	561.69
385.787	530.69
386.013	561.69
386.238	549.69
386.463	573.69
386.688	542.69
386.913	531.69
387.138	561.69
387.363	541.69
387.588	536.69
387.813	556.69
388.038	539.69
388.263	550.69
388.488	575.69
388.713	566.69
388.938	532.69
389.163	522.69
389.387	537.69
389.612	527.69
389.837	549.69
390.062	534.69
390.287	557.69
390.512	545.69
390.736	546.69
390.961	537.69
391.186	565.69
391.411	571.69
391.636	574.69
391.86	585.69
392.085	590.69
392.31	586.69
392.534	582.69
392.759	582.69
392.984	564.69
393.208	587.69
393.433	567.69
393.658	582.69
393.882	560.69
394.107	575.69
394.331	584.69
394.556	566.69
394.78	564.69
395.005	574.69
395.229	602.69
395.454	609.69
395.678	593.69
395.903	598.69
396.127	596.69
396.352	597.69
396.576	571.69
396.801	573.69
397.025	598.69
397.249	610.69
397.474	602.69
397.698	610.69
397.922	608.69
398.147	600.69
398.371	641.69
398.595	625.69
398.82	671.69
399.044	710.69
399.268	764.69
399.492	829.69
399.717	869.69
399.941	912.69
400.165	832.69
400.389	753.69
400.613	738.69
400.837	723.69
401.062	691.69
401.286	681.69
401.51	679.69
401.734	679.69
401.958	678.69
402.182	680.69
402.406	701.69
402.63	685.69
402.854	675.69
403.078	721.69
403.302	729.69
403.526	707.69
403.75	719.69
403.974	717.69
404.198	716.69
404.422	730.69
404.645	712.69
404.869	722.69
405.093	720.69
405.317	723.69
405.541	722.69
405.765	722.69
405.988	730.69
406.212	755.69
406.436	739.69
406.66	771.69
406.883	773.69
407.107	764.69
407.331	812.69
407.555	815.69
407.778	819.69
408.002	809.69
408.226	805.69
408.449	770.69
408.673	768.69
408.896	798.69
409.12	767.69
409.344	766.69
409.567	760.69
409.791	748.69
410.014	740.69
410.238	732.69
410.461	778.69
410.685	761.69
410.908	729.69
411.132	706.69
411.355	719.69
411.578	724.69
411.802	732.69
412.025	703.69
412.249	725.69
412.472	712.69
412.695	714.69
412.919	701.69
413.142	716.69
413.365	683.69
413.589	701.69
413.812	695.69
414.035	690.69
414.258	689.69
414.482	710.69
414.705	701.69
414.928	701.69
415.151	702.69
415.374	709.69
415.597	746.69
415.821	670.69
416.044	679.69
416.267	686.69
416.49	701.69
416.713	687.69
416.936	697.69
417.159	694.69
417.382	669.69
417.605	678.69
417.828	649.69
418.051	686.69
418.274	689.69
418.497	694.69
418.72	703.69
418.943	709.69
419.166	711.69
419.389	775.69
419.611	770.69
419.834	743.69
420.057	739.69
420.28	695.69
420.503	697.69
420.726	672.69
420.948	709.69
421.171	683.69
421.394	683.69
421.617	684.69
421.839	703.69
422.062	687.69
422.285	677.69
422.507	690.69
422.73	703.69
422.953	691.69
423.175	705.69
423.398	720.69
423.621	682.69
423.843	707.69
424.066	742.69
424.288	711.69
424.511	718.69
424.733	706.69
424.956	705.69
425.178	686.69
425.401	697.69
425.623	720.69
425.846	675.69
426.068	686.69
426.291	670.69
426.513	693.69
426.735	679.69
426.958	670.69
427.18	666.69
427.402	679.69
427.625	691.69
427.847	666.69
428.069	675.69
428.292	645.69
428.514	661.69
428.736	657.69
428.958	671.69
429.181	633.69
429.403	635.69
429.625	649.69
429.847	638.69
430.069	615.69
430.292	635.69
430.514	654.69
430.736	666.69
430.958	623.69
431.18	645.69
431.402	637.69
431.624	627.69
431.846	656.69
432.068	656.69
432.29	682.69
432.512	648.69
432.734	665.69
432.956	645.69
433.178	668.69
433.4	678.69
433.622	676.69
433.844	669.69
434.066	683.69
434.287	661.69
434.509	669.69
434.731	673.69
434.953	693.69
435.175	729.69
435.397	694.69
435.618	677.69
435.84	681.69
436.062	666.69
436.284	653.69
436.505	659.69
436.727	650.69
436.949	674.69
437.17	664.69
437.392	644.69
437.614	655.69
437.835	638.69
438.057	640.69
438.278	632.69
438.5	644.69
438.721	643.69
438.943	649.69
439.165	646.69
439.386	655.69
439.608	673.69
439.829	674.69
440.05	703.69
440.272	692.69
440.493	687.69
440.715	700.69
440.936	695.69
441.158	717.69
441.379	708.69
441.6	734.69
441.822	694.69
442.043	740.69
442.264	724.69
442.486	690.69
442.707	708.69
442.928	730.69
443.149	708.69
443.371	725.69
443.592	713.69
443.813	742.69
444.034	727.69
444.255	745.69
444.476	743.69
444.698	782.69
444.919	833.69
445.14	886.69
445.361	819.69
445.582	779.69
445.803	723.69
446.024	716.69
446.245	695.69
446.466	714.69
446.687	682.69
446.908	694.69
447.129	673.69
447.35	653.69
447.571	650.69
447.792	649.69
448.013	637.69
448.234	646.69
448.455	637.69
448.675	644.69
448.896	651.69
449.117	634.69
449.338	632.69
449.559	634.69
449.779	627.69
450	599.69
450.221	629.69
450.442	643.69
450.662	635.69
450.883	625.69
451.104	632.69
451.324	625.69
451.545	625.69
451.766	624.69
451.986	632.69
452.207	611.69
452.428	614.69
452.648	605.69
452.869	598.69
453.089	590.69
453.31	601.69
453.53	616.69
453.751	582.69
453.971	590.69
454.192	586.69
454.412	589.69
454.633	608.69
454.853	587.69
455.073	619.69
455.294	585.69
455.514	599.69
455.734	568.69
455.955	578.69
456.175	590.69
456.395	577.69
456.616	580.69
456.836	572.69
457.056	585.69
457.276	584.69
457.497	598.69
457.717	581.69
457.937	588.69
458.157	601.69
458.377	613.69
458.598	585.69
458.818	624.69
459.038	635.69
459.258	637.69
459.478	654.69
459.698	663.69
459.918	707.69
460.138	703.69
460.358	714.69
460.578	741.69
460.798	737.69
461.018	758.69
461.238	734.69
461.458	743.69
461.678	738.69
461.898	782.69
462.118	759.69
462.338	826.69
462.558	815.69
462.777	845.69
462.997	862.69
463.217	921.69
463.437	933.69
463.657	867.69
463.876	885.69
464.096	884.69
464.316	870.69
464.536	839.69
464.755	833.69
464.975	806.69
465.195	797.69
465.414	724.69
465.634	707.69
465.854	689.69
466.073	693.69
466.293	662.69
466.512	666.69
466.732	643.69
466.951	637.69
467.171	647.69
467.391	646.69
467.61	634.69
467.829	639.69
468.049	648.69
468.268	646.69
468.488	641.69
468.707	639.69
468.927	630.69
469.146	605.69
469.365	638.69
469.585	610.69
469.804	661.69
470.023	654.69
470.243	657.69
470.462	657.69
470.681	652.69
470.901	655.69
471.12	661.69
471.339	667.69
471.558	653.69
471.777	639.69
471.997	632.69
472.216	616.69
472.435	624.69
472.654	633.69
472.873	614.69
473.092	629.69
473.311	627.69
473.53	609.69
473.749	620.69
473.968	619.69
474.187	620.69
474.406	613.69
474.625	636.69
474.844	643.69
475.063	630.69
475.282	635.69
475.501	639.69
475.72	624.69
475.939	639.69
476.158	613.69
476.377	657.69
476.596	631.69
476.814	655.69
477.033	661.69
477.252	630.69
477.471	659.69
477.69	669.69
477.908	702.69
478.127	697.69
478.346	712.69
478.564	746.69
478.783	739.69
479.002	756.69
479.22	771.69
479.439	739.69
479.658	735.69
479.876	717.69
480.095	763.69
480.313	757.69
480.532	770.69
480.751	760.69
480.969	741.69
481.188	707.69
481.406	722.69
481.624	696.69
481.843	707.69
482.061	705.69
482.28	697.69
482.498	709.69
482.717	677.69
482.935	699.69
483.153	699.69
483.372	747.69
483.59	730.69
483.808	679.69
484.027	701.69
484.245	709.69
484.463	728.69
484.681	725.69
484.9	717.69
485.118	713.69
485.336	715.69
485.554	728.69
485.772	727.69
485.99	715.69
486.209	731.69
486.427	735.69
486.645	728.69
486.863	729.69
487.081	725.69
487.299	753.69
487.517	740.69
487.735	751.69
487.953	781.69
488.171	758.69
488.389	750.69
488.607	739.69
488.825	737.69
489.043	728.69
489.261	702.69
489.479	719.69
489.696	751.69
489.914	718.69
490.132	742.69
490.35	768.69
490.568	762.69
490.786	732.69
491.003	759.69
491.221	756.69
491.439	805.69
491.657	764.69
491.874	791.69
492.092	796.69
492.31	789.69
492.527	787.69
492.745	789.69
492.963	794.69
493.18	769.69
493.398	780.69
493.615	764.69
493.833	765.69
494.05	767.69
494.268	796.69
494.485	790.69
494.703	813.69
494.92	827.69
495.138	750.69
495.355	809.69
495.573	821.69
495.79	832.69
496.008	832.69
496.225	825.69
496.442	851.69
496.66	809.69
496.877	829.69
497.094	858.69
497.312	853.69
497.529	886.69
497.746	931.69
497.963	919.69
498.181	946.69
498.398	981.69
498.615	1004.69
498.832	1040.69
499.049	1123.69
499.267	1207.69
499.484	1282.69
499.701	1338.69
499.918	1491.69
500.135	1612.69
500.352	1734.69
500.569	1768.69
500.786	1755.69
501.003	1670.69
501.22	1611.69
501.437	1478.69
