Data from Ni(NO3)2@0.5M.TitratingCurve.Agarose3%dH2O.NegLispCup.LampEnergy10.LIBS07252019_HRD10591_18-00-01-567.txt Node
Date: Thu Jul 25 18:00:01 EDT 2019
User: cochatt
Spectrometer: HR+D1059
Trigger mode: 1
Integration Time (sec): 1.000000E-1
Scans to average: 1
Electric dark correction enabled: true
Nonlinearity correction enabled: false
Boxcar width: 0
XAxis mode: Wavelengths
Number of Pixels in Spectrum: 2048
>>>>>Begin Spectral Data<<<<<
223.165	-21.25
223.4	-21.25
223.635	-21.25
223.869	-22.25
224.104	-25.25
224.338	-32.25
224.573	-13.25
224.808	-9.25
225.042	-20.25
225.277	-0.25
225.511	-7.25
225.746	12.75
225.98	1.75
226.215	7.75
226.449	24.75
226.683	34.75
226.918	36.75
227.152	32.75
227.387	30.75
227.621	21.75
227.856	34.75
228.09	47.75
228.324	42.75
228.559	37.75
228.793	70.75
229.027	95.75
229.262	120.75
229.496	104.75
229.73	131.75
229.964	149.75
230.199	157.75
230.433	166.75
230.667	138.75
230.901	131.75
231.136	136.75
231.37	140.75
231.604	141.75
231.838	158.75
232.072	158.75
232.306	163.75
232.541	142.75
232.775	125.75
233.009	146.75
233.243	144.75
233.477	140.75
233.711	134.75
233.945	160.75
234.179	133.75
234.413	137.75
234.647	136.75
234.881	155.75
235.115	149.75
235.349	137.75
235.583	145.75
235.817	150.75
236.051	146.75
236.285	145.75
236.519	143.75
236.753	138.75
236.987	140.75
237.221	153.75
237.455	147.75
237.689	148.75
237.922	149.75
238.156	144.75
238.39	147.75
238.624	158.75
238.858	150.75
239.091	145.75
239.325	151.75
239.559	168.75
239.793	173.75
240.027	168.75
240.26	171.75
240.494	168.75
240.728	170.75
240.961	158.75
241.195	157.75
241.429	170.75
241.662	156.75
241.896	195.75
242.13	193.75
242.363	180.75
242.597	176.75
242.83	174.75
243.064	157.75
243.298	159.75
243.531	172.75
243.765	176.75
243.998	181.75
244.232	190.75
244.465	179.75
244.699	176.75
244.932	181.75
245.166	189.75
245.399	165.75
245.633	197.75
245.866	175.75
246.099	173.75
246.333	196.75
246.566	196.75
246.8	203.75
247.033	188.75
247.266	160.75
247.5	186.75
247.733	201.75
247.966	196.75
248.2	207.75
248.433	200.75
248.666	215.75
248.899	200.75
249.133	209.75
249.366	213.75
249.599	201.75
249.832	209.75
250.066	210.75
250.299	220.75
250.532	222.75
250.765	223.75
250.998	217.75
251.231	227.75
251.465	240.75
251.698	229.75
251.931	225.75
252.164	224.75
252.397	217.75
252.63	232.75
252.863	218.75
253.096	234.75
253.329	234.75
253.562	241.75
253.795	233.75
254.028	240.75
254.261	242.75
254.494	246.75
254.727	250.75
254.96	241.75
255.193	248.75
255.426	239.75
255.659	260.75
255.892	250.75
256.124	254.75
256.357	261.75
256.59	256.75
256.823	254.75
257.056	267.75
257.289	265.75
257.521	262.75
257.754	271.75
257.987	259.75
258.22	266.75
258.452	277.75
258.685	277.75
258.918	262.75
259.151	265.75
259.383	263.75
259.616	281.75
259.849	269.75
260.081	258.75
260.314	265.75
260.547	289.75
260.779	294.75
261.012	275.75
261.244	287.75
261.477	278.75
261.71	272.75
261.942	266.75
262.175	296.75
262.407	292.75
262.64	277.75
262.872	292.75
263.105	296.75
263.337	292.75
263.57	291.75
263.802	291.75
264.035	311.75
264.267	314.75
264.499	278.75
264.732	311.75
264.964	302.75
265.197	307.75
265.429	316.75
265.661	313.75
265.894	303.75
266.126	315.75
266.358	295.75
266.591	306.75
266.823	333.75
267.055	321.75
267.287	309.75
267.52	308.75
267.752	314.75
267.984	319.75
268.216	310.75
268.448	323.75
268.681	329.75
268.913	328.75
269.145	350.75
269.377	326.75
269.609	338.75
269.841	334.75
270.073	328.75
270.306	336.75
270.538	327.75
270.77	328.75
271.002	343.75
271.234	313.75
271.466	334.75
271.698	328.75
271.93	330.75
272.162	323.75
272.394	337.75
272.626	334.75
272.858	338.75
273.09	335.75
273.322	347.75
273.553	349.75
273.785	375.75
274.017	339.75
274.249	346.75
274.481	359.75
274.713	367.75
274.945	375.75
275.176	386.75
275.408	370.75
275.64	339.75
275.872	358.75
276.104	366.75
276.335	350.75
276.567	365.75
276.799	376.75
277.031	376.75
277.262	358.75
277.494	387.75
277.726	358.75
277.957	383.75
278.189	367.75
278.421	368.75
278.652	373.75
278.884	388.75
279.115	381.75
279.347	397.75
279.579	396.75
279.81	390.75
280.042	398.75
280.273	399.75
280.505	390.75
280.736	392.75
280.968	399.75
281.199	389.75
281.431	399.75
281.662	393.75
281.894	397.75
282.125	396.75
282.356	386.75
282.588	417.75
282.819	401.75
283.051	390.75
283.282	397.75
283.513	399.75
283.745	391.75
283.976	438.75
284.207	413.75
284.439	401.75
284.67	392.75
284.901	415.75
285.132	425.75
285.364	407.75
285.595	420.75
285.826	440.75
286.057	433.75
286.288	454.75
286.52	436.75
286.751	415.75
286.982	423.75
287.213	418.75
287.444	429.75
287.675	413.75
287.906	410.75
288.138	442.75
288.369	442.75
288.6	436.75
288.831	424.75
289.062	443.75
289.293	439.75
289.524	445.75
289.755	445.75
289.986	419.75
290.217	449.75
290.448	439.75
290.679	445.75
290.91	438.75
291.141	438.75
291.371	441.75
291.602	452.75
291.833	457.75
292.064	441.75
292.295	445.75
292.526	448.75
292.757	446.75
292.987	436.75
293.218	414.75
293.449	457.75
293.68	442.75
293.91	448.75
294.141	449.75
294.372	433.75
294.603	433.75
294.833	440.75
295.064	455.75
295.295	455.75
295.525	453.75
295.756	455.75
295.987	455.75
296.217	455.75
296.448	474.75
296.679	429.75
296.909	469.75
297.14	470.75
297.37	466.75
297.601	460.75
297.831	462.75
298.062	489.75
298.292	486.75
298.523	490.75
298.753	496.75
298.984	487.75
299.214	479.75
299.445	469.75
299.675	482.75
299.905	490.75
300.136	508.75
300.366	534.75
300.597	510.75
300.827	526.75
301.057	509.75
301.288	503.75
301.518	482.75
301.748	497.75
301.979	493.75
302.209	501.75
302.439	516.75
302.669	495.75
302.9	481.75
303.13	490.75
303.36	501.75
303.59	515.75
303.82	505.75
304.051	500.75
304.281	499.75
304.511	509.75
304.741	517.75
304.971	526.75
305.201	527.75
305.431	528.75
305.661	528.75
305.891	524.75
306.121	545.75
306.352	515.75
306.582	497.75
306.812	502.75
307.042	507.75
307.272	513.75
307.502	533.75
307.731	525.75
307.961	519.75
308.191	516.75
308.421	509.75
308.651	484.75
308.881	494.75
309.111	551.75
309.341	502.75
309.571	504.75
309.8	529.75
310.03	541.75
310.26	551.75
310.49	539.75
310.72	542.75
310.949	515.75
311.179	506.75
311.409	529.75
311.639	523.75
311.868	529.75
312.098	528.75
312.328	547.75
312.557	554.75
312.787	544.75
313.017	535.75
313.246	545.75
313.476	559.75
313.706	573.75
313.935	567.75
314.165	549.75
314.394	549.75
314.624	558.75
314.853	560.75
315.083	541.75
315.312	555.75
315.542	561.75
315.771	550.75
316.001	549.75
316.23	550.75
316.46	558.75
316.689	581.75
316.919	550.75
317.148	558.75
317.377	561.75
317.607	548.75
317.836	570.75
318.065	574.75
318.295	550.75
318.524	557.75
318.753	571.75
318.983	569.75
319.212	572.75
319.441	554.75
319.67	550.75
319.9	541.75
320.129	563.75
320.358	562.75
320.587	573.75
320.816	575.75
321.046	583.75
321.275	583.75
321.504	581.75
321.733	561.75
321.962	582.75
322.191	586.75
322.42	583.75
322.649	592.75
322.878	563.75
323.108	575.75
323.337	591.75
323.566	594.75
323.795	614.75
324.024	605.75
324.253	603.75
324.482	630.75
324.71	627.75
324.939	598.75
325.168	608.75
325.397	594.75
325.626	598.75
325.855	587.75
326.084	599.75
326.313	605.75
326.542	599.75
326.77	608.75
326.999	605.75
327.228	618.75
327.457	624.75
327.686	635.75
327.914	637.75
328.143	631.75
328.372	622.75
328.6	629.75
328.829	631.75
329.058	627.75
329.287	621.75
329.515	623.75
329.744	631.75
329.972	638.75
330.201	641.75
330.43	653.75
330.658	641.75
330.887	653.75
331.115	661.75
331.344	657.75
331.572	664.75
331.801	687.75
332.03	680.75
332.258	689.75
332.486	685.75
332.715	698.75
332.943	690.75
333.172	724.75
333.4	702.75
333.629	728.75
333.857	741.75
334.085	751.75
334.314	744.75
334.542	754.75
334.771	771.75
334.999	749.75
335.227	749.75
335.455	728.75
335.684	743.75
335.912	739.75
336.14	756.75
336.369	737.75
336.597	758.75
336.825	759.75
337.053	743.75
337.281	745.75
337.51	737.75
337.738	745.75
337.966	728.75
338.194	737.75
338.422	723.75
338.65	709.75
338.878	704.75
339.106	696.75
339.334	739.75
339.562	739.75
339.79	707.75
340.018	699.75
340.246	673.75
340.474	673.75
340.702	690.75
340.93	679.75
341.158	701.75
341.386	723.75
341.614	730.75
341.842	745.75
342.07	675.75
342.298	677.75
342.526	689.75
342.754	675.75
342.981	681.75
343.209	712.75
343.437	712.75
343.665	706.75
343.893	736.75
344.12	726.75
344.348	746.75
344.576	734.75
344.804	746.75
345.031	714.75
345.259	698.75
345.487	682.75
345.714	705.75
345.942	730.75
346.17	728.75
346.397	721.75
346.625	649.75
346.853	651.75
347.08	663.75
347.308	680.75
347.535	657.75
347.763	643.75
347.99	676.75
348.218	667.75
348.445	643.75
348.673	666.75
348.9	660.75
349.128	673.75
349.355	705.75
349.583	672.75
349.81	663.75
350.037	641.75
350.265	623.75
350.492	636.75
350.72	645.75
350.947	662.75
351.174	663.75
351.402	663.75
351.629	666.75
351.856	672.75
352.083	683.75
352.311	663.75
352.538	718.75
352.765	699.75
352.992	632.75
353.22	642.75
353.447	644.75
353.674	624.75
353.901	620.75
354.128	642.75
354.355	622.75
354.583	656.75
354.81	629.75
355.037	650.75
355.264	676.75
355.491	627.75
355.718	614.75
355.945	633.75
356.172	629.75
356.399	667.75
356.626	635.75
356.853	681.75
357.08	646.75
357.307	674.75
357.534	627.75
357.761	660.75
357.988	655.75
358.215	627.75
358.441	659.75
358.668	627.75
358.895	638.75
359.122	637.75
359.349	633.75
359.576	642.75
359.802	623.75
360.029	645.75
360.256	637.75
360.483	639.75
360.709	639.75
360.936	646.75
361.163	649.75
361.39	642.75
361.616	660.75
361.843	665.75
362.07	671.75
362.296	681.75
362.523	650.75
362.749	652.75
362.976	644.75
363.203	664.75
363.429	654.75
363.656	644.75
363.882	621.75
364.109	614.75
364.335	658.75
364.562	650.75
364.788	640.75
365.015	627.75
365.241	646.75
365.468	650.75
365.694	645.75
365.92	642.75
366.147	635.75
366.373	634.75
366.599	661.75
366.826	659.75
367.052	652.75
367.278	646.75
367.505	664.75
367.731	641.75
367.957	671.75
368.184	638.75
368.41	667.75
368.636	659.75
368.862	660.75
369.089	645.75
369.315	681.75
369.541	661.75
369.767	667.75
369.993	665.75
370.219	685.75
370.445	666.75
370.672	677.75
370.898	667.75
371.124	674.75
371.35	697.75
371.576	685.75
371.802	698.75
372.028	690.75
372.254	703.75
372.48	709.75
372.706	717.75
372.932	700.75
373.158	695.75
373.384	702.75
373.61	708.75
373.835	689.75
374.061	703.75
374.287	706.75
374.513	701.75
374.739	722.75
374.965	700.75
375.191	731.75
375.416	720.75
375.642	726.75
375.868	717.75
376.094	695.75
376.319	702.75
376.545	702.75
376.771	687.75
376.997	691.75
377.222	706.75
377.448	682.75
377.674	719.75
377.899	705.75
378.125	669.75
378.35	675.75
378.576	713.75
378.802	678.75
379.027	682.75
379.253	685.75
379.478	689.75
379.704	683.75
379.929	669.75
380.155	695.75
380.38	695.75
380.606	698.75
380.831	703.75
381.057	694.75
381.282	705.75
381.507	679.75
381.733	693.75
381.958	703.75
382.184	664.75
382.409	685.75
382.634	711.75
382.86	706.75
383.085	735.75
383.31	728.75
383.535	717.75
383.761	727.75
383.986	706.75
384.211	753.75
384.436	744.75
384.662	765.75
384.887	768.75
385.112	780.75
385.337	775.75
385.562	778.75
385.787	769.75
386.013	809.75
386.238	768.75
386.463	793.75
386.688	798.75
386.913	757.75
387.138	770.75
387.363	805.75
387.588	787.75
387.813	802.75
388.038	791.75
388.263	785.75
388.488	782.75
388.713	806.75
388.938	785.75
389.163	784.75
389.387	785.75
389.612	787.75
389.837	793.75
390.062	775.75
390.287	799.75
390.512	790.75
390.736	808.75
390.961	826.75
391.186	823.75
391.411	810.75
391.636	837.75
391.86	881.75
392.085	851.75
392.31	835.75
392.534	822.75
392.759	821.75
392.984	849.75
393.208	844.75
393.433	857.75
393.658	834.75
393.882	841.75
394.107	823.75
394.331	854.75
394.556	800.75
394.78	849.75
395.005	852.75
395.229	839.75
395.454	854.75
395.678	831.75
395.903	853.75
396.127	851.75
396.352	850.75
396.576	861.75
396.801	829.75
397.025	879.75
397.249	899.75
397.474	908.75
397.698	899.75
397.922	890.75
398.147	890.75
398.371	903.75
398.595	914.75
398.82	980.75
399.044	972.75
399.268	1029.75
399.492	1085.75
399.717	1082.75
399.941	1143.75
400.165	1117.75
400.389	1054.75
400.613	1031.75
400.837	1015.75
401.062	1013.75
401.286	974.75
401.51	956.75
401.734	949.75
401.958	951.75
402.182	935.75
402.406	952.75
402.63	943.75
402.854	1002.75
403.078	973.75
403.302	952.75
403.526	956.75
403.75	950.75
403.974	947.75
404.198	989.75
404.422	958.75
404.645	995.75
404.869	981.75
405.093	1009.75
405.317	1001.75
405.541	987.75
405.765	980.75
405.988	979.75
406.212	995.75
406.436	1034.75
406.66	1041.75
406.883	1045.75
407.107	1068.75
407.331	1104.75
407.555	1099.75
407.778	1134.75
408.002	1133.75
408.226	1106.75
408.449	1141.75
408.673	1083.75
408.896	1053.75
409.12	1053.75
409.344	1058.75
409.567	1035.75
409.791	1045.75
410.014	1021.75
410.238	1026.75
410.461	1031.75
410.685	1025.75
410.908	1024.75
411.132	1022.75
411.355	1007.75
411.578	985.75
411.802	979.75
412.025	1015.75
412.249	1029.75
412.472	998.75
412.695	998.75
412.919	969.75
413.142	948.75
413.365	980.75
413.589	976.75
413.812	934.75
414.035	965.75
414.258	967.75
414.482	947.75
414.705	960.75
414.928	946.75
415.151	995.75
415.374	951.75
415.597	960.75
415.821	947.75
416.044	940.75
416.267	893.75
416.49	931.75
416.713	916.75
416.936	944.75
417.159	927.75
417.382	920.75
417.605	901.75
417.828	921.75
418.051	924.75
418.274	943.75
418.497	909.75
418.72	940.75
418.943	953.75
419.166	981.75
419.389	992.75
419.611	996.75
419.834	997.75
420.057	951.75
420.28	938.75
420.503	916.75
420.726	895.75
420.948	911.75
421.171	908.75
421.394	932.75
421.617	905.75
421.839	921.75
422.062	902.75
422.285	893.75
422.507	935.75
422.73	933.75
422.953	921.75
423.175	919.75
423.398	931.75
423.621	900.75
423.843	906.75
424.066	926.75
424.288	920.75
424.511	916.75
424.733	945.75
424.956	935.75
425.178	933.75
425.401	907.75
425.623	913.75
425.846	923.75
426.068	919.75
426.291	907.75
426.513	898.75
426.735	896.75
426.958	893.75
427.18	887.75
427.402	894.75
427.625	885.75
427.847	869.75
428.069	903.75
428.292	886.75
428.514	873.75
428.736	853.75
428.958	874.75
429.181	866.75
429.403	853.75
429.625	893.75
429.847	866.75
430.069	855.75
430.292	886.75
430.514	855.75
430.736	877.75
430.958	839.75
431.18	856.75
431.402	862.75
431.624	853.75
431.846	877.75
432.068	866.75
432.29	919.75
432.512	899.75
432.734	881.75
432.956	883.75
433.178	891.75
433.4	893.75
433.622	907.75
433.844	905.75
434.066	889.75
434.287	912.75
434.509	922.75
434.731	927.75
434.953	937.75
435.175	971.75
435.397	945.75
435.618	930.75
435.84	911.75
436.062	894.75
436.284	890.75
436.505	869.75
436.727	883.75
436.949	885.75
437.17	887.75
437.392	851.75
437.614	874.75
437.835	833.75
438.057	849.75
438.278	838.75
438.5	856.75
438.721	854.75
438.943	862.75
439.165	873.75
439.386	824.75
439.608	835.75
439.829	863.75
440.05	875.75
440.272	862.75
440.493	880.75
440.715	850.75
440.936	886.75
441.158	911.75
441.379	897.75
441.6	956.75
441.822	926.75
442.043	935.75
442.264	905.75
442.486	890.75
442.707	906.75
442.928	907.75
443.149	929.75
443.371	955.75
443.592	943.75
443.813	957.75
444.034	893.75
444.255	976.75
444.476	971.75
444.698	982.75
444.919	1019.75
445.14	1091.75
445.361	1032.75
445.582	970.75
445.803	917.75
446.024	925.75
446.245	928.75
446.466	903.75
446.687	885.75
446.908	869.75
447.129	858.75
447.35	854.75
447.571	840.75
447.792	816.75
448.013	814.75
448.234	833.75
448.455	825.75
448.675	839.75
448.896	815.75
449.117	798.75
449.338	816.75
449.559	792.75
449.779	803.75
450	782.75
450.221	810.75
450.442	813.75
450.662	799.75
450.883	803.75
451.104	808.75
451.324	788.75
451.545	785.75
451.766	818.75
451.986	785.75
452.207	783.75
452.428	771.75
452.648	770.75
452.869	755.75
453.089	765.75
453.31	799.75
453.53	775.75
453.751	757.75
453.971	773.75
454.192	769.75
454.412	769.75
454.633	768.75
454.853	763.75
455.073	778.75
455.294	762.75
455.514	779.75
455.734	778.75
455.955	777.75
456.175	767.75
456.395	756.75
456.616	783.75
456.836	754.75
457.056	775.75
457.276	779.75
457.497	801.75
457.717	779.75
457.937	798.75
458.157	781.75
458.377	789.75
458.598	799.75
458.818	823.75
459.038	853.75
459.258	855.75
459.478	886.75
459.698	941.75
459.918	929.75
460.138	939.75
460.358	934.75
460.578	944.75
460.798	988.75
461.018	953.75
461.238	957.75
461.458	952.75
461.678	953.75
461.898	968.75
462.118	935.75
462.338	1000.75
462.558	1043.75
462.777	1063.75
462.997	1089.75
463.217	1103.75
463.437	1175.75
463.657	1120.75
463.876	1089.75
464.096	1088.75
464.316	1047.75
464.536	1073.75
464.755	1010.75
464.975	981.75
465.195	970.75
465.414	951.75
465.634	895.75
465.854	879.75
466.073	902.75
466.293	853.75
466.512	857.75
466.732	846.75
466.951	843.75
467.171	840.75
467.391	840.75
467.61	819.75
467.829	836.75
468.049	835.75
468.268	833.75
468.488	794.75
468.707	815.75
468.927	825.75
469.146	841.75
469.365	866.75
469.585	829.75
469.804	847.75
470.023	862.75
470.243	824.75
470.462	881.75
470.681	841.75
470.901	847.75
471.12	838.75
471.339	838.75
471.558	864.75
471.777	852.75
471.997	844.75
472.216	822.75
472.435	821.75
472.654	835.75
472.873	808.75
473.092	830.75
473.311	828.75
473.53	818.75
473.749	820.75
473.968	802.75
474.187	815.75
474.406	813.75
474.625	849.75
474.844	862.75
475.063	830.75
475.282	838.75
475.501	851.75
475.72	858.75
475.939	848.75
476.158	889.75
476.377	858.75
476.596	843.75
476.814	865.75
477.033	877.75
477.252	894.75
477.471	930.75
477.69	895.75
477.908	913.75
478.127	911.75
478.346	917.75
478.564	951.75
478.783	968.75
479.002	987.75
479.22	1001.75
479.439	1017.75
479.658	999.75
479.876	989.75
480.095	979.75
480.313	1041.75
480.532	986.75
480.751	991.75
480.969	1021.75
481.188	979.75
481.406	972.75
481.624	963.75
481.843	988.75
482.061	951.75
482.28	952.75
482.498	953.75
482.717	998.75
482.935	949.75
483.153	957.75
483.372	1006.75
483.59	1024.75
483.808	961.75
484.027	960.75
484.245	998.75
484.463	984.75
484.681	978.75
484.9	1015.75
485.118	984.75
485.336	1008.75
485.554	996.75
485.772	994.75
485.99	1001.75
486.209	1009.75
486.427	1018.75
486.645	1011.75
486.863	1033.75
487.081	989.75
487.299	986.75
487.517	993.75
487.735	1011.75
487.953	1054.75
488.171	1016.75
488.389	983.75
488.607	988.75
488.825	992.75
489.043	1002.75
489.261	1002.75
489.479	979.75
489.696	967.75
489.914	1008.75
490.132	991.75
490.35	1019.75
490.568	1018.75
490.786	1028.75
491.003	1003.75
491.221	1008.75
491.439	1031.75
491.657	1028.75
491.874	1014.75
492.092	1030.75
492.31	1072.75
492.527	1044.75
492.745	1048.75
492.963	1019.75
493.18	1049.75
493.398	1018.75
493.615	1048.75
493.833	1042.75
494.05	1048.75
494.268	1057.75
494.485	1024.75
494.703	1057.75
494.92	1053.75
495.138	1054.75
495.355	1060.75
495.573	1054.75
495.79	1043.75
496.008	1067.75
496.225	1072.75
496.442	1085.75
496.66	1115.75
496.877	1092.75
497.094	1114.75
497.312	1125.75
497.529	1159.75
497.746	1175.75
497.963	1206.75
498.181	1246.75
498.398	1279.75
498.615	1339.75
498.832	1374.75
499.049	1412.75
499.267	1483.75
499.484	1510.75
499.701	1633.75
499.918	1718.75
