Data from Ni(NO3)2@0.25M.TitratingCurve.Agarose3%dH2O.NegLispCup.LampEnergy10.LIBS07252019_HRD10591_18-04-32-566.txt Node
Date: Thu Jul 25 18:04:32 EDT 2019
User: cochatt
Spectrometer: HR+D1059
Trigger mode: 1
Integration Time (sec): 1.000000E-1
Scans to average: 1
Electric dark correction enabled: true
Nonlinearity correction enabled: false
Boxcar width: 0
XAxis mode: Wavelengths
Number of Pixels in Spectrum: 2048
>>>>>Begin Spectral Data<<<<<
223.165	-12.56
223.4	-12.56
223.635	-12.56
223.869	-17.56
224.104	-38.56
224.338	-15.56
224.573	-3.56
224.808	-19.56
225.042	-5.56
225.277	4.44
225.511	-9.56
225.746	3.44
225.98	13.44
226.215	23.44
226.449	12.44
226.683	28.44
226.918	8.44
227.152	28.44
227.387	47.44
227.621	23.44
227.856	47.44
228.09	49.44
228.324	45.44
228.559	47.44
228.793	66.44
229.027	92.44
229.262	107.44
229.496	98.44
229.73	95.44
229.964	101.44
230.199	103.44
230.433	106.44
230.667	92.44
230.901	127.44
231.136	100.44
231.37	125.44
231.604	122.44
231.838	138.44
232.072	125.44
232.306	115.44
232.541	109.44
232.775	114.44
233.009	120.44
233.243	118.44
233.477	123.44
233.711	126.44
233.945	138.44
234.179	115.44
234.413	134.44
234.647	118.44
234.881	118.44
235.115	125.44
235.349	119.44
235.583	122.44
235.817	123.44
236.051	127.44
236.285	124.44
236.519	130.44
236.753	124.44
236.987	126.44
237.221	132.44
237.455	124.44
237.689	136.44
237.922	130.44
238.156	140.44
238.39	140.44
238.624	121.44
238.858	123.44
239.091	123.44
239.325	136.44
239.559	128.44
239.793	137.44
240.027	144.44
240.26	142.44
240.494	136.44
240.728	148.44
240.961	142.44
241.195	152.44
241.429	145.44
241.662	132.44
241.896	146.44
242.13	160.44
242.363	144.44
242.597	152.44
242.83	141.44
243.064	161.44
243.298	147.44
243.531	152.44
243.765	152.44
243.998	159.44
244.232	175.44
244.465	159.44
244.699	159.44
244.932	168.44
245.166	168.44
245.399	152.44
245.633	144.44
245.866	162.44
246.099	156.44
246.333	160.44
246.566	170.44
246.8	190.44
247.033	189.44
247.266	178.44
247.5	162.44
247.733	172.44
247.966	176.44
248.2	178.44
248.433	173.44
248.666	184.44
248.899	184.44
249.133	162.44
249.366	203.44
249.599	180.44
249.832	196.44
250.066	169.44
250.299	202.44
250.532	196.44
250.765	205.44
250.998	188.44
251.231	199.44
251.465	203.44
251.698	205.44
251.931	211.44
252.164	205.44
252.397	207.44
252.63	211.44
252.863	217.44
253.096	222.44
253.329	223.44
253.562	219.44
253.795	209.44
254.028	214.44
254.261	222.44
254.494	219.44
254.727	244.44
254.96	217.44
255.193	219.44
255.426	251.44
255.659	238.44
255.892	259.44
256.124	229.44
256.357	235.44
256.59	243.44
256.823	256.44
257.056	242.44
257.289	231.44
257.521	243.44
257.754	248.44
257.987	230.44
258.22	266.44
258.452	257.44
258.685	265.44
258.918	250.44
259.151	253.44
259.383	246.44
259.616	263.44
259.849	260.44
260.081	270.44
260.314	268.44
260.547	285.44
260.779	262.44
261.012	279.44
261.244	283.44
261.477	274.44
261.71	277.44
261.942	267.44
262.175	278.44
262.407	298.44
262.64	287.44
262.872	276.44
263.105	271.44
263.337	261.44
263.57	265.44
263.802	280.44
264.035	286.44
264.267	278.44
264.499	287.44
264.732	287.44
264.964	272.44
265.197	293.44
265.429	299.44
265.661	288.44
265.894	297.44
266.126	309.44
266.358	311.44
266.591	283.44
266.823	298.44
267.055	308.44
267.287	311.44
267.52	297.44
267.752	308.44
267.984	316.44
268.216	304.44
268.448	312.44
268.681	307.44
268.913	324.44
269.145	282.44
269.377	320.44
269.609	309.44
269.841	302.44
270.073	316.44
270.306	325.44
270.538	298.44
270.77	326.44
271.002	313.44
271.234	290.44
271.466	312.44
271.698	306.44
271.93	325.44
272.162	322.44
272.394	318.44
272.626	326.44
272.858	318.44
273.09	328.44
273.322	346.44
273.553	335.44
273.785	338.44
274.017	326.44
274.249	341.44
274.481	340.44
274.713	337.44
274.945	316.44
275.176	341.44
275.408	336.44
275.64	328.44
275.872	327.44
276.104	341.44
276.335	339.44
276.567	330.44
276.799	359.44
277.031	336.44
277.262	342.44
277.494	331.44
277.726	334.44
277.957	362.44
278.189	347.44
278.421	356.44
278.652	356.44
278.884	344.44
279.115	348.44
279.347	332.44
279.579	349.44
279.81	340.44
280.042	360.44
280.273	361.44
280.505	360.44
280.736	369.44
280.968	374.44
281.199	367.44
281.431	368.44
281.662	364.44
281.894	362.44
282.125	356.44
282.356	375.44
282.588	366.44
282.819	364.44
283.051	373.44
283.282	383.44
283.513	389.44
283.745	357.44
283.976	365.44
284.207	377.44
284.439	346.44
284.67	382.44
284.901	372.44
285.132	365.44
285.364	374.44
285.595	375.44
285.826	367.44
286.057	366.44
286.288	387.44
286.52	378.44
286.751	359.44
286.982	380.44
287.213	373.44
287.444	396.44
287.675	392.44
287.906	405.44
288.138	396.44
288.369	385.44
288.6	395.44
288.831	378.44
289.062	398.44
289.293	371.44
289.524	384.44
289.755	382.44
289.986	395.44
290.217	386.44
290.448	395.44
290.679	394.44
290.91	399.44
291.141	389.44
291.371	418.44
291.602	406.44
291.833	378.44
292.064	379.44
292.295	397.44
292.526	404.44
292.757	408.44
292.987	393.44
293.218	380.44
293.449	408.44
293.68	386.44
293.91	413.44
294.141	389.44
294.372	392.44
294.603	386.44
294.833	404.44
295.064	408.44
295.295	398.44
295.525	403.44
295.756	407.44
295.987	409.44
296.217	413.44
296.448	415.44
296.679	389.44
296.909	406.44
297.14	392.44
297.37	428.44
297.601	408.44
297.831	413.44
298.062	396.44
298.292	418.44
298.523	446.44
298.753	400.44
298.984	432.44
299.214	442.44
299.445	444.44
299.675	424.44
299.905	414.44
300.136	420.44
300.366	436.44
300.597	439.44
300.827	429.44
301.057	446.44
301.288	448.44
301.518	450.44
301.748	438.44
301.979	438.44
302.209	458.44
302.439	448.44
302.669	453.44
302.9	447.44
303.13	417.44
303.36	444.44
303.59	457.44
303.82	467.44
304.051	458.44
304.281	461.44
304.511	438.44
304.741	458.44
304.971	457.44
305.201	467.44
305.431	462.44
305.661	458.44
305.891	468.44
306.121	460.44
306.352	450.44
306.582	434.44
306.812	439.44
307.042	453.44
307.272	443.44
307.502	440.44
307.731	448.44
307.961	461.44
308.191	448.44
308.421	456.44
308.651	452.44
308.881	453.44
309.111	428.44
309.341	452.44
309.571	450.44
309.8	453.44
310.03	466.44
310.26	479.44
310.49	462.44
310.72	464.44
310.949	441.44
311.179	468.44
311.409	477.44
311.639	456.44
311.868	494.44
312.098	464.44
312.328	501.44
312.557	468.44
312.787	500.44
313.017	474.44
313.246	501.44
313.476	478.44
313.706	503.44
313.935	476.44
314.165	499.44
314.394	512.44
314.624	513.44
314.853	490.44
315.083	498.44
315.312	517.44
315.542	508.44
315.771	511.44
316.001	511.44
316.23	515.44
316.46	524.44
316.689	503.44
316.919	514.44
317.148	515.44
317.377	504.44
317.607	511.44
317.836	515.44
318.065	510.44
318.295	496.44
318.524	516.44
318.753	495.44
318.983	504.44
319.212	520.44
319.441	516.44
319.67	536.44
319.9	511.44
320.129	524.44
320.358	528.44
320.587	529.44
320.816	538.44
321.046	534.44
321.275	552.44
321.504	537.44
321.733	533.44
321.962	541.44
322.191	541.44
322.42	537.44
322.649	552.44
322.878	551.44
323.108	558.44
323.337	564.44
323.566	541.44
323.795	578.44
324.024	568.44
324.253	564.44
324.482	554.44
324.71	583.44
324.939	582.44
325.168	577.44
325.397	584.44
325.626	581.44
325.855	597.44
326.084	595.44
326.313	618.44
326.542	611.44
326.77	600.44
326.999	634.44
327.228	619.44
327.457	603.44
327.686	611.44
327.914	586.44
328.143	603.44
328.372	623.44
328.6	611.44
328.829	605.44
329.058	624.44
329.287	624.44
329.515	630.44
329.744	626.44
329.972	630.44
330.201	618.44
330.43	620.44
330.658	633.44
330.887	647.44
331.115	679.44
331.344	668.44
331.572	674.44
331.801	687.44
332.03	677.44
332.258	736.44
332.486	716.44
332.715	699.44
332.943	740.44
333.172	750.44
333.4	794.44
333.629	791.44
333.857	802.44
334.085	776.44
334.314	802.44
334.542	779.44
334.771	776.44
334.999	767.44
335.227	809.44
335.455	795.44
335.684	809.44
335.912	794.44
336.14	777.44
336.369	767.44
336.597	794.44
336.825	808.44
337.053	804.44
337.281	789.44
337.51	780.44
337.738	747.44
337.966	749.44
338.194	774.44
338.422	727.44
338.65	711.44
338.878	715.44
339.106	710.44
339.334	731.44
339.562	720.44
339.79	714.44
340.018	701.44
340.246	695.44
340.474	716.44
340.702	708.44
340.93	690.44
341.158	719.44
341.386	728.44
341.614	718.44
341.842	714.44
342.07	676.44
342.298	725.44
342.526	683.44
342.754	728.44
342.981	704.44
343.209	726.44
343.437	748.44
343.665	745.44
343.893	782.44
344.12	798.44
344.348	810.44
344.576	784.44
344.804	769.44
345.031	740.44
345.259	714.44
345.487	723.44
345.714	723.44
345.942	701.44
346.17	738.44
346.397	703.44
346.625	701.44
346.853	684.44
347.08	674.44
347.308	694.44
347.535	688.44
347.763	668.44
347.99	686.44
348.218	685.44
348.445	668.44
348.673	671.44
348.9	676.44
349.128	675.44
349.355	677.44
349.583	666.44
349.81	659.44
350.037	665.44
350.265	667.44
350.492	681.44
350.72	676.44
350.947	671.44
351.174	676.44
351.402	702.44
351.629	671.44
351.856	665.44
352.083	660.44
352.311	681.44
352.538	684.44
352.765	699.44
352.992	684.44
353.22	657.44
353.447	645.44
353.674	654.44
353.901	644.44
354.128	644.44
354.355	646.44
354.583	640.44
354.81	634.44
355.037	647.44
355.264	663.44
355.491	669.44
355.718	646.44
355.945	655.44
356.172	643.44
356.399	648.44
356.626	644.44
356.853	674.44
357.08	663.44
357.307	652.44
357.534	648.44
357.761	661.44
357.988	655.44
358.215	641.44
358.441	652.44
358.668	653.44
358.895	655.44
359.122	624.44
359.349	651.44
359.576	655.44
359.802	667.44
360.029	645.44
360.256	655.44
360.483	643.44
360.709	640.44
360.936	671.44
361.163	655.44
361.39	635.44
361.616	667.44
361.843	657.44
362.07	684.44
362.296	670.44
362.523	640.44
362.749	653.44
362.976	652.44
363.203	644.44
363.429	648.44
363.656	648.44
363.882	655.44
364.109	639.44
364.335	656.44
364.562	645.44
364.788	643.44
365.015	640.44
365.241	639.44
365.468	616.44
365.694	633.44
365.92	644.44
366.147	642.44
366.373	636.44
366.599	644.44
366.826	634.44
367.052	651.44
367.278	644.44
367.505	642.44
367.731	669.44
367.957	629.44
368.184	665.44
368.41	643.44
368.636	654.44
368.862	646.44
369.089	634.44
369.315	663.44
369.541	660.44
369.767	678.44
369.993	647.44
370.219	677.44
370.445	685.44
370.672	651.44
370.898	664.44
371.124	695.44
371.35	678.44
371.576	666.44
371.802	702.44
372.028	704.44
372.254	664.44
372.48	696.44
372.706	677.44
372.932	702.44
373.158	698.44
373.384	709.44
373.61	670.44
373.835	669.44
374.061	705.44
374.287	685.44
374.513	691.44
374.739	708.44
374.965	706.44
375.191	718.44
375.416	754.44
375.642	724.44
375.868	706.44
376.094	693.44
376.319	682.44
376.545	668.44
376.771	678.44
376.997	671.44
377.222	669.44
377.448	703.44
377.674	690.44
377.899	648.44
378.125	650.44
378.35	633.44
378.576	658.44
378.802	654.44
379.027	634.44
379.253	670.44
379.478	650.44
379.704	660.44
379.929	641.44
380.155	657.44
380.38	652.44
380.606	662.44
380.831	678.44
381.057	671.44
381.282	651.44
381.507	676.44
381.733	675.44
381.958	660.44
382.184	656.44
382.409	679.44
382.634	711.44
382.86	672.44
383.085	702.44
383.31	706.44
383.535	699.44
383.761	709.44
383.986	713.44
384.211	720.44
384.436	706.44
384.662	762.44
384.887	743.44
385.112	743.44
385.337	755.44
385.562	743.44
385.787	772.44
386.013	774.44
386.238	773.44
386.463	784.44
386.688	774.44
386.913	760.44
387.138	757.44
387.363	782.44
387.588	798.44
387.813	780.44
388.038	763.44
388.263	794.44
388.488	755.44
388.713	774.44
388.938	801.44
389.163	780.44
389.387	768.44
389.612	755.44
389.837	771.44
390.062	769.44
390.287	723.44
390.512	770.44
390.736	780.44
390.961	779.44
391.186	815.44
391.411	810.44
391.636	818.44
391.86	817.44
392.085	821.44
392.31	816.44
392.534	823.44
392.759	838.44
392.984	826.44
393.208	827.44
393.433	828.44
393.658	824.44
393.882	809.44
394.107	810.44
394.331	813.44
394.556	830.44
394.78	813.44
395.005	824.44
395.229	838.44
395.454	833.44
395.678	859.44
395.903	863.44
396.127	870.44
396.352	824.44
396.576	823.44
396.801	832.44
397.025	813.44
397.249	859.44
397.474	868.44
397.698	895.44
397.922	890.44
398.147	885.44
398.371	936.44
398.595	916.44
398.82	957.44
399.044	1018.44
399.268	1062.44
399.492	1136.44
399.717	1220.44
399.941	1244.44
400.165	1162.44
400.389	1117.44
400.613	1093.44
400.837	1055.44
401.062	992.44
401.286	965.44
401.51	964.44
401.734	958.44
401.958	980.44
402.182	970.44
402.406	974.44
402.63	957.44
402.854	963.44
403.078	966.44
403.302	1004.44
403.526	1018.44
403.75	992.44
403.974	1042.44
404.198	988.44
404.422	1006.44
404.645	1010.44
404.869	997.44
405.093	1044.44
405.317	1008.44
405.541	1032.44
405.765	1037.44
405.988	1034.44
406.212	1044.44
406.436	1007.44
406.66	1069.44
406.883	1052.44
407.107	1102.44
407.331	1136.44
407.555	1178.44
407.778	1178.44
408.002	1179.44
408.226	1136.44
408.449	1146.44
408.673	1120.44
408.896	1111.44
409.12	1080.44
409.344	1108.44
409.567	1051.44
409.791	1098.44
410.014	1070.44
410.238	1083.44
410.461	1078.44
410.685	1033.44
410.908	1055.44
411.132	1055.44
411.355	1022.44
411.578	1040.44
411.802	986.44
412.025	989.44
412.249	1030.44
412.472	1017.44
412.695	1038.44
412.919	1023.44
413.142	1011.44
413.365	1000.44
413.589	1005.44
413.812	991.44
414.035	965.44
414.258	1028.44
414.482	997.44
414.705	984.44
414.928	982.44
415.151	996.44
415.374	1001.44
415.597	975.44
415.821	984.44
416.044	977.44
416.267	961.44
416.49	938.44
416.713	961.44
416.936	991.44
417.159	961.44
417.382	973.44
417.605	976.44
417.828	999.44
418.051	957.44
418.274	950.44
418.497	967.44
418.72	1003.44
418.943	987.44
419.166	1043.44
419.389	1096.44
419.611	1077.44
419.834	1046.44
420.057	1048.44
420.28	1005.44
420.503	972.44
420.726	1026.44
420.948	955.44
421.171	976.44
421.394	996.44
421.617	986.44
421.839	967.44
422.062	1001.44
422.285	965.44
422.507	968.44
422.73	991.44
422.953	992.44
423.175	947.44
423.398	1023.44
423.621	991.44
423.843	1016.44
424.066	985.44
424.288	1012.44
424.511	1006.44
424.733	1012.44
424.956	1004.44
425.178	976.44
425.401	989.44
425.623	1004.44
425.846	950.44
426.068	967.44
426.291	954.44
426.513	974.44
426.735	978.44
426.958	955.44
427.18	956.44
427.402	950.44
427.625	946.44
427.847	927.44
428.069	916.44
428.292	950.44
428.514	935.44
428.736	915.44
428.958	910.44
429.181	931.44
429.403	896.44
429.625	946.44
429.847	921.44
430.069	906.44
430.292	944.44
430.514	913.44
430.736	954.44
430.958	944.44
431.18	911.44
431.402	926.44
431.624	908.44
431.846	935.44
432.068	933.44
432.29	951.44
432.512	932.44
432.734	941.44
432.956	924.44
433.178	969.44
433.4	954.44
433.622	962.44
433.844	931.44
434.066	949.44
434.287	946.44
434.509	962.44
434.731	990.44
434.953	1011.44
435.175	995.44
435.397	1002.44
435.618	970.44
435.84	964.44
436.062	973.44
436.284	920.44
436.505	943.44
436.727	949.44
436.949	940.44
437.17	932.44
437.392	894.44
437.614	938.44
437.835	913.44
438.057	921.44
438.278	892.44
438.5	908.44
438.721	902.44
438.943	961.44
439.165	923.44
439.386	917.44
439.608	966.44
439.829	948.44
440.05	959.44
440.272	950.44
440.493	966.44
440.715	969.44
440.936	962.44
441.158	970.44
441.379	996.44
441.6	1019.44
441.822	990.44
442.043	1006.44
442.264	1031.44
442.486	976.44
442.707	1008.44
442.928	1025.44
443.149	1024.44
443.371	991.44
443.592	1028.44
443.813	1003.44
444.034	1011.44
444.255	1060.44
444.476	1054.44
444.698	1069.44
444.919	1115.44
445.14	1190.44
445.361	1109.44
445.582	1055.44
445.803	1022.44
446.024	1002.44
446.245	1003.44
446.466	990.44
446.687	964.44
446.908	990.44
447.129	952.44
447.35	950.44
447.571	921.44
447.792	886.44
448.013	916.44
448.234	904.44
448.455	910.44
448.675	894.44
448.896	894.44
449.117	894.44
449.338	886.44
449.559	854.44
449.779	866.44
450	851.44
450.221	878.44
450.442	862.44
450.662	863.44
450.883	895.44
451.104	852.44
451.324	876.44
451.545	879.44
451.766	885.44
451.986	875.44
452.207	860.44
452.428	861.44
452.648	876.44
452.869	880.44
453.089	849.44
453.31	848.44
453.53	836.44
453.751	843.44
453.971	824.44
454.192	847.44
454.412	834.44
454.633	824.44
454.853	818.44
455.073	817.44
455.294	829.44
455.514	830.44
455.734	819.44
455.955	804.44
456.175	802.44
456.395	829.44
456.616	807.44
456.836	815.44
457.056	833.44
457.276	807.44
457.497	849.44
457.717	863.44
457.937	807.44
458.157	851.44
458.377	855.44
458.598	872.44
458.818	895.44
459.038	882.44
459.258	908.44
459.478	952.44
459.698	955.44
459.918	969.44
460.138	991.44
460.358	1019.44
460.578	1039.44
460.798	1056.44
461.018	1084.44
461.238	1052.44
461.458	1076.44
461.678	1085.44
461.898	1106.44
462.118	1077.44
462.338	1147.44
462.558	1174.44
462.777	1190.44
462.997	1247.44
463.217	1301.44
463.437	1295.44
463.657	1262.44
463.876	1207.44
464.096	1221.44
464.316	1194.44
464.536	1209.44
464.755	1198.44
464.975	1105.44
465.195	1097.44
465.414	1042.44
465.634	1013.44
465.854	1034.44
466.073	957.44
466.293	964.44
466.512	937.44
466.732	940.44
466.951	914.44
467.171	909.44
467.391	927.44
467.61	898.44
467.829	935.44
468.049	908.44
468.268	888.44
468.488	908.44
468.707	905.44
468.927	863.44
469.146	898.44
469.365	926.44
469.585	898.44
469.804	945.44
470.023	922.44
470.243	918.44
470.462	934.44
470.681	908.44
470.901	933.44
471.12	907.44
471.339	910.44
471.558	902.44
471.777	894.44
471.997	878.44
472.216	904.44
472.435	885.44
472.654	874.44
472.873	878.44
473.092	856.44
473.311	875.44
473.53	894.44
473.749	880.44
473.968	905.44
474.187	879.44
474.406	874.44
474.625	870.44
474.844	857.44
475.063	870.44
475.282	892.44
475.501	893.44
475.72	878.44
475.939	888.44
476.158	913.44
476.377	911.44
476.596	897.44
476.814	910.44
477.033	928.44
477.252	951.44
477.471	955.44
477.69	979.44
477.908	991.44
478.127	1032.44
478.346	1034.44
478.564	1050.44
478.783	1052.44
479.002	1085.44
479.22	1102.44
479.439	1058.44
479.658	1072.44
479.876	1050.44
480.095	1058.44
480.313	1064.44
480.532	1086.44
480.751	1078.44
480.969	1069.44
481.188	1028.44
481.406	1038.44
481.624	1005.44
481.843	1010.44
482.061	1028.44
482.28	1007.44
482.498	985.44
482.717	1010.44
482.935	1000.44
483.153	1024.44
483.372	1002.44
483.59	1032.44
483.808	1002.44
484.027	1018.44
484.245	1020.44
484.463	985.44
484.681	1015.44
484.9	1034.44
485.118	1046.44
485.336	1037.44
485.554	1047.44
485.772	1050.44
485.99	1047.44
486.209	1051.44
486.427	1047.44
486.645	1040.44
486.863	1073.44
487.081	1048.44
487.299	1038.44
487.517	1046.44
487.735	1068.44
487.953	1043.44
488.171	1099.44
488.389	1062.44
488.607	1036.44
488.825	1068.44
489.043	1077.44
489.261	1032.44
489.479	1034.44
489.696	1040.44
489.914	1037.44
490.132	1040.44
490.35	1044.44
490.568	1084.44
490.786	1102.44
491.003	1084.44
491.221	1090.44
491.439	1086.44
491.657	1099.44
491.874	1101.44
492.092	1117.44
492.31	1108.44
492.527	1100.44
492.745	1116.44
492.963	1135.44
493.18	1122.44
493.398	1142.44
493.615	1135.44
493.833	1120.44
494.05	1116.44
494.268	1134.44
494.485	1122.44
494.703	1168.44
494.92	1160.44
495.138	1122.44
495.355	1150.44
495.573	1141.44
495.79	1140.44
496.008	1188.44
496.225	1181.44
496.442	1180.44
496.66	1219.44
496.877	1234.44
497.094	1224.44
497.312	1255.44
497.529	1275.44
497.746	1324.44
497.963	1355.44
498.181	1372.44
498.398	1402.44
498.615	1550.44
498.832	1575.44
