Data from Ni(NO3)2@0.125M.TitratingCurve.Agarose3%dH2O.NegLispCup.LampEnergy10.LIBS07252019_HRD10591_18-10-40-568.txt Node
Date: Thu Jul 25 18:10:40 EDT 2019
User: cochatt
Spectrometer: HR+D1059
Trigger mode: 1
Integration Time (sec): 1.000000E-1
Scans to average: 1
Electric dark correction enabled: true
Nonlinearity correction enabled: false
Boxcar width: 0
XAxis mode: Wavelengths
Number of Pixels in Spectrum: 2048
>>>>>Begin Spectral Data<<<<<
223.165	-11.19
223.4	-11.19
223.635	-11.19
223.869	-24.19
224.104	-14.19
224.338	-12.19
224.573	-18.19
224.808	-8.19
225.042	-0.19
225.277	-1.19
225.511	-14.19
225.746	-4.19
225.98	1.81
226.215	7.81
226.449	15.81
226.683	15.81
226.918	31.81
227.152	34.81
227.387	36.81
227.621	35.81
227.856	51.81
228.09	39.81
228.324	57.81
228.559	64.81
228.793	72.81
229.027	88.81
229.262	102.81
229.496	89.81
229.73	109.81
229.964	103.81
230.199	108.81
230.433	122.81
230.667	118.81
230.901	124.81
231.136	118.81
231.37	121.81
231.604	137.81
231.838	118.81
232.072	126.81
232.306	137.81
232.541	128.81
232.775	131.81
233.009	138.81
233.243	136.81
233.477	131.81
233.711	139.81
233.945	134.81
234.179	126.81
234.413	119.81
234.647	125.81
234.881	128.81
235.115	140.81
235.349	130.81
235.583	126.81
235.817	121.81
236.051	146.81
236.285	122.81
236.519	153.81
236.753	135.81
236.987	129.81
237.221	133.81
237.455	139.81
237.689	143.81
237.922	137.81
238.156	155.81
238.39	148.81
238.624	133.81
238.858	141.81
239.091	160.81
239.325	149.81
239.559	161.81
239.793	160.81
240.027	162.81
240.26	145.81
240.494	166.81
240.728	137.81
240.961	141.81
241.195	178.81
241.429	154.81
241.662	162.81
241.896	177.81
242.13	160.81
242.363	164.81
242.597	156.81
242.83	160.81
243.064	168.81
243.298	179.81
243.531	175.81
243.765	183.81
243.998	166.81
244.232	169.81
244.465	175.81
244.699	177.81
244.932	175.81
245.166	170.81
245.399	184.81
245.633	175.81
245.866	185.81
246.099	186.81
246.333	177.81
246.566	190.81
246.8	181.81
247.033	164.81
247.266	170.81
247.5	190.81
247.733	203.81
247.966	195.81
248.2	180.81
248.433	199.81
248.666	189.81
248.899	210.81
249.133	210.81
249.366	204.81
249.599	193.81
249.832	193.81
250.066	205.81
250.299	205.81
250.532	217.81
250.765	222.81
250.998	206.81
251.231	220.81
251.465	203.81
251.698	209.81
251.931	198.81
252.164	206.81
252.397	226.81
252.63	217.81
252.863	228.81
253.096	205.81
253.329	225.81
253.562	216.81
253.795	215.81
254.028	235.81
254.261	231.81
254.494	230.81
254.727	238.81
254.96	226.81
255.193	242.81
255.426	228.81
255.659	235.81
255.892	244.81
256.124	238.81
256.357	243.81
256.59	243.81
256.823	246.81
257.056	243.81
257.289	260.81
257.521	247.81
257.754	262.81
257.987	233.81
258.22	249.81
258.452	252.81
258.685	258.81
258.918	268.81
259.151	250.81
259.383	268.81
259.616	242.81
259.849	249.81
260.081	261.81
260.314	259.81
260.547	257.81
260.779	276.81
261.012	261.81
261.244	266.81
261.477	279.81
261.71	270.81
261.942	270.81
262.175	274.81
262.407	257.81
262.64	277.81
262.872	247.81
263.105	260.81
263.337	277.81
263.57	285.81
263.802	279.81
264.035	276.81
264.267	274.81
264.499	281.81
264.732	268.81
264.964	270.81
265.197	277.81
265.429	275.81
265.661	289.81
265.894	299.81
266.126	280.81
266.358	298.81
266.591	293.81
266.823	281.81
267.055	279.81
267.287	298.81
267.52	283.81
267.752	304.81
267.984	293.81
268.216	319.81
268.448	317.81
268.681	291.81
268.913	285.81
269.145	291.81
269.377	314.81
269.609	300.81
269.841	317.81
270.073	311.81
270.306	301.81
270.538	321.81
270.77	300.81
271.002	296.81
271.234	316.81
271.466	311.81
271.698	311.81
271.93	314.81
272.162	321.81
272.394	297.81
272.626	312.81
272.858	322.81
273.09	310.81
273.322	332.81
273.553	321.81
273.785	329.81
274.017	338.81
274.249	332.81
274.481	323.81
274.713	317.81
274.945	327.81
275.176	339.81
275.408	324.81
275.64	340.81
275.872	326.81
276.104	336.81
276.335	330.81
276.567	329.81
276.799	333.81
277.031	335.81
277.262	342.81
277.494	342.81
277.726	346.81
277.957	335.81
278.189	327.81
278.421	353.81
278.652	346.81
278.884	340.81
279.115	363.81
279.347	369.81
279.579	360.81
279.81	360.81
280.042	383.81
280.273	360.81
280.505	355.81
280.736	370.81
280.968	387.81
281.199	374.81
281.431	362.81
281.662	364.81
281.894	365.81
282.125	367.81
282.356	379.81
282.588	384.81
282.819	376.81
283.051	384.81
283.282	376.81
283.513	380.81
283.745	384.81
283.976	378.81
284.207	372.81
284.439	379.81
284.67	396.81
284.901	388.81
285.132	401.81
285.364	396.81
285.595	374.81
285.826	387.81
286.057	397.81
286.288	370.81
286.52	393.81
286.751	396.81
286.982	405.81
287.213	395.81
287.444	405.81
287.675	391.81
287.906	381.81
288.138	417.81
288.369	438.81
288.6	407.81
288.831	406.81
289.062	417.81
289.293	425.81
289.524	419.81
289.755	423.81
289.986	430.81
290.217	423.81
290.448	412.81
290.679	411.81
290.91	409.81
291.141	413.81
291.371	406.81
291.602	400.81
291.833	426.81
292.064	411.81
292.295	426.81
292.526	416.81
292.757	416.81
292.987	409.81
293.218	409.81
293.449	428.81
293.68	432.81
293.91	441.81
294.141	414.81
294.372	409.81
294.603	417.81
294.833	438.81
295.064	430.81
295.295	423.81
295.525	427.81
295.756	426.81
295.987	429.81
296.217	441.81
296.448	440.81
296.679	416.81
296.909	436.81
297.14	435.81
297.37	457.81
297.601	450.81
297.831	446.81
298.062	442.81
298.292	448.81
298.523	453.81
298.753	441.81
298.984	446.81
299.214	452.81
299.445	440.81
299.675	464.81
299.905	460.81
300.136	458.81
300.366	450.81
300.597	485.81
300.827	477.81
301.057	481.81
301.288	492.81
301.518	464.81
301.748	473.81
301.979	459.81
302.209	483.81
302.439	471.81
302.669	466.81
302.9	456.81
303.13	485.81
303.36	457.81
303.59	471.81
303.82	458.81
304.051	446.81
304.281	469.81
304.511	449.81
304.741	467.81
304.971	462.81
305.201	465.81
305.431	490.81
305.661	455.81
305.891	476.81
306.121	461.81
306.352	462.81
306.582	445.81
306.812	462.81
307.042	459.81
307.272	457.81
307.502	463.81
307.731	471.81
307.961	466.81
308.191	478.81
308.421	464.81
308.651	484.81
308.881	470.81
309.111	455.81
309.341	471.81
309.571	461.81
309.8	473.81
310.03	475.81
310.26	454.81
310.49	458.81
310.72	476.81
310.949	462.81
311.179	485.81
311.409	475.81
311.639	473.81
311.868	475.81
312.098	471.81
312.328	482.81
312.557	488.81
312.787	491.81
313.017	489.81
313.246	481.81
313.476	500.81
313.706	519.81
313.935	506.81
314.165	522.81
314.394	505.81
314.624	513.81
314.853	505.81
315.083	501.81
315.312	489.81
315.542	493.81
315.771	479.81
316.001	497.81
316.23	486.81
316.46	499.81
316.689	511.81
316.919	494.81
317.148	481.81
317.377	495.81
317.607	484.81
317.836	500.81
318.065	489.81
318.295	492.81
318.524	498.81
318.753	477.81
318.983	483.81
319.212	456.81
319.441	490.81
319.67	505.81
319.9	493.81
320.129	486.81
320.358	473.81
320.587	504.81
320.816	505.81
321.046	497.81
321.275	524.81
321.504	509.81
321.733	519.81
321.962	489.81
322.191	505.81
322.42	499.81
322.649	497.81
322.878	502.81
323.108	500.81
323.337	504.81
323.566	510.81
323.795	522.81
324.024	513.81
324.253	511.81
324.482	523.81
324.71	504.81
324.939	527.81
325.168	504.81
325.397	502.81
325.626	527.81
325.855	518.81
326.084	533.81
326.313	538.81
326.542	545.81
326.77	541.81
326.999	561.81
327.228	549.81
327.457	532.81
327.686	547.81
327.914	535.81
328.143	556.81
328.372	526.81
328.6	549.81
328.829	551.81
329.058	555.81
329.287	548.81
329.515	554.81
329.744	532.81
329.972	541.81
330.201	540.81
330.43	576.81
330.658	583.81
330.887	580.81
331.115	566.81
331.344	585.81
331.572	560.81
331.801	594.81
332.03	590.81
332.258	630.81
332.486	651.81
332.715	674.81
332.943	680.81
333.172	725.81
333.4	760.81
333.629	762.81
333.857	758.81
334.085	718.81
334.314	741.81
334.542	700.81
334.771	699.81
334.999	676.81
335.227	707.81
335.455	675.81
335.684	656.81
335.912	660.81
336.14	666.81
336.369	679.81
336.597	665.81
336.825	682.81
337.053	666.81
337.281	636.81
337.51	628.81
337.738	625.81
337.966	629.81
338.194	606.81
338.422	615.81
338.65	610.81
338.878	611.81
339.106	595.81
339.334	594.81
339.562	604.81
339.79	596.81
340.018	606.81
340.246	568.81
340.474	566.81
340.702	584.81
340.93	582.81
341.158	570.81
341.386	598.81
341.614	564.81
341.842	568.81
342.07	559.81
342.298	567.81
342.526	590.81
342.754	593.81
342.981	577.81
343.209	564.81
343.437	596.81
343.665	643.81
343.893	698.81
344.12	731.81
344.348	669.81
344.576	646.81
344.804	610.81
345.031	621.81
345.259	584.81
345.487	597.81
345.714	574.81
345.942	565.81
346.17	583.81
346.397	596.81
346.625	555.81
346.853	564.81
347.08	561.81
347.308	557.81
347.535	563.81
347.763	585.81
347.99	579.81
348.218	572.81
348.445	567.81
348.673	572.81
348.9	551.81
349.128	565.81
349.355	554.81
349.583	543.81
349.81	561.81
350.037	557.81
350.265	528.81
350.492	555.81
350.72	548.81
350.947	533.81
351.174	553.81
351.402	545.81
351.629	545.81
351.856	516.81
352.083	541.81
352.311	533.81
352.538	526.81
352.765	523.81
352.992	532.81
353.22	548.81
353.447	535.81
353.674	542.81
353.901	544.81
354.128	557.81
354.355	532.81
354.583	534.81
354.81	549.81
355.037	551.81
355.264	524.81
355.491	532.81
355.718	551.81
355.945	545.81
356.172	553.81
356.399	526.81
356.626	566.81
356.853	571.81
357.08	533.81
357.307	521.81
357.534	544.81
357.761	544.81
357.988	552.81
358.215	550.81
358.441	525.81
358.668	538.81
358.895	539.81
359.122	537.81
359.349	554.81
359.576	550.81
359.802	536.81
360.029	550.81
360.256	541.81
360.483	531.81
360.709	539.81
360.936	543.81
361.163	526.81
361.39	547.81
361.616	540.81
361.843	552.81
362.07	532.81
362.296	538.81
362.523	536.81
362.749	539.81
362.976	549.81
363.203	531.81
363.429	519.81
363.656	515.81
363.882	535.81
364.109	540.81
364.335	541.81
364.562	513.81
364.788	526.81
365.015	546.81
365.241	533.81
365.468	529.81
365.694	534.81
365.92	525.81
366.147	521.81
366.373	532.81
366.599	535.81
366.826	553.81
367.052	557.81
367.278	563.81
367.505	539.81
367.731	543.81
367.957	543.81
368.184	547.81
368.41	548.81
368.636	563.81
368.862	551.81
369.089	561.81
369.315	550.81
369.541	549.81
369.767	555.81
369.993	542.81
370.219	583.81
370.445	594.81
370.672	572.81
370.898	561.81
371.124	553.81
371.35	580.81
371.576	583.81
371.802	572.81
372.028	595.81
372.254	585.81
372.48	595.81
372.706	599.81
372.932	599.81
373.158	601.81
373.384	582.81
373.61	566.81
373.835	578.81
374.061	572.81
374.287	598.81
374.513	620.81
374.739	621.81
374.965	652.81
375.191	654.81
375.416	649.81
375.642	625.81
375.868	626.81
376.094	612.81
376.319	603.81
376.545	591.81
376.771	601.81
376.997	588.81
377.222	573.81
377.448	590.81
377.674	590.81
377.899	582.81
378.125	596.81
378.35	561.81
378.576	582.81
378.802	564.81
379.027	571.81
379.253	573.81
379.478	556.81
379.704	570.81
379.929	573.81
380.155	581.81
380.38	563.81
380.606	572.81
380.831	570.81
381.057	586.81
381.282	594.81
381.507	578.81
381.733	583.81
381.958	587.81
382.184	593.81
382.409	574.81
382.634	596.81
382.86	594.81
383.085	631.81
383.31	634.81
383.535	647.81
383.761	668.81
383.986	650.81
384.211	681.81
384.436	675.81
384.662	692.81
384.887	685.81
385.112	703.81
385.337	715.81
385.562	711.81
385.787	690.81
386.013	708.81
386.238	705.81
386.463	690.81
386.688	697.81
386.913	664.81
387.138	678.81
387.363	684.81
387.588	662.81
387.813	681.81
388.038	687.81
388.263	708.81
388.488	703.81
388.713	698.81
388.938	712.81
389.163	663.81
389.387	681.81
389.612	686.81
389.837	664.81
390.062	673.81
390.287	665.81
390.512	695.81
390.736	686.81
390.961	693.81
391.186	708.81
391.411	736.81
391.636	716.81
391.86	771.81
392.085	801.81
392.31	751.81
392.534	771.81
392.759	748.81
392.984	723.81
393.208	718.81
393.433	739.81
393.658	730.81
393.882	758.81
394.107	767.81
394.331	775.81
394.556	732.81
394.78	733.81
395.005	744.81
395.229	763.81
395.454	783.81
395.678	778.81
395.903	783.81
396.127	746.81
396.352	739.81
396.576	753.81
396.801	738.81
397.025	759.81
397.249	746.81
397.474	795.81
397.698	773.81
397.922	787.81
398.147	771.81
398.371	791.81
398.595	811.81
398.82	846.81
399.044	926.81
399.268	1014.81
399.492	1196.81
399.717	1347.81
399.941	1315.81
400.165	1161.81
400.389	1027.81
400.613	957.81
400.837	898.81
401.062	870.81
401.286	851.81
401.51	838.81
401.734	846.81
401.958	859.81
402.182	897.81
402.406	901.81
402.63	902.81
402.854	940.81
403.078	919.81
403.302	941.81
403.526	995.81
403.75	1025.81
403.974	1020.81
404.198	1027.81
404.422	1030.81
404.645	996.81
404.869	992.81
405.093	972.81
405.317	974.81
405.541	1000.81
405.765	950.81
405.988	941.81
406.212	930.81
406.436	926.81
406.66	961.81
406.883	975.81
407.107	1077.81
407.331	1112.81
407.555	1167.81
407.778	1148.81
408.002	1084.81
408.226	1081.81
408.449	1036.81
408.673	998.81
408.896	974.81
409.12	972.81
409.344	970.81
409.567	939.81
409.791	959.81
410.014	984.81
410.238	992.81
410.461	978.81
410.685	963.81
410.908	965.81
411.132	925.81
411.355	915.81
411.578	930.81
411.802	898.81
412.025	894.81
412.249	905.81
412.472	886.81
412.695	888.81
412.919	858.81
413.142	873.81
413.365	858.81
413.589	859.81
413.812	866.81
414.035	860.81
414.258	834.81
414.482	860.81
414.705	861.81
414.928	881.81
415.151	897.81
415.374	894.81
415.597	855.81
415.821	847.81
416.044	834.81
416.267	854.81
416.49	842.81
416.713	839.81
416.936	842.81
417.159	848.81
417.382	837.81
417.605	837.81
417.828	841.81
418.051	858.81
418.274	870.81
418.497	871.81
418.72	909.81
418.943	893.81
419.166	939.81
419.389	975.81
419.611	975.81
419.834	937.81
420.057	939.81
420.28	874.81
420.503	870.81
420.726	850.81
420.948	846.81
421.171	859.81
421.394	860.81
421.617	859.81
421.839	867.81
422.062	883.81
422.285	831.81
422.507	911.81
422.73	896.81
422.953	901.81
423.175	895.81
423.398	945.81
423.621	905.81
423.843	921.81
424.066	927.81
424.288	927.81
424.511	930.81
424.733	928.81
424.956	894.81
425.178	919.81
425.401	846.81
425.623	870.81
425.846	843.81
426.068	847.81
426.291	852.81
426.513	831.81
426.735	823.81
426.958	805.81
427.18	807.81
427.402	818.81
427.625	783.81
427.847	757.81
428.069	782.81
428.292	766.81
428.514	746.81
428.736	734.81
428.958	767.81
429.181	758.81
429.403	777.81
429.625	770.81
429.847	760.81
430.069	773.81
430.292	778.81
430.514	755.81
430.736	759.81
430.958	776.81
431.18	756.81
431.402	780.81
431.624	762.81
431.846	773.81
432.068	791.81
432.29	791.81
432.512	774.81
432.734	799.81
432.956	761.81
433.178	773.81
433.4	778.81
433.622	774.81
433.844	773.81
434.066	782.81
434.287	800.81
434.509	819.81
434.731	829.81
434.953	867.81
435.175	925.81
435.397	858.81
435.618	826.81
435.84	806.81
436.062	789.81
436.284	787.81
436.505	764.81
436.727	764.81
436.949	783.81
437.17	780.81
437.392	731.81
437.614	738.81
437.835	719.81
438.057	746.81
438.278	752.81
438.5	732.81
438.721	718.81
438.943	730.81
439.165	749.81
439.386	745.81
439.608	772.81
439.829	763.81
440.05	779.81
440.272	789.81
440.493	783.81
440.715	808.81
440.936	790.81
441.158	826.81
441.379	850.81
441.6	886.81
441.822	894.81
442.043	897.81
442.264	881.81
442.486	863.81
442.707	862.81
442.928	859.81
443.149	840.81
443.371	851.81
443.592	861.81
443.813	860.81
444.034	893.81
444.255	914.81
444.476	933.81
444.698	1013.81
444.919	1056.81
445.14	1114.81
445.361	1003.81
445.582	895.81
445.803	857.81
446.024	792.81
446.245	803.81
446.466	799.81
446.687	787.81
446.908	809.81
447.129	788.81
447.35	759.81
447.571	751.81
447.792	727.81
448.013	746.81
448.234	739.81
448.455	729.81
448.675	702.81
448.896	699.81
449.117	725.81
449.338	703.81
449.559	712.81
449.779	691.81
450	712.81
450.221	706.81
450.442	718.81
450.662	703.81
450.883	709.81
451.104	754.81
451.324	766.81
451.545	734.81
451.766	724.81
451.986	719.81
452.207	718.81
452.428	711.81
452.648	698.81
452.869	730.81
453.089	698.81
453.31	695.81
453.53	701.81
453.751	693.81
453.971	702.81
454.192	692.81
454.412	676.81
454.633	691.81
454.853	685.81
455.073	651.81
455.294	677.81
455.514	674.81
455.734	670.81
455.955	661.81
456.175	677.81
456.395	672.81
456.616	662.81
456.836	681.81
457.056	678.81
457.276	650.81
457.497	650.81
457.717	652.81
457.937	674.81
458.157	667.81
458.377	656.81
458.598	694.81
458.818	723.81
459.038	725.81
459.258	744.81
459.478	781.81
459.698	799.81
459.918	825.81
460.138	876.81
460.358	897.81
460.578	943.81
460.798	902.81
461.018	931.81
461.238	896.81
461.458	892.81
461.678	901.81
461.898	922.81
462.118	909.81
462.338	967.81
462.558	1000.81
462.777	1027.81
462.997	1114.81
463.217	1255.81
463.437	1273.81
463.657	1135.81
463.876	1065.81
464.096	1052.81
464.316	1033.81
464.536	1087.81
464.755	1026.81
464.975	1013.81
465.195	964.81
465.414	901.81
465.634	839.81
465.854	822.81
466.073	788.81
466.293	775.81
466.512	760.81
466.732	745.81
466.951	750.81
467.171	757.81
467.391	724.81
467.61	766.81
467.829	746.81
468.049	738.81
468.268	700.81
468.488	711.81
468.707	684.81
468.927	724.81
469.146	696.81
469.365	725.81
469.585	727.81
469.804	786.81
470.023	760.81
470.243	780.81
470.462	784.81
470.681	779.81
470.901	768.81
471.12	778.81
471.339	738.81
471.558	707.81
471.777	743.81
471.997	705.81
472.216	687.81
472.435	690.81
472.654	685.81
472.873	693.81
473.092	694.81
473.311	701.81
473.53	714.81
473.749	695.81
473.968	693.81
474.187	689.81
474.406	661.81
474.625	666.81
474.844	678.81
475.063	695.81
475.282	679.81
475.501	695.81
475.72	708.81
475.939	710.81
476.158	711.81
476.377	700.81
476.596	740.81
476.814	741.81
477.033	738.81
477.252	731.81
477.471	773.81
477.69	753.81
477.908	783.81
478.127	826.81
478.346	835.81
478.564	853.81
478.783	841.81
479.002	850.81
479.22	885.81
479.439	868.81
479.658	877.81
479.876	828.81
480.095	875.81
480.313	908.81
480.532	957.81
480.751	940.81
480.969	875.81
481.188	867.81
481.406	816.81
481.624	802.81
481.843	782.81
482.061	773.81
482.28	789.81
482.498	792.81
482.717	769.81
482.935	781.81
483.153	791.81
483.372	788.81
483.59	815.81
483.808	795.81
484.027	804.81
484.245	805.81
484.463	799.81
484.681	789.81
484.9	774.81
485.118	798.81
485.336	791.81
485.554	820.81
485.772	862.81
485.99	811.81
486.209	853.81
486.427	837.81
486.645	822.81
486.863	846.81
487.081	845.81
487.299	818.81
487.517	803.81
487.735	817.81
487.953	841.81
488.171	851.81
488.389	833.81
488.607	817.81
488.825	820.81
489.043	798.81
489.261	836.81
489.479	846.81
489.696	846.81
489.914	838.81
490.132	829.81
490.35	830.81
490.568	833.81
490.786	819.81
491.003	820.81
491.221	836.81
491.439	830.81
491.657	818.81
491.874	831.81
492.092	830.81
492.31	862.81
492.527	858.81
492.745	834.81
492.963	854.81
493.18	858.81
493.398	857.81
493.615	863.81
493.833	850.81
494.05	890.81
494.268	888.81
494.485	865.81
494.703	893.81
494.92	882.81
495.138	867.81
495.355	858.81
495.573	872.81
495.79	867.81
496.008	882.81
496.225	895.81
496.442	894.81
496.66	920.81
496.877	922.81
497.094	926.81
497.312	916.81
497.529	945.81
497.746	986.81
497.963	1036.81
498.181	1012.81
498.398	1104.81
498.615	1163.81
498.832	1222.81
499.049	1329.81
499.267	1421.81
499.484	1574.81
499.701	1729.81
499.918	1905.81
500.135	2254.81
500.352	2559.81
500.569	2707.81
500.786	2707.81
501.003	2448.81
