Data from Ni(NO3)2@0.125M.TitratingCurve.Agarose3%dH2O.NegLispCup.LampEnergy10.LIBS07252019_HRD10591_18-11-17-567.txt Node
Date: Thu Jul 25 18:11:17 EDT 2019
User: cochatt
Spectrometer: HR+D1059
Trigger mode: 1
Integration Time (sec): 1.000000E-1
Scans to average: 1
Electric dark correction enabled: true
Nonlinearity correction enabled: false
Boxcar width: 0
XAxis mode: Wavelengths
Number of Pixels in Spectrum: 2048
>>>>>Begin Spectral Data<<<<<
223.165	-20.25
223.4	-20.25
223.635	-20.25
223.869	-16.25
224.104	-16.25
224.338	-12.25
224.573	-5.25
224.808	-7.25
225.042	-17.25
225.277	-4.25
225.511	-10.25
225.746	11.75
225.98	0.75
226.215	21.75
226.449	15.75
226.683	20.75
226.918	14.75
227.152	23.75
227.387	40.75
227.621	30.75
227.856	29.75
228.09	41.75
228.324	70.75
228.559	57.75
228.793	67.75
229.027	99.75
229.262	107.75
229.496	120.75
229.73	129.75
229.964	125.75
230.199	129.75
230.433	119.75
230.667	123.75
230.901	130.75
231.136	122.75
231.37	146.75
231.604	140.75
231.838	145.75
232.072	134.75
232.306	139.75
232.541	140.75
232.775	149.75
233.009	138.75
233.243	142.75
233.477	153.75
233.711	160.75
233.945	165.75
234.179	135.75
234.413	151.75
234.647	144.75
234.881	144.75
235.115	145.75
235.349	149.75
235.583	152.75
235.817	158.75
236.051	153.75
236.285	159.75
236.519	167.75
236.753	147.75
236.987	159.75
237.221	153.75
237.455	170.75
237.689	170.75
237.922	159.75
238.156	148.75
238.39	161.75
238.624	158.75
238.858	154.75
239.091	160.75
239.325	163.75
239.559	169.75
239.793	174.75
240.027	175.75
240.26	175.75
240.494	186.75
240.728	171.75
240.961	173.75
241.195	188.75
241.429	179.75
241.662	192.75
241.896	193.75
242.13	182.75
242.363	188.75
242.597	191.75
242.83	208.75
243.064	193.75
243.298	197.75
243.531	214.75
243.765	196.75
243.998	214.75
244.232	213.75
244.465	189.75
244.699	213.75
244.932	208.75
245.166	213.75
245.399	221.75
245.633	207.75
245.866	223.75
246.099	209.75
246.333	220.75
246.566	215.75
246.8	218.75
247.033	209.75
247.266	232.75
247.5	221.75
247.733	231.75
247.966	232.75
248.2	234.75
248.433	236.75
248.666	235.75
248.899	223.75
249.133	220.75
249.366	235.75
249.599	234.75
249.832	242.75
250.066	238.75
250.299	239.75
250.532	260.75
250.765	268.75
250.998	270.75
251.231	249.75
251.465	244.75
251.698	240.75
251.931	258.75
252.164	258.75
252.397	268.75
252.63	266.75
252.863	262.75
253.096	280.75
253.329	270.75
253.562	264.75
253.795	267.75
254.028	272.75
254.261	264.75
254.494	279.75
254.727	273.75
254.96	276.75
255.193	256.75
255.426	269.75
255.659	265.75
255.892	274.75
256.124	281.75
256.357	271.75
256.59	295.75
256.823	288.75
257.056	284.75
257.289	281.75
257.521	273.75
257.754	300.75
257.987	297.75
258.22	291.75
258.452	273.75
258.685	311.75
258.918	296.75
259.151	310.75
259.383	296.75
259.616	295.75
259.849	312.75
260.081	301.75
260.314	311.75
260.547	320.75
260.779	314.75
261.012	309.75
261.244	302.75
261.477	319.75
261.71	326.75
261.942	313.75
262.175	319.75
262.407	332.75
262.64	323.75
262.872	304.75
263.105	329.75
263.337	333.75
263.57	343.75
263.802	322.75
264.035	336.75
264.267	333.75
264.499	337.75
264.732	351.75
264.964	343.75
265.197	352.75
265.429	359.75
265.661	342.75
265.894	352.75
266.126	345.75
266.358	342.75
266.591	353.75
266.823	353.75
267.055	333.75
267.287	359.75
267.52	362.75
267.752	356.75
267.984	375.75
268.216	360.75
268.448	360.75
268.681	373.75
268.913	357.75
269.145	359.75
269.377	381.75
269.609	364.75
269.841	348.75
270.073	340.75
270.306	363.75
270.538	379.75
270.77	366.75
271.002	373.75
271.234	373.75
271.466	373.75
271.698	383.75
271.93	382.75
272.162	380.75
272.394	385.75
272.626	362.75
272.858	373.75
273.09	399.75
273.322	409.75
273.553	387.75
273.785	405.75
274.017	395.75
274.249	366.75
274.481	396.75
274.713	376.75
274.945	406.75
275.176	419.75
275.408	401.75
275.64	409.75
275.872	391.75
276.104	412.75
276.335	397.75
276.567	389.75
276.799	396.75
277.031	393.75
277.262	391.75
277.494	401.75
277.726	422.75
277.957	415.75
278.189	423.75
278.421	413.75
278.652	391.75
278.884	427.75
279.115	414.75
279.347	443.75
279.579	432.75
279.81	441.75
280.042	409.75
280.273	415.75
280.505	428.75
280.736	448.75
280.968	435.75
281.199	451.75
281.431	439.75
281.662	450.75
281.894	419.75
282.125	440.75
282.356	453.75
282.588	461.75
282.819	458.75
283.051	463.75
283.282	456.75
283.513	458.75
283.745	459.75
283.976	463.75
284.207	476.75
284.439	488.75
284.67	483.75
284.901	474.75
285.132	475.75
285.364	478.75
285.595	473.75
285.826	494.75
286.057	472.75
286.288	489.75
286.52	478.75
286.751	487.75
286.982	481.75
287.213	501.75
287.444	481.75
287.675	499.75
287.906	516.75
288.138	479.75
288.369	508.75
288.6	511.75
288.831	491.75
289.062	498.75
289.293	514.75
289.524	501.75
289.755	491.75
289.986	524.75
290.217	488.75
290.448	524.75
290.679	521.75
290.91	515.75
291.141	501.75
291.371	530.75
291.602	523.75
291.833	511.75
292.064	508.75
292.295	489.75
292.526	500.75
292.757	518.75
292.987	477.75
293.218	505.75
293.449	535.75
293.68	521.75
293.91	525.75
294.141	512.75
294.372	507.75
294.603	518.75
294.833	524.75
295.064	521.75
295.295	546.75
295.525	525.75
295.756	547.75
295.987	515.75
296.217	541.75
296.448	545.75
296.679	550.75
296.909	509.75
297.14	529.75
297.37	544.75
297.601	548.75
297.831	541.75
298.062	547.75
298.292	563.75
298.523	572.75
298.753	567.75
298.984	545.75
299.214	576.75
299.445	573.75
299.675	539.75
299.905	566.75
300.136	570.75
300.366	559.75
300.597	561.75
300.827	568.75
301.057	569.75
301.288	567.75
301.518	600.75
301.748	585.75
301.979	577.75
302.209	584.75
302.439	588.75
302.669	584.75
302.9	589.75
303.13	577.75
303.36	575.75
303.59	576.75
303.82	575.75
304.051	569.75
304.281	563.75
304.511	573.75
304.741	567.75
304.971	574.75
305.201	558.75
305.431	583.75
305.661	584.75
305.891	576.75
306.121	573.75
306.352	563.75
306.582	561.75
306.812	572.75
307.042	556.75
307.272	552.75
307.502	549.75
307.731	560.75
307.961	574.75
308.191	560.75
308.421	569.75
308.651	565.75
308.881	556.75
309.111	565.75
309.341	561.75
309.571	582.75
309.8	567.75
310.03	572.75
310.26	560.75
310.49	583.75
310.72	576.75
310.949	555.75
311.179	567.75
311.409	592.75
311.639	598.75
311.868	594.75
312.098	583.75
312.328	583.75
312.557	582.75
312.787	599.75
313.017	593.75
313.246	572.75
313.476	599.75
313.706	622.75
313.935	606.75
314.165	624.75
314.394	628.75
314.624	597.75
314.853	599.75
315.083	612.75
315.312	620.75
315.542	606.75
315.771	605.75
316.001	595.75
316.23	613.75
316.46	597.75
316.689	608.75
316.919	600.75
317.148	601.75
317.377	612.75
317.607	584.75
317.836	601.75
318.065	619.75
318.295	611.75
318.524	583.75
318.753	581.75
318.983	602.75
319.212	593.75
319.441	590.75
319.67	616.75
319.9	593.75
320.129	609.75
320.358	608.75
320.587	630.75
320.816	620.75
321.046	595.75
321.275	612.75
321.504	614.75
321.733	628.75
321.962	610.75
322.191	606.75
322.42	593.75
322.649	618.75
322.878	621.75
323.108	605.75
323.337	627.75
323.566	631.75
323.795	631.75
324.024	641.75
324.253	607.75
324.482	629.75
324.71	637.75
324.939	630.75
325.168	631.75
325.397	640.75
325.626	647.75
325.855	634.75
326.084	661.75
326.313	655.75
326.542	677.75
326.77	699.75
326.999	657.75
327.228	641.75
327.457	644.75
327.686	641.75
327.914	666.75
328.143	670.75
328.372	677.75
328.6	681.75
328.829	662.75
329.058	667.75
329.287	658.75
329.515	675.75
329.744	685.75
329.972	688.75
330.201	682.75
330.43	695.75
330.658	709.75
330.887	643.75
331.115	667.75
331.344	709.75
331.572	707.75
331.801	712.75
332.03	754.75
332.258	784.75
332.486	785.75
332.715	792.75
332.943	837.75
333.172	873.75
333.4	900.75
333.629	921.75
333.857	926.75
334.085	893.75
334.314	911.75
334.542	876.75
334.771	863.75
334.999	851.75
335.227	854.75
335.455	829.75
335.684	851.75
335.912	821.75
336.14	798.75
336.369	823.75
336.597	817.75
336.825	812.75
337.053	814.75
337.281	761.75
337.51	762.75
337.738	766.75
337.966	752.75
338.194	757.75
338.422	739.75
338.65	729.75
338.878	718.75
339.106	728.75
339.334	739.75
339.562	707.75
339.79	699.75
340.018	683.75
340.246	676.75
340.474	699.75
340.702	670.75
340.93	698.75
341.158	722.75
341.386	729.75
341.614	705.75
341.842	697.75
342.07	696.75
342.298	706.75
342.526	682.75
342.754	678.75
342.981	691.75
343.209	710.75
343.437	762.75
343.665	785.75
343.893	861.75
344.12	887.75
344.348	841.75
344.576	816.75
344.804	757.75
345.031	736.75
345.259	719.75
345.487	715.75
345.714	705.75
345.942	714.75
346.17	693.75
346.397	695.75
346.625	664.75
346.853	670.75
347.08	681.75
347.308	687.75
347.535	670.75
347.763	691.75
347.99	683.75
348.218	676.75
348.445	688.75
348.673	700.75
348.9	683.75
349.128	688.75
349.355	675.75
349.583	661.75
349.81	650.75
350.037	658.75
350.265	673.75
350.492	678.75
350.72	656.75
350.947	655.75
351.174	659.75
351.402	637.75
351.629	659.75
351.856	645.75
352.083	643.75
352.311	670.75
352.538	650.75
352.765	641.75
352.992	647.75
353.22	656.75
353.447	645.75
353.674	650.75
353.901	671.75
354.128	644.75
354.355	632.75
354.583	662.75
354.81	663.75
355.037	678.75
355.264	623.75
355.491	649.75
355.718	667.75
355.945	669.75
356.172	637.75
356.399	644.75
356.626	636.75
356.853	654.75
357.08	644.75
357.307	664.75
357.534	685.75
357.761	631.75
357.988	655.75
358.215	663.75
358.441	649.75
358.668	636.75
358.895	691.75
359.122	659.75
359.349	653.75
359.576	666.75
359.802	655.75
360.029	635.75
360.256	660.75
360.483	638.75
360.709	660.75
360.936	657.75
361.163	633.75
361.39	672.75
361.616	637.75
361.843	667.75
362.07	649.75
362.296	657.75
362.523	655.75
362.749	654.75
362.976	653.75
363.203	666.75
363.429	653.75
363.656	642.75
363.882	656.75
364.109	652.75
364.335	655.75
364.562	663.75
364.788	655.75
365.015	656.75
365.241	631.75
365.468	635.75
365.694	643.75
365.92	659.75
366.147	616.75
366.373	649.75
366.599	657.75
366.826	652.75
367.052	672.75
367.278	659.75
367.505	659.75
367.731	684.75
367.957	655.75
368.184	654.75
368.41	672.75
368.636	670.75
368.862	661.75
369.089	659.75
369.315	675.75
369.541	651.75
369.767	656.75
369.993	675.75
370.219	636.75
370.445	699.75
370.672	693.75
370.898	685.75
371.124	716.75
371.35	721.75
371.576	707.75
371.802	709.75
372.028	684.75
372.254	699.75
372.48	710.75
372.706	724.75
372.932	749.75
373.158	734.75
373.384	744.75
373.61	726.75
373.835	717.75
374.061	720.75
374.287	719.75
374.513	741.75
374.739	747.75
374.965	748.75
375.191	830.75
375.416	805.75
375.642	772.75
375.868	761.75
376.094	739.75
376.319	737.75
376.545	712.75
376.771	715.75
376.997	694.75
377.222	709.75
377.448	718.75
377.674	695.75
377.899	693.75
378.125	701.75
378.35	703.75
378.576	727.75
378.802	716.75
379.027	695.75
379.253	692.75
379.478	691.75
379.704	695.75
379.929	697.75
380.155	688.75
380.38	686.75
380.606	691.75
380.831	712.75
381.057	720.75
381.282	709.75
381.507	715.75
381.733	728.75
381.958	725.75
382.184	716.75
382.409	715.75
382.634	736.75
382.86	779.75
383.085	758.75
383.31	759.75
383.535	792.75
383.761	816.75
383.986	815.75
384.211	832.75
384.436	831.75
384.662	863.75
384.887	869.75
385.112	876.75
385.337	840.75
385.562	843.75
385.787	854.75
386.013	849.75
386.238	859.75
386.463	872.75
386.688	878.75
386.913	839.75
387.138	844.75
387.363	815.75
387.588	812.75
387.813	821.75
388.038	836.75
388.263	844.75
388.488	839.75
388.713	831.75
388.938	805.75
389.163	823.75
389.387	831.75
389.612	843.75
389.837	859.75
390.062	826.75
390.287	862.75
390.512	814.75
390.736	841.75
390.961	864.75
391.186	888.75
391.411	900.75
391.636	936.75
391.86	941.75
392.085	992.75
392.31	969.75
392.534	913.75
392.759	942.75
392.984	908.75
393.208	901.75
393.433	900.75
393.658	917.75
393.882	910.75
394.107	899.75
394.331	903.75
394.556	872.75
394.78	907.75
395.005	929.75
395.229	922.75
395.454	923.75
395.678	963.75
395.903	940.75
396.127	957.75
396.352	887.75
396.576	888.75
396.801	898.75
397.025	874.75
397.249	923.75
397.474	947.75
397.698	943.75
397.922	942.75
398.147	938.75
398.371	963.75
398.595	997.75
398.82	1047.75
399.044	1095.75
399.268	1251.75
399.492	1478.75
399.717	1681.75
399.941	1664.75
400.165	1444.75
400.389	1285.75
400.613	1157.75
400.837	1100.75
401.062	1068.75
401.286	1055.75
401.51	1056.75
401.734	1054.75
401.958	1095.75
402.182	1064.75
402.406	1093.75
402.63	1134.75
402.854	1159.75
403.078	1175.75
403.302	1209.75
403.526	1192.75
403.75	1220.75
403.974	1265.75
404.198	1284.75
404.422	1279.75
404.645	1275.75
404.869	1233.75
405.093	1221.75
405.317	1180.75
405.541	1181.75
405.765	1191.75
405.988	1174.75
406.212	1188.75
406.436	1159.75
406.66	1206.75
406.883	1210.75
407.107	1299.75
407.331	1373.75
407.555	1375.75
407.778	1367.75
408.002	1347.75
408.226	1292.75
408.449	1279.75
408.673	1214.75
408.896	1185.75
409.12	1212.75
409.344	1221.75
409.567	1203.75
409.791	1214.75
410.014	1224.75
410.238	1225.75
410.461	1226.75
410.685	1189.75
410.908	1173.75
411.132	1168.75
411.355	1112.75
411.578	1110.75
411.802	1096.75
412.025	1109.75
412.249	1173.75
412.472	1172.75
412.695	1097.75
412.919	1065.75
413.142	1047.75
413.365	1035.75
413.589	1080.75
413.812	1068.75
414.035	1056.75
414.258	1054.75
414.482	1079.75
414.705	1095.75
414.928	1102.75
415.151	1084.75
415.374	1047.75
415.597	1065.75
415.821	1009.75
416.044	1048.75
416.267	1007.75
416.49	1023.75
416.713	1057.75
416.936	1059.75
417.159	1038.75
417.382	1021.75
417.605	1052.75
417.828	1072.75
418.051	1055.75
418.274	1043.75
418.497	1053.75
418.72	1099.75
418.943	1091.75
419.166	1127.75
419.389	1244.75
419.611	1175.75
419.834	1155.75
420.057	1104.75
420.28	1099.75
420.503	1007.75
420.726	1030.75
420.948	1058.75
421.171	1059.75
421.394	1015.75
421.617	1055.75
421.839	1016.75
422.062	1083.75
422.285	1037.75
422.507	1087.75
422.73	1064.75
422.953	1096.75
423.175	1099.75
423.398	1147.75
423.621	1113.75
423.843	1132.75
424.066	1137.75
424.288	1112.75
424.511	1102.75
424.733	1117.75
424.956	1091.75
425.178	1098.75
425.401	1053.75
425.623	1057.75
425.846	1027.75
426.068	1020.75
426.291	1014.75
426.513	982.75
426.735	959.75
426.958	964.75
427.18	971.75
427.402	950.75
427.625	943.75
427.847	933.75
428.069	907.75
428.292	973.75
428.514	939.75
428.736	938.75
428.958	929.75
429.181	930.75
429.403	898.75
429.625	931.75
429.847	907.75
430.069	908.75
430.292	948.75
430.514	896.75
430.736	907.75
430.958	911.75
431.18	893.75
431.402	884.75
431.624	915.75
431.846	943.75
432.068	920.75
432.29	955.75
432.512	939.75
432.734	937.75
432.956	923.75
433.178	937.75
433.4	940.75
433.622	992.75
433.844	941.75
434.066	962.75
434.287	961.75
434.509	1006.75
434.731	1032.75
434.953	1054.75
435.175	1059.75
435.397	1035.75
435.618	1000.75
435.84	952.75
436.062	932.75
436.284	933.75
436.505	929.75
436.727	935.75
436.949	921.75
437.17	936.75
437.392	960.75
437.614	941.75
437.835	898.75
438.057	925.75
438.278	907.75
438.5	887.75
438.721	881.75
438.943	917.75
439.165	885.75
439.386	926.75
439.608	925.75
439.829	923.75
440.05	913.75
440.272	924.75
440.493	951.75
440.715	978.75
440.936	1005.75
441.158	973.75
441.379	1003.75
441.6	1067.75
441.822	1082.75
442.043	1084.75
442.264	1079.75
442.486	1016.75
442.707	1048.75
442.928	1030.75
443.149	1067.75
443.371	1047.75
443.592	1037.75
443.813	1078.75
444.034	1064.75
444.255	1132.75
444.476	1169.75
444.698	1234.75
444.919	1323.75
445.14	1356.75
445.361	1205.75
445.582	1111.75
445.803	1023.75
446.024	990.75
446.245	1008.75
446.466	995.75
446.687	935.75
446.908	929.75
447.129	931.75
447.35	902.75
447.571	927.75
447.792	899.75
448.013	857.75
448.234	891.75
448.455	880.75
448.675	856.75
448.896	896.75
449.117	851.75
449.338	870.75
449.559	850.75
449.779	856.75
450	840.75
450.221	870.75
450.442	879.75
450.662	896.75
450.883	907.75
451.104	918.75
451.324	865.75
451.545	875.75
451.766	889.75
451.986	886.75
452.207	850.75
452.428	865.75
452.648	859.75
452.869	850.75
453.089	845.75
453.31	854.75
453.53	840.75
453.751	862.75
453.971	828.75
454.192	830.75
454.412	799.75
454.633	816.75
454.853	823.75
455.073	781.75
455.294	828.75
455.514	816.75
455.734	821.75
455.955	782.75
456.175	789.75
456.395	806.75
456.616	791.75
456.836	811.75
457.056	803.75
457.276	796.75
457.497	798.75
457.717	793.75
457.937	812.75
458.157	799.75
458.377	816.75
458.598	817.75
458.818	845.75
459.038	887.75
459.258	878.75
459.478	943.75
459.698	959.75
459.918	1000.75
460.138	1045.75
460.358	1127.75
460.578	1111.75
460.798	1154.75
461.018	1149.75
461.238	1063.75
461.458	1095.75
461.678	1094.75
461.898	1104.75
462.118	1104.75
462.338	1180.75
462.558	1221.75
462.777	1230.75
462.997	1373.75
463.217	1507.75
463.437	1536.75
463.657	1365.75
463.876	1244.75
464.096	1284.75
464.316	1282.75
464.536	1328.75
464.755	1239.75
464.975	1198.75
465.195	1141.75
465.414	1071.75
465.634	1012.75
465.854	948.75
466.073	941.75
466.293	940.75
466.512	933.75
466.732	915.75
466.951	899.75
467.171	895.75
467.391	909.75
467.61	927.75
467.829	883.75
468.049	883.75
468.268	848.75
468.488	867.75
468.707	851.75
468.927	844.75
469.146	836.75
469.365	861.75
469.585	877.75
469.804	868.75
470.023	927.75
470.243	923.75
470.462	908.75
470.681	915.75
470.901	937.75
471.12	920.75
471.339	926.75
471.558	881.75
471.777	860.75
471.997	841.75
472.216	855.75
472.435	845.75
472.654	839.75
472.873	816.75
473.092	817.75
473.311	806.75
473.53	841.75
473.749	808.75
473.968	852.75
474.187	822.75
474.406	802.75
474.625	801.75
474.844	840.75
475.063	861.75
475.282	851.75
475.501	832.75
475.72	859.75
475.939	853.75
476.158	862.75
476.377	862.75
476.596	856.75
476.814	867.75
477.033	893.75
477.252	903.75
477.471	921.75
477.69	927.75
477.908	973.75
478.127	1016.75
478.346	1001.75
478.564	1004.75
478.783	1027.75
479.002	1072.75
479.22	1063.75
479.439	1027.75
479.658	1034.75
479.876	1053.75
480.095	1042.75
480.313	1088.75
480.532	1149.75
480.751	1144.75
480.969	1068.75
481.188	1027.75
481.406	1022.75
481.624	992.75
481.843	937.75
482.061	942.75
482.28	970.75
482.498	937.75
482.717	923.75
482.935	936.75
483.153	959.75
483.372	963.75
483.59	920.75
483.808	934.75
484.027	949.75
484.245	956.75
484.463	976.75
484.681	973.75
484.9	989.75
485.118	985.75
485.336	979.75
485.554	998.75
485.772	1002.75
485.99	1020.75
486.209	1006.75
486.427	1023.75
486.645	1033.75
486.863	1012.75
487.081	1003.75
487.299	1019.75
487.517	983.75
487.735	1016.75
487.953	1027.75
488.171	978.75
488.389	989.75
488.607	1008.75
488.825	990.75
489.043	989.75
489.261	982.75
489.479	992.75
489.696	987.75
489.914	1004.75
490.132	1022.75
490.35	1000.75
490.568	989.75
490.786	990.75
491.003	1007.75
491.221	1000.75
491.439	1045.75
491.657	998.75
491.874	993.75
492.092	989.75
492.31	999.75
492.527	1031.75
492.745	1023.75
492.963	1040.75
493.18	1015.75
493.398	1040.75
493.615	1041.75
493.833	1039.75
494.05	1031.75
494.268	1035.75
494.485	1061.75
494.703	1067.75
494.92	1054.75
495.138	1024.75
495.355	1073.75
495.573	1031.75
495.79	1045.75
496.008	1060.75
496.225	1069.75
496.442	1063.75
496.66	1102.75
496.877	1110.75
497.094	1089.75
497.312	1121.75
497.529	1161.75
497.746	1183.75
497.963	1237.75
498.181	1273.75
