Data from Ni(NO3)2@0.125M.TitratingCurve.Agarose3%dH2O.NegLispCup.LampEnergy10.LIBS07252019_HRD10591_18-11-00-568.txt Node
Date: Thu Jul 25 18:11:00 EDT 2019
User: cochatt
Spectrometer: HR+D1059
Trigger mode: 1
Integration Time (sec): 1.000000E-1
Scans to average: 1
Electric dark correction enabled: true
Nonlinearity correction enabled: false
Boxcar width: 0
XAxis mode: Wavelengths
Number of Pixels in Spectrum: 2048
>>>>>Begin Spectral Data<<<<<
223.165	-6
223.4	-6
223.635	-6
223.869	-8
224.104	-21
224.338	-13
224.573	-24
224.808	-22
225.042	-14
225.277	13
225.511	-10
225.746	3
225.98	5
226.215	9
226.449	16
226.683	20
226.918	33
227.152	19
227.387	37
227.621	42
227.856	55
228.09	56
228.324	55
228.559	41
228.793	78
229.027	102
229.262	102
229.496	112
229.73	108
229.964	121
230.199	129
230.433	112
230.667	126
230.901	116
231.136	144
231.37	127
231.604	120
231.838	127
232.072	144
232.306	142
232.541	137
232.775	130
233.009	133
233.243	144
233.477	146
233.711	155
233.945	139
234.179	142
234.413	143
234.647	142
234.881	137
235.115	145
235.349	138
235.583	149
235.817	141
236.051	144
236.285	147
236.519	139
236.753	159
236.987	154
237.221	138
237.455	151
237.689	157
237.922	154
238.156	164
238.39	162
238.624	162
238.858	168
239.091	152
239.325	155
239.559	145
239.793	159
240.027	172
240.26	165
240.494	160
240.728	168
240.961	185
241.195	169
241.429	170
241.662	176
241.896	167
242.13	179
242.363	184
242.597	178
242.83	165
243.064	184
243.298	183
243.531	197
243.765	199
243.998	187
244.232	186
244.465	182
244.699	187
244.932	193
245.166	200
245.399	207
245.633	196
245.866	207
246.099	203
246.333	203
246.566	227
246.8	204
247.033	203
247.266	181
247.5	198
247.733	197
247.966	220
248.2	226
248.433	204
248.666	202
248.899	233
249.133	231
249.366	225
249.599	229
249.832	228
250.066	240
250.299	232
250.532	234
250.765	232
250.998	213
251.231	219
251.465	243
251.698	231
251.931	235
252.164	245
252.397	248
252.63	249
252.863	240
253.096	229
253.329	247
253.562	252
253.795	267
254.028	257
254.261	270
254.494	243
254.727	250
254.96	275
255.193	250
255.426	258
255.659	290
255.892	268
256.124	274
256.357	266
256.59	260
256.823	263
257.056	283
257.289	263
257.521	277
257.754	274
257.987	284
258.22	306
258.452	284
258.685	276
258.918	266
259.151	290
259.383	288
259.616	274
259.849	290
260.081	293
260.314	304
260.547	280
260.779	313
261.012	308
261.244	307
261.477	307
261.71	307
261.942	295
262.175	298
262.407	285
262.64	281
262.872	304
263.105	298
263.337	315
263.57	319
263.802	308
264.035	306
264.267	324
264.499	328
264.732	314
264.964	313
265.197	299
265.429	323
265.661	330
265.894	323
266.126	321
266.358	310
266.591	330
266.823	318
267.055	326
267.287	354
267.52	328
267.752	332
267.984	319
268.216	330
268.448	331
268.681	347
268.913	332
269.145	346
269.377	336
269.609	323
269.841	335
270.073	340
270.306	350
270.538	356
270.77	341
271.002	353
271.234	358
271.466	344
271.698	350
271.93	338
272.162	349
272.394	359
272.626	377
272.858	371
273.09	372
273.322	348
273.553	352
273.785	359
274.017	360
274.249	371
274.481	367
274.713	368
274.945	383
275.176	370
275.408	378
275.64	378
275.872	372
276.104	383
276.335	403
276.567	386
276.799	380
277.031	378
277.262	391
277.494	397
277.726	381
277.957	390
278.189	374
278.421	418
278.652	399
278.884	397
279.115	398
279.347	408
279.579	420
279.81	385
280.042	395
280.273	414
280.505	401
280.736	408
280.968	412
281.199	419
281.431	437
281.662	426
281.894	422
282.125	409
282.356	397
282.588	429
282.819	434
283.051	433
283.282	419
283.513	435
283.745	440
283.976	437
284.207	433
284.439	422
284.67	439
284.901	460
285.132	434
285.364	431
285.595	434
285.826	445
286.057	459
286.288	457
286.52	461
286.751	465
286.982	431
287.213	456
287.444	471
287.675	454
287.906	479
288.138	452
288.369	465
288.6	471
288.831	460
289.062	447
289.293	467
289.524	486
289.755	477
289.986	462
290.217	460
290.448	480
290.679	470
290.91	479
291.141	480
291.371	480
291.602	482
291.833	499
292.064	477
292.295	462
292.526	465
292.757	470
292.987	483
293.218	489
293.449	479
293.68	486
293.91	487
294.141	492
294.372	492
294.603	498
294.833	488
295.064	515
295.295	481
295.525	503
295.756	484
295.987	499
296.217	493
296.448	520
296.679	505
296.909	509
297.14	502
297.37	483
297.601	534
297.831	519
298.062	517
298.292	523
298.523	540
298.753	542
298.984	493
299.214	517
299.445	517
299.675	515
299.905	535
300.136	529
300.366	535
300.597	534
300.827	541
301.057	558
301.288	564
301.518	573
301.748	560
301.979	580
302.209	541
302.439	569
302.669	553
302.9	533
303.13	535
303.36	534
303.59	546
303.82	542
304.051	544
304.281	533
304.511	532
304.741	548
304.971	556
305.201	543
305.431	532
305.661	533
305.891	535
306.121	547
306.352	532
306.582	539
306.812	516
307.042	550
307.272	541
307.502	539
307.731	544
307.961	557
308.191	537
308.421	548
308.651	568
308.881	551
309.111	539
309.341	520
309.571	532
309.8	556
310.03	543
310.26	545
310.49	537
310.72	521
310.949	553
311.179	551
311.409	534
311.639	543
311.868	549
312.098	551
312.328	546
312.557	568
312.787	571
313.017	569
313.246	588
313.476	588
313.706	556
313.935	589
314.165	571
314.394	581
314.624	580
314.853	593
315.083	573
315.312	568
315.542	588
315.771	572
316.001	590
316.23	564
316.46	571
316.689	553
316.919	560
317.148	602
317.377	578
317.607	566
317.836	564
318.065	543
318.295	578
318.524	543
318.753	574
318.983	576
319.212	576
319.441	576
319.67	569
319.9	566
320.129	578
320.358	586
320.587	582
320.816	549
321.046	594
321.275	595
321.504	563
321.733	587
321.962	576
322.191	588
322.42	582
322.649	576
322.878	605
323.108	575
323.337	585
323.566	572
323.795	592
324.024	581
324.253	581
324.482	600
324.71	592
324.939	572
325.168	606
325.397	596
325.626	591
325.855	596
326.084	628
326.313	634
326.542	641
326.77	646
326.999	638
327.228	616
327.457	627
327.686	650
327.914	646
328.143	613
328.372	623
328.6	633
328.829	645
329.058	648
329.287	635
329.515	616
329.744	631
329.972	665
330.201	658
330.43	641
330.658	659
330.887	645
331.115	671
331.344	677
331.572	693
331.801	672
332.03	724
332.258	726
332.486	755
332.715	764
332.943	810
333.172	849
333.4	867
333.629	880
333.857	861
334.085	865
334.314	848
334.542	819
334.771	820
334.999	785
335.227	781
335.455	799
335.684	784
335.912	764
336.14	788
336.369	768
336.597	785
336.825	765
337.053	772
337.281	759
337.51	732
337.738	731
337.966	720
338.194	707
338.422	691
338.65	683
338.878	697
339.106	668
339.334	678
339.562	692
339.79	661
340.018	638
340.246	660
340.474	674
340.702	678
340.93	672
341.158	703
341.386	660
341.614	678
341.842	662
342.07	658
342.298	658
342.526	653
342.754	672
342.981	674
343.209	666
343.437	706
343.665	785
343.893	806
344.12	860
344.348	803
344.576	755
344.804	716
345.031	681
345.259	679
345.487	680
345.714	672
345.942	636
346.17	673
346.397	664
346.625	639
346.853	637
347.08	637
347.308	642
347.535	660
347.763	656
347.99	660
348.218	654
348.445	659
348.673	669
348.9	652
349.128	632
349.355	651
349.583	639
349.81	644
350.037	643
350.265	594
350.492	611
350.72	607
350.947	638
351.174	631
351.402	650
351.629	629
351.856	618
352.083	633
352.311	636
352.538	625
352.765	604
352.992	615
353.22	608
353.447	630
353.674	603
353.901	643
354.128	634
354.355	614
354.583	631
354.81	629
355.037	607
355.264	613
355.491	605
355.718	647
355.945	626
356.172	639
356.399	643
356.626	615
356.853	639
357.08	629
357.307	609
357.534	608
357.761	609
357.988	612
358.215	611
358.441	620
358.668	638
358.895	629
359.122	615
359.349	610
359.576	619
359.802	633
360.029	627
360.256	635
360.483	602
360.709	623
360.936	639
361.163	615
361.39	625
361.616	631
361.843	613
362.07	616
362.296	661
362.523	601
362.749	624
362.976	617
363.203	614
363.429	610
363.656	624
363.882	627
364.109	610
364.335	613
364.562	602
364.788	614
365.015	624
365.241	610
365.468	623
365.694	617
365.92	608
366.147	588
366.373	613
366.599	633
366.826	625
367.052	623
367.278	617
367.505	627
367.731	625
367.957	630
368.184	620
368.41	634
368.636	637
368.862	647
369.089	644
369.315	652
369.541	663
369.767	680
369.993	653
370.219	644
370.445	665
370.672	655
370.898	663
371.124	689
371.35	691
371.576	655
371.802	688
372.028	676
372.254	659
372.48	697
372.706	703
372.932	702
373.158	711
373.384	676
373.61	671
373.835	669
374.061	678
374.287	685
374.513	693
374.739	729
374.965	747
375.191	739
375.416	746
375.642	731
375.868	738
376.094	683
376.319	698
376.545	683
376.771	700
376.997	666
377.222	680
377.448	690
377.674	657
377.899	682
378.125	651
378.35	672
378.576	671
378.802	681
379.027	663
379.253	687
379.478	663
379.704	680
379.929	672
380.155	663
380.38	668
380.606	686
380.831	693
381.057	701
381.282	657
381.507	656
381.733	681
381.958	687
382.184	675
382.409	716
382.634	716
382.86	723
383.085	718
383.31	714
383.535	751
383.761	743
383.986	757
384.211	780
384.436	780
384.662	799
384.887	820
385.112	824
385.337	811
385.562	829
385.787	807
386.013	847
386.238	817
386.463	823
386.688	823
386.913	787
387.138	801
387.363	803
387.588	809
387.813	803
388.038	785
388.263	783
388.488	795
388.713	805
388.938	805
389.163	780
389.387	812
389.612	794
389.837	801
390.062	815
390.287	804
390.512	810
390.736	771
390.961	820
391.186	834
391.411	849
391.636	877
391.86	895
392.085	917
392.31	895
392.534	888
392.759	888
392.984	845
393.208	879
393.433	865
393.658	870
393.882	844
394.107	860
394.331	883
394.556	897
394.78	874
395.005	879
395.229	855
395.454	902
395.678	933
395.903	909
396.127	888
396.352	863
396.576	856
396.801	843
397.025	843
397.249	885
397.474	911
397.698	879
397.922	883
398.147	904
398.371	919
398.595	932
398.82	987
399.044	1078
399.268	1198
399.492	1386
399.717	1608
399.941	1585
400.165	1362
400.389	1205
400.613	1094
400.837	1042
401.062	992
401.286	1034
401.51	1019
401.734	982
401.958	1033
402.182	1037
402.406	1035
402.63	1050
402.854	1102
403.078	1082
403.302	1145
403.526	1157
403.75	1146
403.974	1211
404.198	1205
404.422	1220
404.645	1178
404.869	1149
405.093	1122
405.317	1127
405.541	1144
405.765	1108
405.988	1115
406.212	1101
406.436	1120
406.66	1132
406.883	1176
407.107	1257
407.331	1288
407.555	1331
407.778	1312
408.002	1263
408.226	1244
408.449	1237
408.673	1193
408.896	1140
409.12	1163
409.344	1167
409.567	1154
409.791	1148
410.014	1155
410.238	1138
410.461	1146
410.685	1105
410.908	1110
411.132	1099
411.355	1079
411.578	1066
411.802	1044
412.025	1025
412.249	1082
412.472	1053
412.695	1054
412.919	1021
413.142	1031
413.365	1053
413.589	1043
413.812	1011
414.035	1009
414.258	1010
414.482	1028
414.705	1024
414.928	1055
415.151	1019
415.374	1041
415.597	1035
415.821	994
416.044	1007
416.267	1004
416.49	996
416.713	1019
416.936	1015
417.159	1025
417.382	995
417.605	987
417.828	993
418.051	1003
418.274	995
418.497	1007
418.72	1034
418.943	1028
419.166	1111
419.389	1175
419.611	1116
419.834	1096
420.057	1066
420.28	1029
420.503	1034
420.726	1010
420.948	1004
421.171	1007
421.394	1010
421.617	977
421.839	1021
422.062	984
422.285	1017
422.507	1045
422.73	1045
422.953	1028
423.175	1079
423.398	1108
423.621	1069
423.843	1082
424.066	1100
424.288	1100
424.511	1076
424.733	1055
424.956	1001
425.178	1016
425.401	1008
425.623	1049
425.846	1002
426.068	971
426.291	949
426.513	952
426.735	918
426.958	901
427.18	913
427.402	913
427.625	894
427.847	874
428.069	879
428.292	891
428.514	879
428.736	888
428.958	885
429.181	892
429.403	870
429.625	861
429.847	856
430.069	869
430.292	891
430.514	853
430.736	845
430.958	873
431.18	849
431.402	888
431.624	873
431.846	901
432.068	881
432.29	899
432.512	895
432.734	897
432.956	897
433.178	900
433.4	887
433.622	899
433.844	882
434.066	922
434.287	933
434.509	954
434.731	998
434.953	997
435.175	1019
435.397	978
435.618	946
435.84	924
436.062	890
436.284	907
436.505	905
436.727	912
436.949	876
437.17	872
437.392	894
437.614	874
437.835	861
438.057	856
438.278	819
438.5	835
438.721	863
438.943	848
439.165	883
439.386	856
439.608	902
439.829	902
440.05	892
440.272	900
440.493	919
440.715	924
440.936	931
441.158	954
441.379	971
441.6	1028
441.822	1046
442.043	1031
442.264	996
442.486	977
442.707	1002
442.928	979
443.149	971
443.371	990
443.592	1003
443.813	1033
444.034	1029
444.255	1035
444.476	1076
444.698	1177
444.919	1250
445.14	1263
445.361	1166
445.582	1057
445.803	977
446.024	951
446.245	952
446.466	913
446.687	907
446.908	899
447.129	880
447.35	866
447.571	850
447.792	835
448.013	871
448.234	831
448.455	821
448.675	812
448.896	809
449.117	817
449.338	792
449.559	799
449.779	808
450	797
450.221	796
450.442	810
450.662	807
450.883	830
451.104	848
451.324	836
451.545	838
451.766	810
451.986	825
452.207	785
452.428	824
452.648	804
452.869	812
453.089	813
453.31	825
453.53	820
453.751	766
453.971	765
454.192	791
454.412	776
454.633	804
454.853	779
455.073	761
455.294	771
455.514	757
455.734	764
455.955	759
456.175	755
456.395	755
456.616	764
456.836	752
457.056	740
457.276	748
457.497	758
457.717	762
457.937	764
458.157	759
458.377	812
458.598	806
458.818	815
459.038	828
459.258	843
459.478	907
459.698	914
459.918	940
460.138	1004
460.358	1062
460.578	1065
460.798	1056
461.018	1073
461.238	1046
461.458	1057
461.678	1045
461.898	1064
462.118	1040
462.338	1111
462.558	1154
462.777	1186
462.997	1335
463.217	1472
463.437	1475
463.657	1294
463.876	1238
464.096	1241
464.316	1231
464.536	1266
464.755	1175
464.975	1151
465.195	1107
465.414	1066
465.634	963
465.854	940
466.073	911
466.293	887
466.512	875
466.732	848
466.951	866
467.171	840
467.391	872
467.61	875
467.829	892
468.049	889
468.268	826
468.488	806
468.707	807
468.927	835
469.146	782
469.365	825
469.585	829
469.804	859
470.023	914
470.243	869
470.462	886
470.681	915
470.901	894
471.12	897
471.339	863
471.558	855
471.777	821
471.997	819
472.216	832
472.435	804
472.654	800
472.873	771
473.092	788
473.311	784
473.53	780
473.749	803
473.968	795
474.187	785
474.406	781
474.625	805
474.844	797
475.063	787
475.282	808
475.501	781
475.72	824
475.939	808
476.158	797
476.377	827
476.596	823
476.814	815
477.033	847
477.252	838
477.471	853
477.69	867
477.908	895
478.127	937
478.346	950
478.564	989
478.783	969
479.002	1002
479.22	987
479.439	972
479.658	997
479.876	987
480.095	1007
480.313	1056
480.532	1097
480.751	1084
480.969	1031
481.188	960
481.406	966
481.624	947
481.843	925
482.061	872
482.28	901
482.498	902
482.717	882
482.935	899
483.153	911
483.372	909
483.59	922
483.808	907
484.027	873
484.245	893
484.463	931
484.681	927
484.9	933
485.118	945
485.336	933
485.554	923
485.772	935
485.99	967
486.209	973
486.427	977
486.645	960
486.863	957
487.081	940
487.299	958
487.517	963
487.735	934
487.953	934
488.171	925
488.389	958
488.607	927
488.825	927
489.043	930
489.261	924
489.479	924
489.696	935
489.914	951
490.132	951
490.35	938
490.568	947
490.786	938
491.003	936
491.221	934
491.439	952
491.657	962
491.874	966
492.092	964
492.31	973
492.527	976
492.745	967
492.963	983
493.18	972
493.398	961
493.615	973
493.833	1002
494.05	1004
494.268	996
494.485	1013
494.703	991
494.92	995
495.138	954
495.355	962
495.573	1005
495.79	1013
496.008	1028
496.225	997
496.442	1009
496.66	1048
496.877	1037
497.094	1049
497.312	1080
497.529	1097
497.746	1119
497.963	1193
498.181	1220
498.398	1255
498.615	1359
498.832	1457
499.049	1521
499.267	1721
499.484	1874
499.701	2100
499.918	2285
500.135	2642
500.352	3116
500.569	3288
500.786	3158
501.003	2884
501.22	2563
501.437	2216
501.654	1983
501.871	1754
502.088	1583
502.305	1513
502.522	1429
502.739	1417
502.956	1321
503.172	1260
503.389	1165
503.606	1155
503.823	1118
504.04	1145
504.256	1123
504.473	1192
504.69	1247
504.907	1228
505.123	1098
505.34	1041
505.557	977
505.773	965
505.99	980
506.207	919
506.423	907
506.64	901
506.856	890
507.073	870
507.289	893
507.506	898
507.722	889
507.939	869
508.155	840
508.372	869
508.588	864
508.805	840
509.021	834
509.238	839
509.454	817
509.67	835
509.887	803
510.103	827
510.319	806
510.536	787
510.752	816
510.968	795
511.184	802
511.401	808
511.617	829
511.833	804
512.049	801
512.265	801
512.481	790
512.698	789
512.914	808
513.13	803
513.346	800
513.562	815
513.778	824
513.994	809
514.21	803
514.426	805
514.642	794
514.858	844
515.074	826
515.29	831
515.506	834
515.721	864
515.937	887
516.153	876
516.369	924
516.585	960
516.801	976
517.016	994
517.232	1051
517.448	1119
517.664	1157
517.879	1169
518.095	1143
518.311	1137
518.527	1064
518.742	1021
518.958	997
519.173	953
519.389	915
519.605	872
519.82	873
520.036	861
520.251	834
520.467	847
520.682	851
520.898	794
521.113	795
521.329	770
521.544	770
521.76	781
521.975	763
522.19	797
522.406	763
522.621	781
522.836	744
523.052	745
523.267	741
523.482	763
523.698	721
523.913	746
524.128	737
524.343	739
524.559	726
524.774	741
524.989	739
525.204	718
525.419	729
525.634	717
525.849	723
526.064	734
526.28	728
526.495	751
526.71	711
526.925	726
527.14	739
527.355	718
527.57	723
527.785	722
527.999	713
528.214	720
528.429	737
528.644	728
528.859	746
529.074	736
529.289	742
529.503	713
529.718	722
529.933	718
530.148	715
530.363	737
530.577	708
530.792	739
531.007	704
531.221	730
531.436	712
531.651	713
531.865	714
532.08	737
532.295	757
532.509	722
532.724	731
532.938	723
533.153	729
533.367	737
533.582	720
533.796	736
534.011	719
534.225	718
534.44	699
534.654	693
534.868	716
535.083	739
535.297	711
535.511	700
535.726	745
535.94	718
536.154	700
536.369	686
536.583	672
536.797	693
537.011	671
537.225	644
537.44	665
537.654	677
537.868	670
538.082	663
538.296	653
538.51	658
538.724	671
538.938	654
539.153	660
539.367	660
539.581	668
539.795	639
540.009	641
540.222	649
540.436	649
540.65	630
540.864	646
541.078	650
541.292	630
541.506	658
541.72	675
541.934	640
542.147	649
542.361	635
542.575	613
542.789	641
543.002	645
543.216	649
543.43	632
543.644	640
543.857	653
544.071	660
544.285	657
544.498	654
544.712	653
544.925	649
545.139	679
545.352	696
545.566	663
545.779	666
545.993	663
546.206	658
546.42	675
546.633	689
546.847	675
547.06	659
547.274	656
547.487	663
547.7	657
547.914	664
548.127	651
548.34	680
548.554	653
548.767	675
548.98	683
549.193	671
549.407	675
549.62	696
549.833	709
550.046	691
550.259	697
550.473	652
550.686	657
550.899	651
551.112	632
551.325	635
551.538	639
551.751	644
551.964	647
552.177	685
552.39	670
552.603	697
552.816	714
553.029	727
553.242	735
553.455	736
553.667	751
553.88	722
554.093	711
554.306	678
554.519	662
554.732	664
554.944	649
555.157	634
555.37	652
555.583	626
555.795	619
556.008	589
556.221	593
556.433	596
556.646	588
556.859	606
557.071	577
557.284	586
557.496	583
557.709	569
557.921	579
558.134	577
558.346	562
558.559	575
558.771	549
558.984	574
559.196	552
559.409	578
559.621	553
