Data from Ni(NO3)2@0.5M.TitratingCurve.Agarose3%dH2O.NegLispCup.LampEnergy10.LIBS07252019_HRD10591_18-00-00-564.txt Node
Date: Thu Jul 25 18:00:00 EDT 2019
User: cochatt
Spectrometer: HR+D1059
Trigger mode: 1
Integration Time (sec): 1.000000E-1
Scans to average: 1
Electric dark correction enabled: true
Nonlinearity correction enabled: false
Boxcar width: 0
XAxis mode: Wavelengths
Number of Pixels in Spectrum: 2048
>>>>>Begin Spectral Data<<<<<
223.165	-11.25
223.4	-11.25
223.635	-11.25
223.869	-23.25
224.104	-21.25
224.338	-23.25
224.573	-16.25
224.808	-10.25
225.042	0.75
225.277	-3.25
225.511	-6.25
225.746	-5.25
225.98	16.75
226.215	19.75
226.449	9.75
226.683	19.75
226.918	26.75
227.152	26.75
227.387	42.75
227.621	35.75
227.856	52.75
228.09	43.75
228.324	48.75
228.559	53.75
228.793	78.75
229.027	119.75
229.262	124.75
229.496	107.75
229.73	124.75
229.964	140.75
230.199	165.75
230.433	174.75
230.667	164.75
230.901	160.75
231.136	130.75
231.37	147.75
231.604	151.75
231.838	175.75
232.072	178.75
232.306	166.75
232.541	164.75
232.775	142.75
233.009	157.75
233.243	157.75
233.477	154.75
233.711	160.75
233.945	151.75
234.179	166.75
234.413	157.75
234.647	154.75
234.881	172.75
235.115	151.75
235.349	153.75
235.583	152.75
235.817	146.75
236.051	160.75
236.285	157.75
236.519	149.75
236.753	153.75
236.987	150.75
237.221	145.75
237.455	176.75
237.689	157.75
237.922	155.75
238.156	154.75
238.39	164.75
238.624	159.75
238.858	173.75
239.091	176.75
239.325	165.75
239.559	183.75
239.793	205.75
240.027	174.75
240.26	171.75
240.494	160.75
240.728	175.75
240.961	173.75
241.195	175.75
241.429	166.75
241.662	194.75
241.896	207.75
242.13	202.75
242.363	200.75
242.597	184.75
242.83	181.75
243.064	195.75
243.298	213.75
243.531	192.75
243.765	211.75
243.998	206.75
244.232	207.75
244.465	195.75
244.699	196.75
244.932	185.75
245.166	207.75
245.399	213.75
245.633	199.75
245.866	200.75
246.099	196.75
246.333	201.75
246.566	195.75
246.8	206.75
247.033	219.75
247.266	226.75
247.5	218.75
247.733	220.75
247.966	227.75
248.2	221.75
248.433	231.75
248.666	232.75
248.899	213.75
249.133	228.75
249.366	224.75
249.599	248.75
249.832	233.75
250.066	242.75
250.299	236.75
250.532	244.75
250.765	234.75
250.998	254.75
251.231	255.75
251.465	257.75
251.698	268.75
251.931	262.75
252.164	256.75
252.397	279.75
252.63	236.75
252.863	280.75
253.096	243.75
253.329	267.75
253.562	260.75
253.795	256.75
254.028	261.75
254.261	266.75
254.494	278.75
254.727	270.75
254.96	272.75
255.193	284.75
255.426	262.75
255.659	267.75
255.892	283.75
256.124	275.75
256.357	278.75
256.59	296.75
256.823	272.75
257.056	290.75
257.289	282.75
257.521	281.75
257.754	287.75
257.987	286.75
258.22	283.75
258.452	301.75
258.685	314.75
258.918	275.75
259.151	303.75
259.383	318.75
259.616	302.75
259.849	316.75
260.081	300.75
260.314	311.75
260.547	310.75
260.779	292.75
261.012	293.75
261.244	316.75
261.477	333.75
261.71	319.75
261.942	322.75
262.175	295.75
262.407	340.75
262.64	334.75
262.872	326.75
263.105	324.75
263.337	350.75
263.57	329.75
263.802	335.75
264.035	315.75
264.267	327.75
264.499	320.75
264.732	328.75
264.964	342.75
265.197	341.75
265.429	339.75
265.661	336.75
265.894	350.75
266.126	348.75
266.358	350.75
266.591	343.75
266.823	355.75
267.055	336.75
267.287	366.75
267.52	358.75
267.752	375.75
267.984	347.75
268.216	368.75
268.448	373.75
268.681	361.75
268.913	359.75
269.145	360.75
269.377	382.75
269.609	340.75
269.841	367.75
270.073	349.75
270.306	362.75
270.538	363.75
270.77	386.75
271.002	362.75
271.234	371.75
271.466	374.75
271.698	365.75
271.93	362.75
272.162	399.75
272.394	408.75
272.626	392.75
272.858	389.75
273.09	408.75
273.322	384.75
273.553	380.75
273.785	392.75
274.017	393.75
274.249	399.75
274.481	401.75
274.713	389.75
274.945	400.75
275.176	412.75
275.408	408.75
275.64	416.75
275.872	416.75
276.104	401.75
276.335	395.75
276.567	413.75
276.799	414.75
277.031	422.75
277.262	438.75
277.494	422.75
277.726	424.75
277.957	425.75
278.189	412.75
278.421	423.75
278.652	419.75
278.884	431.75
279.115	425.75
279.347	427.75
279.579	408.75
279.81	420.75
280.042	419.75
280.273	428.75
280.505	424.75
280.736	438.75
280.968	436.75
281.199	454.75
281.431	437.75
281.662	462.75
281.894	459.75
282.125	437.75
282.356	448.75
282.588	489.75
282.819	457.75
283.051	430.75
283.282	450.75
283.513	447.75
283.745	454.75
283.976	439.75
284.207	463.75
284.439	480.75
284.67	490.75
284.901	473.75
285.132	456.75
285.364	458.75
285.595	457.75
285.826	462.75
286.057	460.75
286.288	476.75
286.52	466.75
286.751	465.75
286.982	476.75
287.213	468.75
287.444	469.75
287.675	479.75
287.906	474.75
288.138	500.75
288.369	470.75
288.6	510.75
288.831	488.75
289.062	484.75
289.293	468.75
289.524	497.75
289.755	496.75
289.986	475.75
290.217	477.75
290.448	484.75
290.679	503.75
290.91	478.75
291.141	494.75
291.371	501.75
291.602	491.75
291.833	502.75
292.064	491.75
292.295	484.75
292.526	481.75
292.757	499.75
292.987	489.75
293.218	504.75
293.449	526.75
293.68	499.75
293.91	514.75
294.141	508.75
294.372	511.75
294.603	507.75
294.833	514.75
295.064	505.75
295.295	519.75
295.525	537.75
295.756	512.75
295.987	507.75
296.217	514.75
296.448	523.75
296.679	511.75
296.909	502.75
297.14	520.75
297.37	533.75
297.601	537.75
297.831	538.75
298.062	516.75
298.292	522.75
298.523	541.75
298.753	520.75
298.984	546.75
299.214	538.75
299.445	536.75
299.675	537.75
299.905	540.75
300.136	555.75
300.366	556.75
300.597	572.75
300.827	561.75
301.057	556.75
301.288	585.75
301.518	574.75
301.748	588.75
301.979	572.75
302.209	576.75
302.439	553.75
302.669	583.75
302.9	574.75
303.13	560.75
303.36	560.75
303.59	576.75
303.82	575.75
304.051	577.75
304.281	580.75
304.511	575.75
304.741	578.75
304.971	576.75
305.201	590.75
305.431	574.75
305.661	587.75
305.891	579.75
306.121	575.75
306.352	578.75
306.582	550.75
306.812	576.75
307.042	562.75
307.272	574.75
307.502	559.75
307.731	557.75
307.961	568.75
308.191	578.75
308.421	590.75
308.651	575.75
308.881	554.75
309.111	567.75
309.341	591.75
309.571	560.75
309.8	568.75
310.03	588.75
310.26	605.75
310.49	626.75
310.72	611.75
310.949	580.75
311.179	580.75
311.409	574.75
311.639	587.75
311.868	606.75
312.098	592.75
312.328	592.75
312.557	582.75
312.787	605.75
313.017	597.75
313.246	621.75
313.476	616.75
313.706	623.75
313.935	604.75
314.165	611.75
314.394	612.75
314.624	615.75
314.853	611.75
315.083	620.75
315.312	633.75
315.542	615.75
315.771	622.75
316.001	615.75
316.23	619.75
316.46	606.75
316.689	632.75
316.919	606.75
317.148	621.75
317.377	631.75
317.607	624.75
317.836	602.75
318.065	617.75
318.295	644.75
318.524	607.75
318.753	602.75
318.983	631.75
319.212	631.75
319.441	607.75
319.67	630.75
319.9	634.75
320.129	633.75
320.358	636.75
320.587	622.75
320.816	637.75
321.046	634.75
321.275	648.75
321.504	635.75
321.733	647.75
321.962	637.75
322.191	660.75
322.42	635.75
322.649	639.75
322.878	660.75
323.108	660.75
323.337	670.75
323.566	664.75
323.795	670.75
324.024	699.75
324.253	658.75
324.482	656.75
324.71	658.75
324.939	665.75
325.168	702.75
325.397	694.75
325.626	652.75
325.855	670.75
326.084	664.75
326.313	688.75
326.542	674.75
326.77	689.75
326.999	681.75
327.228	675.75
327.457	693.75
327.686	690.75
327.914	684.75
328.143	702.75
328.372	707.75
328.6	716.75
328.829	679.75
329.058	693.75
329.287	705.75
329.515	716.75
329.744	707.75
329.972	712.75
330.201	700.75
330.43	710.75
330.658	695.75
330.887	681.75
331.115	726.75
331.344	710.75
331.572	703.75
331.801	762.75
332.03	777.75
332.258	748.75
332.486	782.75
332.715	773.75
332.943	785.75
333.172	784.75
333.4	784.75
333.629	795.75
333.857	840.75
334.085	831.75
334.314	852.75
334.542	823.75
334.771	820.75
334.999	831.75
335.227	808.75
335.455	847.75
335.684	828.75
335.912	810.75
336.14	836.75
336.369	822.75
336.597	810.75
336.825	839.75
337.053	827.75
337.281	797.75
337.51	790.75
337.738	803.75
337.966	811.75
338.194	779.75
338.422	802.75
338.65	778.75
338.878	795.75
339.106	800.75
339.334	793.75
339.562	800.75
339.79	757.75
340.018	760.75
340.246	754.75
340.474	769.75
340.702	748.75
340.93	748.75
341.158	766.75
341.386	748.75
341.614	820.75
341.842	779.75
342.07	743.75
342.298	765.75
342.526	734.75
342.754	758.75
342.981	758.75
343.209	771.75
343.437	781.75
343.665	799.75
343.893	816.75
344.12	812.75
344.348	814.75
344.576	802.75
344.804	784.75
345.031	755.75
345.259	758.75
345.487	762.75
345.714	776.75
345.942	754.75
346.17	789.75
346.397	795.75
346.625	747.75
346.853	708.75
347.08	716.75
347.308	728.75
347.535	714.75
347.763	721.75
347.99	722.75
348.218	715.75
348.445	715.75
348.673	706.75
348.9	720.75
349.128	737.75
349.355	764.75
349.583	745.75
349.81	702.75
350.037	704.75
350.265	709.75
350.492	690.75
350.72	725.75
350.947	714.75
351.174	708.75
351.402	733.75
351.629	723.75
351.856	738.75
352.083	741.75
352.311	727.75
352.538	711.75
352.765	736.75
352.992	713.75
353.22	692.75
353.447	682.75
353.674	691.75
353.901	690.75
354.128	709.75
354.355	693.75
354.583	700.75
354.81	695.75
355.037	689.75
355.264	681.75
355.491	716.75
355.718	718.75
355.945	703.75
356.172	696.75
356.399	706.75
356.626	706.75
356.853	700.75
357.08	687.75
357.307	697.75
357.534	699.75
357.761	702.75
357.988	685.75
358.215	695.75
358.441	692.75
358.668	686.75
358.895	701.75
359.122	690.75
359.349	678.75
359.576	668.75
359.802	709.75
360.029	716.75
360.256	736.75
360.483	725.75
360.709	709.75
360.936	716.75
361.163	717.75
361.39	683.75
361.616	707.75
361.843	712.75
362.07	709.75
362.296	738.75
362.523	707.75
362.749	709.75
362.976	712.75
363.203	714.75
363.429	704.75
363.656	704.75
363.882	702.75
364.109	710.75
364.335	688.75
364.562	730.75
364.788	686.75
365.015	684.75
365.241	687.75
365.468	716.75
365.694	708.75
365.92	727.75
366.147	687.75
366.373	715.75
366.599	725.75
366.826	700.75
367.052	695.75
367.278	705.75
367.505	701.75
367.731	748.75
367.957	710.75
368.184	746.75
368.41	715.75
368.636	712.75
368.862	701.75
369.089	708.75
369.315	742.75
369.541	715.75
369.767	736.75
369.993	733.75
370.219	706.75
370.445	719.75
370.672	754.75
370.898	754.75
371.124	731.75
371.35	743.75
371.576	758.75
371.802	772.75
372.028	772.75
372.254	766.75
372.48	755.75
372.706	747.75
372.932	754.75
373.158	796.75
373.384	767.75
373.61	766.75
373.835	760.75
374.061	775.75
374.287	794.75
374.513	792.75
374.739	786.75
374.965	804.75
375.191	786.75
375.416	815.75
375.642	777.75
375.868	793.75
376.094	787.75
376.319	772.75
376.545	785.75
376.771	771.75
376.997	776.75
377.222	738.75
377.448	775.75
377.674	748.75
377.899	747.75
378.125	731.75
378.35	749.75
378.576	759.75
378.802	716.75
379.027	747.75
379.253	763.75
379.478	750.75
379.704	747.75
379.929	753.75
380.155	758.75
380.38	715.75
380.606	749.75
380.831	717.75
381.057	762.75
381.282	742.75
381.507	751.75
381.733	760.75
381.958	761.75
382.184	756.75
382.409	781.75
382.634	778.75
382.86	775.75
383.085	782.75
383.31	761.75
383.535	786.75
383.761	810.75
383.986	791.75
384.211	802.75
384.436	822.75
384.662	831.75
384.887	839.75
385.112	797.75
385.337	828.75
385.562	839.75
385.787	828.75
386.013	894.75
386.238	843.75
386.463	862.75
386.688	875.75
386.913	841.75
387.138	863.75
387.363	863.75
387.588	881.75
387.813	873.75
388.038	859.75
388.263	857.75
388.488	875.75
388.713	860.75
388.938	877.75
389.163	849.75
389.387	854.75
389.612	857.75
389.837	875.75
390.062	871.75
390.287	867.75
390.512	861.75
390.736	862.75
390.961	903.75
391.186	888.75
391.411	900.75
391.636	892.75
391.86	920.75
392.085	918.75
392.31	947.75
392.534	950.75
392.759	900.75
392.984	902.75
393.208	897.75
393.433	886.75
393.658	893.75
393.882	915.75
394.107	902.75
394.331	907.75
394.556	928.75
394.78	926.75
395.005	903.75
395.229	906.75
395.454	918.75
395.678	955.75
395.903	942.75
396.127	926.75
396.352	924.75
396.576	919.75
396.801	925.75
397.025	936.75
397.249	943.75
397.474	993.75
397.698	938.75
397.922	974.75
398.147	953.75
398.371	984.75
398.595	1009.75
398.82	1016.75
399.044	1059.75
399.268	1084.75
399.492	1208.75
399.717	1246.75
399.941	1250.75
400.165	1218.75
400.389	1175.75
400.613	1139.75
400.837	1074.75
401.062	1070.75
401.286	1051.75
401.51	1030.75
401.734	1023.75
401.958	1057.75
402.182	1044.75
402.406	1030.75
402.63	1034.75
402.854	1041.75
403.078	1056.75
403.302	1058.75
403.526	1062.75
403.75	1079.75
403.974	1066.75
404.198	1096.75
404.422	1058.75
404.645	1042.75
404.869	1071.75
405.093	1089.75
405.317	1036.75
405.541	1110.75
405.765	1084.75
405.988	1109.75
406.212	1095.75
406.436	1136.75
406.66	1127.75
406.883	1136.75
407.107	1198.75
407.331	1192.75
407.555	1237.75
407.778	1200.75
408.002	1222.75
408.226	1213.75
408.449	1222.75
408.673	1184.75
408.896	1137.75
409.12	1126.75
409.344	1137.75
409.567	1141.75
409.791	1116.75
410.014	1102.75
410.238	1143.75
410.461	1085.75
410.685	1094.75
410.908	1081.75
411.132	1096.75
411.355	1046.75
411.578	1114.75
411.802	1058.75
412.025	1070.75
412.249	1101.75
412.472	1097.75
412.695	1051.75
412.919	1062.75
413.142	1062.75
413.365	1052.75
413.589	1074.75
413.812	1043.75
414.035	1030.75
414.258	1053.75
414.482	1027.75
414.705	1040.75
414.928	1084.75
415.151	1063.75
415.374	1055.75
415.597	1026.75
415.821	1006.75
416.044	1013.75
416.267	1016.75
416.49	996.75
416.713	1019.75
416.936	1020.75
417.159	996.75
417.382	1022.75
417.605	1005.75
417.828	983.75
418.051	1004.75
418.274	980.75
418.497	976.75
418.72	1018.75
418.943	1013.75
419.166	1078.75
419.389	1093.75
419.611	1132.75
419.834	1046.75
420.057	1034.75
420.28	1030.75
420.503	980.75
420.726	980.75
420.948	982.75
421.171	960.75
421.394	1005.75
421.617	1006.75
421.839	998.75
422.062	1014.75
422.285	1016.75
422.507	970.75
422.73	972.75
422.953	987.75
423.175	1011.75
423.398	1000.75
423.621	1001.75
423.843	1036.75
424.066	1030.75
424.288	1010.75
424.511	981.75
424.733	982.75
424.956	988.75
425.178	986.75
425.401	981.75
425.623	978.75
425.846	971.75
426.068	987.75
426.291	980.75
426.513	983.75
426.735	967.75
426.958	963.75
427.18	966.75
427.402	953.75
427.625	946.75
427.847	942.75
428.069	943.75
428.292	971.75
428.514	964.75
428.736	906.75
428.958	926.75
429.181	944.75
429.403	947.75
429.625	949.75
429.847	961.75
430.069	936.75
430.292	943.75
430.514	915.75
430.736	965.75
430.958	904.75
431.18	925.75
431.402	932.75
431.624	961.75
431.846	942.75
432.068	964.75
432.29	958.75
432.512	944.75
432.734	940.75
432.956	964.75
433.178	982.75
433.4	998.75
433.622	977.75
433.844	986.75
434.066	948.75
434.287	969.75
434.509	960.75
434.731	988.75
434.953	995.75
435.175	1004.75
435.397	1040.75
435.618	1003.75
435.84	985.75
436.062	956.75
436.284	979.75
436.505	952.75
436.727	935.75
436.949	970.75
437.17	950.75
437.392	937.75
437.614	919.75
437.835	916.75
438.057	940.75
438.278	906.75
438.5	901.75
438.721	916.75
438.943	917.75
439.165	906.75
439.386	914.75
439.608	927.75
439.829	925.75
440.05	902.75
440.272	927.75
440.493	966.75
440.715	933.75
440.936	951.75
441.158	969.75
441.379	1000.75
441.6	999.75
441.822	987.75
442.043	1006.75
442.264	990.75
442.486	966.75
442.707	1002.75
442.928	980.75
443.149	1004.75
443.371	976.75
443.592	1057.75
443.813	1023.75
444.034	994.75
444.255	1028.75
444.476	1048.75
444.698	1087.75
444.919	1083.75
445.14	1180.75
445.361	1119.75
445.582	1039.75
445.803	985.75
446.024	975.75
446.245	954.75
446.466	954.75
446.687	956.75
446.908	928.75
447.129	921.75
447.35	924.75
447.571	925.75
447.792	871.75
448.013	894.75
448.234	863.75
448.455	881.75
448.675	866.75
448.896	864.75
449.117	853.75
449.338	857.75
449.559	898.75
449.779	880.75
450	847.75
450.221	852.75
450.442	850.75
450.662	846.75
450.883	885.75
451.104	889.75
451.324	864.75
451.545	847.75
451.766	845.75
451.986	840.75
452.207	837.75
452.428	858.75
452.648	809.75
452.869	830.75
453.089	827.75
453.31	855.75
453.53	837.75
453.751	837.75
453.971	807.75
454.192	820.75
454.412	826.75
454.633	852.75
454.853	849.75
455.073	818.75
455.294	823.75
455.514	816.75
455.734	844.75
455.955	858.75
456.175	839.75
456.395	846.75
456.616	825.75
456.836	834.75
457.056	818.75
457.276	812.75
457.497	824.75
457.717	844.75
457.937	863.75
458.157	829.75
458.377	838.75
458.598	852.75
458.818	864.75
459.038	854.75
459.258	910.75
459.478	926.75
459.698	1000.75
459.918	1028.75
460.138	988.75
460.358	1024.75
460.578	1012.75
460.798	1054.75
461.018	1028.75
461.238	1012.75
461.458	1006.75
461.678	1026.75
461.898	1042.75
462.118	1045.75
462.338	1076.75
462.558	1119.75
462.777	1146.75
462.997	1152.75
463.217	1190.75
463.437	1257.75
463.657	1211.75
463.876	1140.75
464.096	1138.75
464.316	1122.75
464.536	1138.75
464.755	1106.75
464.975	1073.75
465.195	1039.75
465.414	1010.75
465.634	1002.75
465.854	967.75
466.073	944.75
466.293	926.75
466.512	930.75
466.732	889.75
466.951	925.75
467.171	927.75
467.391	911.75
467.61	886.75
467.829	910.75
468.049	898.75
468.268	883.75
468.488	883.75
468.707	872.75
468.927	897.75
469.146	898.75
469.365	887.75
469.585	910.75
469.804	899.75
470.023	912.75
470.243	884.75
470.462	895.75
470.681	930.75
470.901	912.75
471.12	902.75
471.339	901.75
471.558	909.75
471.777	910.75
471.997	906.75
472.216	912.75
472.435	871.75
472.654	898.75
472.873	874.75
473.092	852.75
473.311	880.75
473.53	870.75
473.749	879.75
473.968	887.75
474.187	866.75
474.406	856.75
474.625	915.75
474.844	905.75
475.063	925.75
475.282	894.75
475.501	895.75
475.72	882.75
475.939	916.75
476.158	922.75
476.377	912.75
476.596	899.75
476.814	941.75
477.033	943.75
477.252	953.75
477.471	957.75
477.69	987.75
477.908	982.75
478.127	1003.75
478.346	984.75
478.564	1021.75
478.783	1032.75
479.002	1054.75
479.22	1103.75
479.439	1079.75
479.658	1045.75
479.876	1076.75
480.095	1078.75
480.313	1079.75
480.532	1065.75
480.751	1069.75
480.969	1080.75
481.188	1037.75
481.406	1067.75
481.624	1048.75
481.843	1034.75
482.061	1014.75
482.28	1024.75
482.498	1023.75
482.717	1030.75
482.935	1022.75
483.153	1063.75
483.372	1056.75
483.59	1094.75
483.808	1065.75
484.027	1038.75
484.245	1045.75
484.463	1066.75
484.681	1078.75
484.9	1059.75
485.118	1083.75
485.336	1086.75
485.554	1059.75
485.772	1098.75
485.99	1088.75
486.209	1101.75
486.427	1082.75
486.645	1082.75
486.863	1100.75
487.081	1091.75
487.299	1051.75
487.517	1088.75
487.735	1084.75
487.953	1104.75
488.171	1082.75
488.389	1094.75
488.607	1089.75
488.825	1068.75
489.043	1081.75
489.261	1056.75
489.479	1070.75
489.696	1035.75
489.914	1065.75
490.132	1059.75
490.35	1068.75
490.568	1093.75
490.786	1058.75
491.003	1087.75
491.221	1062.75
491.439	1092.75
491.657	1092.75
491.874	1110.75
492.092	1096.75
492.31	1118.75
492.527	1108.75
492.745	1098.75
492.963	1087.75
493.18	1107.75
493.398	1102.75
493.615	1119.75
493.833	1128.75
494.05	1101.75
494.268	1133.75
494.485	1116.75
494.703	1110.75
494.92	1151.75
495.138	1130.75
495.355	1135.75
495.573	1151.75
495.79	1138.75
496.008	1143.75
496.225	1145.75
496.442	1180.75
496.66	1174.75
496.877	1185.75
497.094	1183.75
497.312	1192.75
497.529	1196.75
497.746	1262.75
497.963	1292.75
498.181	1317.75
498.398	1357.75
