Data from Ni(NO3)2@0.0625M.TitratingCurve.Agarose3%dH2O.NegLispCup.LampEnergy10.LIBS07252019_HRD10591_18-14-47-569.txt Node
Date: Thu Jul 25 18:14:47 EDT 2019
User: cochatt
Spectrometer: HR+D1059
Trigger mode: 1
Integration Time (sec): 1.000000E-1
Scans to average: 1
Electric dark correction enabled: true
Nonlinearity correction enabled: false
Boxcar width: 0
XAxis mode: Wavelengths
Number of Pixels in Spectrum: 2048
>>>>>Begin Spectral Data<<<<<
223.165	-12.12
223.4	-12.12
223.635	-12.12
223.869	-18.12
224.104	-7.12
224.338	-16.12
224.573	-30.12
224.808	-8.12
225.042	-9.12
225.277	-11.12
225.511	10.88
225.746	19.88
225.98	2.88
226.215	2.88
226.449	22.88
226.683	11.88
226.918	26.88
227.152	13.88
227.387	44.88
227.621	37.88
227.856	46.88
228.09	58.88
228.324	45.88
228.559	64.88
228.793	71.88
229.027	111.88
229.262	122.88
229.496	99.88
229.73	132.88
229.964	124.88
230.199	130.88
230.433	133.88
230.667	125.88
230.901	133.88
231.136	160.88
231.37	141.88
231.604	146.88
231.838	152.88
232.072	150.88
232.306	160.88
232.541	161.88
232.775	158.88
233.009	143.88
233.243	156.88
233.477	140.88
233.711	159.88
233.945	158.88
234.179	159.88
234.413	161.88
234.647	150.88
234.881	164.88
235.115	159.88
235.349	163.88
235.583	151.88
235.817	170.88
236.051	143.88
236.285	141.88
236.519	167.88
236.753	149.88
236.987	165.88
237.221	152.88
237.455	168.88
237.689	169.88
237.922	172.88
238.156	174.88
238.39	157.88
238.624	153.88
238.858	175.88
239.091	180.88
239.325	175.88
239.559	173.88
239.793	178.88
240.027	172.88
240.26	185.88
240.494	184.88
240.728	173.88
240.961	173.88
241.195	173.88
241.429	196.88
241.662	189.88
241.896	198.88
242.13	197.88
242.363	200.88
242.597	188.88
242.83	182.88
243.064	208.88
243.298	197.88
243.531	208.88
243.765	216.88
243.998	227.88
244.232	227.88
244.465	205.88
244.699	224.88
244.932	201.88
245.166	219.88
245.399	215.88
245.633	237.88
245.866	223.88
246.099	234.88
246.333	228.88
246.566	235.88
246.8	233.88
247.033	227.88
247.266	235.88
247.5	239.88
247.733	234.88
247.966	247.88
248.2	244.88
248.433	248.88
248.666	244.88
248.899	233.88
249.133	237.88
249.366	247.88
249.599	262.88
249.832	242.88
250.066	250.88
250.299	274.88
250.532	266.88
250.765	254.88
250.998	270.88
251.231	256.88
251.465	288.88
251.698	278.88
251.931	278.88
252.164	287.88
252.397	283.88
252.63	286.88
252.863	265.88
253.096	295.88
253.329	292.88
253.562	291.88
253.795	285.88
254.028	290.88
254.261	275.88
254.494	298.88
254.727	294.88
254.96	276.88
255.193	296.88
255.426	299.88
255.659	297.88
255.892	296.88
256.124	285.88
256.357	315.88
256.59	303.88
256.823	325.88
257.056	320.88
257.289	294.88
257.521	300.88
257.754	310.88
257.987	303.88
258.22	304.88
258.452	321.88
258.685	308.88
258.918	324.88
259.151	316.88
259.383	315.88
259.616	316.88
259.849	318.88
260.081	327.88
260.314	318.88
260.547	308.88
260.779	317.88
261.012	335.88
261.244	335.88
261.477	334.88
261.71	335.88
261.942	361.88
262.175	340.88
262.407	343.88
262.64	344.88
262.872	337.88
263.105	354.88
263.337	342.88
263.57	348.88
263.802	347.88
264.035	343.88
264.267	351.88
264.499	346.88
264.732	357.88
264.964	367.88
265.197	353.88
265.429	358.88
265.661	362.88
265.894	344.88
266.126	364.88
266.358	374.88
266.591	372.88
266.823	372.88
267.055	383.88
267.287	371.88
267.52	362.88
267.752	384.88
267.984	385.88
268.216	380.88
268.448	391.88
268.681	376.88
268.913	383.88
269.145	375.88
269.377	366.88
269.609	384.88
269.841	378.88
270.073	398.88
270.306	401.88
270.538	390.88
270.77	380.88
271.002	400.88
271.234	397.88
271.466	384.88
271.698	396.88
271.93	393.88
272.162	403.88
272.394	398.88
272.626	399.88
272.858	411.88
273.09	394.88
273.322	437.88
273.553	406.88
273.785	405.88
274.017	415.88
274.249	425.88
274.481	400.88
274.713	439.88
274.945	400.88
275.176	408.88
275.408	420.88
275.64	421.88
275.872	424.88
276.104	411.88
276.335	422.88
276.567	424.88
276.799	436.88
277.031	430.88
277.262	445.88
277.494	434.88
277.726	441.88
277.957	424.88
278.189	423.88
278.421	435.88
278.652	447.88
278.884	439.88
279.115	451.88
279.347	446.88
279.579	453.88
279.81	454.88
280.042	451.88
280.273	464.88
280.505	456.88
280.736	478.88
280.968	454.88
281.199	454.88
281.431	461.88
281.662	463.88
281.894	459.88
282.125	459.88
282.356	502.88
282.588	476.88
282.819	485.88
283.051	466.88
283.282	478.88
283.513	484.88
283.745	482.88
283.976	493.88
284.207	482.88
284.439	502.88
284.67	505.88
284.901	482.88
285.132	515.88
285.364	501.88
285.595	503.88
285.826	483.88
286.057	489.88
286.288	519.88
286.52	497.88
286.751	510.88
286.982	512.88
287.213	518.88
287.444	532.88
287.675	521.88
287.906	498.88
288.138	532.88
288.369	515.88
288.6	520.88
288.831	534.88
289.062	523.88
289.293	508.88
289.524	534.88
289.755	548.88
289.986	532.88
290.217	525.88
290.448	545.88
290.679	521.88
290.91	539.88
291.141	528.88
291.371	552.88
291.602	540.88
291.833	547.88
292.064	540.88
292.295	531.88
292.526	542.88
292.757	558.88
292.987	552.88
293.218	532.88
293.449	540.88
293.68	542.88
293.91	549.88
294.141	538.88
294.372	537.88
294.603	543.88
294.833	534.88
295.064	536.88
295.295	547.88
295.525	558.88
295.756	560.88
295.987	533.88
296.217	555.88
296.448	545.88
296.679	565.88
296.909	540.88
297.14	557.88
297.37	596.88
297.601	576.88
297.831	558.88
298.062	602.88
298.292	604.88
298.523	604.88
298.753	610.88
298.984	595.88
299.214	567.88
299.445	592.88
299.675	591.88
299.905	585.88
300.136	592.88
300.366	615.88
300.597	590.88
300.827	601.88
301.057	616.88
301.288	595.88
301.518	637.88
301.748	624.88
301.979	629.88
302.209	612.88
302.439	617.88
302.669	602.88
302.9	621.88
303.13	600.88
303.36	603.88
303.59	627.88
303.82	621.88
304.051	626.88
304.281	584.88
304.511	590.88
304.741	618.88
304.971	628.88
305.201	610.88
305.431	612.88
305.661	596.88
305.891	589.88
306.121	598.88
306.352	592.88
306.582	596.88
306.812	608.88
307.042	603.88
307.272	607.88
307.502	593.88
307.731	602.88
307.961	609.88
308.191	603.88
308.421	573.88
308.651	585.88
308.881	575.88
309.111	597.88
309.341	600.88
309.571	614.88
309.8	601.88
310.03	610.88
310.26	598.88
310.49	589.88
310.72	610.88
310.949	580.88
311.179	591.88
311.409	597.88
311.639	615.88
311.868	599.88
312.098	607.88
312.328	615.88
312.557	616.88
312.787	593.88
313.017	620.88
313.246	640.88
313.476	606.88
313.706	627.88
313.935	634.88
314.165	640.88
314.394	642.88
314.624	628.88
314.853	644.88
315.083	634.88
315.312	639.88
315.542	637.88
315.771	628.88
316.001	631.88
316.23	637.88
316.46	619.88
316.689	634.88
316.919	620.88
317.148	613.88
317.377	631.88
317.607	611.88
317.836	619.88
318.065	635.88
318.295	604.88
318.524	628.88
318.753	609.88
318.983	620.88
319.212	589.88
319.441	599.88
319.67	606.88
319.9	629.88
320.129	650.88
320.358	630.88
320.587	614.88
320.816	618.88
321.046	631.88
321.275	633.88
321.504	635.88
321.733	639.88
321.962	626.88
322.191	619.88
322.42	626.88
322.649	631.88
322.878	630.88
323.108	628.88
323.337	640.88
323.566	644.88
323.795	644.88
324.024	638.88
324.253	655.88
324.482	644.88
324.71	636.88
324.939	653.88
325.168	641.88
325.397	668.88
325.626	648.88
325.855	678.88
326.084	667.88
326.313	678.88
326.542	679.88
326.77	723.88
326.999	680.88
327.228	677.88
327.457	676.88
327.686	676.88
327.914	683.88
328.143	680.88
328.372	660.88
328.6	684.88
328.829	683.88
329.058	674.88
329.287	676.88
329.515	705.88
329.744	694.88
329.972	708.88
330.201	685.88
330.43	714.88
330.658	716.88
330.887	709.88
331.115	715.88
331.344	719.88
331.572	716.88
331.801	723.88
332.03	719.88
332.258	784.88
332.486	796.88
332.715	844.88
332.943	840.88
333.172	888.88
333.4	946.88
333.629	936.88
333.857	932.88
334.085	937.88
334.314	933.88
334.542	871.88
334.771	861.88
334.999	874.88
335.227	846.88
335.455	879.88
335.684	850.88
335.912	843.88
336.14	838.88
336.369	819.88
336.597	819.88
336.825	828.88
337.053	820.88
337.281	825.88
337.51	792.88
337.738	773.88
337.966	776.88
338.194	777.88
338.422	758.88
338.65	734.88
338.878	743.88
339.106	754.88
339.334	742.88
339.562	728.88
339.79	718.88
340.018	695.88
340.246	720.88
340.474	717.88
340.702	703.88
340.93	727.88
341.158	703.88
341.386	740.88
341.614	745.88
341.842	726.88
342.07	721.88
342.298	686.88
342.526	735.88
342.754	711.88
342.981	706.88
343.209	733.88
343.437	773.88
343.665	820.88
343.893	874.88
344.12	917.88
344.348	861.88
344.576	808.88
344.804	788.88
345.031	755.88
345.259	741.88
345.487	731.88
345.714	700.88
345.942	698.88
346.17	702.88
346.397	680.88
346.625	696.88
346.853	691.88
347.08	679.88
347.308	706.88
347.535	708.88
347.763	713.88
347.99	717.88
348.218	728.88
348.445	722.88
348.673	714.88
348.9	710.88
349.128	687.88
349.355	676.88
349.583	687.88
349.81	687.88
350.037	691.88
350.265	683.88
350.492	684.88
350.72	661.88
350.947	683.88
351.174	692.88
351.402	690.88
351.629	669.88
351.856	670.88
352.083	660.88
352.311	679.88
352.538	682.88
352.765	695.88
352.992	702.88
353.22	654.88
353.447	674.88
353.674	676.88
353.901	658.88
354.128	648.88
354.355	674.88
354.583	663.88
354.81	680.88
355.037	674.88
355.264	660.88
355.491	665.88
355.718	687.88
355.945	697.88
356.172	670.88
356.399	682.88
356.626	675.88
356.853	664.88
357.08	670.88
357.307	701.88
357.534	675.88
357.761	666.88
357.988	672.88
358.215	663.88
358.441	656.88
358.668	654.88
358.895	666.88
359.122	664.88
359.349	657.88
359.576	679.88
359.802	672.88
360.029	676.88
360.256	692.88
360.483	671.88
360.709	666.88
360.936	654.88
361.163	671.88
361.39	662.88
361.616	669.88
361.843	672.88
362.07	689.88
362.296	644.88
362.523	698.88
362.749	682.88
362.976	659.88
363.203	681.88
363.429	667.88
363.656	656.88
363.882	644.88
364.109	657.88
364.335	660.88
364.562	661.88
364.788	655.88
365.015	642.88
365.241	664.88
365.468	681.88
365.694	661.88
365.92	639.88
366.147	652.88
366.373	681.88
366.599	659.88
366.826	649.88
367.052	666.88
367.278	659.88
367.505	669.88
367.731	710.88
367.957	678.88
368.184	660.88
368.41	682.88
368.636	676.88
368.862	663.88
369.089	675.88
369.315	687.88
369.541	702.88
369.767	713.88
369.993	705.88
370.219	686.88
370.445	741.88
370.672	719.88
370.898	724.88
371.124	720.88
371.35	738.88
371.576	738.88
371.802	731.88
372.028	717.88
372.254	730.88
372.48	733.88
372.706	761.88
372.932	766.88
373.158	745.88
373.384	736.88
373.61	730.88
373.835	757.88
374.061	727.88
374.287	721.88
374.513	734.88
374.739	785.88
374.965	800.88
375.191	831.88
375.416	849.88
375.642	811.88
375.868	784.88
376.094	775.88
376.319	754.88
376.545	778.88
376.771	738.88
376.997	746.88
377.222	731.88
377.448	726.88
377.674	734.88
377.899	724.88
378.125	741.88
378.35	710.88
378.576	732.88
378.802	716.88
379.027	726.88
379.253	714.88
379.478	716.88
379.704	715.88
379.929	732.88
380.155	697.88
380.38	711.88
380.606	741.88
380.831	735.88
381.057	725.88
381.282	719.88
381.507	742.88
381.733	740.88
381.958	746.88
382.184	752.88
382.409	760.88
382.634	769.88
382.86	767.88
383.085	748.88
383.31	792.88
383.535	803.88
383.761	840.88
383.986	836.88
384.211	853.88
384.436	876.88
384.662	887.88
384.887	890.88
385.112	893.88
385.337	914.88
385.562	888.88
385.787	875.88
386.013	892.88
386.238	882.88
386.463	888.88
386.688	894.88
386.913	906.88
387.138	857.88
387.363	871.88
387.588	866.88
387.813	868.88
388.038	882.88
388.263	870.88
388.488	871.88
388.713	891.88
388.938	843.88
389.163	850.88
389.387	833.88
389.612	832.88
389.837	867.88
390.062	828.88
390.287	837.88
390.512	872.88
390.736	858.88
390.961	850.88
391.186	879.88
391.411	891.88
391.636	952.88
391.86	1000.88
392.085	988.88
392.31	986.88
392.534	972.88
392.759	937.88
392.984	934.88
393.208	946.88
393.433	936.88
393.658	915.88
393.882	941.88
394.107	956.88
394.331	943.88
394.556	933.88
394.78	944.88
395.005	962.88
395.229	970.88
395.454	978.88
395.678	982.88
395.903	1013.88
396.127	960.88
396.352	944.88
396.576	917.88
396.801	918.88
397.025	913.88
397.249	933.88
397.474	981.88
397.698	968.88
397.922	980.88
398.147	950.88
398.371	1000.88
398.595	1000.88
398.82	1045.88
399.044	1141.88
399.268	1287.88
399.492	1506.88
399.717	1706.88
399.941	1765.88
400.165	1492.88
400.389	1321.88
400.613	1196.88
400.837	1158.88
401.062	1134.88
401.286	1119.88
401.51	1097.88
401.734	1091.88
401.958	1104.88
402.182	1139.88
402.406	1159.88
402.63	1149.88
402.854	1171.88
403.078	1190.88
403.302	1240.88
403.526	1258.88
403.75	1253.88
403.974	1307.88
404.198	1338.88
404.422	1307.88
404.645	1326.88
404.869	1288.88
405.093	1262.88
405.317	1220.88
405.541	1226.88
405.765	1224.88
405.988	1208.88
406.212	1212.88
406.436	1205.88
406.66	1235.88
406.883	1270.88
407.107	1320.88
407.331	1411.88
407.555	1461.88
407.778	1450.88
408.002	1406.88
408.226	1353.88
408.449	1334.88
408.673	1276.88
408.896	1285.88
409.12	1242.88
409.344	1276.88
409.567	1284.88
409.791	1303.88
410.014	1273.88
410.238	1266.88
410.461	1257.88
410.685	1242.88
410.908	1214.88
411.132	1172.88
411.355	1172.88
411.578	1167.88
411.802	1156.88
412.025	1173.88
412.249	1184.88
412.472	1158.88
412.695	1135.88
412.919	1115.88
413.142	1066.88
413.365	1096.88
413.589	1121.88
413.812	1094.88
414.035	1085.88
414.258	1090.88
414.482	1104.88
414.705	1097.88
414.928	1102.88
415.151	1131.88
415.374	1127.88
415.597	1121.88
415.821	1071.88
416.044	1078.88
416.267	1084.88
416.49	1063.88
416.713	1066.88
416.936	1067.88
417.159	1086.88
417.382	1086.88
417.605	1078.88
417.828	1091.88
418.051	1108.88
418.274	1107.88
418.497	1101.88
418.72	1122.88
418.943	1117.88
419.166	1181.88
419.389	1295.88
419.611	1248.88
419.834	1150.88
420.057	1118.88
420.28	1121.88
420.503	1063.88
420.726	1074.88
420.948	1074.88
421.171	1053.88
421.394	1077.88
421.617	1056.88
421.839	1113.88
422.062	1101.88
422.285	1123.88
422.507	1140.88
422.73	1126.88
422.953	1144.88
423.175	1168.88
423.398	1166.88
423.621	1172.88
423.843	1190.88
424.066	1165.88
424.288	1172.88
424.511	1147.88
424.733	1151.88
424.956	1151.88
425.178	1140.88
425.401	1107.88
425.623	1065.88
425.846	1072.88
426.068	1068.88
426.291	1052.88
426.513	1002.88
426.735	1012.88
426.958	1065.88
427.18	969.88
427.402	984.88
427.625	1023.88
427.847	975.88
428.069	992.88
428.292	967.88
428.514	959.88
428.736	973.88
428.958	958.88
429.181	945.88
429.403	929.88
429.625	900.88
429.847	958.88
430.069	949.88
430.292	952.88
430.514	908.88
430.736	947.88
430.958	947.88
431.18	927.88
431.402	946.88
431.624	956.88
431.846	1007.88
432.068	1026.88
432.29	1014.88
432.512	965.88
432.734	984.88
432.956	976.88
433.178	968.88
433.4	976.88
433.622	993.88
433.844	982.88
434.066	992.88
434.287	1005.88
434.509	1079.88
434.731	1055.88
434.953	1132.88
435.175	1133.88
435.397	1092.88
435.618	1074.88
435.84	1034.88
436.062	1011.88
436.284	957.88
436.505	979.88
436.727	999.88
436.949	993.88
437.17	975.88
437.392	943.88
437.614	952.88
437.835	952.88
438.057	957.88
438.278	940.88
438.5	927.88
438.721	923.88
438.943	935.88
439.165	968.88
439.386	946.88
439.608	977.88
439.829	968.88
440.05	1000.88
440.272	973.88
440.493	991.88
440.715	984.88
440.936	1049.88
441.158	1002.88
441.379	1070.88
441.6	1117.88
441.822	1115.88
442.043	1097.88
442.264	1096.88
442.486	1055.88
442.707	1112.88
442.928	1102.88
443.149	1059.88
443.371	1092.88
443.592	1098.88
443.813	1113.88
444.034	1129.88
444.255	1164.88
444.476	1206.88
444.698	1286.88
444.919	1383.88
445.14	1424.88
445.361	1229.88
445.582	1148.88
445.803	1082.88
446.024	1049.88
446.245	1034.88
446.466	956.88
446.687	1017.88
446.908	968.88
447.129	958.88
447.35	960.88
447.571	938.88
447.792	913.88
448.013	942.88
448.234	905.88
448.455	908.88
448.675	893.88
448.896	870.88
449.117	872.88
449.338	891.88
449.559	876.88
449.779	885.88
450	884.88
450.221	896.88
450.442	883.88
450.662	901.88
450.883	941.88
451.104	938.88
451.324	927.88
451.545	925.88
451.766	931.88
451.986	918.88
452.207	905.88
452.428	916.88
452.648	889.88
452.869	894.88
453.089	878.88
453.31	896.88
453.53	914.88
453.751	906.88
453.971	877.88
454.192	866.88
454.412	852.88
454.633	843.88
454.853	860.88
455.073	859.88
455.294	855.88
455.514	855.88
455.734	855.88
455.955	829.88
456.175	846.88
456.395	853.88
456.616	822.88
456.836	831.88
457.056	825.88
457.276	828.88
457.497	848.88
457.717	829.88
457.937	848.88
458.157	887.88
458.377	848.88
458.598	886.88
458.818	918.88
459.038	900.88
459.258	937.88
459.478	1015.88
459.698	1012.88
459.918	1047.88
460.138	1078.88
460.358	1168.88
460.578	1163.88
460.798	1171.88
461.018	1179.88
461.238	1152.88
461.458	1147.88
461.678	1186.88
461.898	1162.88
462.118	1165.88
462.338	1211.88
462.558	1271.88
462.777	1317.88
462.997	1459.88
463.217	1632.88
463.437	1623.88
463.657	1461.88
463.876	1400.88
464.096	1381.88
464.316	1384.88
464.536	1394.88
464.755	1359.88
464.975	1292.88
465.195	1259.88
465.414	1190.88
465.634	1088.88
465.854	1031.88
466.073	1015.88
466.293	991.88
466.512	980.88
466.732	944.88
466.951	938.88
467.171	948.88
467.391	944.88
467.61	970.88
467.829	971.88
468.049	947.88
468.268	928.88
468.488	883.88
468.707	906.88
468.927	891.88
469.146	920.88
469.365	912.88
469.585	917.88
469.804	917.88
470.023	940.88
470.243	974.88
470.462	970.88
470.681	987.88
470.901	988.88
471.12	960.88
471.339	952.88
471.558	936.88
471.777	926.88
471.997	896.88
472.216	907.88
472.435	879.88
472.654	859.88
472.873	899.88
473.092	902.88
473.311	860.88
473.53	877.88
473.749	838.88
473.968	870.88
474.187	864.88
474.406	852.88
474.625	890.88
474.844	894.88
475.063	865.88
475.282	860.88
475.501	905.88
475.72	898.88
475.939	916.88
476.158	927.88
476.377	907.88
476.596	911.88
476.814	936.88
477.033	925.88
477.252	946.88
477.471	955.88
477.69	995.88
477.908	1003.88
478.127	1031.88
478.346	1063.88
478.564	1097.88
478.783	1088.88
479.002	1113.88
479.22	1137.88
479.439	1093.88
479.658	1092.88
479.876	1066.88
480.095	1102.88
480.313	1162.88
480.532	1218.88
480.751	1194.88
480.969	1134.88
481.188	1095.88
481.406	1084.88
481.624	1028.88
481.843	1051.88
482.061	978.88
482.28	1020.88
482.498	1016.88
482.717	996.88
482.935	999.88
483.153	997.88
483.372	1003.88
483.59	997.88
483.808	1040.88
484.027	1027.88
484.245	1044.88
484.463	1002.88
484.681	1046.88
484.9	1055.88
485.118	1066.88
485.336	1068.88
485.554	1053.88
485.772	1069.88
485.99	1048.88
486.209	1111.88
486.427	1088.88
486.645	1090.88
486.863	1107.88
487.081	1084.88
487.299	1063.88
487.517	1063.88
487.735	1050.88
487.953	1043.88
488.171	1052.88
488.389	1053.88
488.607	1062.88
488.825	1040.88
489.043	1036.88
489.261	1053.88
489.479	1032.88
489.696	1044.88
489.914	1064.88
490.132	1045.88
490.35	1045.88
490.568	1040.88
490.786	1048.88
491.003	1046.88
491.221	1061.88
491.439	1052.88
491.657	1051.88
491.874	1045.88
492.092	1020.88
492.31	1080.88
492.527	1063.88
492.745	1068.88
492.963	1069.88
493.18	1092.88
493.398	1104.88
493.615	1145.88
493.833	1121.88
494.05	1084.88
494.268	1095.88
494.485	1129.88
494.703	1095.88
494.92	1109.88
495.138	1129.88
495.355	1115.88
495.573	1120.88
495.79	1145.88
496.008	1133.88
496.225	1127.88
496.442	1118.88
496.66	1149.88
496.877	1166.88
497.094	1199.88
497.312	1223.88
497.529	1258.88
