Data from Ni(NO3)2@0.0625M.TitratingCurve.Agarose3%dH2O.NegLispCup.LampEnergy10.LIBS07252019_HRD10591_18-16-02-570.txt Node
Date: Thu Jul 25 18:16:02 EDT 2019
User: cochatt
Spectrometer: HR+D1059
Trigger mode: 1
Integration Time (sec): 1.000000E-1
Scans to average: 1
Electric dark correction enabled: true
Nonlinearity correction enabled: false
Boxcar width: 0
XAxis mode: Wavelengths
Number of Pixels in Spectrum: 2048
>>>>>Begin Spectral Data<<<<<
223.165	-7.56
223.4	-7.56
223.635	-7.56
223.869	-27.56
224.104	-24.56
224.338	-20.56
224.573	-13.56
224.808	-0.56
225.042	-7.56
225.277	-12.56
225.511	1.44
225.746	11.44
225.98	-7.56
226.215	13.44
226.449	20.44
226.683	8.44
226.918	28.44
227.152	38.44
227.387	34.44
227.621	29.44
227.856	52.44
228.09	37.44
228.324	38.44
228.559	50.44
228.793	66.44
229.027	85.44
229.262	100.44
229.496	101.44
229.73	92.44
229.964	112.44
230.199	124.44
230.433	113.44
230.667	110.44
230.901	106.44
231.136	128.44
231.37	117.44
231.604	116.44
231.838	133.44
232.072	121.44
232.306	145.44
232.541	134.44
232.775	128.44
233.009	129.44
233.243	130.44
233.477	128.44
233.711	127.44
233.945	130.44
234.179	132.44
234.413	140.44
234.647	132.44
234.881	128.44
235.115	135.44
235.349	123.44
235.583	128.44
235.817	136.44
236.051	137.44
236.285	129.44
236.519	128.44
236.753	135.44
236.987	139.44
237.221	135.44
237.455	141.44
237.689	135.44
237.922	132.44
238.156	150.44
238.39	138.44
238.624	136.44
238.858	149.44
239.091	145.44
239.325	137.44
239.559	152.44
239.793	157.44
240.027	148.44
240.26	160.44
240.494	173.44
240.728	142.44
240.961	147.44
241.195	150.44
241.429	144.44
241.662	174.44
241.896	164.44
242.13	166.44
242.363	156.44
242.597	174.44
242.83	174.44
243.064	161.44
243.298	168.44
243.531	164.44
243.765	158.44
243.998	164.44
244.232	171.44
244.465	177.44
244.699	177.44
244.932	184.44
245.166	173.44
245.399	193.44
245.633	178.44
245.866	190.44
246.099	180.44
246.333	188.44
246.566	181.44
246.8	179.44
247.033	184.44
247.266	178.44
247.5	199.44
247.733	183.44
247.966	199.44
248.2	202.44
248.433	212.44
248.666	203.44
248.899	188.44
249.133	201.44
249.366	197.44
249.599	203.44
249.832	192.44
250.066	200.44
250.299	196.44
250.532	213.44
250.765	210.44
250.998	195.44
251.231	227.44
251.465	219.44
251.698	220.44
251.931	228.44
252.164	220.44
252.397	218.44
252.63	228.44
252.863	209.44
253.096	228.44
253.329	222.44
253.562	216.44
253.795	224.44
254.028	241.44
254.261	244.44
254.494	228.44
254.727	225.44
254.96	223.44
255.193	225.44
255.426	233.44
255.659	220.44
255.892	227.44
256.124	233.44
256.357	228.44
256.59	225.44
256.823	224.44
257.056	232.44
257.289	236.44
257.521	256.44
257.754	235.44
257.987	248.44
258.22	247.44
258.452	253.44
258.685	238.44
258.918	223.44
259.151	243.44
259.383	228.44
259.616	253.44
259.849	244.44
260.081	240.44
260.314	261.44
260.547	259.44
260.779	244.44
261.012	269.44
261.244	272.44
261.477	243.44
261.71	258.44
261.942	256.44
262.175	243.44
262.407	267.44
262.64	262.44
262.872	286.44
263.105	260.44
263.337	268.44
263.57	265.44
263.802	277.44
264.035	293.44
264.267	273.44
264.499	268.44
264.732	292.44
264.964	277.44
265.197	288.44
265.429	289.44
265.661	285.44
265.894	277.44
266.126	289.44
266.358	288.44
266.591	280.44
266.823	286.44
267.055	293.44
267.287	296.44
267.52	290.44
267.752	280.44
267.984	300.44
268.216	278.44
268.448	305.44
268.681	299.44
268.913	279.44
269.145	281.44
269.377	308.44
269.609	309.44
269.841	309.44
270.073	298.44
270.306	289.44
270.538	315.44
270.77	306.44
271.002	290.44
271.234	297.44
271.466	310.44
271.698	288.44
271.93	299.44
272.162	280.44
272.394	305.44
272.626	314.44
272.858	307.44
273.09	310.44
273.322	326.44
273.553	310.44
273.785	321.44
274.017	314.44
274.249	327.44
274.481	339.44
274.713	317.44
274.945	337.44
275.176	330.44
275.408	328.44
275.64	347.44
275.872	341.44
276.104	317.44
276.335	334.44
276.567	326.44
276.799	334.44
277.031	316.44
277.262	333.44
277.494	328.44
277.726	363.44
277.957	343.44
278.189	334.44
278.421	333.44
278.652	327.44
278.884	341.44
279.115	345.44
279.347	346.44
279.579	340.44
279.81	360.44
280.042	343.44
280.273	352.44
280.505	355.44
280.736	370.44
280.968	335.44
281.199	353.44
281.431	358.44
281.662	353.44
281.894	374.44
282.125	368.44
282.356	370.44
282.588	366.44
282.819	388.44
283.051	378.44
283.282	370.44
283.513	389.44
283.745	377.44
283.976	371.44
284.207	389.44
284.439	393.44
284.67	388.44
284.901	395.44
285.132	392.44
285.364	383.44
285.595	384.44
285.826	396.44
286.057	401.44
286.288	405.44
286.52	398.44
286.751	390.44
286.982	395.44
287.213	389.44
287.444	415.44
287.675	399.44
287.906	376.44
288.138	406.44
288.369	410.44
288.6	375.44
288.831	380.44
289.062	397.44
289.293	420.44
289.524	402.44
289.755	424.44
289.986	409.44
290.217	388.44
290.448	412.44
290.679	401.44
290.91	424.44
291.141	404.44
291.371	408.44
291.602	416.44
291.833	408.44
292.064	428.44
292.295	429.44
292.526	429.44
292.757	411.44
292.987	429.44
293.218	406.44
293.449	421.44
293.68	430.44
293.91	419.44
294.141	425.44
294.372	422.44
294.603	414.44
294.833	420.44
295.064	428.44
295.295	434.44
295.525	413.44
295.756	440.44
295.987	418.44
296.217	450.44
296.448	425.44
296.679	436.44
296.909	443.44
297.14	436.44
297.37	448.44
297.601	480.44
297.831	453.44
298.062	462.44
298.292	444.44
298.523	464.44
298.753	457.44
298.984	432.44
299.214	456.44
299.445	451.44
299.675	469.44
299.905	435.44
300.136	469.44
300.366	465.44
300.597	465.44
300.827	473.44
301.057	479.44
301.288	476.44
301.518	468.44
301.748	482.44
301.979	501.44
302.209	491.44
302.439	478.44
302.669	475.44
302.9	467.44
303.13	453.44
303.36	461.44
303.59	462.44
303.82	476.44
304.051	468.44
304.281	452.44
304.511	454.44
304.741	451.44
304.971	463.44
305.201	466.44
305.431	471.44
305.661	484.44
305.891	440.44
306.121	454.44
306.352	465.44
306.582	478.44
306.812	438.44
307.042	461.44
307.272	462.44
307.502	458.44
307.731	460.44
307.961	443.44
308.191	446.44
308.421	470.44
308.651	458.44
308.881	452.44
309.111	455.44
309.341	443.44
309.571	457.44
309.8	448.44
310.03	456.44
310.26	468.44
310.49	468.44
310.72	453.44
310.949	447.44
311.179	454.44
311.409	455.44
311.639	460.44
311.868	481.44
312.098	467.44
312.328	467.44
312.557	472.44
312.787	480.44
313.017	479.44
313.246	490.44
313.476	482.44
313.706	515.44
313.935	499.44
314.165	510.44
314.394	482.44
314.624	500.44
314.853	478.44
315.083	469.44
315.312	484.44
315.542	493.44
315.771	500.44
316.001	466.44
316.23	481.44
316.46	474.44
316.689	521.44
316.919	471.44
317.148	478.44
317.377	488.44
317.607	479.44
317.836	485.44
318.065	465.44
318.295	499.44
318.524	486.44
318.753	479.44
318.983	473.44
319.212	446.44
319.441	497.44
319.67	460.44
319.9	478.44
320.129	474.44
320.358	489.44
320.587	497.44
320.816	488.44
321.046	468.44
321.275	482.44
321.504	483.44
321.733	481.44
321.962	484.44
322.191	484.44
322.42	471.44
322.649	493.44
322.878	480.44
323.108	474.44
323.337	498.44
323.566	472.44
323.795	482.44
324.024	513.44
324.253	499.44
324.482	487.44
324.71	487.44
324.939	506.44
325.168	510.44
325.397	493.44
325.626	516.44
325.855	523.44
326.084	544.44
326.313	499.44
326.542	541.44
326.77	554.44
326.999	519.44
327.228	536.44
327.457	531.44
327.686	518.44
327.914	533.44
328.143	530.44
328.372	530.44
328.6	548.44
328.829	515.44
329.058	530.44
329.287	528.44
329.515	524.44
329.744	536.44
329.972	525.44
330.201	536.44
330.43	521.44
330.658	536.44
330.887	536.44
331.115	552.44
331.344	557.44
331.572	561.44
331.801	593.44
332.03	581.44
332.258	599.44
332.486	604.44
332.715	632.44
332.943	662.44
333.172	706.44
333.4	730.44
333.629	736.44
333.857	721.44
334.085	697.44
334.314	709.44
334.542	678.44
334.771	661.44
334.999	672.44
335.227	656.44
335.455	662.44
335.684	644.44
335.912	626.44
336.14	642.44
336.369	628.44
336.597	633.44
336.825	645.44
337.053	645.44
337.281	603.44
337.51	611.44
337.738	590.44
337.966	601.44
338.194	590.44
338.422	580.44
338.65	564.44
338.878	539.44
339.106	571.44
339.334	594.44
339.562	554.44
339.79	563.44
340.018	558.44
340.246	552.44
340.474	551.44
340.702	580.44
340.93	536.44
341.158	531.44
341.386	541.44
341.614	546.44
341.842	560.44
342.07	541.44
342.298	542.44
342.526	536.44
342.754	551.44
342.981	537.44
343.209	573.44
343.437	577.44
343.665	631.44
343.893	673.44
344.12	709.44
344.348	672.44
344.576	626.44
344.804	620.44
345.031	588.44
345.259	571.44
345.487	560.44
345.714	548.44
345.942	563.44
346.17	536.44
346.397	532.44
346.625	550.44
346.853	545.44
347.08	544.44
347.308	539.44
347.535	557.44
347.763	541.44
347.99	551.44
348.218	551.44
348.445	545.44
348.673	559.44
348.9	540.44
349.128	535.44
349.355	512.44
349.583	529.44
349.81	549.44
350.037	506.44
350.265	537.44
350.492	520.44
350.72	539.44
350.947	539.44
351.174	512.44
351.402	530.44
351.629	524.44
351.856	526.44
352.083	498.44
352.311	499.44
352.538	520.44
352.765	528.44
352.992	516.44
353.22	493.44
353.447	520.44
353.674	504.44
353.901	517.44
354.128	491.44
354.355	505.44
354.583	494.44
354.81	526.44
355.037	499.44
355.264	521.44
355.491	507.44
355.718	532.44
355.945	525.44
356.172	544.44
356.399	522.44
356.626	519.44
356.853	520.44
357.08	502.44
357.307	520.44
357.534	519.44
357.761	522.44
357.988	526.44
358.215	525.44
358.441	512.44
358.668	508.44
358.895	525.44
359.122	532.44
359.349	522.44
359.576	513.44
359.802	505.44
360.029	516.44
360.256	534.44
360.483	536.44
360.709	531.44
360.936	507.44
361.163	520.44
361.39	511.44
361.616	521.44
361.843	503.44
362.07	531.44
362.296	492.44
362.523	518.44
362.749	532.44
362.976	528.44
363.203	537.44
363.429	489.44
363.656	506.44
363.882	508.44
364.109	500.44
364.335	521.44
364.562	514.44
364.788	490.44
365.015	514.44
365.241	520.44
365.468	490.44
365.694	516.44
365.92	505.44
366.147	518.44
366.373	540.44
366.599	524.44
366.826	520.44
367.052	516.44
367.278	492.44
367.505	533.44
367.731	520.44
367.957	506.44
368.184	516.44
368.41	509.44
368.636	518.44
368.862	531.44
369.089	548.44
369.315	523.44
369.541	516.44
369.767	556.44
369.993	534.44
370.219	544.44
370.445	538.44
370.672	539.44
370.898	553.44
371.124	556.44
371.35	566.44
371.576	556.44
371.802	568.44
372.028	557.44
372.254	562.44
372.48	566.44
372.706	574.44
372.932	600.44
373.158	576.44
373.384	572.44
373.61	566.44
373.835	591.44
374.061	574.44
374.287	562.44
374.513	562.44
374.739	579.44
374.965	634.44
375.191	644.44
375.416	636.44
375.642	597.44
375.868	604.44
376.094	587.44
376.319	594.44
376.545	585.44
376.771	573.44
376.997	562.44
377.222	557.44
377.448	563.44
377.674	555.44
377.899	566.44
378.125	552.44
378.35	554.44
378.576	586.44
378.802	568.44
379.027	550.44
379.253	580.44
379.478	551.44
379.704	544.44
379.929	541.44
380.155	563.44
380.38	561.44
380.606	562.44
380.831	580.44
381.057	569.44
381.282	548.44
381.507	537.44
381.733	568.44
381.958	557.44
382.184	580.44
382.409	596.44
382.634	587.44
382.86	593.44
383.085	600.44
383.31	610.44
383.535	606.44
383.761	599.44
383.986	625.44
384.211	660.44
384.436	652.44
384.662	668.44
384.887	673.44
385.112	656.44
385.337	675.44
385.562	695.44
385.787	677.44
386.013	690.44
386.238	694.44
386.463	679.44
386.688	686.44
386.913	662.44
387.138	635.44
387.363	655.44
387.588	627.44
387.813	659.44
388.038	668.44
388.263	671.44
388.488	686.44
388.713	647.44
388.938	664.44
389.163	636.44
389.387	655.44
389.612	629.44
389.837	666.44
390.062	660.44
390.287	649.44
390.512	637.44
390.736	655.44
390.961	655.44
391.186	672.44
391.411	716.44
391.636	734.44
391.86	751.44
392.085	774.44
392.31	769.44
392.534	730.44
392.759	720.44
392.984	713.44
393.208	725.44
393.433	700.44
393.658	725.44
393.882	727.44
394.107	724.44
394.331	738.44
394.556	733.44
394.78	736.44
395.005	736.44
395.229	718.44
395.454	776.44
395.678	774.44
395.903	769.44
396.127	758.44
396.352	682.44
396.576	714.44
396.801	710.44
397.025	710.44
397.249	723.44
397.474	747.44
397.698	754.44
397.922	746.44
398.147	752.44
398.371	758.44
398.595	804.44
398.82	817.44
399.044	874.44
399.268	984.44
399.492	1160.44
399.717	1340.44
399.941	1298.44
400.165	1141.44
400.389	977.44
400.613	913.44
400.837	866.44
401.062	851.44
401.286	831.44
401.51	819.44
401.734	835.44
401.958	868.44
402.182	846.44
402.406	860.44
402.63	891.44
402.854	921.44
403.078	910.44
403.302	920.44
403.526	981.44
403.75	999.44
403.974	1021.44
404.198	987.44
404.422	1000.44
404.645	1005.44
404.869	996.44
405.093	985.44
405.317	938.44
405.541	929.44
405.765	933.44
405.988	922.44
406.212	937.44
406.436	928.44
406.66	934.44
406.883	935.44
407.107	1011.44
407.331	1055.44
407.555	1141.44
407.778	1106.44
408.002	1058.44
408.226	1038.44
408.449	1005.44
408.673	987.44
408.896	947.44
409.12	964.44
409.344	1009.44
409.567	995.44
409.791	1004.44
410.014	954.44
410.238	967.44
410.461	950.44
410.685	946.44
410.908	925.44
411.132	918.44
411.355	886.44
411.578	875.44
411.802	860.44
412.025	900.44
412.249	907.44
412.472	906.44
412.695	846.44
412.919	852.44
413.142	832.44
413.365	832.44
413.589	855.44
413.812	830.44
414.035	832.44
414.258	845.44
414.482	831.44
414.705	859.44
414.928	877.44
415.151	851.44
415.374	851.44
415.597	820.44
415.821	826.44
416.044	836.44
416.267	840.44
416.49	801.44
416.713	808.44
416.936	854.44
417.159	829.44
417.382	835.44
417.605	813.44
417.828	832.44
418.051	832.44
418.274	826.44
418.497	841.44
418.72	900.44
418.943	852.44
419.166	941.44
419.389	984.44
419.611	939.44
419.834	902.44
420.057	888.44
420.28	842.44
420.503	851.44
420.726	830.44
420.948	834.44
421.171	804.44
421.394	837.44
421.617	830.44
421.839	842.44
422.062	840.44
422.285	851.44
422.507	865.44
422.73	860.44
422.953	878.44
423.175	901.44
423.398	916.44
423.621	901.44
423.843	906.44
424.066	950.44
424.288	891.44
424.511	905.44
424.733	885.44
424.956	869.44
425.178	848.44
425.401	827.44
425.623	836.44
425.846	823.44
426.068	797.44
426.291	795.44
426.513	788.44
426.735	790.44
426.958	794.44
427.18	757.44
427.402	754.44
427.625	788.44
427.847	748.44
428.069	739.44
428.292	754.44
428.514	725.44
428.736	753.44
428.958	784.44
429.181	790.44
429.403	726.44
429.625	716.44
429.847	745.44
430.069	704.44
430.292	728.44
430.514	712.44
430.736	733.44
430.958	732.44
431.18	723.44
431.402	725.44
431.624	769.44
431.846	753.44
432.068	785.44
432.29	755.44
432.512	731.44
432.734	752.44
432.956	727.44
433.178	754.44
433.4	775.44
433.622	768.44
433.844	748.44
434.066	756.44
434.287	772.44
434.509	822.44
434.731	823.44
434.953	821.44
435.175	842.44
435.397	841.44
435.618	820.44
435.84	797.44
436.062	754.44
436.284	762.44
436.505	750.44
436.727	749.44
436.949	732.44
437.17	743.44
437.392	744.44
437.614	730.44
437.835	733.44
438.057	727.44
438.278	694.44
438.5	744.44
438.721	741.44
438.943	746.44
439.165	722.44
439.386	730.44
439.608	758.44
439.829	753.44
440.05	745.44
440.272	755.44
440.493	726.44
440.715	751.44
440.936	777.44
441.158	776.44
441.379	819.44
441.6	866.44
441.822	860.44
442.043	860.44
442.264	845.44
442.486	829.44
442.707	814.44
442.928	824.44
443.149	835.44
443.371	832.44
443.592	858.44
443.813	854.44
444.034	858.44
444.255	888.44
444.476	930.44
444.698	986.44
444.919	1070.44
445.14	1081.44
445.361	975.44
445.582	887.44
445.803	852.44
446.024	786.44
446.245	795.44
446.466	795.44
446.687	750.44
446.908	759.44
447.129	728.44
447.35	745.44
447.571	723.44
447.792	714.44
448.013	699.44
448.234	681.44
448.455	685.44
448.675	710.44
448.896	692.44
449.117	695.44
449.338	698.44
449.559	684.44
449.779	683.44
450	692.44
450.221	705.44
450.442	700.44
450.662	713.44
450.883	736.44
451.104	733.44
451.324	748.44
451.545	718.44
451.766	724.44
451.986	714.44
452.207	737.44
452.428	736.44
452.648	736.44
452.869	694.44
453.089	668.44
453.31	700.44
453.53	688.44
453.751	693.44
453.971	654.44
454.192	672.44
454.412	676.44
454.633	654.44
454.853	676.44
455.073	662.44
455.294	658.44
455.514	642.44
455.734	661.44
455.955	660.44
456.175	662.44
456.395	638.44
456.616	626.44
456.836	650.44
457.056	641.44
457.276	666.44
457.497	652.44
457.717	628.44
457.937	634.44
458.157	662.44
458.377	670.44
458.598	677.44
458.818	703.44
459.038	719.44
459.258	732.44
459.478	766.44
459.698	789.44
459.918	797.44
460.138	849.44
460.358	896.44
460.578	880.44
460.798	918.44
461.018	912.44
461.238	884.44
461.458	874.44
461.678	894.44
461.898	896.44
462.118	907.44
462.338	948.44
462.558	964.44
462.777	1018.44
462.997	1102.44
463.217	1215.44
463.437	1230.44
463.657	1132.44
463.876	1042.44
464.096	1034.44
464.316	1055.44
464.536	1067.44
464.755	1026.44
464.975	1015.44
465.195	934.44
465.414	871.44
465.634	840.44
465.854	785.44
466.073	745.44
466.293	755.44
466.512	733.44
466.732	737.44
466.951	746.44
467.171	743.44
467.391	761.44
467.61	770.44
467.829	738.44
468.049	730.44
468.268	704.44
468.488	709.44
468.707	691.44
468.927	693.44
469.146	693.44
469.365	727.44
469.585	704.44
469.804	731.44
470.023	735.44
470.243	762.44
470.462	764.44
470.681	777.44
470.901	731.44
471.12	744.44
471.339	727.44
471.558	722.44
471.777	727.44
471.997	692.44
472.216	677.44
472.435	702.44
472.654	663.44
472.873	678.44
473.092	680.44
473.311	663.44
473.53	653.44
473.749	660.44
473.968	688.44
474.187	676.44
474.406	670.44
474.625	684.44
474.844	689.44
475.063	664.44
475.282	702.44
475.501	674.44
475.72	688.44
475.939	691.44
476.158	710.44
476.377	717.44
476.596	712.44
476.814	730.44
477.033	693.44
477.252	710.44
477.471	733.44
477.69	758.44
477.908	760.44
478.127	825.44
478.346	829.44
478.564	816.44
478.783	839.44
479.002	855.44
479.22	868.44
479.439	844.44
479.658	820.44
479.876	844.44
480.095	860.44
480.313	897.44
480.532	900.44
480.751	947.44
480.969	865.44
481.188	850.44
481.406	830.44
481.624	782.44
481.843	747.44
482.061	770.44
482.28	762.44
482.498	780.44
482.717	758.44
482.935	762.44
483.153	787.44
483.372	776.44
483.59	786.44
483.808	786.44
484.027	771.44
484.245	736.44
484.463	784.44
484.681	791.44
484.9	803.44
485.118	810.44
485.336	828.44
485.554	820.44
485.772	805.44
485.99	833.44
486.209	816.44
486.427	827.44
486.645	842.44
486.863	846.44
487.081	794.44
487.299	813.44
487.517	824.44
487.735	790.44
487.953	805.44
488.171	812.44
488.389	801.44
488.607	806.44
488.825	800.44
489.043	797.44
489.261	800.44
489.479	805.44
489.696	806.44
489.914	824.44
490.132	796.44
490.35	831.44
490.568	792.44
490.786	794.44
491.003	793.44
491.221	825.44
491.439	839.44
491.657	804.44
491.874	824.44
492.092	819.44
492.31	827.44
492.527	834.44
492.745	814.44
492.963	820.44
493.18	824.44
493.398	857.44
493.615	873.44
493.833	843.44
494.05	813.44
494.268	828.44
494.485	851.44
494.703	842.44
494.92	841.44
495.138	866.44
495.355	862.44
495.573	850.44
495.79	878.44
496.008	874.44
496.225	851.44
496.442	862.44
496.66	891.44
496.877	892.44
497.094	898.44
497.312	954.44
497.529	925.44
497.746	957.44
497.963	972.44
498.181	1010.44
498.398	1032.44
498.615	1096.44
498.832	1206.44
499.049	1300.44
499.267	1393.44
499.484	1524.44
499.701	1722.44
499.918	1901.44
500.135	2216.44
500.352	2627.44
500.569	2776.44
500.786	2770.44
501.003	2500.44
