Data from Ni(NO3)2@0.125M.TitratingCurve.Agarose3%dH2O.NegLispCup.LampEnergy10.LIBS07252019_HRD10591_18-09-29-567.txt Node
Date: Thu Jul 25 18:09:29 EDT 2019
User: cochatt
Spectrometer: HR+D1059
Trigger mode: 1
Integration Time (sec): 1.000000E-1
Scans to average: 1
Electric dark correction enabled: true
Nonlinearity correction enabled: false
Boxcar width: 0
XAxis mode: Wavelengths
Number of Pixels in Spectrum: 2048
>>>>>Begin Spectral Data<<<<<
223.165	-8.81
223.4	-8.81
223.635	-8.81
223.869	-11.81
224.104	-30.81
224.338	-18.81
224.573	-12.81
224.808	-18.81
225.042	-10.81
225.277	-8.81
225.511	0.19
225.746	4.19
225.98	6.19
226.215	22.19
226.449	8.19
226.683	27.19
226.918	28.19
227.152	25.19
227.387	28.19
227.621	30.19
227.856	37.19
228.09	52.19
228.324	47.19
228.559	51.19
228.793	71.19
229.027	93.19
229.262	111.19
229.496	105.19
229.73	104.19
229.964	113.19
230.199	98.19
230.433	111.19
230.667	122.19
230.901	112.19
231.136	133.19
231.37	131.19
231.604	133.19
231.838	138.19
232.072	133.19
232.306	145.19
232.541	125.19
232.775	134.19
233.009	129.19
233.243	132.19
233.477	149.19
233.711	118.19
233.945	160.19
234.179	143.19
234.413	137.19
234.647	142.19
234.881	144.19
235.115	136.19
235.349	146.19
235.583	153.19
235.817	146.19
236.051	139.19
236.285	148.19
236.519	161.19
236.753	139.19
236.987	152.19
237.221	163.19
237.455	153.19
237.689	147.19
237.922	154.19
238.156	149.19
238.39	155.19
238.624	149.19
238.858	152.19
239.091	159.19
239.325	157.19
239.559	163.19
239.793	161.19
240.027	179.19
240.26	190.19
240.494	160.19
240.728	167.19
240.961	172.19
241.195	175.19
241.429	165.19
241.662	167.19
241.896	174.19
242.13	200.19
242.363	179.19
242.597	182.19
242.83	176.19
243.064	177.19
243.298	173.19
243.531	179.19
243.765	196.19
243.998	192.19
244.232	190.19
244.465	203.19
244.699	181.19
244.932	191.19
245.166	203.19
245.399	203.19
245.633	196.19
245.866	213.19
246.099	185.19
246.333	220.19
246.566	206.19
246.8	210.19
247.033	206.19
247.266	199.19
247.5	207.19
247.733	215.19
247.966	198.19
248.2	216.19
248.433	226.19
248.666	234.19
248.899	237.19
249.133	219.19
249.366	230.19
249.599	238.19
249.832	228.19
250.066	250.19
250.299	240.19
250.532	237.19
250.765	256.19
250.998	232.19
251.231	243.19
251.465	220.19
251.698	219.19
251.931	231.19
252.164	236.19
252.397	259.19
252.63	247.19
252.863	243.19
253.096	231.19
253.329	251.19
253.562	248.19
253.795	272.19
254.028	255.19
254.261	249.19
254.494	232.19
254.727	265.19
254.96	245.19
255.193	281.19
255.426	260.19
255.659	248.19
255.892	264.19
256.124	270.19
256.357	254.19
256.59	265.19
256.823	260.19
257.056	267.19
257.289	274.19
257.521	277.19
257.754	284.19
257.987	278.19
258.22	285.19
258.452	279.19
258.685	276.19
258.918	277.19
259.151	293.19
259.383	283.19
259.616	292.19
259.849	288.19
260.081	303.19
260.314	281.19
260.547	288.19
260.779	288.19
261.012	274.19
261.244	310.19
261.477	294.19
261.71	293.19
261.942	302.19
262.175	291.19
262.407	311.19
262.64	288.19
262.872	300.19
263.105	317.19
263.337	307.19
263.57	300.19
263.802	311.19
264.035	302.19
264.267	317.19
264.499	297.19
264.732	319.19
264.964	323.19
265.197	296.19
265.429	297.19
265.661	335.19
265.894	336.19
266.126	329.19
266.358	346.19
266.591	315.19
266.823	331.19
267.055	329.19
267.287	336.19
267.52	342.19
267.752	335.19
267.984	331.19
268.216	350.19
268.448	329.19
268.681	334.19
268.913	328.19
269.145	337.19
269.377	327.19
269.609	354.19
269.841	326.19
270.073	336.19
270.306	344.19
270.538	358.19
270.77	351.19
271.002	350.19
271.234	329.19
271.466	354.19
271.698	344.19
271.93	341.19
272.162	353.19
272.394	361.19
272.626	357.19
272.858	347.19
273.09	357.19
273.322	360.19
273.553	374.19
273.785	373.19
274.017	386.19
274.249	369.19
274.481	360.19
274.713	372.19
274.945	375.19
275.176	379.19
275.408	389.19
275.64	382.19
275.872	386.19
276.104	399.19
276.335	377.19
276.567	366.19
276.799	367.19
277.031	365.19
277.262	398.19
277.494	399.19
277.726	384.19
277.957	384.19
278.189	385.19
278.421	384.19
278.652	412.19
278.884	392.19
279.115	395.19
279.347	409.19
279.579	390.19
279.81	392.19
280.042	396.19
280.273	389.19
280.505	414.19
280.736	402.19
280.968	420.19
281.199	415.19
281.431	407.19
281.662	416.19
281.894	433.19
282.125	396.19
282.356	421.19
282.588	436.19
282.819	416.19
283.051	413.19
283.282	433.19
283.513	431.19
283.745	406.19
283.976	419.19
284.207	449.19
284.439	427.19
284.67	449.19
284.901	450.19
285.132	423.19
285.364	441.19
285.595	439.19
285.826	419.19
286.057	453.19
286.288	431.19
286.52	442.19
286.751	448.19
286.982	451.19
287.213	435.19
287.444	447.19
287.675	456.19
287.906	488.19
288.138	469.19
288.369	461.19
288.6	463.19
288.831	481.19
289.062	442.19
289.293	455.19
289.524	464.19
289.755	471.19
289.986	459.19
290.217	470.19
290.448	467.19
290.679	456.19
290.91	457.19
291.141	460.19
291.371	478.19
291.602	473.19
291.833	465.19
292.064	457.19
292.295	469.19
292.526	475.19
292.757	472.19
292.987	459.19
293.218	469.19
293.449	479.19
293.68	483.19
293.91	461.19
294.141	482.19
294.372	480.19
294.603	492.19
294.833	491.19
295.064	484.19
295.295	478.19
295.525	467.19
295.756	494.19
295.987	479.19
296.217	499.19
296.448	478.19
296.679	485.19
296.909	488.19
297.14	476.19
297.37	525.19
297.601	510.19
297.831	511.19
298.062	513.19
298.292	529.19
298.523	549.19
298.753	529.19
298.984	512.19
299.214	518.19
299.445	470.19
299.675	537.19
299.905	507.19
300.136	519.19
300.366	525.19
300.597	513.19
300.827	519.19
301.057	556.19
301.288	553.19
301.518	560.19
301.748	546.19
301.979	544.19
302.209	528.19
302.439	543.19
302.669	512.19
302.9	517.19
303.13	521.19
303.36	520.19
303.59	532.19
303.82	531.19
304.051	527.19
304.281	536.19
304.511	535.19
304.741	537.19
304.971	525.19
305.201	539.19
305.431	525.19
305.661	539.19
305.891	533.19
306.121	534.19
306.352	513.19
306.582	504.19
306.812	559.19
307.042	563.19
307.272	526.19
307.502	519.19
307.731	528.19
307.961	520.19
308.191	524.19
308.421	505.19
308.651	537.19
308.881	506.19
309.111	513.19
309.341	506.19
309.571	524.19
309.8	525.19
310.03	526.19
310.26	527.19
310.49	535.19
310.72	543.19
310.949	533.19
311.179	552.19
311.409	530.19
311.639	535.19
311.868	553.19
312.098	537.19
312.328	548.19
312.557	576.19
312.787	553.19
313.017	554.19
313.246	564.19
313.476	535.19
313.706	579.19
313.935	551.19
314.165	565.19
314.394	553.19
314.624	565.19
314.853	547.19
315.083	582.19
315.312	573.19
315.542	569.19
315.771	566.19
316.001	552.19
316.23	548.19
316.46	552.19
316.689	566.19
316.919	552.19
317.148	553.19
317.377	551.19
317.607	576.19
317.836	565.19
318.065	538.19
318.295	555.19
318.524	557.19
318.753	553.19
318.983	552.19
319.212	551.19
319.441	534.19
319.67	540.19
319.9	563.19
320.129	549.19
320.358	576.19
320.587	545.19
320.816	554.19
321.046	559.19
321.275	555.19
321.504	550.19
321.733	535.19
321.962	566.19
322.191	573.19
322.42	577.19
322.649	570.19
322.878	562.19
323.108	557.19
323.337	583.19
323.566	547.19
323.795	565.19
324.024	587.19
324.253	570.19
324.482	572.19
324.71	583.19
324.939	594.19
325.168	595.19
325.397	583.19
325.626	607.19
325.855	612.19
326.084	637.19
326.313	642.19
326.542	618.19
326.77	603.19
326.999	612.19
327.228	586.19
327.457	608.19
327.686	599.19
327.914	634.19
328.143	635.19
328.372	607.19
328.6	610.19
328.829	623.19
329.058	603.19
329.287	615.19
329.515	617.19
329.744	628.19
329.972	630.19
330.201	645.19
330.43	646.19
330.658	629.19
330.887	645.19
331.115	629.19
331.344	643.19
331.572	641.19
331.801	658.19
332.03	671.19
332.258	701.19
332.486	700.19
332.715	761.19
332.943	761.19
333.172	807.19
333.4	832.19
333.629	857.19
333.857	867.19
334.085	831.19
334.314	851.19
334.542	791.19
334.771	793.19
334.999	797.19
335.227	773.19
335.455	774.19
335.684	775.19
335.912	781.19
336.14	767.19
336.369	744.19
336.597	755.19
336.825	783.19
337.053	751.19
337.281	742.19
337.51	731.19
337.738	698.19
337.966	712.19
338.194	699.19
338.422	688.19
338.65	697.19
338.878	705.19
339.106	676.19
339.334	691.19
339.562	677.19
339.79	671.19
340.018	671.19
340.246	657.19
340.474	648.19
340.702	644.19
340.93	653.19
341.158	675.19
341.386	673.19
341.614	673.19
341.842	637.19
342.07	649.19
342.298	654.19
342.526	647.19
342.754	638.19
342.981	647.19
343.209	669.19
343.437	684.19
343.665	737.19
343.893	790.19
344.12	824.19
344.348	800.19
344.576	732.19
344.804	695.19
345.031	698.19
345.259	685.19
345.487	670.19
345.714	667.19
345.942	668.19
346.17	668.19
346.397	652.19
346.625	633.19
346.853	621.19
347.08	639.19
347.308	638.19
347.535	659.19
347.763	645.19
347.99	645.19
348.218	645.19
348.445	646.19
348.673	647.19
348.9	624.19
349.128	635.19
349.355	630.19
349.583	615.19
349.81	647.19
350.037	623.19
350.265	637.19
350.492	619.19
350.72	624.19
350.947	620.19
351.174	618.19
351.402	611.19
351.629	604.19
351.856	621.19
352.083	602.19
352.311	604.19
352.538	630.19
352.765	608.19
352.992	609.19
353.22	615.19
353.447	599.19
353.674	603.19
353.901	608.19
354.128	639.19
354.355	604.19
354.583	624.19
354.81	623.19
355.037	608.19
355.264	614.19
355.491	632.19
355.718	601.19
355.945	593.19
356.172	622.19
356.399	628.19
356.626	626.19
356.853	618.19
357.08	611.19
357.307	596.19
357.534	616.19
357.761	607.19
357.988	634.19
358.215	607.19
358.441	604.19
358.668	614.19
358.895	602.19
359.122	601.19
359.349	613.19
359.576	624.19
359.802	622.19
360.029	603.19
360.256	610.19
360.483	614.19
360.709	594.19
360.936	609.19
361.163	621.19
361.39	612.19
361.616	634.19
361.843	620.19
362.07	609.19
362.296	633.19
362.523	623.19
362.749	613.19
362.976	600.19
363.203	624.19
363.429	613.19
363.656	615.19
363.882	600.19
364.109	604.19
364.335	609.19
364.562	623.19
364.788	620.19
365.015	601.19
365.241	602.19
365.468	599.19
365.694	613.19
365.92	606.19
366.147	611.19
366.373	620.19
366.599	600.19
366.826	618.19
367.052	596.19
367.278	597.19
367.505	627.19
367.731	598.19
367.957	604.19
368.184	624.19
368.41	596.19
368.636	619.19
368.862	623.19
369.089	633.19
369.315	618.19
369.541	630.19
369.767	621.19
369.993	633.19
370.219	629.19
370.445	647.19
370.672	654.19
370.898	654.19
371.124	652.19
371.35	664.19
371.576	677.19
371.802	679.19
372.028	691.19
372.254	653.19
372.48	668.19
372.706	663.19
372.932	711.19
373.158	711.19
373.384	685.19
373.61	657.19
373.835	662.19
374.061	661.19
374.287	692.19
374.513	673.19
374.739	709.19
374.965	711.19
375.191	771.19
375.416	727.19
375.642	697.19
375.868	712.19
376.094	696.19
376.319	673.19
376.545	677.19
376.771	656.19
376.997	660.19
377.222	678.19
377.448	678.19
377.674	660.19
377.899	678.19
378.125	660.19
378.35	643.19
378.576	643.19
378.802	638.19
379.027	627.19
379.253	681.19
379.478	643.19
379.704	660.19
379.929	660.19
380.155	662.19
380.38	636.19
380.606	675.19
380.831	638.19
381.057	677.19
381.282	666.19
381.507	675.19
381.733	670.19
381.958	675.19
382.184	694.19
382.409	683.19
382.634	670.19
382.86	675.19
383.085	717.19
383.31	694.19
383.535	735.19
383.761	736.19
383.986	764.19
384.211	752.19
384.436	771.19
384.662	785.19
384.887	767.19
385.112	773.19
385.337	797.19
385.562	813.19
385.787	813.19
386.013	798.19
386.238	761.19
386.463	799.19
386.688	809.19
386.913	776.19
387.138	789.19
387.363	817.19
387.588	780.19
387.813	808.19
388.038	774.19
388.263	789.19
388.488	795.19
388.713	794.19
388.938	778.19
389.163	786.19
389.387	771.19
389.612	765.19
389.837	755.19
390.062	790.19
390.287	793.19
390.512	780.19
390.736	780.19
390.961	821.19
391.186	778.19
391.411	819.19
391.636	879.19
391.86	875.19
392.085	887.19
392.31	885.19
392.534	877.19
392.759	849.19
392.984	833.19
393.208	833.19
393.433	844.19
393.658	825.19
393.882	859.19
394.107	838.19
394.331	851.19
394.556	859.19
394.78	855.19
395.005	858.19
395.229	840.19
395.454	869.19
395.678	913.19
395.903	919.19
396.127	870.19
396.352	841.19
396.576	836.19
396.801	821.19
397.025	845.19
397.249	836.19
397.474	898.19
397.698	895.19
397.922	894.19
398.147	889.19
398.371	913.19
398.595	957.19
398.82	954.19
399.044	1050.19
399.268	1139.19
399.492	1331.19
399.717	1491.19
399.941	1476.19
400.165	1304.19
400.389	1199.19
400.613	1055.19
400.837	1028.19
401.062	990.19
401.286	1005.19
401.51	985.19
401.734	968.19
401.958	999.19
402.182	1002.19
402.406	1041.19
402.63	1033.19
402.854	1030.19
403.078	1060.19
403.302	1091.19
403.526	1123.19
403.75	1155.19
403.974	1163.19
404.198	1151.19
404.422	1185.19
404.645	1163.19
404.869	1130.19
405.093	1111.19
405.317	1113.19
405.541	1129.19
405.765	1060.19
405.988	1069.19
406.212	1098.19
406.436	1076.19
406.66	1124.19
406.883	1144.19
407.107	1219.19
407.331	1237.19
407.555	1305.19
407.778	1311.19
408.002	1252.19
408.226	1224.19
408.449	1216.19
408.673	1187.19
408.896	1145.19
409.12	1124.19
409.344	1133.19
409.567	1128.19
409.791	1185.19
410.014	1177.19
410.238	1140.19
410.461	1111.19
410.685	1096.19
410.908	1085.19
411.132	1086.19
411.355	1078.19
411.578	1038.19
411.802	1061.19
412.025	1053.19
412.249	1079.19
412.472	1092.19
412.695	1025.19
412.919	984.19
413.142	1025.19
413.365	1021.19
413.589	1036.19
413.812	989.19
414.035	999.19
414.258	972.19
414.482	1009.19
414.705	1014.19
414.928	1020.19
415.151	1021.19
415.374	996.19
415.597	983.19
415.821	978.19
416.044	965.19
416.267	1005.19
416.49	943.19
416.713	981.19
416.936	969.19
417.159	966.19
417.382	980.19
417.605	977.19
417.828	988.19
418.051	1001.19
418.274	1017.19
418.497	974.19
418.72	988.19
418.943	1038.19
419.166	1096.19
419.389	1137.19
419.611	1102.19
419.834	1048.19
420.057	1032.19
420.28	1047.19
420.503	997.19
420.726	979.19
420.948	960.19
421.171	972.19
421.394	978.19
421.617	1000.19
421.839	1014.19
422.062	998.19
422.285	972.19
422.507	1027.19
422.73	999.19
422.953	1016.19
423.175	1047.19
423.398	1055.19
423.621	1058.19
423.843	1061.19
424.066	1076.19
424.288	1038.19
424.511	1047.19
424.733	1014.19
424.956	1014.19
425.178	1011.19
425.401	1009.19
425.623	1017.19
425.846	971.19
426.068	956.19
426.291	947.19
426.513	938.19
426.735	942.19
426.958	957.19
427.18	916.19
427.402	926.19
427.625	906.19
427.847	882.19
428.069	903.19
428.292	897.19
428.514	893.19
428.736	892.19
428.958	868.19
429.181	854.19
429.403	875.19
429.625	873.19
429.847	884.19
430.069	863.19
430.292	887.19
430.514	878.19
430.736	867.19
430.958	881.19
431.18	883.19
431.402	865.19
431.624	889.19
431.846	899.19
432.068	906.19
432.29	907.19
432.512	910.19
432.734	886.19
432.956	909.19
433.178	905.19
433.4	875.19
433.622	915.19
433.844	915.19
434.066	941.19
434.287	895.19
434.509	945.19
434.731	959.19
434.953	1018.19
435.175	982.19
435.397	995.19
435.618	959.19
435.84	900.19
436.062	896.19
436.284	906.19
436.505	883.19
436.727	903.19
436.949	898.19
437.17	898.19
437.392	900.19
437.614	896.19
437.835	851.19
438.057	872.19
438.278	860.19
438.5	832.19
438.721	850.19
438.943	830.19
439.165	856.19
439.386	887.19
439.608	872.19
439.829	888.19
440.05	890.19
440.272	923.19
440.493	916.19
440.715	929.19
440.936	918.19
441.158	935.19
441.379	958.19
441.6	989.19
441.822	1027.19
442.043	1035.19
442.264	1016.19
442.486	997.19
442.707	972.19
442.928	974.19
443.149	975.19
443.371	975.19
443.592	984.19
443.813	1031.19
444.034	1036.19
444.255	1027.19
444.476	1096.19
444.698	1153.19
444.919	1198.19
445.14	1270.19
445.361	1143.19
445.582	1035.19
445.803	975.19
446.024	972.19
446.245	955.19
446.466	933.19
446.687	909.19
446.908	902.19
447.129	897.19
447.35	877.19
447.571	887.19
447.792	855.19
448.013	856.19
448.234	851.19
448.455	836.19
448.675	805.19
448.896	831.19
449.117	821.19
449.338	819.19
449.559	819.19
449.779	822.19
450	833.19
450.221	835.19
450.442	821.19
450.662	854.19
450.883	867.19
451.104	869.19
451.324	851.19
451.545	847.19
451.766	833.19
451.986	815.19
452.207	831.19
452.428	854.19
452.648	809.19
452.869	804.19
453.089	831.19
453.31	812.19
453.53	803.19
453.751	777.19
453.971	811.19
454.192	789.19
454.412	782.19
454.633	792.19
454.853	784.19
455.073	761.19
455.294	771.19
455.514	766.19
455.734	774.19
455.955	765.19
456.175	773.19
456.395	756.19
456.616	755.19
456.836	794.19
457.056	757.19
457.276	745.19
457.497	760.19
457.717	751.19
457.937	784.19
458.157	782.19
458.377	816.19
458.598	789.19
458.818	823.19
459.038	829.19
459.258	840.19
459.478	888.19
459.698	921.19
459.918	943.19
460.138	968.19
460.358	1046.19
460.578	1046.19
460.798	1061.19
461.018	1068.19
461.238	1039.19
461.458	1022.19
461.678	1042.19
461.898	1061.19
462.118	1072.19
462.338	1109.19
462.558	1141.19
462.777	1195.19
462.997	1310.19
463.217	1433.19
463.437	1465.19
463.657	1305.19
463.876	1250.19
464.096	1233.19
464.316	1250.19
464.536	1255.19
464.755	1158.19
464.975	1141.19
465.195	1102.19
465.414	1004.19
465.634	939.19
465.854	904.19
466.073	889.19
466.293	908.19
466.512	916.19
466.732	863.19
466.951	871.19
467.171	877.19
467.391	882.19
467.61	876.19
467.829	862.19
468.049	873.19
468.268	813.19
468.488	823.19
468.707	816.19
468.927	849.19
469.146	812.19
469.365	847.19
469.585	858.19
469.804	864.19
470.023	873.19
470.243	875.19
470.462	928.19
470.681	895.19
470.901	903.19
471.12	892.19
471.339	856.19
471.558	870.19
471.777	854.19
471.997	830.19
472.216	817.19
472.435	839.19
472.654	817.19
472.873	783.19
473.092	823.19
473.311	786.19
473.53	790.19
473.749	813.19
473.968	816.19
474.187	792.19
474.406	786.19
474.625	814.19
474.844	792.19
475.063	803.19
475.282	828.19
475.501	823.19
475.72	827.19
475.939	841.19
476.158	842.19
476.377	817.19
476.596	833.19
476.814	844.19
477.033	857.19
477.252	862.19
477.471	890.19
477.69	899.19
477.908	918.19
478.127	922.19
478.346	952.19
478.564	967.19
478.783	989.19
479.002	1003.19
479.22	999.19
479.439	993.19
479.658	991.19
479.876	979.19
480.095	1004.19
480.313	1082.19
480.532	1089.19
480.751	1078.19
480.969	1017.19
481.188	986.19
481.406	963.19
481.624	954.19
481.843	932.19
482.061	909.19
482.28	922.19
482.498	906.19
482.717	902.19
482.935	920.19
483.153	919.19
483.372	939.19
483.59	939.19
483.808	903.19
484.027	891.19
484.245	894.19
484.463	912.19
484.681	963.19
484.9	961.19
485.118	950.19
485.336	980.19
485.554	973.19
485.772	966.19
485.99	984.19
486.209	1000.19
486.427	971.19
486.645	969.19
486.863	998.19
487.081	979.19
487.299	972.19
487.517	945.19
487.735	961.19
487.953	973.19
488.171	951.19
488.389	967.19
488.607	927.19
488.825	925.19
489.043	925.19
489.261	959.19
489.479	947.19
489.696	959.19
489.914	964.19
490.132	975.19
490.35	979.19
490.568	950.19
490.786	969.19
491.003	992.19
491.221	955.19
491.439	991.19
491.657	980.19
491.874	949.19
492.092	992.19
492.31	999.19
492.527	985.19
492.745	1004.19
492.963	1017.19
493.18	1013.19
493.398	1001.19
493.615	1031.19
493.833	1007.19
494.05	1012.19
494.268	1029.19
494.485	1044.19
494.703	1026.19
494.92	1031.19
495.138	1006.19
495.355	1021.19
495.573	1027.19
495.79	1045.19
496.008	1034.19
496.225	1024.19
496.442	1041.19
496.66	1052.19
496.877	1066.19
497.094	1108.19
497.312	1084.19
497.529	1147.19
497.746	1148.19
497.963	1184.19
498.181	1207.19
498.398	1295.19
498.615	1382.19
498.832	1443.19
499.049	1550.19
499.267	1675.19
