Data from Ni(NO3)2@0.125M.TitratingCurve.Agarose3%dH2O.NegLispCup.LampEnergy10.LIBS07252019_HRD10591_18-11-29-568.txt Node
Date: Thu Jul 25 18:11:29 EDT 2019
User: cochatt
Spectrometer: HR+D1059
Trigger mode: 1
Integration Time (sec): 1.000000E-1
Scans to average: 1
Electric dark correction enabled: true
Nonlinearity correction enabled: false
Boxcar width: 0
XAxis mode: Wavelengths
Number of Pixels in Spectrum: 2048
>>>>>Begin Spectral Data<<<<<
223.165	-22.56
223.4	-22.56
223.635	-22.56
223.869	-11.56
224.104	-7.56
224.338	-19.56
224.573	2.44
224.808	-2.56
225.042	-5.56
225.277	-5.56
225.511	4.44
225.746	-5.56
225.98	-13.56
226.215	5.44
226.449	12.44
226.683	21.44
226.918	15.44
227.152	32.44
227.387	50.44
227.621	36.44
227.856	36.44
228.09	53.44
228.324	38.44
228.559	57.44
228.793	83.44
229.027	132.44
229.262	125.44
229.496	125.44
229.73	123.44
229.964	129.44
230.199	133.44
230.433	157.44
230.667	165.44
230.901	142.44
231.136	136.44
231.37	152.44
231.604	163.44
231.838	159.44
232.072	160.44
232.306	165.44
232.541	171.44
232.775	168.44
233.009	176.44
233.243	181.44
233.477	169.44
233.711	180.44
233.945	166.44
234.179	147.44
234.413	184.44
234.647	164.44
234.881	166.44
235.115	171.44
235.349	172.44
235.583	158.44
235.817	164.44
236.051	186.44
236.285	178.44
236.519	194.44
236.753	180.44
236.987	180.44
237.221	190.44
237.455	184.44
237.689	189.44
237.922	198.44
238.156	206.44
238.39	196.44
238.624	211.44
238.858	215.44
239.091	200.44
239.325	196.44
239.559	190.44
239.793	201.44
240.027	213.44
240.26	214.44
240.494	210.44
240.728	204.44
240.961	211.44
241.195	225.44
241.429	222.44
241.662	240.44
241.896	233.44
242.13	238.44
242.363	226.44
242.597	236.44
242.83	224.44
243.064	229.44
243.298	255.44
243.531	239.44
243.765	250.44
243.998	266.44
244.232	245.44
244.465	243.44
244.699	249.44
244.932	260.44
245.166	253.44
245.399	245.44
245.633	240.44
245.866	257.44
246.099	262.44
246.333	259.44
246.566	241.44
246.8	266.44
247.033	268.44
247.266	269.44
247.5	249.44
247.733	288.44
247.966	274.44
248.2	274.44
248.433	281.44
248.666	292.44
248.899	289.44
249.133	270.44
249.366	292.44
249.599	294.44
249.832	293.44
250.066	295.44
250.299	294.44
250.532	304.44
250.765	294.44
250.998	288.44
251.231	312.44
251.465	316.44
251.698	321.44
251.931	316.44
252.164	322.44
252.397	334.44
252.63	305.44
252.863	323.44
253.096	347.44
253.329	337.44
253.562	332.44
253.795	325.44
254.028	320.44
254.261	330.44
254.494	334.44
254.727	354.44
254.96	343.44
255.193	352.44
255.426	339.44
255.659	348.44
255.892	367.44
256.124	360.44
256.357	358.44
256.59	359.44
256.823	336.44
257.056	354.44
257.289	360.44
257.521	354.44
257.754	362.44
257.987	369.44
258.22	370.44
258.452	374.44
258.685	367.44
258.918	380.44
259.151	370.44
259.383	380.44
259.616	376.44
259.849	389.44
260.081	380.44
260.314	386.44
260.547	380.44
260.779	413.44
261.012	394.44
261.244	387.44
261.477	383.44
261.71	385.44
261.942	370.44
262.175	382.44
262.407	401.44
262.64	393.44
262.872	390.44
263.105	399.44
263.337	397.44
263.57	410.44
263.802	405.44
264.035	406.44
264.267	414.44
264.499	404.44
264.732	423.44
264.964	427.44
265.197	436.44
265.429	443.44
265.661	421.44
265.894	445.44
266.126	455.44
266.358	449.44
266.591	447.44
266.823	445.44
267.055	433.44
267.287	433.44
267.52	464.44
267.752	447.44
267.984	451.44
268.216	471.44
268.448	456.44
268.681	466.44
268.913	447.44
269.145	446.44
269.377	479.44
269.609	468.44
269.841	473.44
270.073	453.44
270.306	479.44
270.538	465.44
270.77	482.44
271.002	445.44
271.234	470.44
271.466	466.44
271.698	470.44
271.93	483.44
272.162	501.44
272.394	476.44
272.626	486.44
272.858	474.44
273.09	465.44
273.322	502.44
273.553	478.44
273.785	491.44
274.017	500.44
274.249	504.44
274.481	518.44
274.713	510.44
274.945	489.44
275.176	514.44
275.408	517.44
275.64	514.44
275.872	528.44
276.104	518.44
276.335	517.44
276.567	523.44
276.799	529.44
277.031	541.44
277.262	531.44
277.494	526.44
277.726	530.44
277.957	564.44
278.189	539.44
278.421	548.44
278.652	540.44
278.884	541.44
279.115	554.44
279.347	561.44
279.579	554.44
279.81	560.44
280.042	560.44
280.273	577.44
280.505	532.44
280.736	571.44
280.968	588.44
281.199	562.44
281.431	580.44
281.662	558.44
281.894	570.44
282.125	592.44
282.356	574.44
282.588	598.44
282.819	593.44
283.051	604.44
283.282	567.44
283.513	599.44
283.745	606.44
283.976	592.44
284.207	614.44
284.439	600.44
284.67	618.44
284.901	608.44
285.132	608.44
285.364	611.44
285.595	612.44
285.826	614.44
286.057	630.44
286.288	620.44
286.52	621.44
286.751	626.44
286.982	648.44
287.213	630.44
287.444	606.44
287.675	608.44
287.906	611.44
288.138	642.44
288.369	646.44
288.6	645.44
288.831	646.44
289.062	638.44
289.293	650.44
289.524	638.44
289.755	663.44
289.986	649.44
290.217	658.44
290.448	674.44
290.679	683.44
290.91	667.44
291.141	655.44
291.371	644.44
291.602	665.44
291.833	624.44
292.064	653.44
292.295	632.44
292.526	652.44
292.757	651.44
292.987	664.44
293.218	656.44
293.449	683.44
293.68	668.44
293.91	637.44
294.141	676.44
294.372	658.44
294.603	676.44
294.833	660.44
295.064	663.44
295.295	658.44
295.525	644.44
295.756	661.44
295.987	683.44
296.217	678.44
296.448	692.44
296.679	680.44
296.909	692.44
297.14	713.44
297.37	708.44
297.601	692.44
297.831	727.44
298.062	715.44
298.292	703.44
298.523	722.44
298.753	729.44
298.984	707.44
299.214	736.44
299.445	714.44
299.675	702.44
299.905	736.44
300.136	756.44
300.366	743.44
300.597	743.44
300.827	738.44
301.057	744.44
301.288	762.44
301.518	752.44
301.748	760.44
301.979	754.44
302.209	777.44
302.439	767.44
302.669	744.44
302.9	750.44
303.13	744.44
303.36	744.44
303.59	739.44
303.82	763.44
304.051	764.44
304.281	759.44
304.511	759.44
304.741	750.44
304.971	758.44
305.201	742.44
305.431	728.44
305.661	768.44
305.891	731.44
306.121	730.44
306.352	718.44
306.582	742.44
306.812	740.44
307.042	755.44
307.272	718.44
307.502	756.44
307.731	765.44
307.961	738.44
308.191	742.44
308.421	733.44
308.651	733.44
308.881	714.44
309.111	743.44
309.341	722.44
309.571	736.44
309.8	755.44
310.03	759.44
310.26	743.44
310.49	748.44
310.72	747.44
310.949	745.44
311.179	760.44
311.409	733.44
311.639	766.44
311.868	766.44
312.098	796.44
312.328	784.44
312.557	808.44
312.787	779.44
313.017	800.44
313.246	790.44
313.476	816.44
313.706	808.44
313.935	826.44
314.165	796.44
314.394	812.44
314.624	822.44
314.853	788.44
315.083	830.44
315.312	799.44
315.542	806.44
315.771	778.44
316.001	795.44
316.23	791.44
316.46	791.44
316.689	792.44
316.919	786.44
317.148	822.44
317.377	793.44
317.607	794.44
317.836	789.44
318.065	782.44
318.295	780.44
318.524	784.44
318.753	776.44
318.983	819.44
319.212	792.44
319.441	796.44
319.67	781.44
319.9	787.44
320.129	793.44
320.358	807.44
320.587	791.44
320.816	805.44
321.046	819.44
321.275	808.44
321.504	812.44
321.733	787.44
321.962	796.44
322.191	811.44
322.42	839.44
322.649	815.44
322.878	823.44
323.108	811.44
323.337	805.44
323.566	839.44
323.795	820.44
324.024	836.44
324.253	833.44
324.482	841.44
324.71	827.44
324.939	843.44
325.168	830.44
325.397	842.44
325.626	845.44
325.855	825.44
326.084	849.44
326.313	878.44
326.542	867.44
326.77	896.44
326.999	869.44
327.228	847.44
327.457	897.44
327.686	893.44
327.914	886.44
328.143	889.44
328.372	880.44
328.6	888.44
328.829	888.44
329.058	877.44
329.287	884.44
329.515	908.44
329.744	899.44
329.972	882.44
330.201	894.44
330.43	900.44
330.658	895.44
330.887	918.44
331.115	917.44
331.344	929.44
331.572	942.44
331.801	962.44
332.03	986.44
332.258	1009.44
332.486	1036.44
332.715	1082.44
332.943	1124.44
333.172	1176.44
333.4	1182.44
333.629	1209.44
333.857	1226.44
334.085	1229.44
334.314	1170.44
334.542	1177.44
334.771	1157.44
334.999	1142.44
335.227	1126.44
335.455	1140.44
335.684	1066.44
335.912	1113.44
336.14	1068.44
336.369	1081.44
336.597	1083.44
336.825	1080.44
337.053	1053.44
337.281	1080.44
337.51	1001.44
337.738	1010.44
337.966	988.44
338.194	992.44
338.422	972.44
338.65	948.44
338.878	981.44
339.106	968.44
339.334	977.44
339.562	961.44
339.79	965.44
340.018	947.44
340.246	906.44
340.474	939.44
340.702	939.44
340.93	915.44
341.158	937.44
341.386	925.44
341.614	953.44
341.842	919.44
342.07	925.44
342.298	912.44
342.526	902.44
342.754	905.44
342.981	937.44
343.209	956.44
343.437	1000.44
343.665	1061.44
343.893	1166.44
344.12	1167.44
344.348	1101.44
344.576	1050.44
344.804	1016.44
345.031	978.44
345.259	944.44
345.487	928.44
345.714	920.44
345.942	930.44
346.17	897.44
346.397	898.44
346.625	896.44
346.853	893.44
347.08	870.44
347.308	897.44
347.535	908.44
347.763	900.44
347.99	894.44
348.218	892.44
348.445	888.44
348.673	892.44
348.9	891.44
349.128	891.44
349.355	868.44
349.583	871.44
349.81	890.44
350.037	870.44
350.265	863.44
350.492	868.44
350.72	875.44
350.947	857.44
351.174	880.44
351.402	875.44
351.629	871.44
351.856	884.44
352.083	864.44
352.311	871.44
352.538	852.44
352.765	819.44
352.992	855.44
353.22	846.44
353.447	861.44
353.674	860.44
353.901	852.44
354.128	867.44
354.355	856.44
354.583	868.44
354.81	844.44
355.037	900.44
355.264	852.44
355.491	885.44
355.718	876.44
355.945	850.44
356.172	870.44
356.399	892.44
356.626	880.44
356.853	860.44
357.08	872.44
357.307	853.44
357.534	869.44
357.761	863.44
357.988	886.44
358.215	852.44
358.441	859.44
358.668	860.44
358.895	873.44
359.122	862.44
359.349	892.44
359.576	878.44
359.802	829.44
360.029	857.44
360.256	862.44
360.483	872.44
360.709	854.44
360.936	864.44
361.163	880.44
361.39	874.44
361.616	869.44
361.843	873.44
362.07	882.44
362.296	859.44
362.523	843.44
362.749	869.44
362.976	880.44
363.203	844.44
363.429	839.44
363.656	840.44
363.882	854.44
364.109	864.44
364.335	848.44
364.562	854.44
364.788	873.44
365.015	866.44
365.241	877.44
365.468	864.44
365.694	836.44
365.92	870.44
366.147	840.44
366.373	850.44
366.599	875.44
366.826	850.44
367.052	855.44
367.278	871.44
367.505	892.44
367.731	874.44
367.957	844.44
368.184	869.44
368.41	871.44
368.636	884.44
368.862	890.44
369.089	884.44
369.315	908.44
369.541	898.44
369.767	905.44
369.993	880.44
370.219	891.44
370.445	893.44
370.672	933.44
370.898	910.44
371.124	940.44
371.35	920.44
371.576	939.44
371.802	930.44
372.028	938.44
372.254	945.44
372.48	948.44
372.706	989.44
372.932	997.44
373.158	984.44
373.384	955.44
373.61	936.44
373.835	926.44
374.061	948.44
374.287	956.44
374.513	972.44
374.739	1010.44
374.965	1003.44
375.191	1035.44
375.416	1050.44
375.642	987.44
375.868	994.44
376.094	994.44
376.319	958.44
376.545	984.44
376.771	977.44
376.997	969.44
377.222	935.44
377.448	938.44
377.674	924.44
377.899	916.44
378.125	928.44
378.35	941.44
378.576	953.44
378.802	923.44
379.027	954.44
379.253	930.44
379.478	956.44
379.704	918.44
379.929	925.44
380.155	900.44
380.38	941.44
380.606	925.44
380.831	918.44
381.057	947.44
381.282	956.44
381.507	950.44
381.733	952.44
381.958	940.44
382.184	930.44
382.409	997.44
382.634	981.44
382.86	997.44
383.085	1008.44
383.31	993.44
383.535	1040.44
383.761	1072.44
383.986	1086.44
384.211	1128.44
384.436	1152.44
384.662	1144.44
384.887	1141.44
385.112	1158.44
385.337	1161.44
385.562	1134.44
385.787	1204.44
386.013	1172.44
386.238	1133.44
386.463	1148.44
386.688	1145.44
386.913	1113.44
387.138	1108.44
387.363	1117.44
387.588	1114.44
387.813	1140.44
388.038	1125.44
388.263	1115.44
388.488	1136.44
388.713	1142.44
388.938	1138.44
389.163	1114.44
389.387	1129.44
389.612	1101.44
389.837	1142.44
390.062	1098.44
390.287	1104.44
390.512	1129.44
390.736	1136.44
390.961	1152.44
391.186	1150.44
391.411	1182.44
391.636	1224.44
391.86	1288.44
392.085	1318.44
392.31	1306.44
392.534	1261.44
392.759	1197.44
392.984	1222.44
393.208	1206.44
393.433	1216.44
393.658	1222.44
393.882	1192.44
394.107	1229.44
394.331	1234.44
394.556	1227.44
394.78	1243.44
395.005	1242.44
395.229	1216.44
395.454	1252.44
395.678	1276.44
395.903	1284.44
396.127	1282.44
396.352	1232.44
396.576	1245.44
396.801	1193.44
397.025	1199.44
397.249	1238.44
397.474	1298.44
397.698	1255.44
397.922	1250.44
398.147	1310.44
398.371	1332.44
398.595	1390.44
398.82	1409.44
399.044	1536.44
399.268	1715.44
399.492	2024.44
399.717	2296.44
399.941	2237.44
400.165	1954.44
400.389	1718.44
400.613	1602.44
400.837	1504.44
401.062	1478.44
401.286	1469.44
401.51	1443.44
401.734	1416.44
401.958	1460.44
402.182	1469.44
402.406	1523.44
402.63	1493.44
402.854	1550.44
403.078	1590.44
403.302	1635.44
403.526	1646.44
403.75	1699.44
403.974	1738.44
404.198	1710.44
404.422	1707.44
404.645	1684.44
404.869	1665.44
405.093	1652.44
405.317	1590.44
405.541	1589.44
405.765	1597.44
405.988	1572.44
406.212	1572.44
406.436	1559.44
406.66	1622.44
406.883	1673.44
407.107	1762.44
407.331	1830.44
407.555	1896.44
407.778	1947.44
408.002	1830.44
408.226	1756.44
408.449	1773.44
408.673	1676.44
408.896	1636.44
409.12	1629.44
409.344	1620.44
409.567	1635.44
409.791	1651.44
410.014	1621.44
410.238	1609.44
410.461	1598.44
410.685	1600.44
410.908	1576.44
411.132	1542.44
411.355	1510.44
411.578	1511.44
411.802	1494.44
412.025	1522.44
412.249	1513.44
412.472	1536.44
412.695	1468.44
412.919	1437.44
413.142	1454.44
413.365	1449.44
413.589	1477.44
413.812	1405.44
414.035	1396.44
414.258	1417.44
414.482	1447.44
414.705	1473.44
414.928	1470.44
415.151	1494.44
415.374	1432.44
415.597	1438.44
415.821	1412.44
416.044	1394.44
416.267	1378.44
416.49	1404.44
416.713	1387.44
416.936	1394.44
417.159	1422.44
417.382	1402.44
417.605	1384.44
417.828	1396.44
418.051	1438.44
418.274	1426.44
418.497	1438.44
418.72	1481.44
418.943	1436.44
419.166	1544.44
419.389	1650.44
419.611	1603.44
419.834	1544.44
420.057	1465.44
420.28	1444.44
420.503	1444.44
420.726	1384.44
420.948	1390.44
421.171	1390.44
421.394	1409.44
421.617	1404.44
421.839	1386.44
422.062	1434.44
422.285	1430.44
422.507	1448.44
422.73	1466.44
422.953	1452.44
423.175	1470.44
423.398	1540.44
423.621	1497.44
423.843	1508.44
424.066	1550.44
424.288	1533.44
424.511	1539.44
424.733	1499.44
424.956	1466.44
425.178	1425.44
425.401	1446.44
425.623	1417.44
425.846	1355.44
426.068	1359.44
426.291	1329.44
426.513	1324.44
426.735	1283.44
426.958	1298.44
427.18	1284.44
427.402	1268.44
427.625	1306.44
427.847	1246.44
428.069	1251.44
428.292	1258.44
428.514	1227.44
428.736	1230.44
428.958	1270.44
429.181	1248.44
429.403	1208.44
429.625	1247.44
429.847	1198.44
430.069	1229.44
430.292	1224.44
430.514	1188.44
430.736	1222.44
430.958	1210.44
431.18	1223.44
431.402	1227.44
431.624	1237.44
431.846	1263.44
432.068	1266.44
432.29	1249.44
432.512	1228.44
432.734	1244.44
432.956	1223.44
433.178	1270.44
433.4	1261.44
433.622	1267.44
433.844	1240.44
434.066	1257.44
434.287	1294.44
434.509	1356.44
434.731	1372.44
434.953	1422.44
435.175	1446.44
435.397	1390.44
435.618	1326.44
435.84	1316.44
436.062	1294.44
436.284	1254.44
436.505	1234.44
436.727	1261.44
436.949	1244.44
437.17	1235.44
437.392	1233.44
437.614	1241.44
437.835	1195.44
438.057	1222.44
438.278	1192.44
438.5	1212.44
438.721	1197.44
438.943	1218.44
439.165	1182.44
439.386	1204.44
439.608	1237.44
439.829	1264.44
440.05	1237.44
440.272	1220.44
440.493	1277.44
440.715	1248.44
440.936	1297.44
441.158	1330.44
441.379	1332.44
441.6	1403.44
441.822	1437.44
442.043	1427.44
442.264	1384.44
442.486	1344.44
442.707	1366.44
442.928	1362.44
443.149	1381.44
443.371	1370.44
443.592	1420.44
443.813	1402.44
444.034	1420.44
444.255	1450.44
444.476	1568.44
444.698	1660.44
444.919	1753.44
445.14	1731.44
445.361	1605.44
445.582	1474.44
445.803	1375.44
446.024	1309.44
446.245	1280.44
446.466	1308.44
446.687	1257.44
446.908	1276.44
447.129	1237.44
447.35	1206.44
447.571	1222.44
447.792	1168.44
448.013	1200.44
448.234	1126.44
448.455	1120.44
448.675	1148.44
448.896	1147.44
449.117	1114.44
449.338	1103.44
449.559	1101.44
449.779	1110.44
450	1120.44
450.221	1097.44
450.442	1131.44
450.662	1112.44
450.883	1129.44
451.104	1174.44
451.324	1126.44
451.545	1125.44
451.766	1153.44
451.986	1138.44
452.207	1113.44
452.428	1121.44
452.648	1137.44
452.869	1114.44
453.089	1097.44
453.31	1145.44
453.53	1100.44
453.751	1091.44
453.971	1102.44
454.192	1075.44
454.412	1054.44
454.633	1062.44
454.853	1097.44
455.073	1048.44
455.294	1054.44
455.514	1041.44
455.734	1031.44
455.955	1031.44
456.175	1031.44
456.395	1048.44
456.616	1049.44
456.836	1024.44
457.056	1046.44
457.276	1039.44
457.497	1036.44
457.717	1056.44
457.937	1064.44
458.157	1071.44
458.377	1071.44
458.598	1108.44
458.818	1120.44
459.038	1190.44
459.258	1228.44
459.478	1255.44
459.698	1251.44
459.918	1293.44
460.138	1341.44
460.358	1473.44
460.578	1467.44
460.798	1533.44
461.018	1510.44
461.238	1481.44
461.458	1483.44
461.678	1448.44
461.898	1477.44
462.118	1486.44
462.338	1607.44
462.558	1608.44
462.777	1688.44
462.997	1806.44
463.217	2076.44
463.437	2011.44
463.657	1844.44
463.876	1777.44
464.096	1736.44
464.316	1702.44
464.536	1770.44
464.755	1687.44
464.975	1606.44
465.195	1513.44
465.414	1410.44
465.634	1328.44
465.854	1311.44
466.073	1284.44
466.293	1242.44
466.512	1197.44
466.732	1170.44
466.951	1174.44
467.171	1194.44
467.391	1193.44
467.61	1178.44
467.829	1191.44
468.049	1166.44
468.268	1129.44
468.488	1110.44
468.707	1120.44
468.927	1112.44
469.146	1123.44
469.365	1161.44
469.585	1141.44
469.804	1163.44
470.023	1218.44
470.243	1226.44
470.462	1228.44
470.681	1236.44
470.901	1214.44
471.12	1219.44
471.339	1187.44
471.558	1149.44
471.777	1125.44
471.997	1133.44
472.216	1140.44
472.435	1140.44
472.654	1094.44
472.873	1111.44
473.092	1144.44
473.311	1130.44
473.53	1134.44
473.749	1093.44
473.968	1111.44
474.187	1084.44
474.406	1117.44
474.625	1098.44
474.844	1085.44
475.063	1096.44
475.282	1100.44
475.501	1120.44
475.72	1132.44
475.939	1132.44
476.158	1137.44
476.377	1145.44
476.596	1149.44
476.814	1176.44
477.033	1176.44
477.252	1182.44
477.471	1198.44
477.69	1230.44
477.908	1270.44
478.127	1303.44
478.346	1340.44
478.564	1355.44
478.783	1375.44
479.002	1448.44
479.22	1459.44
479.439	1372.44
479.658	1373.44
479.876	1404.44
480.095	1420.44
480.313	1488.44
480.532	1508.44
480.751	1497.44
480.969	1455.44
481.188	1388.44
481.406	1363.44
481.624	1300.44
481.843	1286.44
482.061	1276.44
482.28	1285.44
482.498	1246.44
482.717	1244.44
482.935	1230.44
483.153	1246.44
483.372	1250.44
483.59	1277.44
483.808	1290.44
484.027	1266.44
484.245	1318.44
484.463	1303.44
484.681	1338.44
484.9	1310.44
485.118	1368.44
485.336	1370.44
485.554	1353.44
485.772	1353.44
485.99	1350.44
486.209	1367.44
486.427	1360.44
486.645	1350.44
486.863	1363.44
487.081	1376.44
487.299	1332.44
487.517	1364.44
487.735	1334.44
487.953	1365.44
488.171	1340.44
488.389	1367.44
488.607	1329.44
488.825	1313.44
489.043	1313.44
489.261	1326.44
489.479	1335.44
489.696	1320.44
489.914	1347.44
490.132	1350.44
490.35	1341.44
490.568	1318.44
490.786	1300.44
491.003	1339.44
491.221	1310.44
491.439	1344.44
491.657	1312.44
491.874	1352.44
492.092	1349.44
492.31	1332.44
492.527	1352.44
492.745	1380.44
492.963	1384.44
493.18	1347.44
493.398	1368.44
493.615	1380.44
493.833	1369.44
494.05	1378.44
494.268	1394.44
