Data from Ni(NO3)2Standard.Agarose3%.GreenCap.LampEnergy5.5.E.O_HRD10591_14-40-05-188.txt Node
Date: Mon Jul 22 14:40:05 EDT 2019
User: cochatt
Spectrometer: HR+D1059
Trigger mode: 1
Integration Time (sec): 1.000000E-1
Scans to average: 1
Electric dark correction enabled: true
Nonlinearity correction enabled: false
Boxcar width: 0
XAxis mode: Wavelengths
Number of Pixels in Spectrum: 2048
>>>>>Begin Spectral Data<<<<<
223.165	-9.88
223.4	-9.88
223.635	-9.88
223.869	-10.88
224.104	-14.88
224.338	-18.88
224.573	-24.88
224.808	-11.88
225.042	9.12
225.277	-6.88
225.511	-9.88
225.746	-1.88
225.98	15.12
226.215	10.12
226.449	7.12
226.683	24.12
226.918	19.12
227.152	25.12
227.387	32.12
227.621	41.12
227.856	44.12
228.09	35.12
228.324	44.12
228.559	52.12
228.793	66.12
229.027	70.12
229.262	74.12
229.496	70.12
229.73	72.12
229.964	81.12
230.199	87.12
230.433	81.12
230.667	80.12
230.901	80.12
231.136	82.12
231.37	83.12
231.604	77.12
231.838	88.12
232.072	91.12
232.306	78.12
232.541	85.12
232.775	86.12
233.009	75.12
233.243	96.12
233.477	81.12
233.711	80.12
233.945	87.12
234.179	84.12
234.413	78.12
234.647	84.12
234.881	86.12
235.115	78.12
235.349	87.12
235.583	85.12
235.817	82.12
236.051	88.12
236.285	86.12
236.519	74.12
236.753	90.12
236.987	83.12
237.221	73.12
237.455	65.12
237.689	87.12
237.922	79.12
238.156	88.12
238.39	82.12
238.624	87.12
238.858	84.12
239.091	85.12
239.325	80.12
239.559	80.12
239.793	66.12
240.027	74.12
240.26	83.12
240.494	88.12
240.728	74.12
240.961	60.12
241.195	82.12
241.429	76.12
241.662	82.12
241.896	87.12
242.13	88.12
242.363	80.12
242.597	83.12
242.83	78.12
243.064	73.12
243.298	90.12
243.531	84.12
243.765	75.12
243.998	84.12
244.232	71.12
244.465	84.12
244.699	76.12
244.932	85.12
245.166	69.12
245.399	73.12
245.633	72.12
245.866	88.12
246.099	78.12
246.333	78.12
246.566	81.12
246.8	72.12
247.033	84.12
247.266	64.12
247.5	82.12
247.733	79.12
247.966	66.12
248.2	82.12
248.433	99.12
248.666	57.12
248.899	92.12
249.133	76.12
249.366	93.12
249.599	79.12
249.832	73.12
250.066	73.12
250.299	89.12
250.532	74.12
250.765	87.12
250.998	84.12
251.231	70.12
251.465	78.12
251.698	73.12
251.931	78.12
252.164	80.12
252.397	82.12
252.63	77.12
252.863	75.12
253.096	87.12
253.329	70.12
253.562	88.12
253.795	84.12
254.028	62.12
254.261	83.12
254.494	86.12
254.727	93.12
254.96	70.12
255.193	68.12
255.426	74.12
255.659	82.12
255.892	86.12
256.124	97.12
256.357	85.12
256.59	95.12
256.823	90.12
257.056	95.12
257.289	75.12
257.521	75.12
257.754	77.12
257.987	81.12
258.22	77.12
258.452	72.12
258.685	78.12
258.918	78.12
259.151	76.12
259.383	85.12
259.616	80.12
259.849	86.12
260.081	86.12
260.314	72.12
260.547	80.12
260.779	80.12
261.012	74.12
261.244	77.12
261.477	76.12
261.71	77.12
261.942	82.12
262.175	84.12
262.407	84.12
262.64	84.12
262.872	92.12
263.105	78.12
263.337	77.12
263.57	75.12
263.802	88.12
264.035	84.12
264.267	76.12
264.499	92.12
264.732	81.12
264.964	90.12
265.197	90.12
265.429	78.12
265.661	89.12
265.894	91.12
266.126	79.12
266.358	76.12
266.591	84.12
266.823	64.12
267.055	77.12
267.287	88.12
267.52	86.12
267.752	77.12
267.984	80.12
268.216	89.12
268.448	72.12
268.681	84.12
268.913	80.12
269.145	80.12
269.377	94.12
269.609	88.12
269.841	77.12
270.073	62.12
270.306	72.12
270.538	78.12
270.77	78.12
271.002	93.12
271.234	86.12
271.466	86.12
271.698	82.12
271.93	80.12
272.162	76.12
272.394	79.12
272.626	79.12
272.858	85.12
273.09	85.12
273.322	90.12
273.553	77.12
273.785	86.12
274.017	84.12
274.249	96.12
274.481	83.12
274.713	84.12
274.945	91.12
275.176	76.12
275.408	85.12
275.64	88.12
275.872	81.12
276.104	88.12
276.335	86.12
276.567	79.12
276.799	78.12
277.031	70.12
277.262	77.12
277.494	72.12
277.726	84.12
277.957	80.12
278.189	83.12
278.421	74.12
278.652	95.12
278.884	85.12
279.115	80.12
279.347	92.12
279.579	73.12
279.81	81.12
280.042	99.12
280.273	84.12
280.505	78.12
280.736	85.12
280.968	87.12
281.199	85.12
281.431	93.12
281.662	86.12
281.894	78.12
282.125	64.12
282.356	85.12
282.588	94.12
282.819	78.12
283.051	72.12
283.282	91.12
283.513	81.12
283.745	78.12
283.976	99.12
284.207	85.12
284.439	89.12
284.67	94.12
284.901	73.12
285.132	84.12
285.364	80.12
285.595	80.12
285.826	88.12
286.057	96.12
286.288	74.12
286.52	83.12
286.751	93.12
286.982	85.12
287.213	92.12
287.444	79.12
287.675	79.12
287.906	81.12
288.138	90.12
288.369	88.12
288.6	77.12
288.831	87.12
289.062	96.12
289.293	78.12
289.524	76.12
289.755	88.12
289.986	93.12
290.217	82.12
290.448	57.12
290.679	89.12
290.91	83.12
291.141	90.12
291.371	95.12
291.602	82.12
291.833	89.12
292.064	89.12
292.295	70.12
292.526	85.12
292.757	88.12
292.987	96.12
293.218	89.12
293.449	92.12
293.68	89.12
293.91	92.12
294.141	86.12
294.372	74.12
294.603	77.12
294.833	99.12
295.064	101.12
295.295	75.12
295.525	77.12
295.756	72.12
295.987	88.12
296.217	75.12
296.448	75.12
296.679	91.12
296.909	86.12
297.14	76.12
297.37	94.12
297.601	77.12
297.831	77.12
298.062	87.12
298.292	88.12
298.523	94.12
298.753	86.12
298.984	98.12
299.214	88.12
299.445	82.12
299.675	99.12
299.905	82.12
300.136	89.12
300.366	97.12
300.597	82.12
300.827	90.12
301.057	80.12
301.288	91.12
301.518	85.12
301.748	93.12
301.979	68.12
302.209	84.12
302.439	76.12
302.669	84.12
302.9	92.12
303.13	73.12
303.36	97.12
303.59	77.12
303.82	105.12
304.051	104.12
304.281	90.12
304.511	109.12
304.741	87.12
304.971	79.12
305.201	87.12
305.431	90.12
305.661	84.12
305.891	76.12
306.121	86.12
306.352	74.12
306.582	72.12
306.812	91.12
307.042	84.12
307.272	76.12
307.502	101.12
307.731	99.12
307.961	94.12
308.191	92.12
308.421	93.12
308.651	89.12
308.881	104.12
309.111	94.12
309.341	73.12
309.571	88.12
309.8	91.12
310.03	82.12
310.26	84.12
310.49	99.12
310.72	104.12
310.949	85.12
311.179	76.12
311.409	83.12
311.639	90.12
311.868	84.12
312.098	92.12
312.328	73.12
312.557	91.12
312.787	84.12
313.017	92.12
313.246	81.12
313.476	85.12
313.706	81.12
313.935	91.12
314.165	89.12
314.394	104.12
314.624	78.12
314.853	84.12
315.083	83.12
315.312	85.12
315.542	101.12
315.771	90.12
316.001	93.12
316.23	89.12
316.46	106.12
316.689	88.12
316.919	91.12
317.148	76.12
317.377	87.12
317.607	78.12
317.836	84.12
318.065	102.12
318.295	92.12
318.524	88.12
318.753	82.12
318.983	77.12
319.212	79.12
319.441	88.12
319.67	87.12
319.9	89.12
320.129	72.12
320.358	87.12
320.587	84.12
320.816	65.12
321.046	80.12
321.275	76.12
321.504	80.12
321.733	96.12
321.962	81.12
322.191	99.12
322.42	83.12
322.649	91.12
322.878	88.12
323.108	72.12
323.337	93.12
323.566	86.12
323.795	76.12
324.024	90.12
324.253	94.12
324.482	95.12
324.71	83.12
324.939	78.12
325.168	71.12
325.397	78.12
325.626	96.12
325.855	93.12
326.084	76.12
326.313	85.12
326.542	83.12
326.77	82.12
326.999	89.12
327.228	92.12
327.457	76.12
327.686	76.12
327.914	82.12
328.143	80.12
328.372	81.12
328.6	92.12
328.829	86.12
329.058	87.12
329.287	82.12
329.515	97.12
329.744	95.12
329.972	74.12
330.201	88.12
330.43	92.12
330.658	87.12
330.887	68.12
331.115	76.12
331.344	90.12
331.572	86.12
331.801	90.12
332.03	91.12
332.258	80.12
332.486	96.12
332.715	90.12
332.943	88.12
333.172	89.12
333.4	90.12
333.629	92.12
333.857	92.12
334.085	89.12
334.314	93.12
334.542	80.12
334.771	81.12
334.999	87.12
335.227	94.12
335.455	77.12
335.684	84.12
335.912	86.12
336.14	90.12
336.369	89.12
336.597	93.12
336.825	93.12
337.053	88.12
337.281	87.12
337.51	85.12
337.738	83.12
337.966	80.12
338.194	74.12
338.422	88.12
338.65	78.12
338.878	107.12
339.106	83.12
339.334	90.12
339.562	96.12
339.79	91.12
340.018	92.12
340.246	92.12
340.474	91.12
340.702	91.12
340.93	98.12
341.158	86.12
341.386	83.12
341.614	75.12
341.842	92.12
342.07	101.12
342.298	89.12
342.526	94.12
342.754	82.12
342.981	97.12
343.209	95.12
343.437	92.12
343.665	95.12
343.893	86.12
344.12	90.12
344.348	81.12
344.576	88.12
344.804	88.12
345.031	85.12
345.259	81.12
345.487	90.12
345.714	79.12
345.942	92.12
346.17	101.12
346.397	92.12
346.625	83.12
346.853	71.12
347.08	83.12
347.308	91.12
347.535	88.12
347.763	85.12
347.99	93.12
348.218	89.12
348.445	78.12
348.673	84.12
348.9	90.12
349.128	73.12
349.355	89.12
349.583	97.12
349.81	88.12
350.037	91.12
350.265	93.12
350.492	77.12
350.72	79.12
350.947	87.12
351.174	82.12
351.402	78.12
351.629	80.12
351.856	81.12
352.083	82.12
352.311	74.12
352.538	95.12
352.765	88.12
352.992	81.12
353.22	81.12
353.447	93.12
353.674	84.12
353.901	97.12
354.128	82.12
354.355	116.12
354.583	77.12
354.81	92.12
355.037	84.12
355.264	96.12
355.491	78.12
355.718	69.12
355.945	102.12
356.172	82.12
356.399	95.12
356.626	83.12
356.853	87.12
357.08	82.12
357.307	92.12
357.534	83.12
357.761	81.12
357.988	93.12
358.215	92.12
358.441	73.12
358.668	96.12
358.895	89.12
359.122	85.12
359.349	83.12
359.576	79.12
359.802	91.12
360.029	84.12
360.256	95.12
360.483	83.12
360.709	92.12
360.936	101.12
361.163	86.12
361.39	88.12
361.616	86.12
361.843	95.12
362.07	83.12
362.296	80.12
362.523	78.12
362.749	77.12
362.976	77.12
363.203	93.12
363.429	79.12
363.656	92.12
363.882	87.12
364.109	71.12
364.335	83.12
364.562	80.12
364.788	83.12
365.015	89.12
365.241	88.12
365.468	86.12
365.694	85.12
365.92	85.12
366.147	81.12
366.373	74.12
366.599	83.12
366.826	84.12
367.052	93.12
367.278	84.12
367.505	98.12
367.731	89.12
367.957	78.12
368.184	82.12
368.41	79.12
368.636	97.12
368.862	82.12
369.089	82.12
369.315	88.12
369.541	89.12
369.767	86.12
369.993	89.12
370.219	93.12
370.445	87.12
370.672	68.12
370.898	93.12
371.124	73.12
371.35	92.12
371.576	86.12
371.802	83.12
372.028	81.12
372.254	84.12
372.48	90.12
372.706	84.12
372.932	83.12
373.158	85.12
373.384	98.12
373.61	81.12
373.835	77.12
374.061	83.12
374.287	87.12
374.513	91.12
374.739	85.12
374.965	82.12
375.191	85.12
375.416	95.12
375.642	92.12
375.868	84.12
376.094	93.12
376.319	102.12
376.545	83.12
376.771	81.12
376.997	82.12
377.222	92.12
377.448	86.12
377.674	75.12
377.899	92.12
378.125	75.12
378.35	84.12
378.576	82.12
378.802	81.12
379.027	80.12
379.253	85.12
379.478	87.12
379.704	82.12
379.929	74.12
380.155	71.12
380.38	79.12
380.606	75.12
380.831	90.12
381.057	88.12
381.282	87.12
381.507	79.12
381.733	81.12
381.958	107.12
382.184	85.12
382.409	83.12
382.634	85.12
382.86	78.12
383.085	90.12
383.31	88.12
383.535	72.12
383.761	91.12
383.986	92.12
384.211	84.12
384.436	90.12
384.662	95.12
384.887	83.12
385.112	82.12
385.337	68.12
385.562	72.12
385.787	77.12
386.013	74.12
386.238	76.12
386.463	89.12
386.688	85.12
386.913	88.12
387.138	99.12
387.363	93.12
387.588	77.12
387.813	83.12
388.038	84.12
388.263	90.12
388.488	109.12
388.713	84.12
388.938	86.12
389.163	90.12
389.387	83.12
389.612	75.12
389.837	73.12
390.062	69.12
390.287	73.12
390.512	84.12
390.736	94.12
390.961	92.12
391.186	87.12
391.411	84.12
391.636	77.12
391.86	86.12
392.085	73.12
392.31	73.12
392.534	68.12
392.759	89.12
392.984	96.12
393.208	69.12
393.433	78.12
393.658	88.12
393.882	87.12
394.107	85.12
394.331	73.12
394.556	74.12
394.78	93.12
395.005	86.12
395.229	83.12
395.454	84.12
395.678	79.12
395.903	83.12
396.127	83.12
396.352	94.12
396.576	92.12
396.801	85.12
397.025	90.12
397.249	84.12
397.474	88.12
397.698	84.12
397.922	77.12
398.147	88.12
398.371	76.12
398.595	85.12
398.82	81.12
399.044	74.12
399.268	92.12
399.492	76.12
399.717	105.12
399.941	76.12
400.165	102.12
400.389	87.12
400.613	102.12
400.837	98.12
401.062	87.12
401.286	76.12
401.51	78.12
401.734	84.12
401.958	72.12
402.182	86.12
402.406	87.12
402.63	90.12
402.854	92.12
403.078	86.12
403.302	84.12
403.526	82.12
403.75	92.12
403.974	93.12
404.198	83.12
404.422	90.12
404.645	82.12
404.869	87.12
405.093	85.12
405.317	100.12
405.541	100.12
405.765	91.12
405.988	87.12
406.212	92.12
406.436	90.12
406.66	78.12
406.883	82.12
407.107	81.12
407.331	77.12
407.555	90.12
407.778	78.12
408.002	92.12
408.226	83.12
408.449	84.12
408.673	85.12
408.896	101.12
409.12	98.12
409.344	81.12
409.567	85.12
409.791	80.12
410.014	93.12
410.238	92.12
410.461	85.12
410.685	83.12
410.908	94.12
411.132	75.12
411.355	78.12
411.578	78.12
411.802	88.12
412.025	84.12
412.249	85.12
412.472	77.12
412.695	79.12
412.919	89.12
413.142	80.12
413.365	90.12
413.589	90.12
413.812	89.12
414.035	83.12
414.258	93.12
414.482	88.12
414.705	80.12
414.928	88.12
415.151	97.12
415.374	77.12
415.597	78.12
415.821	71.12
416.044	97.12
416.267	77.12
416.49	88.12
416.713	84.12
416.936	88.12
417.159	90.12
417.382	78.12
417.605	89.12
417.828	105.12
418.051	86.12
418.274	91.12
418.497	87.12
418.72	84.12
418.943	76.12
419.166	97.12
419.389	84.12
419.611	89.12
419.834	88.12
420.057	90.12
420.28	105.12
420.503	87.12
420.726	79.12
420.948	85.12
421.171	97.12
421.394	79.12
421.617	85.12
421.839	92.12
422.062	84.12
422.285	84.12
422.507	91.12
422.73	87.12
422.953	87.12
423.175	90.12
423.398	72.12
423.621	72.12
423.843	84.12
424.066	87.12
424.288	91.12
424.511	80.12
424.733	73.12
424.956	88.12
425.178	77.12
425.401	82.12
425.623	84.12
425.846	90.12
426.068	88.12
426.291	69.12
426.513	90.12
426.735	98.12
426.958	89.12
427.18	86.12
427.402	82.12
427.625	88.12
427.847	86.12
428.069	91.12
428.292	77.12
428.514	89.12
428.736	86.12
428.958	90.12
429.181	85.12
429.403	80.12
429.625	85.12
429.847	91.12
430.069	98.12
430.292	78.12
430.514	90.12
430.736	90.12
430.958	75.12
431.18	89.12
431.402	74.12
431.624	80.12
431.846	74.12
432.068	81.12
432.29	84.12
432.512	82.12
432.734	87.12
432.956	85.12
433.178	75.12
433.4	84.12
433.622	82.12
433.844	78.12
434.066	93.12
434.287	72.12
434.509	84.12
434.731	95.12
434.953	88.12
435.175	96.12
435.397	84.12
435.618	84.12
435.84	83.12
436.062	83.12
436.284	98.12
436.505	86.12
436.727	89.12
436.949	74.12
437.17	78.12
437.392	75.12
437.614	94.12
437.835	78.12
438.057	78.12
438.278	82.12
438.5	86.12
438.721	86.12
438.943	90.12
439.165	82.12
439.386	77.12
439.608	85.12
439.829	65.12
440.05	86.12
440.272	84.12
440.493	91.12
440.715	83.12
440.936	81.12
441.158	77.12
441.379	82.12
441.6	82.12
441.822	89.12
442.043	85.12
442.264	79.12
442.486	83.12
442.707	93.12
442.928	92.12
443.149	90.12
443.371	93.12
443.592	98.12
443.813	84.12
444.034	100.12
444.255	81.12
444.476	77.12
444.698	88.12
444.919	88.12
445.14	192.12
445.361	136.12
445.582	94.12
445.803	84.12
446.024	87.12
446.245	91.12
446.466	85.12
446.687	82.12
446.908	90.12
447.129	76.12
447.35	85.12
447.571	88.12
447.792	82.12
448.013	92.12
448.234	98.12
448.455	82.12
448.675	85.12
448.896	81.12
449.117	89.12
449.338	79.12
449.559	78.12
449.779	82.12
450	78.12
450.221	75.12
450.442	93.12
450.662	72.12
450.883	82.12
451.104	90.12
451.324	84.12
451.545	83.12
451.766	85.12
451.986	83.12
452.207	83.12
452.428	77.12
452.648	78.12
452.869	74.12
453.089	75.12
453.31	73.12
453.53	89.12
453.751	76.12
453.971	91.12
454.192	82.12
454.412	77.12
454.633	92.12
454.853	73.12
455.073	82.12
455.294	89.12
455.514	75.12
455.734	111.12
455.955	90.12
456.175	85.12
456.395	85.12
456.616	72.12
456.836	76.12
457.056	90.12
457.276	97.12
457.497	91.12
457.717	90.12
457.937	84.12
458.157	77.12
458.377	93.12
458.598	96.12
458.818	90.12
459.038	86.12
459.258	102.12
459.478	83.12
459.698	89.12
459.918	92.12
460.138	80.12
460.358	82.12
460.578	82.12
460.798	86.12
461.018	83.12
461.238	98.12
461.458	83.12
461.678	86.12
461.898	100.12
462.118	91.12
462.338	105.12
462.558	82.12
462.777	85.12
462.997	97.12
463.217	89.12
463.437	93.12
463.657	77.12
463.876	86.12
464.096	83.12
464.316	90.12
464.536	99.12
464.755	88.12
464.975	80.12
465.195	81.12
465.414	98.12
465.634	84.12
465.854	83.12
466.073	79.12
466.293	88.12
466.512	100.12
466.732	79.12
466.951	92.12
467.171	90.12
467.391	85.12
467.61	78.12
467.829	87.12
468.049	70.12
468.268	92.12
468.488	82.12
468.707	81.12
468.927	77.12
469.146	88.12
469.365	99.12
469.585	84.12
469.804	91.12
470.023	86.12
470.243	73.12
470.462	80.12
470.681	76.12
470.901	78.12
471.12	78.12
471.339	83.12
471.558	93.12
471.777	95.12
471.997	87.12
472.216	92.12
472.435	82.12
472.654	84.12
472.873	87.12
473.092	86.12
473.311	94.12
473.53	73.12
473.749	94.12
473.968	85.12
474.187	89.12
474.406	76.12
474.625	80.12
474.844	77.12
475.063	104.12
475.282	94.12
475.501	84.12
475.72	96.12
475.939	88.12
476.158	90.12
476.377	105.12
476.596	99.12
476.814	91.12
477.033	89.12
477.252	92.12
477.471	80.12
477.69	97.12
477.908	96.12
478.127	77.12
478.346	93.12
478.564	97.12
478.783	92.12
479.002	88.12
479.22	87.12
479.439	85.12
479.658	114.12
479.876	68.12
480.095	96.12
480.313	97.12
480.532	97.12
480.751	87.12
480.969	93.12
481.188	86.12
481.406	91.12
481.624	98.12
481.843	91.12
482.061	77.12
482.28	91.12
482.498	84.12
482.717	84.12
482.935	100.12
483.153	93.12
483.372	91.12
483.59	94.12
483.808	100.12
484.027	94.12
484.245	86.12
484.463	78.12
484.681	96.12
484.9	96.12
485.118	102.12
485.336	100.12
485.554	102.12
485.772	107.12
485.99	91.12
486.209	80.12
486.427	90.12
486.645	82.12
486.863	84.12
487.081	86.12
487.299	76.12
487.517	82.12
487.735	96.12
487.953	81.12
488.171	100.12
488.389	91.12
488.607	94.12
488.825	96.12
489.043	101.12
489.261	86.12
489.479	70.12
489.696	90.12
489.914	82.12
490.132	112.12
490.35	84.12
490.568	89.12
490.786	85.12
491.003	97.12
491.221	94.12
491.439	105.12
491.657	94.12
491.874	104.12
492.092	101.12
492.31	107.12
492.527	92.12
492.745	78.12
492.963	92.12
493.18	88.12
493.398	96.12
493.615	107.12
493.833	90.12
494.05	99.12
494.268	101.12
494.485	104.12
494.703	105.12
494.92	92.12
495.138	84.12
495.355	93.12
495.573	87.12
495.79	88.12
496.008	90.12
496.225	93.12
496.442	103.12
496.66	100.12
496.877	96.12
497.094	106.12
497.312	95.12
497.529	89.12
497.746	91.12
497.963	116.12
498.181	96.12
498.398	107.12
498.615	96.12
498.832	99.12
499.049	102.12
499.267	98.12
499.484	89.12
499.701	89.12
499.918	113.12
500.135	110.12
500.352	103.12
500.569	116.12
500.786	115.12
501.003	119.12
501.22	99.12
501.437	98.12
501.654	98.12
501.871	118.12
502.088	89.12
502.305	114.12
502.522	88.12
502.739	87.12
502.956	95.12
503.172	99.12
503.389	103.12
503.606	96.12
503.823	91.12
504.04	95.12
504.256	97.12
504.473	95.12
504.69	93.12
504.907	94.12
505.123	107.12
505.34	104.12
505.557	103.12
505.773	80.12
505.99	96.12
506.207	94.12
506.423	97.12
506.64	96.12
506.856	96.12
507.073	82.12
507.289	96.12
507.506	92.12
507.722	101.12
507.939	95.12
508.155	98.12
508.372	93.12
508.588	93.12
508.805	91.12
509.021	91.12
509.238	92.12
509.454	90.12
509.67	83.12
509.887	104.12
510.103	91.12
510.319	98.12
510.536	106.12
510.752	95.12
510.968	90.12
511.184	80.12
511.401	91.12
511.617	85.12
511.833	92.12
512.049	78.12
512.265	88.12
512.481	99.12
512.698	92.12
512.914	88.12
513.13	86.12
513.346	86.12
513.562	86.12
513.778	93.12
513.994	93.12
514.21	92.12
514.426	96.12
514.642	87.12
514.858	87.12
515.074	89.12
515.29	84.12
515.506	110.12
515.721	91.12
515.937	100.12
516.153	85.12
516.369	93.12
516.585	91.12
516.801	95.12
517.016	78.12
517.232	95.12
517.448	87.12
517.664	92.12
517.879	112.12
518.095	98.12
518.311	87.12
