Data from Ni(NO3)2@0.5M.TitratingCurve.Agarose3%dH2O.NegLispCup.LampEnergy10.LIBS07252019_HRD10591_17-57-48-564.txt Node
Date: Thu Jul 25 17:57:48 EDT 2019
User: cochatt
Spectrometer: HR+D1059
Trigger mode: 1
Integration Time (sec): 1.000000E-1
Scans to average: 1
Electric dark correction enabled: true
Nonlinearity correction enabled: false
Boxcar width: 0
XAxis mode: Wavelengths
Number of Pixels in Spectrum: 2048
>>>>>Begin Spectral Data<<<<<
223.165	-15.25
223.4	-15.25
223.635	-15.25
223.869	-13.25
224.104	-15.25
224.338	-6.25
224.573	-16.25
224.808	-12.25
225.042	-11.25
225.277	-5.25
225.511	1.75
225.746	-7.25
225.98	4.75
226.215	4.75
226.449	30.75
226.683	26.75
226.918	10.75
227.152	22.75
227.387	32.75
227.621	45.75
227.856	38.75
228.09	42.75
228.324	43.75
228.559	44.75
228.793	65.75
229.027	159.75
229.262	158.75
229.496	159.75
229.73	181.75
229.964	196.75
230.199	225.75
230.433	233.75
230.667	215.75
230.901	222.75
231.136	165.75
231.37	187.75
231.604	213.75
231.838	232.75
232.072	245.75
232.306	224.75
232.541	208.75
232.775	194.75
233.009	192.75
233.243	184.75
233.477	179.75
233.711	196.75
233.945	187.75
234.179	187.75
234.413	208.75
234.647	197.75
234.881	217.75
235.115	196.75
235.349	186.75
235.583	182.75
235.817	169.75
236.051	183.75
236.285	183.75
236.519	203.75
236.753	174.75
236.987	189.75
237.221	189.75
237.455	195.75
237.689	208.75
237.922	205.75
238.156	208.75
238.39	200.75
238.624	198.75
238.858	212.75
239.091	212.75
239.325	206.75
239.559	240.75
239.793	270.75
240.027	270.75
240.26	245.75
240.494	215.75
240.728	216.75
240.961	207.75
241.195	220.75
241.429	224.75
241.662	245.75
241.896	269.75
242.13	304.75
242.363	260.75
242.597	229.75
242.83	244.75
243.064	240.75
243.298	228.75
243.531	251.75
243.765	269.75
243.998	276.75
244.232	289.75
244.465	243.75
244.699	255.75
244.932	278.75
245.166	261.75
245.399	263.75
245.633	248.75
245.866	278.75
246.099	281.75
246.333	280.75
246.566	266.75
246.8	274.75
247.033	267.75
247.266	289.75
247.5	279.75
247.733	299.75
247.966	290.75
248.2	306.75
248.433	314.75
248.666	314.75
248.899	320.75
249.133	324.75
249.366	325.75
249.599	318.75
249.832	333.75
250.066	325.75
250.299	326.75
250.532	322.75
250.765	333.75
250.998	343.75
251.231	385.75
251.465	386.75
251.698	367.75
251.931	381.75
252.164	362.75
252.397	354.75
252.63	368.75
252.863	346.75
253.096	370.75
253.329	371.75
253.562	363.75
253.795	367.75
254.028	393.75
254.261	386.75
254.494	380.75
254.727	396.75
254.96	411.75
255.193	419.75
255.426	413.75
255.659	405.75
255.892	423.75
256.124	422.75
256.357	430.75
256.59	437.75
256.823	408.75
257.056	422.75
257.289	439.75
257.521	423.75
257.754	458.75
257.987	424.75
258.22	425.75
258.452	446.75
258.685	457.75
258.918	454.75
259.151	440.75
259.383	458.75
259.616	448.75
259.849	468.75
260.081	465.75
260.314	464.75
260.547	471.75
260.779	474.75
261.012	482.75
261.244	477.75
261.477	486.75
261.71	473.75
261.942	486.75
262.175	485.75
262.407	474.75
262.64	468.75
262.872	504.75
263.105	540.75
263.337	531.75
263.57	505.75
263.802	487.75
264.035	532.75
264.267	522.75
264.499	480.75
264.732	504.75
264.964	524.75
265.197	526.75
265.429	540.75
265.661	518.75
265.894	525.75
266.126	502.75
266.358	519.75
266.591	525.75
266.823	558.75
267.055	547.75
267.287	549.75
267.52	543.75
267.752	524.75
267.984	524.75
268.216	559.75
268.448	555.75
268.681	561.75
268.913	576.75
269.145	574.75
269.377	568.75
269.609	560.75
269.841	572.75
270.073	590.75
270.306	570.75
270.538	574.75
270.77	581.75
271.002	581.75
271.234	593.75
271.466	588.75
271.698	570.75
271.93	582.75
272.162	594.75
272.394	587.75
272.626	584.75
272.858	592.75
273.09	605.75
273.322	603.75
273.553	604.75
273.785	597.75
274.017	620.75
274.249	612.75
274.481	615.75
274.713	620.75
274.945	619.75
275.176	633.75
275.408	604.75
275.64	639.75
275.872	628.75
276.104	636.75
276.335	635.75
276.567	630.75
276.799	660.75
277.031	646.75
277.262	623.75
277.494	637.75
277.726	640.75
277.957	660.75
278.189	632.75
278.421	631.75
278.652	674.75
278.884	638.75
279.115	680.75
279.347	668.75
279.579	648.75
279.81	666.75
280.042	673.75
280.273	653.75
280.505	664.75
280.736	670.75
280.968	671.75
281.199	668.75
281.431	663.75
281.662	692.75
281.894	664.75
282.125	671.75
282.356	723.75
282.588	677.75
282.819	687.75
283.051	680.75
283.282	680.75
283.513	685.75
283.745	704.75
283.976	668.75
284.207	704.75
284.439	696.75
284.67	680.75
284.901	710.75
285.132	719.75
285.364	695.75
285.595	729.75
285.826	706.75
286.057	730.75
286.288	707.75
286.52	722.75
286.751	701.75
286.982	741.75
287.213	722.75
287.444	718.75
287.675	730.75
287.906	719.75
288.138	736.75
288.369	742.75
288.6	708.75
288.831	707.75
289.062	724.75
289.293	719.75
289.524	722.75
289.755	730.75
289.986	720.75
290.217	735.75
290.448	754.75
290.679	738.75
290.91	728.75
291.141	748.75
291.371	710.75
291.602	734.75
291.833	735.75
292.064	725.75
292.295	742.75
292.526	752.75
292.757	723.75
292.987	747.75
293.218	748.75
293.449	749.75
293.68	729.75
293.91	759.75
294.141	731.75
294.372	743.75
294.603	764.75
294.833	748.75
295.064	763.75
295.295	728.75
295.525	747.75
295.756	749.75
295.987	750.75
296.217	758.75
296.448	770.75
296.679	736.75
296.909	777.75
297.14	776.75
297.37	802.75
297.601	796.75
297.831	765.75
298.062	750.75
298.292	785.75
298.523	784.75
298.753	804.75
298.984	760.75
299.214	798.75
299.445	799.75
299.675	796.75
299.905	808.75
300.136	803.75
300.366	864.75
300.597	868.75
300.827	836.75
301.057	820.75
301.288	835.75
301.518	816.75
301.748	822.75
301.979	810.75
302.209	820.75
302.439	833.75
302.669	828.75
302.9	811.75
303.13	836.75
303.36	854.75
303.59	856.75
303.82	858.75
304.051	860.75
304.281	873.75
304.511	827.75
304.741	866.75
304.971	887.75
305.201	878.75
305.431	902.75
305.661	902.75
305.891	896.75
306.121	882.75
306.352	850.75
306.582	839.75
306.812	844.75
307.042	872.75
307.272	832.75
307.502	868.75
307.731	860.75
307.961	872.75
308.191	902.75
308.421	862.75
308.651	877.75
308.881	898.75
309.111	886.75
309.341	903.75
309.571	878.75
309.8	902.75
310.03	914.75
310.26	958.75
310.49	927.75
310.72	926.75
310.949	911.75
311.179	920.75
311.409	884.75
311.639	901.75
311.868	895.75
312.098	947.75
312.328	919.75
312.557	937.75
312.787	907.75
313.017	918.75
313.246	942.75
313.476	966.75
313.706	982.75
313.935	975.75
314.165	948.75
314.394	972.75
314.624	982.75
314.853	952.75
315.083	978.75
315.312	974.75
315.542	978.75
315.771	974.75
316.001	990.75
316.23	1000.75
316.46	1012.75
316.689	1016.75
316.919	1035.75
317.148	997.75
317.377	1026.75
317.607	1031.75
317.836	1026.75
318.065	1013.75
318.295	1025.75
318.524	1037.75
318.753	1027.75
318.983	1043.75
319.212	1023.75
319.441	1026.75
319.67	1066.75
319.9	1043.75
320.129	1030.75
320.358	1046.75
320.587	1045.75
320.816	1080.75
321.046	1093.75
321.275	1087.75
321.504	1110.75
321.733	1083.75
321.962	1140.75
322.191	1112.75
322.42	1098.75
322.649	1125.75
322.878	1091.75
323.108	1114.75
323.337	1100.75
323.566	1134.75
323.795	1123.75
324.024	1149.75
324.253	1150.75
324.482	1133.75
324.71	1133.75
324.939	1120.75
325.168	1130.75
325.397	1127.75
325.626	1161.75
325.855	1110.75
326.084	1166.75
326.313	1143.75
326.542	1149.75
326.77	1198.75
326.999	1176.75
327.228	1209.75
327.457	1190.75
327.686	1168.75
327.914	1182.75
328.143	1186.75
328.372	1183.75
328.6	1172.75
328.829	1168.75
329.058	1197.75
329.287	1198.75
329.515	1196.75
329.744	1198.75
329.972	1220.75
330.201	1199.75
330.43	1216.75
330.658	1209.75
330.887	1244.75
331.115	1249.75
331.344	1240.75
331.572	1237.75
331.801	1241.75
332.03	1316.75
332.258	1255.75
332.486	1255.75
332.715	1277.75
332.943	1274.75
333.172	1253.75
333.4	1250.75
333.629	1256.75
333.857	1302.75
334.085	1323.75
334.314	1295.75
334.542	1277.75
334.771	1319.75
334.999	1301.75
335.227	1326.75
335.455	1333.75
335.684	1311.75
335.912	1322.75
336.14	1344.75
336.369	1342.75
336.597	1373.75
336.825	1363.75
337.053	1373.75
337.281	1347.75
337.51	1390.75
337.738	1347.75
337.966	1334.75
338.194	1370.75
338.422	1378.75
338.65	1326.75
338.878	1309.75
339.106	1330.75
339.334	1369.75
339.562	1363.75
339.79	1270.75
340.018	1312.75
340.246	1327.75
340.474	1331.75
340.702	1332.75
340.93	1323.75
341.158	1353.75
341.386	1382.75
341.614	1394.75
341.842	1367.75
342.07	1281.75
342.298	1263.75
342.526	1313.75
342.754	1313.75
342.981	1282.75
343.209	1314.75
343.437	1360.75
343.665	1347.75
343.893	1381.75
344.12	1344.75
344.348	1350.75
344.576	1322.75
344.804	1373.75
345.031	1321.75
345.259	1292.75
345.487	1344.75
345.714	1343.75
345.942	1364.75
346.17	1372.75
346.397	1357.75
346.625	1317.75
346.853	1272.75
347.08	1289.75
347.308	1320.75
347.535	1252.75
347.763	1257.75
347.99	1242.75
348.218	1291.75
348.445	1272.75
348.673	1295.75
348.9	1290.75
349.128	1285.75
349.355	1300.75
349.583	1312.75
349.81	1270.75
350.037	1266.75
350.265	1250.75
350.492	1276.75
350.72	1265.75
350.947	1285.75
351.174	1322.75
351.402	1311.75
351.629	1355.75
351.856	1292.75
352.083	1271.75
352.311	1299.75
352.538	1327.75
352.765	1333.75
352.992	1252.75
353.22	1245.75
353.447	1252.75
353.674	1254.75
353.901	1223.75
354.128	1266.75
354.355	1255.75
354.583	1248.75
354.81	1247.75
355.037	1277.75
355.264	1263.75
355.491	1262.75
355.718	1225.75
355.945	1215.75
356.172	1221.75
356.399	1263.75
356.626	1312.75
356.853	1308.75
357.08	1275.75
357.307	1266.75
357.534	1266.75
357.761	1273.75
357.988	1258.75
358.215	1238.75
358.441	1220.75
358.668	1237.75
358.895	1251.75
359.122	1241.75
359.349	1263.75
359.576	1231.75
359.802	1271.75
360.029	1279.75
360.256	1268.75
360.483	1309.75
360.709	1239.75
360.936	1279.75
361.163	1288.75
361.39	1274.75
361.616	1253.75
361.843	1269.75
362.07	1374.75
362.296	1343.75
362.523	1249.75
362.749	1276.75
362.976	1234.75
363.203	1265.75
363.429	1239.75
363.656	1240.75
363.882	1255.75
364.109	1281.75
364.335	1289.75
364.562	1293.75
364.788	1258.75
365.015	1246.75
365.241	1239.75
365.468	1298.75
365.694	1302.75
365.92	1260.75
366.147	1248.75
366.373	1294.75
366.599	1260.75
366.826	1241.75
367.052	1274.75
367.278	1278.75
367.505	1304.75
367.731	1273.75
367.957	1278.75
368.184	1267.75
368.41	1288.75
368.636	1307.75
368.862	1298.75
369.089	1274.75
369.315	1305.75
369.541	1293.75
369.767	1266.75
369.993	1240.75
370.219	1262.75
370.445	1310.75
370.672	1282.75
370.898	1306.75
371.124	1272.75
371.35	1313.75
371.576	1285.75
371.802	1309.75
372.028	1321.75
372.254	1287.75
372.48	1325.75
372.706	1306.75
372.932	1294.75
373.158	1295.75
373.384	1282.75
373.61	1289.75
373.835	1290.75
374.061	1290.75
374.287	1347.75
374.513	1296.75
374.739	1358.75
374.965	1322.75
375.191	1296.75
375.416	1292.75
375.642	1274.75
375.868	1311.75
376.094	1271.75
376.319	1270.75
376.545	1273.75
376.771	1266.75
376.997	1259.75
377.222	1273.75
377.448	1274.75
377.674	1271.75
377.899	1304.75
378.125	1271.75
378.35	1264.75
378.576	1274.75
378.802	1237.75
379.027	1266.75
379.253	1282.75
379.478	1232.75
379.704	1276.75
379.929	1252.75
380.155	1275.75
380.38	1263.75
380.606	1273.75
380.831	1261.75
381.057	1251.75
381.282	1257.75
381.507	1270.75
381.733	1271.75
381.958	1298.75
382.184	1284.75
382.409	1288.75
382.634	1223.75
382.86	1263.75
383.085	1276.75
383.31	1290.75
383.535	1288.75
383.761	1288.75
383.986	1291.75
384.211	1282.75
384.436	1318.75
384.662	1310.75
384.887	1285.75
385.112	1319.75
385.337	1341.75
385.562	1286.75
385.787	1328.75
386.013	1364.75
386.238	1319.75
386.463	1352.75
386.688	1307.75
386.913	1308.75
387.138	1334.75
387.363	1308.75
387.588	1309.75
387.813	1311.75
388.038	1358.75
388.263	1328.75
388.488	1364.75
388.713	1332.75
388.938	1295.75
389.163	1306.75
389.387	1344.75
389.612	1312.75
389.837	1354.75
390.062	1340.75
390.287	1336.75
390.512	1361.75
390.736	1373.75
390.961	1380.75
391.186	1375.75
391.411	1358.75
391.636	1331.75
391.86	1330.75
392.085	1311.75
392.31	1353.75
392.534	1341.75
392.759	1346.75
392.984	1363.75
393.208	1395.75
393.433	1387.75
393.658	1350.75
393.882	1364.75
394.107	1344.75
394.331	1336.75
394.556	1363.75
394.78	1362.75
395.005	1360.75
395.229	1384.75
395.454	1371.75
395.678	1375.75
395.903	1353.75
396.127	1368.75
396.352	1361.75
396.576	1338.75
396.801	1371.75
397.025	1420.75
397.249	1412.75
397.474	1402.75
397.698	1406.75
397.922	1409.75
398.147	1422.75
398.371	1399.75
398.595	1421.75
398.82	1436.75
399.044	1482.75
399.268	1452.75
399.492	1453.75
399.717	1469.75
399.941	1485.75
400.165	1445.75
400.389	1506.75
400.613	1503.75
400.837	1512.75
401.062	1497.75
401.286	1482.75
401.51	1458.75
401.734	1420.75
401.958	1464.75
402.182	1423.75
402.406	1421.75
402.63	1432.75
402.854	1445.75
403.078	1458.75
403.302	1451.75
403.526	1429.75
403.75	1407.75
403.974	1436.75
404.198	1472.75
404.422	1469.75
404.645	1444.75
404.869	1462.75
405.093	1496.75
405.317	1445.75
405.541	1486.75
405.765	1466.75
405.988	1458.75
406.212	1477.75
406.436	1478.75
406.66	1500.75
406.883	1498.75
407.107	1562.75
407.331	1541.75
407.555	1539.75
407.778	1527.75
408.002	1536.75
408.226	1563.75
408.449	1589.75
408.673	1545.75
408.896	1546.75
409.12	1508.75
409.344	1538.75
409.567	1504.75
409.791	1564.75
410.014	1514.75
410.238	1509.75
410.461	1528.75
410.685	1502.75
410.908	1501.75
411.132	1483.75
411.355	1493.75
411.578	1475.75
411.802	1466.75
412.025	1509.75
412.249	1474.75
412.472	1501.75
412.695	1460.75
412.919	1478.75
413.142	1475.75
413.365	1461.75
413.589	1464.75
413.812	1478.75
414.035	1476.75
414.258	1444.75
414.482	1450.75
414.705	1459.75
414.928	1415.75
415.151	1456.75
415.374	1465.75
415.597	1440.75
415.821	1430.75
416.044	1406.75
416.267	1428.75
416.49	1428.75
416.713	1377.75
416.936	1420.75
417.159	1394.75
417.382	1396.75
417.605	1383.75
417.828	1378.75
418.051	1428.75
418.274	1398.75
418.497	1405.75
418.72	1445.75
418.943	1352.75
419.166	1450.75
419.389	1513.75
419.611	1493.75
419.834	1486.75
420.057	1466.75
420.28	1418.75
420.503	1374.75
420.726	1353.75
420.948	1389.75
421.171	1402.75
421.394	1406.75
421.617	1373.75
421.839	1410.75
422.062	1416.75
422.285	1398.75
422.507	1439.75
422.73	1402.75
422.953	1422.75
423.175	1382.75
423.398	1421.75
423.621	1410.75
423.843	1404.75
424.066	1378.75
424.288	1402.75
424.511	1412.75
424.733	1429.75
424.956	1446.75
425.178	1447.75
425.401	1405.75
425.623	1416.75
425.846	1388.75
426.068	1405.75
426.291	1364.75
426.513	1436.75
426.735	1402.75
426.958	1398.75
427.18	1394.75
427.402	1413.75
427.625	1412.75
427.847	1380.75
428.069	1394.75
428.292	1427.75
428.514	1387.75
428.736	1411.75
428.958	1416.75
429.181	1409.75
429.403	1429.75
429.625	1385.75
429.847	1382.75
430.069	1416.75
430.292	1407.75
430.514	1382.75
430.736	1412.75
430.958	1396.75
431.18	1407.75
431.402	1389.75
431.624	1373.75
431.846	1382.75
432.068	1394.75
432.29	1403.75
432.512	1395.75
432.734	1434.75
432.956	1428.75
433.178	1467.75
433.4	1502.75
433.622	1455.75
433.844	1436.75
434.066	1434.75
434.287	1443.75
434.509	1407.75
434.731	1422.75
434.953	1424.75
435.175	1470.75
435.397	1494.75
435.618	1441.75
435.84	1420.75
436.062	1415.75
436.284	1462.75
436.505	1420.75
436.727	1433.75
436.949	1412.75
437.17	1424.75
437.392	1390.75
437.614	1399.75
437.835	1356.75
438.057	1358.75
438.278	1367.75
438.5	1371.75
438.721	1350.75
438.943	1355.75
439.165	1350.75
439.386	1391.75
439.608	1420.75
439.829	1388.75
440.05	1396.75
440.272	1406.75
440.493	1408.75
440.715	1402.75
440.936	1406.75
441.158	1422.75
441.379	1419.75
441.6	1464.75
441.822	1440.75
442.043	1401.75
442.264	1409.75
442.486	1429.75
442.707	1414.75
442.928	1419.75
443.149	1458.75
443.371	1500.75
443.592	1540.75
443.813	1506.75
444.034	1442.75
444.255	1466.75
444.476	1462.75
444.698	1426.75
444.919	1497.75
445.14	1613.75
445.361	1512.75
445.582	1477.75
445.803	1431.75
446.024	1403.75
446.245	1400.75
446.466	1398.75
446.687	1343.75
446.908	1398.75
447.129	1385.75
447.35	1365.75
447.571	1360.75
447.792	1290.75
448.013	1338.75
448.234	1322.75
448.455	1339.75
448.675	1322.75
448.896	1301.75
449.117	1317.75
449.338	1322.75
449.559	1347.75
449.779	1343.75
450	1314.75
450.221	1290.75
450.442	1315.75
450.662	1326.75
450.883	1339.75
451.104	1360.75
451.324	1294.75
451.545	1299.75
451.766	1290.75
451.986	1297.75
452.207	1272.75
452.428	1316.75
452.648	1296.75
452.869	1276.75
453.089	1282.75
453.31	1287.75
453.53	1246.75
453.751	1261.75
453.971	1272.75
454.192	1290.75
454.412	1328.75
454.633	1301.75
454.853	1290.75
455.073	1258.75
455.294	1321.75
455.514	1302.75
455.734	1331.75
455.955	1343.75
456.175	1319.75
456.395	1286.75
456.616	1272.75
456.836	1296.75
457.056	1295.75
457.276	1234.75
457.497	1292.75
457.717	1319.75
457.937	1278.75
458.157	1266.75
458.377	1268.75
458.598	1271.75
458.818	1274.75
459.038	1309.75
459.258	1352.75
459.478	1387.75
459.698	1506.75
459.918	1511.75
460.138	1462.75
460.358	1460.75
460.578	1412.75
460.798	1505.75
461.018	1507.75
461.238	1434.75
461.458	1414.75
461.678	1394.75
461.898	1395.75
462.118	1431.75
462.338	1445.75
462.558	1457.75
462.777	1472.75
462.997	1493.75
463.217	1509.75
463.437	1572.75
463.657	1560.75
463.876	1502.75
464.096	1482.75
464.316	1500.75
464.536	1447.75
464.755	1430.75
464.975	1460.75
465.195	1404.75
465.414	1374.75
465.634	1412.75
465.854	1398.75
466.073	1403.75
466.293	1378.75
466.512	1343.75
466.732	1382.75
466.951	1379.75
467.171	1357.75
467.391	1367.75
467.61	1333.75
467.829	1330.75
468.049	1334.75
468.268	1332.75
468.488	1356.75
468.707	1382.75
468.927	1364.75
469.146	1396.75
469.365	1396.75
469.585	1350.75
469.804	1378.75
470.023	1346.75
470.243	1332.75
470.462	1323.75
470.681	1368.75
470.901	1342.75
471.12	1348.75
471.339	1421.75
471.558	1384.75
471.777	1387.75
471.997	1389.75
472.216	1356.75
472.435	1365.75
472.654	1376.75
472.873	1349.75
473.092	1403.75
473.311	1374.75
473.53	1368.75
473.749	1401.75
473.968	1397.75
474.187	1399.75
474.406	1360.75
474.625	1392.75
474.844	1400.75
475.063	1404.75
475.282	1441.75
475.501	1418.75
475.72	1397.75
475.939	1446.75
476.158	1434.75
476.377	1438.75
476.596	1447.75
476.814	1477.75
477.033	1444.75
477.252	1493.75
477.471	1473.75
477.69	1486.75
477.908	1499.75
478.127	1560.75
478.346	1543.75
478.564	1581.75
478.783	1592.75
479.002	1629.75
479.22	1676.75
479.439	1662.75
479.658	1606.75
479.876	1573.75
480.095	1564.75
480.313	1597.75
480.532	1610.75
480.751	1608.75
480.969	1607.75
481.188	1622.75
481.406	1607.75
481.624	1633.75
481.843	1595.75
482.061	1636.75
482.28	1605.75
482.498	1633.75
482.717	1607.75
482.935	1638.75
483.153	1635.75
483.372	1729.75
483.59	1752.75
483.808	1677.75
484.027	1663.75
484.245	1678.75
484.463	1659.75
484.681	1698.75
484.9	1648.75
485.118	1679.75
485.336	1698.75
485.554	1671.75
485.772	1665.75
485.99	1677.75
486.209	1664.75
486.427	1661.75
486.645	1675.75
486.863	1695.75
487.081	1688.75
487.299	1671.75
487.517	1746.75
487.735	1762.75
487.953	1781.75
488.171	1701.75
488.389	1722.75
488.607	1726.75
488.825	1736.75
489.043	1706.75
489.261	1688.75
489.479	1703.75
489.696	1739.75
489.914	1688.75
490.132	1735.75
490.35	1712.75
490.568	1690.75
490.786	1763.75
