Data from Ni(NO3)2@0.125M.TitratingCurve.Agarose3%dH2O.NegLispCup.LampEnergy10.LIBS07252019_HRD10591_18-10-52-568.txt Node
Date: Thu Jul 25 18:10:52 EDT 2019
User: cochatt
Spectrometer: HR+D1059
Trigger mode: 1
Integration Time (sec): 1.000000E-1
Scans to average: 1
Electric dark correction enabled: true
Nonlinearity correction enabled: false
Boxcar width: 0
XAxis mode: Wavelengths
Number of Pixels in Spectrum: 2048
>>>>>Begin Spectral Data<<<<<
223.165	-10.25
223.4	-10.25
223.635	-10.25
223.869	-14.25
224.104	-24.25
224.338	-8.25
224.573	-8.25
224.808	-17.25
225.042	-5.25
225.277	-17.25
225.511	-13.25
225.746	-3.25
225.98	10.75
226.215	0.75
226.449	9.75
226.683	29.75
226.918	41.75
227.152	28.75
227.387	41.75
227.621	37.75
227.856	29.75
228.09	34.75
228.324	42.75
228.559	49.75
228.793	66.75
229.027	103.75
229.262	129.75
229.496	120.75
229.73	110.75
229.964	149.75
230.199	139.75
230.433	155.75
230.667	148.75
230.901	134.75
231.136	143.75
231.37	159.75
231.604	157.75
231.838	169.75
232.072	168.75
232.306	160.75
232.541	150.75
232.775	154.75
233.009	142.75
233.243	165.75
233.477	169.75
233.711	153.75
233.945	158.75
234.179	161.75
234.413	170.75
234.647	158.75
234.881	177.75
235.115	164.75
235.349	177.75
235.583	174.75
235.817	173.75
236.051	182.75
236.285	178.75
236.519	173.75
236.753	172.75
236.987	181.75
237.221	177.75
237.455	182.75
237.689	185.75
237.922	179.75
238.156	175.75
238.39	192.75
238.624	180.75
238.858	185.75
239.091	192.75
239.325	210.75
239.559	201.75
239.793	210.75
240.027	214.75
240.26	197.75
240.494	208.75
240.728	209.75
240.961	196.75
241.195	191.75
241.429	213.75
241.662	200.75
241.896	200.75
242.13	241.75
242.363	215.75
242.597	215.75
242.83	248.75
243.064	222.75
243.298	217.75
243.531	227.75
243.765	230.75
243.998	250.75
244.232	255.75
244.465	236.75
244.699	240.75
244.932	262.75
245.166	229.75
245.399	240.75
245.633	242.75
245.866	253.75
246.099	234.75
246.333	255.75
246.566	254.75
246.8	267.75
247.033	279.75
247.266	269.75
247.5	276.75
247.733	271.75
247.966	271.75
248.2	298.75
248.433	278.75
248.666	272.75
248.899	273.75
249.133	292.75
249.366	289.75
249.599	302.75
249.832	282.75
250.066	307.75
250.299	306.75
250.532	303.75
250.765	285.75
250.998	306.75
251.231	300.75
251.465	306.75
251.698	305.75
251.931	325.75
252.164	319.75
252.397	324.75
252.63	312.75
252.863	336.75
253.096	328.75
253.329	330.75
253.562	331.75
253.795	336.75
254.028	325.75
254.261	340.75
254.494	327.75
254.727	328.75
254.96	338.75
255.193	341.75
255.426	324.75
255.659	341.75
255.892	338.75
256.124	355.75
256.357	337.75
256.59	350.75
256.823	345.75
257.056	346.75
257.289	362.75
257.521	365.75
257.754	352.75
257.987	362.75
258.22	357.75
258.452	352.75
258.685	369.75
258.918	350.75
259.151	359.75
259.383	378.75
259.616	361.75
259.849	371.75
260.081	384.75
260.314	395.75
260.547	384.75
260.779	390.75
261.012	396.75
261.244	387.75
261.477	382.75
261.71	373.75
261.942	375.75
262.175	392.75
262.407	399.75
262.64	401.75
262.872	414.75
263.105	392.75
263.337	390.75
263.57	422.75
263.802	426.75
264.035	400.75
264.267	420.75
264.499	404.75
264.732	424.75
264.964	417.75
265.197	428.75
265.429	430.75
265.661	439.75
265.894	423.75
266.126	413.75
266.358	405.75
266.591	419.75
266.823	433.75
267.055	413.75
267.287	454.75
267.52	437.75
267.752	448.75
267.984	455.75
268.216	449.75
268.448	458.75
268.681	456.75
268.913	442.75
269.145	461.75
269.377	448.75
269.609	459.75
269.841	443.75
270.073	461.75
270.306	457.75
270.538	463.75
270.77	478.75
271.002	476.75
271.234	462.75
271.466	485.75
271.698	476.75
271.93	481.75
272.162	480.75
272.394	468.75
272.626	508.75
272.858	493.75
273.09	478.75
273.322	512.75
273.553	496.75
273.785	485.75
274.017	489.75
274.249	489.75
274.481	478.75
274.713	484.75
274.945	515.75
275.176	507.75
275.408	522.75
275.64	532.75
275.872	520.75
276.104	507.75
276.335	507.75
276.567	505.75
276.799	509.75
277.031	514.75
277.262	528.75
277.494	511.75
277.726	550.75
277.957	542.75
278.189	526.75
278.421	521.75
278.652	530.75
278.884	533.75
279.115	545.75
279.347	548.75
279.579	545.75
279.81	565.75
280.042	547.75
280.273	551.75
280.505	587.75
280.736	562.75
280.968	571.75
281.199	575.75
281.431	559.75
281.662	579.75
281.894	565.75
282.125	596.75
282.356	571.75
282.588	601.75
282.819	581.75
283.051	594.75
283.282	594.75
283.513	573.75
283.745	594.75
283.976	586.75
284.207	574.75
284.439	583.75
284.67	624.75
284.901	607.75
285.132	617.75
285.364	598.75
285.595	586.75
285.826	620.75
286.057	609.75
286.288	612.75
286.52	610.75
286.751	627.75
286.982	634.75
287.213	631.75
287.444	617.75
287.675	612.75
287.906	617.75
288.138	641.75
288.369	646.75
288.6	617.75
288.831	646.75
289.062	662.75
289.293	654.75
289.524	651.75
289.755	651.75
289.986	626.75
290.217	632.75
290.448	639.75
290.679	666.75
290.91	646.75
291.141	657.75
291.371	643.75
291.602	651.75
291.833	676.75
292.064	673.75
292.295	673.75
292.526	638.75
292.757	652.75
292.987	641.75
293.218	625.75
293.449	655.75
293.68	675.75
293.91	656.75
294.141	663.75
294.372	656.75
294.603	645.75
294.833	663.75
295.064	651.75
295.295	671.75
295.525	671.75
295.756	675.75
295.987	669.75
296.217	680.75
296.448	679.75
296.679	668.75
296.909	665.75
297.14	668.75
297.37	688.75
297.601	704.75
297.831	697.75
298.062	704.75
298.292	717.75
298.523	734.75
298.753	720.75
298.984	730.75
299.214	711.75
299.445	730.75
299.675	685.75
299.905	716.75
300.136	716.75
300.366	731.75
300.597	717.75
300.827	741.75
301.057	737.75
301.288	768.75
301.518	758.75
301.748	750.75
301.979	738.75
302.209	753.75
302.439	750.75
302.669	730.75
302.9	748.75
303.13	740.75
303.36	728.75
303.59	753.75
303.82	736.75
304.051	762.75
304.281	736.75
304.511	738.75
304.741	756.75
304.971	722.75
305.201	750.75
305.431	739.75
305.661	755.75
305.891	730.75
306.121	726.75
306.352	737.75
306.582	742.75
306.812	735.75
307.042	702.75
307.272	754.75
307.502	769.75
307.731	738.75
307.961	739.75
308.191	721.75
308.421	737.75
308.651	731.75
308.881	713.75
309.111	744.75
309.341	739.75
309.571	716.75
309.8	759.75
310.03	731.75
310.26	740.75
310.49	750.75
310.72	732.75
310.949	734.75
311.179	724.75
311.409	749.75
311.639	756.75
311.868	745.75
312.098	762.75
312.328	788.75
312.557	774.75
312.787	762.75
313.017	761.75
313.246	785.75
313.476	762.75
313.706	769.75
313.935	798.75
314.165	805.75
314.394	833.75
314.624	796.75
314.853	789.75
315.083	779.75
315.312	817.75
315.542	802.75
315.771	781.75
316.001	775.75
316.23	808.75
316.46	791.75
316.689	813.75
316.919	778.75
317.148	800.75
317.377	755.75
317.607	782.75
317.836	777.75
318.065	776.75
318.295	764.75
318.524	795.75
318.753	768.75
318.983	792.75
319.212	772.75
319.441	773.75
319.67	786.75
319.9	807.75
320.129	788.75
320.358	793.75
320.587	793.75
320.816	806.75
321.046	809.75
321.275	799.75
321.504	807.75
321.733	801.75
321.962	817.75
322.191	803.75
322.42	798.75
322.649	826.75
322.878	793.75
323.108	797.75
323.337	795.75
323.566	833.75
323.795	793.75
324.024	822.75
324.253	836.75
324.482	835.75
324.71	818.75
324.939	797.75
325.168	839.75
325.397	804.75
325.626	858.75
325.855	840.75
326.084	845.75
326.313	882.75
326.542	898.75
326.77	865.75
326.999	852.75
327.228	858.75
327.457	869.75
327.686	894.75
327.914	870.75
328.143	872.75
328.372	881.75
328.6	862.75
328.829	884.75
329.058	888.75
329.287	890.75
329.515	872.75
329.744	869.75
329.972	927.75
330.201	909.75
330.43	907.75
330.658	862.75
330.887	898.75
331.115	903.75
331.344	899.75
331.572	911.75
331.801	974.75
332.03	975.75
332.258	988.75
332.486	1020.75
332.715	1059.75
332.943	1111.75
333.172	1154.75
333.4	1186.75
333.629	1237.75
333.857	1216.75
334.085	1180.75
334.314	1148.75
334.542	1173.75
334.771	1166.75
334.999	1115.75
335.227	1107.75
335.455	1096.75
335.684	1079.75
335.912	1102.75
336.14	1063.75
336.369	1049.75
336.597	1073.75
336.825	1056.75
337.053	1030.75
337.281	1044.75
337.51	1008.75
337.738	1010.75
337.966	975.75
338.194	972.75
338.422	983.75
338.65	971.75
338.878	938.75
339.106	944.75
339.334	981.75
339.562	942.75
339.79	918.75
340.018	909.75
340.246	900.75
340.474	924.75
340.702	902.75
340.93	930.75
341.158	944.75
341.386	936.75
341.614	924.75
341.842	922.75
342.07	917.75
342.298	904.75
342.526	945.75
342.754	917.75
342.981	902.75
343.209	908.75
343.437	984.75
343.665	1073.75
343.893	1173.75
344.12	1179.75
344.348	1094.75
344.576	1033.75
344.804	1006.75
345.031	979.75
345.259	958.75
345.487	909.75
345.714	898.75
345.942	895.75
346.17	906.75
346.397	902.75
346.625	915.75
346.853	891.75
347.08	893.75
347.308	907.75
347.535	920.75
347.763	889.75
347.99	908.75
348.218	898.75
348.445	907.75
348.673	902.75
348.9	879.75
349.128	903.75
349.355	874.75
349.583	864.75
349.81	882.75
350.037	880.75
350.265	877.75
350.492	866.75
350.72	856.75
350.947	856.75
351.174	852.75
351.402	877.75
351.629	864.75
351.856	863.75
352.083	854.75
352.311	837.75
352.538	866.75
352.765	863.75
352.992	884.75
353.22	846.75
353.447	829.75
353.674	867.75
353.901	860.75
354.128	844.75
354.355	846.75
354.583	855.75
354.81	839.75
355.037	862.75
355.264	891.75
355.491	858.75
355.718	854.75
355.945	871.75
356.172	884.75
356.399	888.75
356.626	862.75
356.853	876.75
357.08	892.75
357.307	874.75
357.534	854.75
357.761	849.75
357.988	862.75
358.215	885.75
358.441	887.75
358.668	873.75
358.895	865.75
359.122	867.75
359.349	834.75
359.576	844.75
359.802	862.75
360.029	858.75
360.256	850.75
360.483	836.75
360.709	847.75
360.936	876.75
361.163	843.75
361.39	842.75
361.616	879.75
361.843	848.75
362.07	881.75
362.296	861.75
362.523	849.75
362.749	846.75
362.976	856.75
363.203	880.75
363.429	841.75
363.656	875.75
363.882	884.75
364.109	863.75
364.335	841.75
364.562	846.75
364.788	825.75
365.015	839.75
365.241	861.75
365.468	846.75
365.694	842.75
365.92	858.75
366.147	842.75
366.373	849.75
366.599	886.75
366.826	863.75
367.052	844.75
367.278	852.75
367.505	882.75
367.731	844.75
367.957	865.75
368.184	854.75
368.41	879.75
368.636	881.75
368.862	861.75
369.089	857.75
369.315	888.75
369.541	874.75
369.767	886.75
369.993	871.75
370.219	897.75
370.445	890.75
370.672	920.75
370.898	921.75
371.124	907.75
371.35	932.75
371.576	927.75
371.802	942.75
372.028	924.75
372.254	914.75
372.48	930.75
372.706	963.75
372.932	976.75
373.158	968.75
373.384	972.75
373.61	938.75
373.835	948.75
374.061	924.75
374.287	970.75
374.513	961.75
374.739	1006.75
374.965	1042.75
375.191	997.75
375.416	1035.75
375.642	997.75
375.868	990.75
376.094	950.75
376.319	974.75
376.545	977.75
376.771	951.75
376.997	917.75
377.222	940.75
377.448	940.75
377.674	975.75
377.899	929.75
378.125	923.75
378.35	920.75
378.576	905.75
378.802	934.75
379.027	929.75
379.253	932.75
379.478	908.75
379.704	891.75
379.929	914.75
380.155	914.75
380.38	922.75
380.606	932.75
380.831	913.75
381.057	922.75
381.282	914.75
381.507	913.75
381.733	934.75
381.958	949.75
382.184	929.75
382.409	968.75
382.634	980.75
382.86	986.75
383.085	1001.75
383.31	1001.75
383.535	1046.75
383.761	1054.75
383.986	1072.75
384.211	1047.75
384.436	1096.75
384.662	1124.75
384.887	1108.75
385.112	1127.75
385.337	1135.75
385.562	1135.75
385.787	1129.75
386.013	1145.75
386.238	1160.75
386.463	1136.75
386.688	1181.75
386.913	1109.75
387.138	1151.75
387.363	1125.75
387.588	1114.75
387.813	1101.75
388.038	1111.75
388.263	1105.75
388.488	1152.75
388.713	1118.75
388.938	1122.75
389.163	1083.75
389.387	1116.75
389.612	1106.75
389.837	1081.75
390.062	1074.75
390.287	1108.75
390.512	1092.75
390.736	1114.75
390.961	1150.75
391.186	1150.75
391.411	1210.75
391.636	1211.75
391.86	1248.75
392.085	1320.75
392.31	1270.75
392.534	1235.75
392.759	1196.75
392.984	1190.75
393.208	1176.75
393.433	1216.75
393.658	1220.75
393.882	1145.75
394.107	1220.75
394.331	1215.75
394.556	1169.75
394.78	1216.75
395.005	1227.75
395.229	1217.75
395.454	1228.75
395.678	1280.75
395.903	1290.75
396.127	1240.75
396.352	1210.75
396.576	1182.75
396.801	1201.75
397.025	1228.75
397.249	1230.75
397.474	1236.75
397.698	1281.75
397.922	1298.75
398.147	1246.75
398.371	1276.75
398.595	1335.75
398.82	1412.75
399.044	1481.75
399.268	1640.75
399.492	1951.75
399.717	2277.75
399.941	2212.75
400.165	1910.75
400.389	1714.75
400.613	1573.75
400.837	1497.75
401.062	1463.75
401.286	1442.75
401.51	1433.75
401.734	1420.75
401.958	1457.75
402.182	1459.75
402.406	1463.75
402.63	1527.75
402.854	1557.75
403.078	1544.75
403.302	1559.75
403.526	1594.75
403.75	1654.75
403.974	1673.75
404.198	1700.75
404.422	1678.75
404.645	1654.75
404.869	1627.75
405.093	1655.75
405.317	1563.75
405.541	1577.75
405.765	1552.75
405.988	1559.75
406.212	1538.75
406.436	1542.75
406.66	1608.75
406.883	1599.75
407.107	1718.75
407.331	1804.75
407.555	1872.75
407.778	1850.75
408.002	1823.75
408.226	1750.75
408.449	1699.75
408.673	1657.75
408.896	1615.75
409.12	1592.75
409.344	1605.75
409.567	1592.75
409.791	1569.75
410.014	1640.75
410.238	1573.75
410.461	1584.75
410.685	1564.75
410.908	1537.75
411.132	1483.75
411.355	1476.75
411.578	1457.75
411.802	1436.75
412.025	1480.75
412.249	1501.75
412.472	1499.75
412.695	1460.75
412.919	1399.75
413.142	1400.75
413.365	1397.75
413.589	1435.75
413.812	1449.75
414.035	1378.75
414.258	1423.75
414.482	1430.75
414.705	1443.75
414.928	1456.75
415.151	1419.75
415.374	1414.75
415.597	1416.75
415.821	1405.75
416.044	1347.75
416.267	1360.75
416.49	1370.75
416.713	1367.75
416.936	1380.75
417.159	1391.75
417.382	1374.75
417.605	1351.75
417.828	1380.75
418.051	1398.75
418.274	1436.75
418.497	1447.75
418.72	1438.75
418.943	1409.75
419.166	1504.75
419.389	1608.75
419.611	1543.75
419.834	1526.75
420.057	1458.75
420.28	1416.75
420.503	1396.75
420.726	1381.75
420.948	1404.75
421.171	1390.75
421.394	1401.75
421.617	1369.75
421.839	1414.75
422.062	1408.75
422.285	1405.75
422.507	1449.75
422.73	1440.75
422.953	1425.75
423.175	1482.75
423.398	1521.75
423.621	1496.75
423.843	1495.75
424.066	1501.75
424.288	1516.75
424.511	1490.75
424.733	1469.75
424.956	1427.75
425.178	1416.75
425.401	1398.75
425.623	1388.75
425.846	1355.75
426.068	1380.75
426.291	1343.75
426.513	1334.75
426.735	1330.75
426.958	1300.75
427.18	1278.75
427.402	1255.75
427.625	1253.75
427.847	1251.75
428.069	1218.75
428.292	1233.75
428.514	1235.75
428.736	1252.75
428.958	1239.75
429.181	1202.75
429.403	1186.75
429.625	1170.75
429.847	1191.75
430.069	1202.75
430.292	1228.75
430.514	1216.75
430.736	1219.75
430.958	1211.75
431.18	1184.75
431.402	1232.75
431.624	1201.75
431.846	1244.75
432.068	1249.75
432.29	1278.75
432.512	1217.75
432.734	1202.75
432.956	1243.75
433.178	1246.75
433.4	1235.75
433.622	1231.75
433.844	1262.75
434.066	1263.75
434.287	1281.75
434.509	1338.75
434.731	1380.75
434.953	1418.75
435.175	1422.75
435.397	1427.75
435.618	1321.75
435.84	1294.75
436.062	1271.75
436.284	1247.75
436.505	1209.75
436.727	1276.75
436.949	1234.75
437.17	1246.75
437.392	1229.75
437.614	1223.75
437.835	1170.75
438.057	1199.75
438.278	1163.75
438.5	1183.75
438.721	1181.75
438.943	1193.75
439.165	1186.75
439.386	1208.75
439.608	1236.75
439.829	1227.75
440.05	1216.75
440.272	1227.75
440.493	1279.75
440.715	1264.75
440.936	1289.75
441.158	1286.75
441.379	1311.75
441.6	1395.75
441.822	1447.75
442.043	1403.75
442.264	1414.75
442.486	1334.75
442.707	1418.75
442.928	1388.75
443.149	1379.75
443.371	1344.75
443.592	1370.75
443.813	1410.75
444.034	1399.75
444.255	1467.75
444.476	1529.75
444.698	1629.75
444.919	1707.75
445.14	1756.75
445.361	1562.75
445.582	1451.75
445.803	1341.75
446.024	1308.75
446.245	1308.75
446.466	1283.75
446.687	1237.75
446.908	1233.75
447.129	1198.75
447.35	1197.75
447.571	1200.75
447.792	1148.75
448.013	1186.75
448.234	1130.75
448.455	1136.75
448.675	1137.75
448.896	1124.75
449.117	1104.75
449.338	1118.75
449.559	1111.75
449.779	1103.75
450	1113.75
450.221	1107.75
450.442	1114.75
450.662	1129.75
450.883	1117.75
451.104	1173.75
451.324	1127.75
451.545	1138.75
451.766	1158.75
451.986	1117.75
452.207	1129.75
452.428	1132.75
452.648	1108.75
452.869	1104.75
453.089	1098.75
453.31	1098.75
453.53	1075.75
453.751	1097.75
453.971	1071.75
454.192	1075.75
454.412	1073.75
454.633	1092.75
454.853	1049.75
455.073	1057.75
455.294	1053.75
455.514	1057.75
455.734	1052.75
455.955	1033.75
456.175	1018.75
456.395	1026.75
456.616	1041.75
456.836	1045.75
457.056	1039.75
457.276	1010.75
457.497	1048.75
457.717	1065.75
457.937	1085.75
458.157	1045.75
458.377	1081.75
458.598	1119.75
458.818	1145.75
459.038	1142.75
459.258	1223.75
459.478	1230.75
459.698	1284.75
459.918	1328.75
460.138	1371.75
460.358	1466.75
460.578	1440.75
460.798	1448.75
461.018	1482.75
461.238	1441.75
461.458	1454.75
461.678	1452.75
461.898	1472.75
462.118	1474.75
462.338	1568.75
462.558	1596.75
462.777	1657.75
462.997	1830.75
463.217	2045.75
463.437	1996.75
463.657	1816.75
463.876	1727.75
464.096	1721.75
464.316	1719.75
464.536	1728.75
464.755	1679.75
464.975	1591.75
465.195	1498.75
465.414	1426.75
465.634	1315.75
465.854	1303.75
466.073	1287.75
466.293	1251.75
466.512	1204.75
466.732	1175.75
466.951	1189.75
467.171	1193.75
467.391	1206.75
467.61	1183.75
467.829	1177.75
468.049	1158.75
468.268	1158.75
468.488	1144.75
468.707	1105.75
468.927	1124.75
469.146	1100.75
469.365	1134.75
469.585	1150.75
469.804	1174.75
470.023	1206.75
470.243	1196.75
470.462	1222.75
470.681	1212.75
470.901	1201.75
471.12	1174.75
471.339	1186.75
471.558	1192.75
471.777	1126.75
471.997	1134.75
472.216	1092.75
472.435	1102.75
472.654	1138.75
472.873	1105.75
473.092	1066.75
473.311	1092.75
473.53	1085.75
473.749	1071.75
473.968	1096.75
474.187	1051.75
474.406	1066.75
474.625	1084.75
474.844	1068.75
475.063	1084.75
475.282	1084.75
475.501	1092.75
475.72	1113.75
475.939	1144.75
476.158	1106.75
476.377	1146.75
476.596	1165.75
476.814	1165.75
477.033	1158.75
477.252	1142.75
477.471	1186.75
477.69	1216.75
477.908	1265.75
478.127	1308.75
478.346	1333.75
478.564	1328.75
478.783	1404.75
479.002	1400.75
479.22	1399.75
479.439	1378.75
479.658	1376.75
479.876	1370.75
480.095	1402.75
480.313	1462.75
480.532	1495.75
480.751	1498.75
480.969	1425.75
481.188	1365.75
481.406	1337.75
481.624	1298.75
481.843	1263.75
482.061	1312.75
482.28	1260.75
482.498	1260.75
482.717	1241.75
482.935	1239.75
483.153	1245.75
483.372	1292.75
483.59	1279.75
483.808	1274.75
484.027	1274.75
484.245	1275.75
484.463	1293.75
484.681	1272.75
484.9	1333.75
485.118	1341.75
485.336	1328.75
485.554	1301.75
485.772	1334.75
485.99	1313.75
486.209	1334.75
486.427	1325.75
486.645	1346.75
486.863	1351.75
487.081	1310.75
487.299	1325.75
487.517	1346.75
487.735	1326.75
487.953	1353.75
488.171	1347.75
488.389	1309.75
488.607	1300.75
488.825	1276.75
489.043	1294.75
489.261	1310.75
489.479	1299.75
489.696	1305.75
489.914	1318.75
490.132	1352.75
490.35	1339.75
490.568	1334.75
490.786	1336.75
491.003	1321.75
491.221	1305.75
491.439	1334.75
491.657	1329.75
491.874	1344.75
492.092	1320.75
492.31	1326.75
492.527	1342.75
492.745	1333.75
492.963	1327.75
493.18	1353.75
493.398	1342.75
493.615	1398.75
493.833	1380.75
494.05	1399.75
494.268	1408.75
