Data from Ni(NO3)2@0.5M.TitratingCurve.Agarose3%dH2O.NegLispCup.LampEnergy10.LIBS07252019_HRD10591_17-59-16-564.txt Node
Date: Thu Jul 25 17:59:16 EDT 2019
User: cochatt
Spectrometer: HR+D1059
Trigger mode: 1
Integration Time (sec): 1.000000E-1
Scans to average: 1
Electric dark correction enabled: true
Nonlinearity correction enabled: false
Boxcar width: 0
XAxis mode: Wavelengths
Number of Pixels in Spectrum: 2048
>>>>>Begin Spectral Data<<<<<
223.165	-8.19
223.4	-8.19
223.635	-8.19
223.869	-6.19
224.104	-16.19
224.338	-6.19
224.573	-25.19
224.808	-17.19
225.042	-15.19
225.277	-15.19
225.511	-2.19
225.746	10.81
225.98	10.81
226.215	18.81
226.449	22.81
226.683	20.81
226.918	2.81
227.152	24.81
227.387	34.81
227.621	36.81
227.856	34.81
228.09	41.81
228.324	44.81
228.559	50.81
228.793	70.81
229.027	113.81
229.262	140.81
229.496	138.81
229.73	134.81
229.964	176.81
230.199	195.81
230.433	209.81
230.667	179.81
230.901	191.81
231.136	160.81
231.37	140.81
231.604	179.81
231.838	196.81
232.072	192.81
232.306	196.81
232.541	176.81
232.775	167.81
233.009	151.81
233.243	140.81
233.477	157.81
233.711	157.81
233.945	154.81
234.179	167.81
234.413	164.81
234.647	162.81
234.881	167.81
235.115	166.81
235.349	168.81
235.583	160.81
235.817	135.81
236.051	162.81
236.285	145.81
236.519	153.81
236.753	155.81
236.987	161.81
237.221	157.81
237.455	157.81
237.689	154.81
237.922	156.81
238.156	156.81
238.39	158.81
238.624	166.81
238.858	164.81
239.091	168.81
239.325	172.81
239.559	192.81
239.793	207.81
240.027	219.81
240.26	189.81
240.494	166.81
240.728	185.81
240.961	174.81
241.195	183.81
241.429	185.81
241.662	204.81
241.896	223.81
242.13	202.81
242.363	197.81
242.597	185.81
242.83	208.81
243.064	183.81
243.298	194.81
243.531	192.81
243.765	200.81
243.998	220.81
244.232	235.81
244.465	204.81
244.699	198.81
244.932	200.81
245.166	214.81
245.399	218.81
245.633	203.81
245.866	227.81
246.099	195.81
246.333	224.81
246.566	210.81
246.8	222.81
247.033	198.81
247.266	222.81
247.5	219.81
247.733	240.81
247.966	211.81
248.2	238.81
248.433	232.81
248.666	244.81
248.899	235.81
249.133	221.81
249.366	228.81
249.599	247.81
249.832	223.81
250.066	237.81
250.299	235.81
250.532	246.81
250.765	254.81
250.998	253.81
251.231	273.81
251.465	287.81
251.698	280.81
251.931	283.81
252.164	284.81
252.397	263.81
252.63	264.81
252.863	272.81
253.096	252.81
253.329	274.81
253.562	276.81
253.795	260.81
254.028	273.81
254.261	271.81
254.494	272.81
254.727	266.81
254.96	290.81
255.193	282.81
255.426	267.81
255.659	289.81
255.892	291.81
256.124	299.81
256.357	291.81
256.59	294.81
256.823	302.81
257.056	276.81
257.289	298.81
257.521	299.81
257.754	299.81
257.987	290.81
258.22	290.81
258.452	312.81
258.685	316.81
258.918	319.81
259.151	299.81
259.383	312.81
259.616	303.81
259.849	302.81
260.081	302.81
260.314	290.81
260.547	311.81
260.779	294.81
261.012	305.81
261.244	334.81
261.477	332.81
261.71	322.81
261.942	338.81
262.175	335.81
262.407	333.81
262.64	315.81
262.872	335.81
263.105	329.81
263.337	342.81
263.57	333.81
263.802	338.81
264.035	338.81
264.267	326.81
264.499	341.81
264.732	338.81
264.964	338.81
265.197	353.81
265.429	354.81
265.661	345.81
265.894	339.81
266.126	358.81
266.358	360.81
266.591	349.81
266.823	353.81
267.055	358.81
267.287	382.81
267.52	372.81
267.752	350.81
267.984	380.81
268.216	383.81
268.448	370.81
268.681	378.81
268.913	377.81
269.145	392.81
269.377	370.81
269.609	371.81
269.841	362.81
270.073	368.81
270.306	371.81
270.538	375.81
270.77	384.81
271.002	394.81
271.234	390.81
271.466	361.81
271.698	368.81
271.93	364.81
272.162	391.81
272.394	398.81
272.626	393.81
272.858	390.81
273.09	410.81
273.322	399.81
273.553	395.81
273.785	414.81
274.017	416.81
274.249	417.81
274.481	397.81
274.713	427.81
274.945	420.81
275.176	421.81
275.408	409.81
275.64	413.81
275.872	424.81
276.104	433.81
276.335	427.81
276.567	412.81
276.799	413.81
277.031	420.81
277.262	430.81
277.494	431.81
277.726	415.81
277.957	430.81
278.189	408.81
278.421	412.81
278.652	423.81
278.884	443.81
279.115	414.81
279.347	446.81
279.579	435.81
279.81	447.81
280.042	451.81
280.273	451.81
280.505	459.81
280.736	443.81
280.968	474.81
281.199	468.81
281.431	476.81
281.662	444.81
281.894	463.81
282.125	454.81
282.356	447.81
282.588	444.81
282.819	451.81
283.051	468.81
283.282	468.81
283.513	464.81
283.745	463.81
283.976	465.81
284.207	474.81
284.439	479.81
284.67	488.81
284.901	482.81
285.132	464.81
285.364	464.81
285.595	498.81
285.826	482.81
286.057	483.81
286.288	474.81
286.52	473.81
286.751	490.81
286.982	491.81
287.213	473.81
287.444	483.81
287.675	479.81
287.906	496.81
288.138	496.81
288.369	509.81
288.6	498.81
288.831	479.81
289.062	491.81
289.293	511.81
289.524	500.81
289.755	480.81
289.986	506.81
290.217	498.81
290.448	508.81
290.679	511.81
290.91	518.81
291.141	490.81
291.371	502.81
291.602	507.81
291.833	489.81
292.064	518.81
292.295	488.81
292.526	496.81
292.757	497.81
292.987	505.81
293.218	491.81
293.449	522.81
293.68	515.81
293.91	516.81
294.141	486.81
294.372	525.81
294.603	520.81
294.833	501.81
295.064	514.81
295.295	524.81
295.525	523.81
295.756	527.81
295.987	534.81
296.217	527.81
296.448	525.81
296.679	503.81
296.909	519.81
297.14	533.81
297.37	540.81
297.601	536.81
297.831	514.81
298.062	544.81
298.292	549.81
298.523	575.81
298.753	555.81
298.984	555.81
299.214	567.81
299.445	536.81
299.675	570.81
299.905	568.81
300.136	565.81
300.366	598.81
300.597	589.81
300.827	552.81
301.057	591.81
301.288	600.81
301.518	594.81
301.748	585.81
301.979	572.81
302.209	576.81
302.439	588.81
302.669	586.81
302.9	564.81
303.13	572.81
303.36	571.81
303.59	604.81
303.82	625.81
304.051	622.81
304.281	608.81
304.511	606.81
304.741	614.81
304.971	611.81
305.201	634.81
305.431	645.81
305.661	618.81
305.891	598.81
306.121	614.81
306.352	591.81
306.582	606.81
306.812	571.81
307.042	617.81
307.272	610.81
307.502	595.81
307.731	580.81
307.961	588.81
308.191	593.81
308.421	592.81
308.651	583.81
308.881	605.81
309.111	604.81
309.341	607.81
309.571	600.81
309.8	614.81
310.03	623.81
310.26	627.81
310.49	632.81
310.72	598.81
310.949	598.81
311.179	576.81
311.409	624.81
311.639	634.81
311.868	609.81
312.098	583.81
312.328	616.81
312.557	631.81
312.787	626.81
313.017	624.81
313.246	650.81
313.476	661.81
313.706	659.81
313.935	648.81
314.165	649.81
314.394	635.81
314.624	649.81
314.853	618.81
315.083	656.81
315.312	666.81
315.542	668.81
315.771	643.81
316.001	636.81
316.23	653.81
316.46	640.81
316.689	670.81
316.919	654.81
317.148	647.81
317.377	669.81
317.607	646.81
317.836	634.81
318.065	639.81
318.295	640.81
318.524	673.81
318.753	645.81
318.983	662.81
319.212	636.81
319.441	658.81
319.67	670.81
319.9	667.81
320.129	670.81
320.358	672.81
320.587	667.81
320.816	672.81
321.046	675.81
321.275	681.81
321.504	680.81
321.733	659.81
321.962	672.81
322.191	691.81
322.42	688.81
322.649	672.81
322.878	665.81
323.108	699.81
323.337	707.81
323.566	708.81
323.795	684.81
324.024	705.81
324.253	700.81
324.482	728.81
324.71	695.81
324.939	717.81
325.168	720.81
325.397	688.81
325.626	704.81
325.855	710.81
326.084	710.81
326.313	737.81
326.542	739.81
326.77	728.81
326.999	719.81
327.228	738.81
327.457	717.81
327.686	723.81
327.914	728.81
328.143	705.81
328.372	716.81
328.6	708.81
328.829	721.81
329.058	711.81
329.287	732.81
329.515	743.81
329.744	740.81
329.972	724.81
330.201	744.81
330.43	756.81
330.658	746.81
330.887	734.81
331.115	745.81
331.344	768.81
331.572	768.81
331.801	792.81
332.03	784.81
332.258	799.81
332.486	789.81
332.715	780.81
332.943	814.81
333.172	810.81
333.4	844.81
333.629	820.81
333.857	823.81
334.085	832.81
334.314	848.81
334.542	872.81
334.771	870.81
334.999	843.81
335.227	829.81
335.455	842.81
335.684	881.81
335.912	878.81
336.14	854.81
336.369	871.81
336.597	872.81
336.825	865.81
337.053	874.81
337.281	874.81
337.51	866.81
337.738	839.81
337.966	843.81
338.194	855.81
338.422	849.81
338.65	816.81
338.878	832.81
339.106	829.81
339.334	853.81
339.562	830.81
339.79	790.81
340.018	802.81
340.246	777.81
340.474	803.81
340.702	810.81
340.93	778.81
341.158	839.81
341.386	841.81
341.614	880.81
341.842	855.81
342.07	824.81
342.298	777.81
342.526	824.81
342.754	787.81
342.981	783.81
343.209	821.81
343.437	846.81
343.665	870.81
343.893	854.81
344.12	864.81
344.348	889.81
344.576	872.81
344.804	884.81
345.031	849.81
345.259	844.81
345.487	811.81
345.714	826.81
345.942	866.81
346.17	851.81
346.397	836.81
346.625	793.81
346.853	771.81
347.08	795.81
347.308	786.81
347.535	780.81
347.763	758.81
347.99	780.81
348.218	752.81
348.445	784.81
348.673	746.81
348.9	780.81
349.128	772.81
349.355	794.81
349.583	802.81
349.81	776.81
350.037	777.81
350.265	744.81
350.492	744.81
350.72	784.81
350.947	784.81
351.174	779.81
351.402	820.81
351.629	818.81
351.856	810.81
352.083	754.81
352.311	802.81
352.538	852.81
352.765	832.81
352.992	778.81
353.22	768.81
353.447	727.81
353.674	745.81
353.901	742.81
354.128	752.81
354.355	718.81
354.583	760.81
354.81	759.81
355.037	751.81
355.264	739.81
355.491	732.81
355.718	750.81
355.945	744.81
356.172	734.81
356.399	754.81
356.626	802.81
356.853	787.81
357.08	774.81
357.307	775.81
357.534	741.81
357.761	760.81
357.988	777.81
358.215	738.81
358.441	756.81
358.668	758.81
358.895	742.81
359.122	772.81
359.349	727.81
359.576	750.81
359.802	768.81
360.029	742.81
360.256	772.81
360.483	739.81
360.709	754.81
360.936	761.81
361.163	784.81
361.39	762.81
361.616	773.81
361.843	816.81
362.07	815.81
362.296	821.81
362.523	785.81
362.749	788.81
362.976	762.81
363.203	738.81
363.429	751.81
363.656	752.81
363.882	748.81
364.109	748.81
364.335	772.81
364.562	751.81
364.788	759.81
365.015	762.81
365.241	774.81
365.468	758.81
365.694	767.81
365.92	748.81
366.147	768.81
366.373	750.81
366.599	752.81
366.826	764.81
367.052	737.81
367.278	775.81
367.505	741.81
367.731	772.81
367.957	759.81
368.184	787.81
368.41	795.81
368.636	795.81
368.862	772.81
369.089	786.81
369.315	770.81
369.541	780.81
369.767	812.81
369.993	761.81
370.219	788.81
370.445	802.81
370.672	755.81
370.898	796.81
371.124	791.81
371.35	822.81
371.576	791.81
371.802	817.81
372.028	793.81
372.254	784.81
372.48	814.81
372.706	836.81
372.932	837.81
373.158	808.81
373.384	848.81
373.61	815.81
373.835	811.81
374.061	814.81
374.287	824.81
374.513	853.81
374.739	820.81
374.965	826.81
375.191	858.81
375.416	888.81
375.642	803.81
375.868	852.81
376.094	810.81
376.319	799.81
376.545	812.81
376.771	806.81
376.997	799.81
377.222	800.81
377.448	837.81
377.674	806.81
377.899	790.81
378.125	763.81
378.35	798.81
378.576	806.81
378.802	799.81
379.027	794.81
379.253	801.81
379.478	815.81
379.704	818.81
379.929	802.81
380.155	804.81
380.38	815.81
380.606	792.81
380.831	790.81
381.057	802.81
381.282	795.81
381.507	808.81
381.733	832.81
381.958	795.81
382.184	827.81
382.409	820.81
382.634	837.81
382.86	817.81
383.085	831.81
383.31	840.81
383.535	867.81
383.761	860.81
383.986	867.81
384.211	848.81
384.436	873.81
384.662	886.81
384.887	870.81
385.112	886.81
385.337	884.81
385.562	914.81
385.787	896.81
386.013	936.81
386.238	906.81
386.463	912.81
386.688	906.81
386.913	904.81
387.138	908.81
387.363	895.81
387.588	895.81
387.813	923.81
388.038	924.81
388.263	917.81
388.488	930.81
388.713	954.81
388.938	931.81
389.163	928.81
389.387	892.81
389.612	911.81
389.837	907.81
390.062	915.81
390.287	914.81
390.512	919.81
390.736	931.81
390.961	937.81
391.186	913.81
391.411	936.81
391.636	983.81
391.86	984.81
392.085	995.81
392.31	953.81
392.534	961.81
392.759	970.81
392.984	994.81
393.208	946.81
393.433	971.81
393.658	971.81
393.882	984.81
394.107	944.81
394.331	963.81
394.556	952.81
394.78	970.81
395.005	970.81
395.229	961.81
395.454	966.81
395.678	967.81
395.903	972.81
396.127	970.81
396.352	965.81
396.576	958.81
396.801	969.81
397.025	961.81
397.249	998.81
397.474	997.81
397.698	1003.81
397.922	1025.81
398.147	996.81
398.371	1042.81
398.595	1036.81
398.82	1079.81
399.044	1111.81
399.268	1160.81
399.492	1193.81
399.717	1245.81
399.941	1230.81
400.165	1229.81
400.389	1194.81
400.613	1189.81
400.837	1106.81
401.062	1123.81
401.286	1119.81
401.51	1081.81
401.734	1067.81
401.958	1094.81
402.182	1075.81
402.406	1044.81
402.63	1096.81
402.854	1088.81
403.078	1125.81
403.302	1089.81
403.526	1074.81
403.75	1090.81
403.974	1107.81
404.198	1084.81
404.422	1099.81
404.645	1065.81
404.869	1099.81
405.093	1103.81
405.317	1092.81
405.541	1112.81
405.765	1126.81
405.988	1122.81
406.212	1156.81
406.436	1131.81
406.66	1157.81
406.883	1151.81
407.107	1185.81
407.331	1211.81
407.555	1226.81
407.778	1237.81
408.002	1260.81
408.226	1239.81
408.449	1222.81
408.673	1233.81
408.896	1190.81
409.12	1192.81
409.344	1212.81
409.567	1166.81
409.791	1172.81
410.014	1163.81
410.238	1151.81
410.461	1167.81
410.685	1117.81
410.908	1121.81
411.132	1126.81
411.355	1144.81
411.578	1138.81
411.802	1124.81
412.025	1122.81
412.249	1115.81
412.472	1111.81
412.695	1095.81
412.919	1091.81
413.142	1114.81
413.365	1119.81
413.589	1095.81
413.812	1076.81
414.035	1079.81
414.258	1095.81
414.482	1092.81
414.705	1078.81
414.928	1077.81
415.151	1077.81
415.374	1099.81
415.597	1083.81
415.821	1074.81
416.044	1077.81
416.267	1050.81
416.49	1035.81
416.713	1045.81
416.936	1079.81
417.159	1048.81
417.382	1020.81
417.605	1055.81
417.828	1058.81
418.051	1061.81
418.274	1045.81
418.497	1037.81
418.72	1051.81
418.943	1050.81
419.166	1122.81
419.389	1142.81
419.611	1115.81
419.834	1103.81
420.057	1070.81
420.28	1039.81
420.503	1039.81
420.726	1020.81
420.948	1039.81
421.171	1016.81
421.394	1052.81
421.617	997.81
421.839	1022.81
422.062	1047.81
422.285	1019.81
422.507	1041.81
422.73	1037.81
422.953	1061.81
423.175	1055.81
423.398	1067.81
423.621	1033.81
423.843	1029.81
424.066	1050.81
424.288	1018.81
424.511	1050.81
424.733	1032.81
424.956	1010.81
425.178	1024.81
425.401	1054.81
425.623	1018.81
425.846	1018.81
426.068	1028.81
426.291	1028.81
426.513	1043.81
426.735	997.81
426.958	1008.81
427.18	1027.81
427.402	1019.81
427.625	1010.81
427.847	987.81
428.069	979.81
428.292	997.81
428.514	1002.81
428.736	997.81
428.958	1002.81
429.181	978.81
429.403	986.81
429.625	986.81
429.847	1008.81
430.069	989.81
430.292	994.81
430.514	990.81
430.736	1006.81
430.958	996.81
431.18	961.81
431.402	989.81
431.624	991.81
431.846	959.81
432.068	1003.81
432.29	1009.81
432.512	998.81
432.734	998.81
432.956	984.81
433.178	1011.81
433.4	1013.81
433.622	1056.81
433.844	1060.81
434.066	1025.81
434.287	1023.81
434.509	1037.81
434.731	1058.81
434.953	1082.81
435.175	1093.81
435.397	1096.81
435.618	1053.81
435.84	1013.81
436.062	995.81
436.284	1025.81
436.505	999.81
436.727	1014.81
436.949	1030.81
437.17	1008.81
437.392	1055.81
437.614	972.81
437.835	972.81
438.057	964.81
438.278	967.81
438.5	950.81
438.721	976.81
438.943	1003.81
439.165	964.81
439.386	972.81
439.608	991.81
439.829	1000.81
440.05	1020.81
440.272	1024.81
440.493	992.81
440.715	1036.81
440.936	1015.81
441.158	1022.81
441.379	1013.81
441.6	1054.81
441.822	1050.81
442.043	1066.81
442.264	1066.81
442.486	1027.81
442.707	1028.81
442.928	1028.81
443.149	1076.81
443.371	1098.81
443.592	1138.81
443.813	1119.81
444.034	1040.81
444.255	1079.81
444.476	1074.81
444.698	1095.81
444.919	1147.81
445.14	1232.81
445.361	1139.81
445.582	1102.81
445.803	1093.81
446.024	1008.81
446.245	1048.81
446.466	1001.81
446.687	967.81
446.908	1024.81
447.129	985.81
447.35	922.81
447.571	960.81
447.792	935.81
448.013	951.81
448.234	929.81
448.455	923.81
448.675	939.81
448.896	946.81
449.117	885.81
449.338	937.81
449.559	912.81
449.779	903.81
450	916.81
450.221	930.81
450.442	921.81
450.662	931.81
450.883	916.81
451.104	971.81
451.324	936.81
451.545	891.81
451.766	935.81
451.986	899.81
452.207	884.81
452.428	899.81
452.648	894.81
452.869	916.81
453.089	912.81
453.31	931.81
453.53	879.81
453.751	881.81
453.971	911.81
454.192	926.81
454.412	917.81
454.633	888.81
454.853	874.81
455.073	837.81
455.294	872.81
455.514	913.81
455.734	940.81
455.955	929.81
456.175	912.81
456.395	873.81
456.616	866.81
456.836	855.81
457.056	850.81
457.276	864.81
457.497	898.81
457.717	930.81
457.937	917.81
458.157	914.81
458.377	929.81
458.598	919.81
458.818	955.81
459.038	932.81
459.258	986.81
459.478	1028.81
459.698	1156.81
459.918	1119.81
460.138	1104.81
460.358	1097.81
460.578	1091.81
460.798	1124.81
461.018	1148.81
461.238	1043.81
461.458	1066.81
461.678	1060.81
461.898	1088.81
462.118	1094.81
462.338	1129.81
462.558	1196.81
462.777	1173.81
462.997	1235.81
463.217	1251.81
463.437	1335.81
463.657	1265.81
463.876	1227.81
464.096	1203.81
464.316	1201.81
464.536	1174.81
464.755	1141.81
464.975	1120.81
465.195	1090.81
465.414	1099.81
465.634	1033.81
465.854	1035.81
466.073	1003.81
466.293	979.81
466.512	1000.81
466.732	987.81
466.951	985.81
467.171	991.81
467.391	1001.81
467.61	982.81
467.829	950.81
468.049	948.81
468.268	956.81
468.488	964.81
468.707	952.81
468.927	974.81
469.146	948.81
469.365	985.81
469.585	947.81
469.804	960.81
470.023	975.81
470.243	977.81
470.462	993.81
470.681	964.81
470.901	946.81
471.12	966.81
471.339	979.81
471.558	972.81
471.777	976.81
471.997	945.81
472.216	924.81
472.435	942.81
472.654	959.81
472.873	939.81
473.092	955.81
473.311	947.81
473.53	927.81
473.749	961.81
473.968	957.81
474.187	939.81
474.406	932.81
474.625	955.81
474.844	977.81
475.063	990.81
475.282	1006.81
475.501	989.81
475.72	989.81
475.939	990.81
476.158	972.81
476.377	1018.81
476.596	971.81
476.814	990.81
477.033	1025.81
477.252	1012.81
477.471	1028.81
477.69	1051.81
477.908	1066.81
478.127	1090.81
478.346	1085.81
478.564	1082.81
478.783	1139.81
479.002	1164.81
479.22	1203.81
479.439	1163.81
479.658	1156.81
479.876	1166.81
480.095	1150.81
480.313	1158.81
480.532	1156.81
480.751	1177.81
480.969	1150.81
481.188	1113.81
481.406	1138.81
481.624	1111.81
481.843	1082.81
482.061	1135.81
482.28	1127.81
482.498	1120.81
482.717	1120.81
482.935	1144.81
483.153	1150.81
483.372	1192.81
483.59	1236.81
483.808	1146.81
484.027	1170.81
484.245	1151.81
484.463	1135.81
484.681	1178.81
484.9	1168.81
485.118	1172.81
485.336	1153.81
485.554	1152.81
485.772	1192.81
485.99	1174.81
486.209	1153.81
486.427	1123.81
486.645	1140.81
486.863	1158.81
487.081	1178.81
487.299	1170.81
487.517	1162.81
487.735	1191.81
487.953	1190.81
488.171	1229.81
488.389	1153.81
488.607	1176.81
488.825	1176.81
489.043	1125.81
489.261	1173.81
489.479	1138.81
489.696	1191.81
489.914	1169.81
490.132	1150.81
490.35	1147.81
490.568	1171.81
490.786	1178.81
491.003	1201.81
491.221	1201.81
491.439	1196.81
491.657	1170.81
491.874	1201.81
492.092	1203.81
492.31	1179.81
492.527	1227.81
492.745	1199.81
492.963	1210.81
493.18	1195.81
493.398	1195.81
493.615	1211.81
493.833	1205.81
494.05	1209.81
494.268	1186.81
494.485	1221.81
494.703	1213.81
494.92	1232.81
495.138	1218.81
495.355	1247.81
495.573	1271.81
495.79	1225.81
496.008	1233.81
496.225	1246.81
496.442	1276.81
496.66	1262.81
496.877	1273.81
497.094	1300.81
497.312	1327.81
