Data from Ni(NO3)2@0.5M.TitratingCurve.Agarose3%dH2O.NegLispCup.LampEnergy10.LIBS07252019_HRD10591_17-59-17-564.txt Node
Date: Thu Jul 25 17:59:17 EDT 2019
User: cochatt
Spectrometer: HR+D1059
Trigger mode: 1
Integration Time (sec): 1.000000E-1
Scans to average: 1
Electric dark correction enabled: true
Nonlinearity correction enabled: false
Boxcar width: 0
XAxis mode: Wavelengths
Number of Pixels in Spectrum: 2048
>>>>>Begin Spectral Data<<<<<
223.165	-5.94
223.4	-5.94
223.635	-5.94
223.869	-4.94
224.104	-20.94
224.338	-12.94
224.573	-8.94
224.808	2.06
225.042	3.06
225.277	-18.94
225.511	-6.94
225.746	-3.94
225.98	9.06
226.215	5.06
226.449	9.06
226.683	17.06
226.918	13.06
227.152	25.06
227.387	34.06
227.621	45.06
227.856	50.06
228.09	53.06
228.324	52.06
228.559	58.06
228.793	84.06
229.027	141.06
229.262	158.06
229.496	149.06
229.73	149.06
229.964	198.06
230.199	221.06
230.433	248.06
230.667	218.06
230.901	210.06
231.136	175.06
231.37	181.06
231.604	205.06
231.838	201.06
232.072	221.06
232.306	214.06
232.541	190.06
232.775	187.06
233.009	181.06
233.243	173.06
233.477	161.06
233.711	169.06
233.945	174.06
234.179	192.06
234.413	187.06
234.647	188.06
234.881	189.06
235.115	195.06
235.349	177.06
235.583	186.06
235.817	169.06
236.051	191.06
236.285	179.06
236.519	178.06
236.753	173.06
236.987	181.06
237.221	188.06
237.455	182.06
237.689	203.06
237.922	188.06
238.156	188.06
238.39	184.06
238.624	214.06
238.858	199.06
239.091	190.06
239.325	214.06
239.559	222.06
239.793	246.06
240.027	259.06
240.26	220.06
240.494	207.06
240.728	204.06
240.961	181.06
241.195	223.06
241.429	225.06
241.662	220.06
241.896	263.06
242.13	273.06
242.363	235.06
242.597	220.06
242.83	222.06
243.064	217.06
243.298	205.06
243.531	230.06
243.765	230.06
243.998	262.06
244.232	252.06
244.465	229.06
244.699	234.06
244.932	240.06
245.166	246.06
245.399	240.06
245.633	236.06
245.866	239.06
246.099	244.06
246.333	265.06
246.566	257.06
246.8	235.06
247.033	252.06
247.266	251.06
247.5	254.06
247.733	264.06
247.966	283.06
248.2	269.06
248.433	257.06
248.666	280.06
248.899	273.06
249.133	279.06
249.366	276.06
249.599	277.06
249.832	287.06
250.066	279.06
250.299	290.06
250.532	295.06
250.765	291.06
250.998	301.06
251.231	316.06
251.465	347.06
251.698	339.06
251.931	326.06
252.164	310.06
252.397	313.06
252.63	306.06
252.863	301.06
253.096	322.06
253.329	320.06
253.562	326.06
253.795	325.06
254.028	345.06
254.261	322.06
254.494	340.06
254.727	347.06
254.96	353.06
255.193	329.06
255.426	361.06
255.659	329.06
255.892	322.06
256.124	354.06
256.357	348.06
256.59	352.06
256.823	361.06
257.056	339.06
257.289	353.06
257.521	358.06
257.754	349.06
257.987	362.06
258.22	379.06
258.452	373.06
258.685	365.06
258.918	369.06
259.151	365.06
259.383	374.06
259.616	377.06
259.849	372.06
260.081	385.06
260.314	358.06
260.547	367.06
260.779	386.06
261.012	399.06
261.244	389.06
261.477	414.06
261.71	414.06
261.942	392.06
262.175	379.06
262.407	379.06
262.64	386.06
262.872	405.06
263.105	415.06
263.337	403.06
263.57	399.06
263.802	420.06
264.035	404.06
264.267	408.06
264.499	397.06
264.732	392.06
264.964	429.06
265.197	421.06
265.429	457.06
265.661	427.06
265.894	434.06
266.126	430.06
266.358	417.06
266.591	445.06
266.823	417.06
267.055	424.06
267.287	422.06
267.52	430.06
267.752	429.06
267.984	452.06
268.216	458.06
268.448	460.06
268.681	451.06
268.913	461.06
269.145	444.06
269.377	445.06
269.609	464.06
269.841	456.06
270.073	453.06
270.306	443.06
270.538	446.06
270.77	458.06
271.002	465.06
271.234	474.06
271.466	437.06
271.698	467.06
271.93	458.06
272.162	448.06
272.394	492.06
272.626	493.06
272.858	486.06
273.09	478.06
273.322	480.06
273.553	479.06
273.785	490.06
274.017	506.06
274.249	494.06
274.481	507.06
274.713	501.06
274.945	518.06
275.176	502.06
275.408	507.06
275.64	521.06
275.872	510.06
276.104	519.06
276.335	507.06
276.567	502.06
276.799	517.06
277.031	520.06
277.262	513.06
277.494	522.06
277.726	515.06
277.957	544.06
278.189	535.06
278.421	523.06
278.652	534.06
278.884	531.06
279.115	531.06
279.347	530.06
279.579	533.06
279.81	546.06
280.042	534.06
280.273	520.06
280.505	569.06
280.736	558.06
280.968	513.06
281.199	562.06
281.431	543.06
281.662	550.06
281.894	545.06
282.125	569.06
282.356	575.06
282.588	569.06
282.819	558.06
283.051	564.06
283.282	559.06
283.513	557.06
283.745	572.06
283.976	565.06
284.207	587.06
284.439	579.06
284.67	606.06
284.901	586.06
285.132	581.06
285.364	595.06
285.595	589.06
285.826	579.06
286.057	604.06
286.288	595.06
286.52	589.06
286.751	604.06
286.982	579.06
287.213	566.06
287.444	605.06
287.675	599.06
287.906	616.06
288.138	609.06
288.369	601.06
288.6	581.06
288.831	605.06
289.062	614.06
289.293	596.06
289.524	604.06
289.755	603.06
289.986	620.06
290.217	615.06
290.448	612.06
290.679	629.06
290.91	637.06
291.141	645.06
291.371	616.06
291.602	615.06
291.833	644.06
292.064	624.06
292.295	622.06
292.526	655.06
292.757	629.06
292.987	615.06
293.218	643.06
293.449	641.06
293.68	645.06
293.91	636.06
294.141	635.06
294.372	641.06
294.603	644.06
294.833	643.06
295.064	643.06
295.295	639.06
295.525	630.06
295.756	648.06
295.987	630.06
296.217	647.06
296.448	641.06
296.679	669.06
296.909	649.06
297.14	670.06
297.37	668.06
297.601	650.06
297.831	638.06
298.062	668.06
298.292	656.06
298.523	664.06
298.753	669.06
298.984	666.06
299.214	660.06
299.445	683.06
299.675	689.06
299.905	668.06
300.136	693.06
300.366	701.06
300.597	733.06
300.827	697.06
301.057	693.06
301.288	733.06
301.518	703.06
301.748	695.06
301.979	725.06
302.209	685.06
302.439	716.06
302.669	711.06
302.9	715.06
303.13	712.06
303.36	714.06
303.59	720.06
303.82	742.06
304.051	755.06
304.281	725.06
304.511	711.06
304.741	716.06
304.971	737.06
305.201	744.06
305.431	779.06
305.661	763.06
305.891	749.06
306.121	725.06
306.352	726.06
306.582	725.06
306.812	718.06
307.042	736.06
307.272	740.06
307.502	730.06
307.731	734.06
307.961	724.06
308.191	715.06
308.421	716.06
308.651	715.06
308.881	714.06
309.111	754.06
309.341	743.06
309.571	747.06
309.8	754.06
310.03	775.06
310.26	809.06
310.49	787.06
310.72	773.06
310.949	760.06
311.179	739.06
311.409	731.06
311.639	762.06
311.868	740.06
312.098	771.06
312.328	775.06
312.557	754.06
312.787	760.06
313.017	771.06
313.246	763.06
313.476	786.06
313.706	801.06
313.935	806.06
314.165	808.06
314.394	790.06
314.624	781.06
314.853	773.06
315.083	801.06
315.312	787.06
315.542	775.06
315.771	812.06
316.001	819.06
316.23	819.06
316.46	809.06
316.689	791.06
316.919	797.06
317.148	807.06
317.377	807.06
317.607	801.06
317.836	816.06
318.065	809.06
318.295	828.06
318.524	839.06
318.753	810.06
318.983	827.06
319.212	817.06
319.441	810.06
319.67	812.06
319.9	805.06
320.129	854.06
320.358	792.06
320.587	806.06
320.816	845.06
321.046	811.06
321.275	835.06
321.504	874.06
321.733	849.06
321.962	850.06
322.191	840.06
322.42	866.06
322.649	857.06
322.878	863.06
323.108	854.06
323.337	879.06
323.566	895.06
323.795	866.06
324.024	891.06
324.253	855.06
324.482	867.06
324.71	877.06
324.939	858.06
325.168	859.06
325.397	903.06
325.626	846.06
325.855	899.06
326.084	907.06
326.313	894.06
326.542	889.06
326.77	929.06
326.999	906.06
327.228	886.06
327.457	905.06
327.686	898.06
327.914	909.06
328.143	900.06
328.372	904.06
328.6	904.06
328.829	890.06
329.058	919.06
329.287	902.06
329.515	917.06
329.744	909.06
329.972	924.06
330.201	929.06
330.43	920.06
330.658	929.06
330.887	921.06
331.115	921.06
331.344	963.06
331.572	957.06
331.801	961.06
332.03	978.06
332.258	982.06
332.486	980.06
332.715	989.06
332.943	997.06
333.172	1011.06
333.4	1000.06
333.629	1007.06
333.857	1026.06
334.085	1043.06
334.314	1049.06
334.542	1055.06
334.771	1026.06
334.999	1055.06
335.227	1047.06
335.455	1023.06
335.684	1049.06
335.912	1044.06
336.14	1061.06
336.369	1039.06
336.597	1033.06
336.825	1072.06
337.053	1089.06
337.281	1056.06
337.51	1035.06
337.738	1044.06
337.966	1039.06
338.194	1039.06
338.422	1064.06
338.65	1024.06
338.878	988.06
339.106	1031.06
339.334	1077.06
339.562	1017.06
339.79	1007.06
340.018	1012.06
340.246	972.06
340.474	1015.06
340.702	976.06
340.93	988.06
341.158	1006.06
341.386	1022.06
341.614	1062.06
341.842	1068.06
342.07	974.06
342.298	987.06
342.526	969.06
342.754	970.06
342.981	1013.06
343.209	988.06
343.437	1002.06
343.665	1045.06
343.893	1061.06
344.12	1049.06
344.348	1042.06
344.576	1061.06
344.804	1063.06
345.031	1017.06
345.259	1039.06
345.487	995.06
345.714	997.06
345.942	1051.06
346.17	1053.06
346.397	1012.06
346.625	976.06
346.853	954.06
347.08	963.06
347.308	951.06
347.535	960.06
347.763	946.06
347.99	915.06
348.218	952.06
348.445	942.06
348.673	949.06
348.9	953.06
349.128	969.06
349.355	977.06
349.583	1012.06
349.81	940.06
350.037	917.06
350.265	922.06
350.492	913.06
350.72	930.06
350.947	958.06
351.174	974.06
351.402	1033.06
351.629	1027.06
351.856	978.06
352.083	974.06
352.311	959.06
352.538	1021.06
352.765	1027.06
352.992	941.06
353.22	922.06
353.447	917.06
353.674	932.06
353.901	909.06
354.128	916.06
354.355	911.06
354.583	918.06
354.81	909.06
355.037	921.06
355.264	921.06
355.491	935.06
355.718	928.06
355.945	913.06
356.172	931.06
356.399	935.06
356.626	930.06
356.853	951.06
357.08	935.06
357.307	926.06
357.534	923.06
357.761	938.06
357.988	925.06
358.215	932.06
358.441	901.06
358.668	920.06
358.895	927.06
359.122	933.06
359.349	911.06
359.576	917.06
359.802	947.06
360.029	932.06
360.256	942.06
360.483	930.06
360.709	940.06
360.936	935.06
361.163	952.06
361.39	948.06
361.616	923.06
361.843	961.06
362.07	987.06
362.296	1002.06
362.523	947.06
362.749	930.06
362.976	940.06
363.203	945.06
363.429	926.06
363.656	917.06
363.882	930.06
364.109	908.06
364.335	925.06
364.562	933.06
364.788	928.06
365.015	939.06
365.241	936.06
365.468	934.06
365.694	958.06
365.92	921.06
366.147	932.06
366.373	957.06
366.599	938.06
366.826	906.06
367.052	911.06
367.278	930.06
367.505	964.06
367.731	959.06
367.957	956.06
368.184	961.06
368.41	955.06
368.636	986.06
368.862	990.06
369.089	958.06
369.315	964.06
369.541	965.06
369.767	942.06
369.993	988.06
370.219	953.06
370.445	979.06
370.672	967.06
370.898	993.06
371.124	1018.06
371.35	977.06
371.576	978.06
371.802	989.06
372.028	1017.06
372.254	1006.06
372.48	1030.06
372.706	1027.06
372.932	1042.06
373.158	999.06
373.384	1010.06
373.61	993.06
373.835	998.06
374.061	1033.06
374.287	1008.06
374.513	1003.06
374.739	1004.06
374.965	1027.06
375.191	1018.06
375.416	1039.06
375.642	1011.06
375.868	1013.06
376.094	998.06
376.319	1023.06
376.545	1031.06
376.771	1007.06
376.997	975.06
377.222	980.06
377.448	994.06
377.674	943.06
377.899	995.06
378.125	973.06
378.35	958.06
378.576	991.06
378.802	993.06
379.027	967.06
379.253	985.06
379.478	987.06
379.704	1007.06
379.929	1007.06
380.155	993.06
380.38	994.06
380.606	997.06
380.831	987.06
381.057	987.06
381.282	1023.06
381.507	1010.06
381.733	1019.06
381.958	1003.06
382.184	1032.06
382.409	1003.06
382.634	1016.06
382.86	1024.06
383.085	1067.06
383.31	1002.06
383.535	1027.06
383.761	1011.06
383.986	1033.06
384.211	1059.06
384.436	1059.06
384.662	1062.06
384.887	1088.06
385.112	1057.06
385.337	1091.06
385.562	1085.06
385.787	1145.06
386.013	1141.06
386.238	1125.06
386.463	1089.06
386.688	1133.06
386.913	1108.06
387.138	1113.06
387.363	1115.06
387.588	1116.06
387.813	1103.06
388.038	1107.06
388.263	1112.06
388.488	1123.06
388.713	1117.06
388.938	1113.06
389.163	1113.06
389.387	1144.06
389.612	1124.06
389.837	1132.06
390.062	1125.06
390.287	1141.06
390.512	1101.06
390.736	1120.06
390.961	1125.06
391.186	1147.06
391.411	1175.06
391.636	1147.06
391.86	1166.06
392.085	1165.06
392.31	1192.06
392.534	1179.06
392.759	1173.06
392.984	1156.06
393.208	1157.06
393.433	1193.06
393.658	1180.06
393.882	1138.06
394.107	1144.06
394.331	1161.06
394.556	1174.06
394.78	1149.06
395.005	1177.06
395.229	1160.06
395.454	1205.06
395.678	1183.06
395.903	1201.06
396.127	1237.06
396.352	1216.06
396.576	1177.06
396.801	1197.06
397.025	1247.06
397.249	1230.06
397.474	1249.06
397.698	1213.06
397.922	1236.06
398.147	1262.06
398.371	1268.06
398.595	1303.06
398.82	1300.06
399.044	1335.06
399.268	1383.06
399.492	1469.06
399.717	1470.06
399.941	1510.06
400.165	1469.06
400.389	1482.06
400.613	1388.06
400.837	1355.06
401.062	1328.06
401.286	1342.06
401.51	1354.06
401.734	1313.06
401.958	1337.06
402.182	1313.06
402.406	1334.06
402.63	1331.06
402.854	1329.06
403.078	1318.06
403.302	1317.06
403.526	1336.06
403.75	1316.06
403.974	1348.06
404.198	1325.06
404.422	1365.06
404.645	1332.06
404.869	1334.06
405.093	1383.06
405.317	1378.06
405.541	1341.06
405.765	1371.06
405.988	1358.06
406.212	1380.06
406.436	1381.06
406.66	1415.06
406.883	1436.06
407.107	1487.06
407.331	1497.06
407.555	1515.06
407.778	1499.06
408.002	1510.06
408.226	1488.06
408.449	1487.06
408.673	1465.06
408.896	1450.06
409.12	1443.06
409.344	1451.06
409.567	1409.06
409.791	1392.06
410.014	1422.06
410.238	1401.06
410.461	1401.06
410.685	1405.06
410.908	1369.06
411.132	1375.06
411.355	1369.06
411.578	1374.06
411.802	1388.06
412.025	1386.06
412.249	1357.06
412.472	1400.06
412.695	1315.06
412.919	1306.06
413.142	1342.06
413.365	1345.06
413.589	1371.06
413.812	1342.06
414.035	1310.06
414.258	1325.06
414.482	1323.06
414.705	1313.06
414.928	1309.06
415.151	1319.06
415.374	1325.06
415.597	1319.06
415.821	1329.06
416.044	1283.06
416.267	1278.06
416.49	1288.06
416.713	1278.06
416.936	1270.06
417.159	1246.06
417.382	1272.06
417.605	1257.06
417.828	1279.06
418.051	1303.06
418.274	1253.06
418.497	1256.06
418.72	1276.06
418.943	1259.06
419.166	1343.06
419.389	1441.06
419.611	1400.06
419.834	1371.06
420.057	1308.06
420.28	1267.06
420.503	1283.06
420.726	1250.06
420.948	1259.06
421.171	1244.06
421.394	1258.06
421.617	1221.06
421.839	1253.06
422.062	1296.06
422.285	1252.06
422.507	1293.06
422.73	1268.06
422.953	1274.06
423.175	1282.06
423.398	1287.06
423.621	1222.06
423.843	1274.06
424.066	1270.06
424.288	1237.06
424.511	1242.06
424.733	1238.06
424.956	1256.06
425.178	1276.06
425.401	1228.06
425.623	1251.06
425.846	1227.06
426.068	1258.06
426.291	1219.06
426.513	1242.06
426.735	1267.06
426.958	1245.06
427.18	1197.06
427.402	1245.06
427.625	1223.06
427.847	1214.06
428.069	1197.06
428.292	1213.06
428.514	1229.06
428.736	1209.06
428.958	1231.06
429.181	1227.06
429.403	1165.06
429.625	1213.06
429.847	1178.06
430.069	1195.06
430.292	1189.06
430.514	1185.06
430.736	1196.06
430.958	1206.06
431.18	1244.06
431.402	1227.06
431.624	1213.06
431.846	1201.06
432.068	1207.06
432.29	1221.06
432.512	1215.06
432.734	1243.06
432.956	1237.06
433.178	1243.06
433.4	1273.06
433.622	1313.06
433.844	1254.06
434.066	1271.06
434.287	1268.06
434.509	1253.06
434.731	1281.06
434.953	1307.06
435.175	1302.06
435.397	1334.06
435.618	1281.06
435.84	1224.06
436.062	1232.06
436.284	1265.06
436.505	1234.06
436.727	1217.06
436.949	1202.06
437.17	1241.06
437.392	1245.06
437.614	1236.06
437.835	1171.06
438.057	1177.06
438.278	1198.06
438.5	1151.06
438.721	1192.06
438.943	1213.06
439.165	1172.06
439.386	1188.06
439.608	1212.06
439.829	1196.06
440.05	1194.06
440.272	1198.06
440.493	1211.06
440.715	1244.06
440.936	1231.06
441.158	1247.06
441.379	1269.06
441.6	1294.06
441.822	1281.06
442.043	1252.06
442.264	1278.06
442.486	1253.06
442.707	1275.06
442.928	1268.06
443.149	1266.06
443.371	1300.06
443.592	1355.06
443.813	1357.06
444.034	1285.06
444.255	1306.06
444.476	1363.06
444.698	1342.06
444.919	1405.06
445.14	1470.06
445.361	1374.06
445.582	1306.06
445.803	1257.06
446.024	1238.06
446.245	1247.06
446.466	1222.06
446.687	1172.06
446.908	1194.06
447.129	1194.06
447.35	1190.06
447.571	1162.06
447.792	1129.06
448.013	1128.06
448.234	1150.06
448.455	1133.06
448.675	1127.06
448.896	1145.06
449.117	1100.06
449.338	1111.06
449.559	1142.06
449.779	1112.06
450	1120.06
450.221	1106.06
450.442	1099.06
450.662	1093.06
450.883	1113.06
451.104	1144.06
451.324	1098.06
451.545	1117.06
451.766	1094.06
451.986	1064.06
452.207	1087.06
452.428	1115.06
452.648	1091.06
452.869	1054.06
453.089	1078.06
453.31	1103.06
453.53	1095.06
453.751	1061.06
453.971	1060.06
454.192	1098.06
454.412	1120.06
454.633	1077.06
454.853	1082.06
455.073	1050.06
455.294	1077.06
455.514	1115.06
455.734	1115.06
455.955	1143.06
456.175	1127.06
456.395	1065.06
456.616	1077.06
456.836	1072.06
457.056	1088.06
457.276	1069.06
457.497	1091.06
457.717	1108.06
457.937	1132.06
458.157	1139.06
458.377	1086.06
458.598	1104.06
458.818	1141.06
459.038	1158.06
459.258	1180.06
459.478	1278.06
459.698	1344.06
459.918	1318.06
460.138	1342.06
460.358	1317.06
460.578	1337.06
460.798	1386.06
461.018	1390.06
461.238	1306.06
461.458	1297.06
461.678	1271.06
461.898	1348.06
462.118	1309.06
462.338	1371.06
462.558	1406.06
462.777	1439.06
462.997	1458.06
463.217	1513.06
463.437	1563.06
463.657	1545.06
463.876	1480.06
464.096	1432.06
464.316	1420.06
464.536	1417.06
464.755	1440.06
464.975	1354.06
465.195	1323.06
465.414	1314.06
465.634	1226.06
465.854	1238.06
466.073	1228.06
466.293	1215.06
466.512	1183.06
466.732	1160.06
466.951	1197.06
467.171	1181.06
467.391	1226.06
467.61	1185.06
467.829	1155.06
468.049	1162.06
468.268	1149.06
468.488	1153.06
468.707	1159.06
468.927	1154.06
469.146	1179.06
469.365	1232.06
469.585	1190.06
469.804	1148.06
470.023	1173.06
470.243	1177.06
470.462	1159.06
470.681	1177.06
470.901	1191.06
471.12	1147.06
471.339	1169.06
471.558	1185.06
471.777	1170.06
471.997	1169.06
472.216	1170.06
472.435	1139.06
472.654	1145.06
472.873	1126.06
473.092	1139.06
473.311	1149.06
473.53	1165.06
473.749	1180.06
473.968	1168.06
474.187	1156.06
474.406	1182.06
474.625	1157.06
474.844	1194.06
475.063	1173.06
475.282	1183.06
475.501	1206.06
475.72	1195.06
475.939	1204.06
476.158	1226.06
476.377	1213.06
476.596	1187.06
476.814	1219.06
477.033	1208.06
477.252	1198.06
477.471	1256.06
477.69	1324.06
477.908	1285.06
478.127	1286.06
478.346	1335.06
478.564	1349.06
478.783	1350.06
479.002	1404.06
479.22	1473.06
479.439	1427.06
479.658	1377.06
479.876	1417.06
480.095	1374.06
480.313	1436.06
480.532	1382.06
480.751	1383.06
480.969	1377.06
481.188	1375.06
481.406	1422.06
481.624	1373.06
481.843	1358.06
482.061	1384.06
482.28	1385.06
482.498	1363.06
482.717	1390.06
482.935	1369.06
483.153	1439.06
483.372	1429.06
483.59	1460.06
483.808	1411.06
484.027	1423.06
484.245	1397.06
484.463	1360.06
484.681	1409.06
484.9	1419.06
485.118	1409.06
485.336	1365.06
485.554	1387.06
485.772	1433.06
485.99	1397.06
486.209	1449.06
486.427	1397.06
486.645	1429.06
486.863	1422.06
487.081	1436.06
487.299	1452.06
487.517	1425.06
487.735	1439.06
487.953	1470.06
488.171	1430.06
488.389	1440.06
488.607	1438.06
488.825	1450.06
489.043	1418.06
489.261	1420.06
489.479	1418.06
489.696	1423.06
489.914	1424.06
490.132	1415.06
490.35	1426.06
490.568	1394.06
490.786	1445.06
491.003	1450.06
491.221	1411.06
491.439	1425.06
491.657	1434.06
491.874	1473.06
492.092	1447.06
492.31	1458.06
492.527	1469.06
492.745	1464.06
492.963	1449.06
493.18	1445.06
493.398	1454.06
493.615	1471.06
