Data from Ni(NO3)2@0.5M.TitratingCurve.Agarose3%dH2O.NegLispCup.LampEnergy10.LIBS07252019_HRD10591_18-00-29-564.txt Node
Date: Thu Jul 25 18:00:29 EDT 2019
User: cochatt
Spectrometer: HR+D1059
Trigger mode: 1
Integration Time (sec): 1.000000E-1
Scans to average: 1
Electric dark correction enabled: true
Nonlinearity correction enabled: false
Boxcar width: 0
XAxis mode: Wavelengths
Number of Pixels in Spectrum: 2048
>>>>>Begin Spectral Data<<<<<
223.165	-18.81
223.4	-18.81
223.635	-18.81
223.869	-10.81
224.104	-12.81
224.338	-1.81
224.573	-7.81
224.808	-20.81
225.042	-16.81
225.277	6.19
225.511	2.19
225.746	-1.81
225.98	10.19
226.215	17.19
226.449	4.19
226.683	7.19
226.918	21.19
227.152	23.19
227.387	38.19
227.621	30.19
227.856	32.19
228.09	54.19
228.324	43.19
228.559	49.19
228.793	84.19
229.027	150.19
229.262	142.19
229.496	157.19
229.73	165.19
229.964	179.19
230.199	217.19
230.433	202.19
230.667	187.19
230.901	204.19
231.136	184.19
231.37	184.19
231.604	196.19
231.838	201.19
232.072	225.19
232.306	203.19
232.541	186.19
232.775	188.19
233.009	195.19
233.243	202.19
233.477	206.19
233.711	199.19
233.945	207.19
234.179	209.19
234.413	199.19
234.647	204.19
234.881	205.19
235.115	204.19
235.349	195.19
235.583	202.19
235.817	204.19
236.051	206.19
236.285	194.19
236.519	217.19
236.753	216.19
236.987	210.19
237.221	223.19
237.455	223.19
237.689	216.19
237.922	222.19
238.156	216.19
238.39	228.19
238.624	229.19
238.858	221.19
239.091	234.19
239.325	248.19
239.559	263.19
239.793	252.19
240.027	259.19
240.26	279.19
240.494	252.19
240.728	261.19
240.961	263.19
241.195	266.19
241.429	263.19
241.662	283.19
241.896	287.19
242.13	283.19
242.363	260.19
242.597	277.19
242.83	286.19
243.064	275.19
243.298	277.19
243.531	288.19
243.765	283.19
243.998	282.19
244.232	283.19
244.465	299.19
244.699	306.19
244.932	296.19
245.166	315.19
245.399	304.19
245.633	283.19
245.866	299.19
246.099	299.19
246.333	336.19
246.566	317.19
246.8	331.19
247.033	324.19
247.266	333.19
247.5	330.19
247.733	330.19
247.966	320.19
248.2	332.19
248.433	348.19
248.666	342.19
248.899	355.19
249.133	351.19
249.366	341.19
249.599	361.19
249.832	367.19
250.066	362.19
250.299	372.19
250.532	360.19
250.765	371.19
250.998	376.19
251.231	387.19
251.465	395.19
251.698	387.19
251.931	391.19
252.164	396.19
252.397	382.19
252.63	388.19
252.863	381.19
253.096	407.19
253.329	387.19
253.562	407.19
253.795	419.19
254.028	402.19
254.261	424.19
254.494	436.19
254.727	415.19
254.96	426.19
255.193	443.19
255.426	425.19
255.659	439.19
255.892	433.19
256.124	439.19
256.357	428.19
256.59	431.19
256.823	430.19
257.056	461.19
257.289	449.19
257.521	437.19
257.754	456.19
257.987	446.19
258.22	466.19
258.452	463.19
258.685	470.19
258.918	465.19
259.151	451.19
259.383	471.19
259.616	471.19
259.849	480.19
260.081	463.19
260.314	487.19
260.547	472.19
260.779	486.19
261.012	488.19
261.244	482.19
261.477	520.19
261.71	493.19
261.942	493.19
262.175	489.19
262.407	513.19
262.64	519.19
262.872	515.19
263.105	514.19
263.337	530.19
263.57	524.19
263.802	535.19
264.035	513.19
264.267	538.19
264.499	527.19
264.732	541.19
264.964	555.19
265.197	565.19
265.429	534.19
265.661	535.19
265.894	540.19
266.126	556.19
266.358	554.19
266.591	553.19
266.823	548.19
267.055	548.19
267.287	562.19
267.52	575.19
267.752	565.19
267.984	553.19
268.216	590.19
268.448	567.19
268.681	565.19
268.913	562.19
269.145	585.19
269.377	596.19
269.609	584.19
269.841	572.19
270.073	578.19
270.306	595.19
270.538	598.19
270.77	599.19
271.002	592.19
271.234	600.19
271.466	612.19
271.698	597.19
271.93	604.19
272.162	605.19
272.394	616.19
272.626	607.19
272.858	609.19
273.09	633.19
273.322	622.19
273.553	627.19
273.785	643.19
274.017	641.19
274.249	627.19
274.481	636.19
274.713	644.19
274.945	652.19
275.176	638.19
275.408	643.19
275.64	659.19
275.872	651.19
276.104	662.19
276.335	675.19
276.567	672.19
276.799	656.19
277.031	701.19
277.262	668.19
277.494	669.19
277.726	658.19
277.957	665.19
278.189	649.19
278.421	685.19
278.652	688.19
278.884	702.19
279.115	706.19
279.347	680.19
279.579	680.19
279.81	712.19
280.042	706.19
280.273	707.19
280.505	681.19
280.736	694.19
280.968	719.19
281.199	725.19
281.431	710.19
281.662	733.19
281.894	729.19
282.125	751.19
282.356	741.19
282.588	723.19
282.819	732.19
283.051	732.19
283.282	726.19
283.513	748.19
283.745	759.19
283.976	728.19
284.207	730.19
284.439	777.19
284.67	746.19
284.901	735.19
285.132	759.19
285.364	742.19
285.595	752.19
285.826	742.19
286.057	773.19
286.288	767.19
286.52	737.19
286.751	773.19
286.982	763.19
287.213	793.19
287.444	781.19
287.675	775.19
287.906	783.19
288.138	781.19
288.369	791.19
288.6	817.19
288.831	797.19
289.062	802.19
289.293	809.19
289.524	787.19
289.755	781.19
289.986	784.19
290.217	819.19
290.448	799.19
290.679	801.19
290.91	812.19
291.141	792.19
291.371	815.19
291.602	794.19
291.833	809.19
292.064	798.19
292.295	804.19
292.526	783.19
292.757	797.19
292.987	822.19
293.218	803.19
293.449	828.19
293.68	828.19
293.91	788.19
294.141	801.19
294.372	809.19
294.603	838.19
294.833	838.19
295.064	822.19
295.295	832.19
295.525	826.19
295.756	829.19
295.987	818.19
296.217	841.19
296.448	828.19
296.679	840.19
296.909	824.19
297.14	835.19
297.37	862.19
297.601	873.19
297.831	842.19
298.062	858.19
298.292	870.19
298.523	873.19
298.753	879.19
298.984	886.19
299.214	907.19
299.445	897.19
299.675	862.19
299.905	867.19
300.136	894.19
300.366	893.19
300.597	930.19
300.827	926.19
301.057	909.19
301.288	925.19
301.518	910.19
301.748	899.19
301.979	949.19
302.209	934.19
302.439	940.19
302.669	927.19
302.9	923.19
303.13	904.19
303.36	936.19
303.59	951.19
303.82	925.19
304.051	969.19
304.281	931.19
304.511	912.19
304.741	961.19
304.971	954.19
305.201	964.19
305.431	994.19
305.661	965.19
305.891	931.19
306.121	949.19
306.352	911.19
306.582	916.19
306.812	931.19
307.042	937.19
307.272	932.19
307.502	930.19
307.731	935.19
307.961	908.19
308.191	919.19
308.421	924.19
308.651	946.19
308.881	901.19
309.111	938.19
309.341	941.19
309.571	943.19
309.8	938.19
310.03	941.19
310.26	1014.19
310.49	985.19
310.72	935.19
310.949	927.19
311.179	966.19
311.409	930.19
311.639	948.19
311.868	948.19
312.098	953.19
312.328	975.19
312.557	980.19
312.787	967.19
313.017	965.19
313.246	997.19
313.476	989.19
313.706	1005.19
313.935	1039.19
314.165	966.19
314.394	1010.19
314.624	1020.19
314.853	961.19
315.083	993.19
315.312	1027.19
315.542	1017.19
315.771	985.19
316.001	1024.19
316.23	1002.19
316.46	1011.19
316.689	1005.19
316.919	1027.19
317.148	1003.19
317.377	1025.19
317.607	994.19
317.836	987.19
318.065	1011.19
318.295	1020.19
318.524	1029.19
318.753	993.19
318.983	1011.19
319.212	1020.19
319.441	997.19
319.67	975.19
319.9	1013.19
320.129	1026.19
320.358	1006.19
320.587	1023.19
320.816	1028.19
321.046	1070.19
321.275	1033.19
321.504	1043.19
321.733	1027.19
321.962	1069.19
322.191	1049.19
322.42	1063.19
322.649	1059.19
322.878	1052.19
323.108	1069.19
323.337	1067.19
323.566	1060.19
323.795	1072.19
324.024	1084.19
324.253	1110.19
324.482	1092.19
324.71	1085.19
324.939	1073.19
325.168	1092.19
325.397	1063.19
325.626	1096.19
325.855	1087.19
326.084	1135.19
326.313	1122.19
326.542	1134.19
326.77	1102.19
326.999	1119.19
327.228	1114.19
327.457	1129.19
327.686	1115.19
327.914	1118.19
328.143	1164.19
328.372	1121.19
328.6	1155.19
328.829	1117.19
329.058	1121.19
329.287	1153.19
329.515	1156.19
329.744	1163.19
329.972	1162.19
330.201	1161.19
330.43	1177.19
330.658	1158.19
330.887	1166.19
331.115	1145.19
331.344	1203.19
331.572	1185.19
331.801	1181.19
332.03	1219.19
332.258	1211.19
332.486	1230.19
332.715	1283.19
332.943	1282.19
333.172	1310.19
333.4	1319.19
333.629	1336.19
333.857	1360.19
334.085	1370.19
334.314	1379.19
334.542	1389.19
334.771	1369.19
334.999	1390.19
335.227	1400.19
335.455	1361.19
335.684	1364.19
335.912	1380.19
336.14	1398.19
336.369	1341.19
336.597	1347.19
336.825	1336.19
337.053	1364.19
337.281	1370.19
337.51	1322.19
337.738	1301.19
337.966	1306.19
338.194	1304.19
338.422	1282.19
338.65	1268.19
338.878	1266.19
339.106	1268.19
339.334	1288.19
339.562	1242.19
339.79	1221.19
340.018	1211.19
340.246	1205.19
340.474	1229.19
340.702	1214.19
340.93	1220.19
341.158	1225.19
341.386	1243.19
341.614	1272.19
341.842	1258.19
342.07	1225.19
342.298	1237.19
342.526	1220.19
342.754	1224.19
342.981	1223.19
343.209	1248.19
343.437	1289.19
343.665	1312.19
343.893	1327.19
344.12	1356.19
344.348	1347.19
344.576	1318.19
344.804	1312.19
345.031	1277.19
345.259	1245.19
345.487	1227.19
345.714	1215.19
345.942	1220.19
346.17	1218.19
346.397	1242.19
346.625	1197.19
346.853	1203.19
347.08	1190.19
347.308	1166.19
347.535	1185.19
347.763	1159.19
347.99	1184.19
348.218	1175.19
348.445	1153.19
348.673	1164.19
348.9	1154.19
349.128	1138.19
349.355	1167.19
349.583	1203.19
349.81	1139.19
350.037	1107.19
350.265	1144.19
350.492	1097.19
350.72	1146.19
350.947	1125.19
351.174	1153.19
351.402	1169.19
351.629	1197.19
351.856	1168.19
352.083	1167.19
352.311	1171.19
352.538	1168.19
352.765	1175.19
352.992	1121.19
353.22	1114.19
353.447	1087.19
353.674	1114.19
353.901	1128.19
354.128	1138.19
354.355	1134.19
354.583	1120.19
354.81	1117.19
355.037	1135.19
355.264	1082.19
355.491	1137.19
355.718	1113.19
355.945	1114.19
356.172	1109.19
356.399	1122.19
356.626	1124.19
356.853	1171.19
357.08	1129.19
357.307	1138.19
357.534	1099.19
357.761	1145.19
357.988	1117.19
358.215	1120.19
358.441	1120.19
358.668	1112.19
358.895	1123.19
359.122	1116.19
359.349	1129.19
359.576	1107.19
359.802	1128.19
360.029	1155.19
360.256	1103.19
360.483	1144.19
360.709	1110.19
360.936	1141.19
361.163	1147.19
361.39	1139.19
361.616	1163.19
361.843	1150.19
362.07	1196.19
362.296	1159.19
362.523	1176.19
362.749	1132.19
362.976	1135.19
363.203	1161.19
363.429	1123.19
363.656	1137.19
363.882	1129.19
364.109	1112.19
364.335	1122.19
364.562	1116.19
364.788	1141.19
365.015	1122.19
365.241	1122.19
365.468	1162.19
365.694	1123.19
365.92	1131.19
366.147	1173.19
366.373	1126.19
366.599	1133.19
366.826	1159.19
367.052	1142.19
367.278	1150.19
367.505	1113.19
367.731	1147.19
367.957	1131.19
368.184	1142.19
368.41	1163.19
368.636	1146.19
368.862	1140.19
369.089	1145.19
369.315	1199.19
369.541	1159.19
369.767	1151.19
369.993	1170.19
370.219	1185.19
370.445	1202.19
370.672	1192.19
370.898	1179.19
371.124	1197.19
371.35	1228.19
371.576	1179.19
371.802	1204.19
372.028	1242.19
372.254	1230.19
372.48	1250.19
372.706	1261.19
372.932	1239.19
373.158	1244.19
373.384	1263.19
373.61	1223.19
373.835	1204.19
374.061	1238.19
374.287	1255.19
374.513	1285.19
374.739	1284.19
374.965	1298.19
375.191	1314.19
375.416	1286.19
375.642	1309.19
375.868	1247.19
376.094	1247.19
376.319	1207.19
376.545	1203.19
376.771	1219.19
376.997	1228.19
377.222	1244.19
377.448	1176.19
377.674	1222.19
377.899	1221.19
378.125	1199.19
378.35	1214.19
378.576	1239.19
378.802	1189.19
379.027	1186.19
379.253	1226.19
379.478	1177.19
379.704	1201.19
379.929	1177.19
380.155	1185.19
380.38	1217.19
380.606	1224.19
380.831	1204.19
381.057	1195.19
381.282	1205.19
381.507	1204.19
381.733	1229.19
381.958	1236.19
382.184	1221.19
382.409	1239.19
382.634	1247.19
382.86	1220.19
383.085	1279.19
383.31	1269.19
383.535	1283.19
383.761	1268.19
383.986	1282.19
384.211	1312.19
384.436	1323.19
384.662	1352.19
384.887	1346.19
385.112	1344.19
385.337	1365.19
385.562	1360.19
385.787	1397.19
386.013	1440.19
386.238	1403.19
386.463	1437.19
386.688	1449.19
386.913	1403.19
387.138	1437.19
387.363	1390.19
387.588	1409.19
387.813	1415.19
388.038	1408.19
388.263	1413.19
388.488	1418.19
388.713	1416.19
388.938	1412.19
389.163	1406.19
389.387	1430.19
389.612	1375.19
389.837	1387.19
390.062	1387.19
390.287	1424.19
390.512	1427.19
390.736	1447.19
390.961	1476.19
391.186	1473.19
391.411	1487.19
391.636	1500.19
391.86	1551.19
392.085	1550.19
392.31	1522.19
392.534	1511.19
392.759	1527.19
392.984	1487.19
393.208	1521.19
393.433	1484.19
393.658	1482.19
393.882	1503.19
394.107	1512.19
394.331	1504.19
394.556	1467.19
394.78	1489.19
395.005	1518.19
395.229	1486.19
395.454	1518.19
395.678	1568.19
395.903	1563.19
396.127	1585.19
396.352	1541.19
396.576	1543.19
396.801	1551.19
397.025	1526.19
397.249	1599.19
397.474	1623.19
397.698	1592.19
397.922	1597.19
398.147	1580.19
398.371	1662.19
398.595	1662.19
398.82	1728.19
399.044	1798.19
399.268	1905.19
399.492	2061.19
399.717	2117.19
399.941	2142.19
400.165	2056.19
400.389	2016.19
400.613	1947.19
400.837	1849.19
401.062	1820.19
401.286	1766.19
401.51	1770.19
401.734	1715.19
401.958	1742.19
402.182	1740.19
402.406	1759.19
402.63	1760.19
402.854	1769.19
403.078	1749.19
403.302	1788.19
403.526	1778.19
403.75	1820.19
403.974	1795.19
404.198	1820.19
404.422	1843.19
404.645	1801.19
404.869	1796.19
405.093	1808.19
405.317	1841.19
405.541	1853.19
405.765	1827.19
405.988	1825.19
406.212	1843.19
406.436	1868.19
406.66	1921.19
406.883	1932.19
407.107	1975.19
407.331	2029.19
407.555	2099.19
407.778	2078.19
408.002	2102.19
408.226	2058.19
408.449	2018.19
408.673	1979.19
408.896	1963.19
409.12	1935.19
409.344	1914.19
409.567	1917.19
409.791	1900.19
410.014	1878.19
410.238	1862.19
410.461	1884.19
410.685	1889.19
410.908	1801.19
411.132	1837.19
411.355	1784.19
411.578	1833.19
411.802	1798.19
412.025	1801.19
412.249	1829.19
412.472	1812.19
412.695	1791.19
412.919	1797.19
413.142	1792.19
413.365	1749.19
413.589	1732.19
413.812	1694.19
414.035	1710.19
414.258	1723.19
414.482	1719.19
414.705	1748.19
414.928	1751.19
415.151	1732.19
415.374	1732.19
415.597	1723.19
415.821	1707.19
416.044	1637.19
416.267	1646.19
416.49	1645.19
416.713	1676.19
416.936	1689.19
417.159	1671.19
417.382	1652.19
417.605	1636.19
417.828	1682.19
418.051	1675.19
418.274	1645.19
418.497	1640.19
418.72	1692.19
418.943	1662.19
419.166	1788.19
419.389	1868.19
419.611	1841.19
419.834	1807.19
420.057	1751.19
420.28	1713.19
420.503	1633.19
420.726	1639.19
420.948	1636.19
421.171	1672.19
421.394	1649.19
421.617	1637.19
421.839	1652.19
422.062	1693.19
422.285	1632.19
422.507	1672.19
422.73	1660.19
422.953	1656.19
423.175	1678.19
423.398	1666.19
423.621	1649.19
423.843	1665.19
424.066	1679.19
424.288	1694.19
424.511	1669.19
424.733	1634.19
424.956	1665.19
425.178	1634.19
425.401	1666.19
425.623	1635.19
425.846	1626.19
426.068	1631.19
426.291	1637.19
426.513	1615.19
426.735	1625.19
426.958	1631.19
427.18	1572.19
427.402	1589.19
427.625	1565.19
427.847	1568.19
428.069	1551.19
428.292	1563.19
428.514	1537.19
428.736	1537.19
428.958	1570.19
429.181	1513.19
429.403	1507.19
429.625	1542.19
429.847	1514.19
430.069	1517.19
430.292	1523.19
430.514	1515.19
430.736	1533.19
430.958	1508.19
431.18	1500.19
431.402	1537.19
431.624	1519.19
431.846	1583.19
432.068	1549.19
432.29	1598.19
432.512	1553.19
432.734	1589.19
432.956	1547.19
433.178	1606.19
433.4	1567.19
433.622	1574.19
433.844	1630.19
434.066	1631.19
434.287	1586.19
434.509	1640.19
434.731	1653.19
434.953	1666.19
435.175	1685.19
435.397	1697.19
435.618	1645.19
435.84	1573.19
436.062	1573.19
436.284	1577.19
436.505	1550.19
436.727	1548.19
436.949	1559.19
437.17	1558.19
437.392	1525.19
437.614	1516.19
437.835	1470.19
438.057	1503.19
438.278	1495.19
438.5	1481.19
438.721	1458.19
438.943	1510.19
439.165	1463.19
439.386	1514.19
439.608	1535.19
439.829	1510.19
440.05	1518.19
440.272	1529.19
440.493	1524.19
440.715	1523.19
440.936	1562.19
441.158	1551.19
441.379	1597.19
441.6	1673.19
441.822	1663.19
442.043	1666.19
442.264	1615.19
442.486	1613.19
442.707	1598.19
442.928	1630.19
443.149	1633.19
443.371	1613.19
443.592	1683.19
443.813	1687.19
444.034	1633.19
444.255	1691.19
444.476	1743.19
444.698	1782.19
444.919	1831.19
445.14	1903.19
445.361	1752.19
445.582	1730.19
445.803	1632.19
446.024	1554.19
446.245	1601.19
446.466	1592.19
446.687	1543.19
446.908	1516.19
447.129	1511.19
447.35	1476.19
447.571	1465.19
447.792	1444.19
448.013	1479.19
448.234	1417.19
448.455	1435.19
448.675	1411.19
448.896	1407.19
449.117	1407.19
449.338	1417.19
449.559	1397.19
449.779	1394.19
450	1377.19
450.221	1379.19
450.442	1399.19
450.662	1411.19
450.883	1426.19
451.104	1439.19
451.324	1385.19
451.545	1411.19
451.766	1423.19
451.986	1378.19
452.207	1391.19
452.428	1341.19
452.648	1351.19
452.869	1363.19
453.089	1359.19
453.31	1402.19
453.53	1343.19
453.751	1337.19
453.971	1349.19
454.192	1326.19
454.412	1352.19
454.633	1356.19
454.853	1343.19
455.073	1290.19
455.294	1331.19
455.514	1309.19
455.734	1338.19
455.955	1374.19
456.175	1355.19
456.395	1313.19
456.616	1355.19
456.836	1329.19
457.056	1302.19
457.276	1331.19
457.497	1346.19
457.717	1361.19
457.937	1385.19
458.157	1380.19
458.377	1365.19
458.598	1389.19
458.818	1431.19
459.038	1476.19
459.258	1495.19
459.478	1558.19
459.698	1635.19
459.918	1623.19
460.138	1640.19
460.358	1663.19
460.578	1692.19
460.798	1739.19
461.018	1713.19
461.238	1732.19
461.458	1739.19
461.678	1691.19
461.898	1757.19
462.118	1773.19
462.338	1811.19
462.558	1886.19
462.777	1867.19
462.997	1981.19
463.217	2002.19
463.437	2079.19
463.657	2049.19
463.876	1905.19
464.096	1923.19
464.316	1879.19
464.536	1898.19
464.755	1841.19
464.975	1776.19
465.195	1766.19
465.414	1717.19
465.634	1625.19
465.854	1597.19
466.073	1537.19
466.293	1537.19
466.512	1487.19
466.732	1501.19
466.951	1482.19
467.171	1453.19
467.391	1503.19
467.61	1496.19
467.829	1457.19
468.049	1448.19
468.268	1421.19
468.488	1427.19
468.707	1389.19
468.927	1395.19
469.146	1384.19
469.365	1449.19
469.585	1415.19
469.804	1436.19
470.023	1479.19
470.243	1495.19
470.462	1468.19
470.681	1477.19
470.901	1536.19
471.12	1502.19
471.339	1483.19
471.558	1473.19
471.777	1435.19
471.997	1445.19
472.216	1428.19
472.435	1458.19
472.654	1451.19
472.873	1433.19
473.092	1399.19
473.311	1396.19
473.53	1429.19
473.749	1423.19
473.968	1399.19
474.187	1422.19
474.406	1447.19
474.625	1434.19
474.844	1460.19
475.063	1493.19
475.282	1492.19
475.501	1446.19
475.72	1443.19
475.939	1482.19
476.158	1480.19
476.377	1515.19
476.596	1474.19
476.814	1484.19
477.033	1513.19
477.252	1551.19
477.471	1585.19
477.69	1559.19
477.908	1609.19
478.127	1647.19
478.346	1625.19
478.564	1648.19
478.783	1666.19
479.002	1743.19
479.22	1770.19
479.439	1749.19
479.658	1763.19
479.876	1736.19
480.095	1735.19
480.313	1770.19
480.532	1784.19
480.751	1775.19
480.969	1795.19
481.188	1730.19
481.406	1735.19
481.624	1680.19
481.843	1704.19
482.061	1680.19
482.28	1709.19
482.498	1652.19
482.717	1653.19
482.935	1687.19
483.153	1735.19
483.372	1711.19
483.59	1744.19
483.808	1690.19
484.027	1699.19
484.245	1716.19
484.463	1695.19
484.681	1709.19
484.9	1725.19
485.118	1737.19
485.336	1697.19
485.554	1741.19
485.772	1733.19
485.99	1743.19
486.209	1708.19
486.427	1740.19
486.645	1730.19
486.863	1725.19
487.081	1755.19
487.299	1733.19
487.517	1733.19
487.735	1752.19
487.953	1774.19
488.171	1753.19
488.389	1729.19
488.607	1699.19
488.825	1753.19
489.043	1748.19
489.261	1727.19
489.479	1756.19
489.696	1730.19
489.914	1750.19
490.132	1726.19
490.35	1769.19
490.568	1727.19
490.786	1745.19
