Data from Ni(NO3)2@0.25M.TitratingCurve.Agarose3%dH2O.NegLispCup.LampEnergy10.LIBS07252019_HRD10591_18-04-01-566.txt Node
Date: Thu Jul 25 18:04:01 EDT 2019
User: cochatt
Spectrometer: HR+D1059
Trigger mode: 1
Integration Time (sec): 1.000000E-1
Scans to average: 1
Electric dark correction enabled: true
Nonlinearity correction enabled: false
Boxcar width: 0
XAxis mode: Wavelengths
Number of Pixels in Spectrum: 2048
>>>>>Begin Spectral Data<<<<<
223.165	-9.69
223.4	-9.69
223.635	-9.69
223.869	-23.69
224.104	-17.69
224.338	-16.69
224.573	-23.69
224.808	-15.69
225.042	-3.69
225.277	-2.69
225.511	-10.69
225.746	-1.69
225.98	20.31
226.215	-0.69
226.449	17.31
226.683	26.31
226.918	24.31
227.152	38.31
227.387	33.31
227.621	33.31
227.856	65.31
228.09	43.31
228.324	47.31
228.559	64.31
228.793	76.31
229.027	110.31
229.262	122.31
229.496	116.31
229.73	148.31
229.964	139.31
230.199	144.31
230.433	140.31
230.667	151.31
230.901	140.31
231.136	140.31
231.37	138.31
231.604	146.31
231.838	144.31
232.072	164.31
232.306	162.31
232.541	157.31
232.775	170.31
233.009	162.31
233.243	157.31
233.477	147.31
233.711	161.31
233.945	149.31
234.179	151.31
234.413	162.31
234.647	144.31
234.881	156.31
235.115	157.31
235.349	151.31
235.583	180.31
235.817	159.31
236.051	158.31
236.285	150.31
236.519	169.31
236.753	165.31
236.987	151.31
237.221	158.31
237.455	167.31
237.689	170.31
237.922	171.31
238.156	158.31
238.39	178.31
238.624	180.31
238.858	170.31
239.091	170.31
239.325	181.31
239.559	171.31
239.793	188.31
240.027	178.31
240.26	195.31
240.494	174.31
240.728	180.31
240.961	175.31
241.195	184.31
241.429	192.31
241.662	198.31
241.896	201.31
242.13	203.31
242.363	190.31
242.597	199.31
242.83	192.31
243.064	195.31
243.298	201.31
243.531	199.31
243.765	225.31
243.998	231.31
244.232	199.31
244.465	197.31
244.699	204.31
244.932	213.31
245.166	214.31
245.399	225.31
245.633	220.31
245.866	221.31
246.099	230.31
246.333	227.31
246.566	223.31
246.8	203.31
247.033	231.31
247.266	244.31
247.5	237.31
247.733	237.31
247.966	239.31
248.2	233.31
248.433	245.31
248.666	260.31
248.899	272.31
249.133	250.31
249.366	269.31
249.599	259.31
249.832	254.31
250.066	282.31
250.299	270.31
250.532	264.31
250.765	278.31
250.998	276.31
251.231	278.31
251.465	273.31
251.698	285.31
251.931	286.31
252.164	288.31
252.397	301.31
252.63	298.31
252.863	308.31
253.096	308.31
253.329	304.31
253.562	280.31
253.795	290.31
254.028	303.31
254.261	302.31
254.494	296.31
254.727	306.31
254.96	322.31
255.193	313.31
255.426	321.31
255.659	320.31
255.892	328.31
256.124	318.31
256.357	308.31
256.59	323.31
256.823	336.31
257.056	322.31
257.289	348.31
257.521	334.31
257.754	333.31
257.987	333.31
258.22	356.31
258.452	342.31
258.685	339.31
258.918	352.31
259.151	353.31
259.383	368.31
259.616	342.31
259.849	346.31
260.081	370.31
260.314	361.31
260.547	364.31
260.779	361.31
261.012	364.31
261.244	378.31
261.477	374.31
261.71	387.31
261.942	382.31
262.175	399.31
262.407	356.31
262.64	366.31
262.872	380.31
263.105	408.31
263.337	382.31
263.57	397.31
263.802	401.31
264.035	398.31
264.267	399.31
264.499	385.31
264.732	398.31
264.964	406.31
265.197	394.31
265.429	394.31
265.661	400.31
265.894	410.31
266.126	404.31
266.358	408.31
266.591	422.31
266.823	405.31
267.055	414.31
267.287	418.31
267.52	427.31
267.752	421.31
267.984	409.31
268.216	424.31
268.448	412.31
268.681	419.31
268.913	437.31
269.145	404.31
269.377	426.31
269.609	423.31
269.841	426.31
270.073	441.31
270.306	426.31
270.538	452.31
270.77	445.31
271.002	448.31
271.234	434.31
271.466	446.31
271.698	456.31
271.93	419.31
272.162	446.31
272.394	434.31
272.626	453.31
272.858	447.31
273.09	443.31
273.322	461.31
273.553	458.31
273.785	466.31
274.017	466.31
274.249	462.31
274.481	447.31
274.713	478.31
274.945	478.31
275.176	482.31
275.408	480.31
275.64	457.31
275.872	457.31
276.104	483.31
276.335	498.31
276.567	473.31
276.799	492.31
277.031	477.31
277.262	464.31
277.494	489.31
277.726	486.31
277.957	479.31
278.189	484.31
278.421	506.31
278.652	500.31
278.884	507.31
279.115	525.31
279.347	500.31
279.579	494.31
279.81	511.31
280.042	508.31
280.273	516.31
280.505	540.31
280.736	529.31
280.968	528.31
281.199	509.31
281.431	519.31
281.662	520.31
281.894	508.31
282.125	519.31
282.356	524.31
282.588	543.31
282.819	521.31
283.051	537.31
283.282	542.31
283.513	530.31
283.745	522.31
283.976	535.31
284.207	540.31
284.439	549.31
284.67	514.31
284.901	552.31
285.132	559.31
285.364	533.31
285.595	579.31
285.826	548.31
286.057	571.31
286.288	550.31
286.52	544.31
286.751	586.31
286.982	559.31
287.213	530.31
287.444	564.31
287.675	581.31
287.906	559.31
288.138	562.31
288.369	573.31
288.6	570.31
288.831	588.31
289.062	562.31
289.293	584.31
289.524	583.31
289.755	584.31
289.986	559.31
290.217	591.31
290.448	587.31
290.679	591.31
290.91	580.31
291.141	582.31
291.371	590.31
291.602	576.31
291.833	573.31
292.064	591.31
292.295	595.31
292.526	582.31
292.757	581.31
292.987	589.31
293.218	576.31
293.449	601.31
293.68	580.31
293.91	584.31
294.141	588.31
294.372	579.31
294.603	599.31
294.833	581.31
295.064	585.31
295.295	586.31
295.525	577.31
295.756	573.31
295.987	595.31
296.217	593.31
296.448	605.31
296.679	599.31
296.909	597.31
297.14	597.31
297.37	631.31
297.601	618.31
297.831	619.31
298.062	651.31
298.292	620.31
298.523	609.31
298.753	640.31
298.984	627.31
299.214	639.31
299.445	626.31
299.675	633.31
299.905	647.31
300.136	626.31
300.366	653.31
300.597	656.31
300.827	646.31
301.057	683.31
301.288	660.31
301.518	669.31
301.748	664.31
301.979	671.31
302.209	680.31
302.439	664.31
302.669	660.31
302.9	660.31
303.13	648.31
303.36	682.31
303.59	651.31
303.82	684.31
304.051	670.31
304.281	663.31
304.511	638.31
304.741	666.31
304.971	667.31
305.201	710.31
305.431	710.31
305.661	659.31
305.891	646.31
306.121	686.31
306.352	667.31
306.582	650.31
306.812	671.31
307.042	654.31
307.272	673.31
307.502	656.31
307.731	651.31
307.961	670.31
308.191	665.31
308.421	664.31
308.651	685.31
308.881	654.31
309.111	677.31
309.341	658.31
309.571	679.31
309.8	684.31
310.03	663.31
310.26	704.31
310.49	706.31
310.72	691.31
310.949	674.31
311.179	678.31
311.409	671.31
311.639	662.31
311.868	686.31
312.098	700.31
312.328	684.31
312.557	703.31
312.787	711.31
313.017	720.31
313.246	721.31
313.476	731.31
313.706	718.31
313.935	732.31
314.165	724.31
314.394	725.31
314.624	727.31
314.853	728.31
315.083	718.31
315.312	736.31
315.542	740.31
315.771	740.31
316.001	744.31
316.23	758.31
316.46	743.31
316.689	751.31
316.919	735.31
317.148	754.31
317.377	738.31
317.607	724.31
317.836	718.31
318.065	738.31
318.295	751.31
318.524	773.31
318.753	739.31
318.983	760.31
319.212	738.31
319.441	745.31
319.67	719.31
319.9	766.31
320.129	770.31
320.358	756.31
320.587	747.31
320.816	773.31
321.046	772.31
321.275	794.31
321.504	777.31
321.733	785.31
321.962	746.31
322.191	794.31
322.42	779.31
322.649	780.31
322.878	790.31
323.108	765.31
323.337	811.31
323.566	808.31
323.795	818.31
324.024	802.31
324.253	815.31
324.482	799.31
324.71	819.31
324.939	842.31
325.168	847.31
325.397	815.31
325.626	820.31
325.855	858.31
326.084	864.31
326.313	851.31
326.542	888.31
326.77	884.31
326.999	863.31
327.228	850.31
327.457	877.31
327.686	855.31
327.914	886.31
328.143	875.31
328.372	867.31
328.6	885.31
328.829	891.31
329.058	902.31
329.287	887.31
329.515	866.31
329.744	904.31
329.972	936.31
330.201	921.31
330.43	910.31
330.658	934.31
330.887	944.31
331.115	964.31
331.344	953.31
331.572	958.31
331.801	965.31
332.03	984.31
332.258	976.31
332.486	1007.31
332.715	1053.31
332.943	1094.31
333.172	1085.31
333.4	1120.31
333.629	1105.31
333.857	1172.31
334.085	1149.31
334.314	1157.31
334.542	1154.31
334.771	1155.31
334.999	1165.31
335.227	1160.31
335.455	1148.31
335.684	1129.31
335.912	1141.31
336.14	1148.31
336.369	1112.31
336.597	1124.31
336.825	1130.31
337.053	1125.31
337.281	1094.31
337.51	1059.31
337.738	1097.31
337.966	1068.31
338.194	1043.31
338.422	1055.31
338.65	1037.31
338.878	1015.31
339.106	1031.31
339.334	1052.31
339.562	1052.31
339.79	997.31
340.018	992.31
340.246	985.31
340.474	985.31
340.702	990.31
340.93	967.31
341.158	983.31
341.386	1027.31
341.614	1005.31
341.842	1010.31
342.07	982.31
342.298	988.31
342.526	970.31
342.754	982.31
342.981	986.31
343.209	999.31
343.437	1037.31
343.665	1066.31
343.893	1127.31
344.12	1139.31
344.348	1128.31
344.576	1110.31
344.804	1100.31
345.031	1066.31
345.259	1044.31
345.487	1044.31
345.714	1003.31
345.942	1015.31
346.17	1026.31
346.397	990.31
346.625	974.31
346.853	965.31
347.08	936.31
347.308	972.31
347.535	961.31
347.763	943.31
347.99	978.31
348.218	954.31
348.445	934.31
348.673	928.31
348.9	938.31
349.128	949.31
349.355	944.31
349.583	933.31
349.81	920.31
350.037	911.31
350.265	895.31
350.492	909.31
350.72	915.31
350.947	942.31
351.174	942.31
351.402	925.31
351.629	940.31
351.856	935.31
352.083	931.31
352.311	950.31
352.538	972.31
352.765	974.31
352.992	904.31
353.22	910.31
353.447	883.31
353.674	877.31
353.901	894.31
354.128	892.31
354.355	913.31
354.583	910.31
354.81	916.31
355.037	918.31
355.264	921.31
355.491	916.31
355.718	900.31
355.945	923.31
356.172	930.31
356.399	931.31
356.626	946.31
356.853	931.31
357.08	919.31
357.307	898.31
357.534	906.31
357.761	879.31
357.988	893.31
358.215	896.31
358.441	893.31
358.668	909.31
358.895	905.31
359.122	880.31
359.349	908.31
359.576	898.31
359.802	911.31
360.029	913.31
360.256	909.31
360.483	913.31
360.709	916.31
360.936	926.31
361.163	944.31
361.39	909.31
361.616	928.31
361.843	958.31
362.07	950.31
362.296	960.31
362.523	916.31
362.749	918.31
362.976	898.31
363.203	905.31
363.429	914.31
363.656	904.31
363.882	884.31
364.109	903.31
364.335	899.31
364.562	907.31
364.788	914.31
365.015	918.31
365.241	902.31
365.468	900.31
365.694	905.31
365.92	875.31
366.147	888.31
366.373	913.31
366.599	924.31
366.826	901.31
367.052	886.31
367.278	872.31
367.505	926.31
367.731	890.31
367.957	911.31
368.184	907.31
368.41	896.31
368.636	904.31
368.862	913.31
369.089	922.31
369.315	923.31
369.541	960.31
369.767	922.31
369.993	929.31
370.219	919.31
370.445	930.31
370.672	967.31
370.898	951.31
371.124	960.31
371.35	952.31
371.576	979.31
371.802	973.31
372.028	961.31
372.254	950.31
372.48	964.31
372.706	975.31
372.932	998.31
373.158	987.31
373.384	971.31
373.61	961.31
373.835	974.31
374.061	955.31
374.287	1004.31
374.513	986.31
374.739	1006.31
374.965	1024.31
375.191	1037.31
375.416	1043.31
375.642	991.31
375.868	995.31
376.094	989.31
376.319	988.31
376.545	983.31
376.771	974.31
376.997	954.31
377.222	967.31
377.448	958.31
377.674	970.31
377.899	947.31
378.125	953.31
378.35	946.31
378.576	936.31
378.802	937.31
379.027	928.31
379.253	954.31
379.478	927.31
379.704	934.31
379.929	920.31
380.155	950.31
380.38	951.31
380.606	947.31
380.831	947.31
381.057	931.31
381.282	918.31
381.507	930.31
381.733	965.31
381.958	946.31
382.184	951.31
382.409	981.31
382.634	967.31
382.86	946.31
383.085	982.31
383.31	984.31
383.535	1000.31
383.761	1006.31
383.986	1039.31
384.211	1039.31
384.436	1070.31
384.662	1054.31
384.887	1082.31
385.112	1088.31
385.337	1082.31
385.562	1100.31
385.787	1109.31
386.013	1123.31
386.238	1118.31
386.463	1122.31
386.688	1112.31
386.913	1103.31
387.138	1109.31
387.363	1114.31
387.588	1131.31
387.813	1128.31
388.038	1110.31
388.263	1111.31
388.488	1104.31
388.713	1098.31
388.938	1094.31
389.163	1075.31
389.387	1110.31
389.612	1071.31
389.837	1100.31
390.062	1106.31
390.287	1141.31
390.512	1102.31
390.736	1114.31
390.961	1125.31
391.186	1126.31
391.411	1166.31
391.636	1209.31
391.86	1223.31
392.085	1228.31
392.31	1243.31
392.534	1202.31
392.759	1194.31
392.984	1193.31
393.208	1188.31
393.433	1197.31
393.658	1203.31
393.882	1190.31
394.107	1195.31
394.331	1214.31
394.556	1187.31
394.78	1169.31
395.005	1204.31
395.229	1178.31
395.454	1235.31
395.678	1269.31
395.903	1240.31
396.127	1255.31
396.352	1235.31
396.576	1216.31
396.801	1224.31
397.025	1268.31
397.249	1259.31
397.474	1278.31
397.698	1299.31
397.922	1291.31
398.147	1268.31
398.371	1370.31
398.595	1342.31
398.82	1395.31
399.044	1462.31
399.268	1568.31
399.492	1765.31
399.717	1872.31
399.941	1909.31
400.165	1778.31
400.389	1635.31
400.613	1571.31
400.837	1540.31
401.062	1492.31
401.286	1450.31
401.51	1455.31
401.734	1432.31
401.958	1443.31
402.182	1430.31
402.406	1462.31
402.63	1414.31
402.854	1490.31
403.078	1461.31
403.302	1481.31
403.526	1501.31
403.75	1483.31
403.974	1501.31
404.198	1487.31
404.422	1527.31
404.645	1511.31
404.869	1470.31
405.093	1491.31
405.317	1464.31
405.541	1508.31
405.765	1514.31
405.988	1509.31
406.212	1510.31
406.436	1518.31
406.66	1542.31
406.883	1542.31
407.107	1646.31
407.331	1731.31
407.555	1769.31
407.778	1778.31
408.002	1732.31
408.226	1678.31
408.449	1668.31
408.673	1621.31
408.896	1570.31
409.12	1574.31
409.344	1603.31
409.567	1548.31
409.791	1569.31
410.014	1570.31
410.238	1528.31
410.461	1529.31
410.685	1536.31
410.908	1518.31
411.132	1497.31
411.355	1444.31
411.578	1479.31
411.802	1479.31
412.025	1486.31
412.249	1465.31
412.472	1478.31
412.695	1452.31
412.919	1412.31
413.142	1432.31
413.365	1443.31
413.589	1452.31
413.812	1396.31
414.035	1408.31
414.258	1411.31
414.482	1460.31
414.705	1484.31
414.928	1442.31
415.151	1460.31
415.374	1436.31
415.597	1443.31
415.821	1375.31
416.044	1382.31
416.267	1406.31
416.49	1390.31
416.713	1361.31
416.936	1403.31
417.159	1367.31
417.382	1377.31
417.605	1390.31
417.828	1332.31
418.051	1404.31
418.274	1384.31
418.497	1394.31
418.72	1438.31
418.943	1454.31
419.166	1482.31
419.389	1630.31
419.611	1571.31
419.834	1526.31
420.057	1483.31
420.28	1428.31
420.503	1404.31
420.726	1412.31
420.948	1423.31
421.171	1390.31
421.394	1397.31
421.617	1388.31
421.839	1433.31
422.062	1430.31
422.285	1407.31
422.507	1447.31
422.73	1445.31
422.953	1402.31
423.175	1478.31
423.398	1432.31
423.621	1416.31
423.843	1394.31
424.066	1436.31
424.288	1450.31
424.511	1423.31
424.733	1458.31
424.956	1444.31
425.178	1421.31
425.401	1423.31
425.623	1417.31
425.846	1360.31
426.068	1381.31
426.291	1342.31
426.513	1340.31
426.735	1350.31
426.958	1352.31
427.18	1324.31
427.402	1308.31
427.625	1323.31
427.847	1302.31
428.069	1332.31
428.292	1298.31
428.514	1280.31
428.736	1338.31
428.958	1346.31
429.181	1283.31
429.403	1285.31
429.625	1285.31
429.847	1261.31
430.069	1254.31
430.292	1281.31
430.514	1286.31
430.736	1298.31
430.958	1291.31
431.18	1304.31
431.402	1312.31
431.624	1268.31
431.846	1320.31
432.068	1319.31
432.29	1307.31
432.512	1296.31
432.734	1311.31
432.956	1283.31
433.178	1323.31
433.4	1340.31
433.622	1348.31
433.844	1343.31
434.066	1299.31
434.287	1318.31
434.509	1336.31
434.731	1395.31
434.953	1416.31
435.175	1455.31
435.397	1431.31
435.618	1376.31
435.84	1341.31
436.062	1328.31
436.284	1294.31
436.505	1309.31
436.727	1343.31
436.949	1320.31
437.17	1292.31
437.392	1317.31
437.614	1297.31
437.835	1226.31
438.057	1272.31
438.278	1244.31
438.5	1260.31
438.721	1254.31
438.943	1277.31
439.165	1259.31
439.386	1287.31
439.608	1310.31
439.829	1292.31
440.05	1297.31
440.272	1320.31
440.493	1326.31
440.715	1352.31
440.936	1340.31
441.158	1388.31
441.379	1386.31
441.6	1416.31
441.822	1476.31
442.043	1436.31
442.264	1387.31
442.486	1398.31
442.707	1412.31
442.928	1366.31
443.149	1442.31
443.371	1405.31
443.592	1438.31
443.813	1487.31
444.034	1492.31
444.255	1493.31
444.476	1541.31
444.698	1624.31
444.919	1634.31
445.14	1703.31
445.361	1563.31
445.582	1472.31
445.803	1424.31
446.024	1406.31
446.245	1343.31
446.466	1370.31
446.687	1334.31
446.908	1359.31
447.129	1289.31
447.35	1290.31
447.571	1297.31
447.792	1261.31
448.013	1222.31
448.234	1227.31
448.455	1218.31
448.675	1234.31
448.896	1245.31
449.117	1186.31
449.338	1214.31
449.559	1226.31
449.779	1196.31
450	1235.31
450.221	1212.31
450.442	1232.31
450.662	1214.31
450.883	1216.31
451.104	1235.31
451.324	1228.31
451.545	1204.31
451.766	1213.31
451.986	1190.31
452.207	1166.31
452.428	1188.31
452.648	1194.31
452.869	1166.31
453.089	1112.31
453.31	1153.31
453.53	1154.31
453.751	1138.31
453.971	1135.31
454.192	1160.31
454.412	1144.31
454.633	1154.31
454.853	1131.31
455.073	1126.31
455.294	1167.31
455.514	1146.31
455.734	1116.31
455.955	1110.31
456.175	1122.31
456.395	1113.31
456.616	1132.31
456.836	1110.31
457.056	1122.31
457.276	1086.31
457.497	1145.31
457.717	1117.31
457.937	1151.31
458.157	1178.31
458.377	1178.31
458.598	1189.31
458.818	1241.31
459.038	1244.31
459.258	1255.31
459.478	1321.31
459.698	1373.31
459.918	1405.31
460.138	1422.31
460.358	1423.31
460.578	1506.31
460.798	1508.31
461.018	1501.31
461.238	1494.31
461.458	1518.31
461.678	1515.31
461.898	1541.31
462.118	1536.31
462.338	1671.31
462.558	1630.31
462.777	1689.31
462.997	1793.31
463.217	1883.31
463.437	1878.31
463.657	1807.31
463.876	1738.31
464.096	1704.31
464.316	1720.31
464.536	1700.31
464.755	1652.31
464.975	1595.31
465.195	1519.31
465.414	1479.31
465.634	1436.31
465.854	1351.31
466.073	1326.31
466.293	1308.31
466.512	1305.31
466.732	1252.31
466.951	1284.31
467.171	1259.31
467.391	1270.31
467.61	1244.31
467.829	1251.31
468.049	1255.31
468.268	1241.31
468.488	1206.31
468.707	1212.31
468.927	1199.31
469.146	1210.31
469.365	1232.31
469.585	1222.31
469.804	1264.31
470.023	1256.31
470.243	1238.31
470.462	1299.31
470.681	1300.31
470.901	1301.31
471.12	1270.31
471.339	1247.31
471.558	1231.31
471.777	1270.31
471.997	1229.31
472.216	1231.31
472.435	1206.31
472.654	1220.31
472.873	1210.31
473.092	1198.31
473.311	1183.31
473.53	1202.31
473.749	1206.31
473.968	1205.31
474.187	1196.31
474.406	1180.31
474.625	1199.31
474.844	1212.31
475.063	1236.31
475.282	1211.31
475.501	1236.31
475.72	1236.31
475.939	1236.31
476.158	1272.31
476.377	1275.31
476.596	1260.31
476.814	1254.31
477.033	1274.31
477.252	1310.31
477.471	1288.31
477.69	1341.31
477.908	1375.31
478.127	1400.31
478.346	1407.31
478.564	1462.31
478.783	1461.31
479.002	1492.31
479.22	1509.31
479.439	1498.31
479.658	1469.31
479.876	1427.31
480.095	1487.31
480.313	1514.31
480.532	1536.31
480.751	1539.31
480.969	1462.31
481.188	1481.31
481.406	1426.31
481.624	1391.31
481.843	1396.31
482.061	1388.31
482.28	1378.31
482.498	1358.31
482.717	1379.31
482.935	1357.31
483.153	1381.31
483.372	1374.31
483.59	1404.31
483.808	1400.31
484.027	1391.31
484.245	1358.31
484.463	1420.31
484.681	1428.31
484.9	1397.31
485.118	1408.31
485.336	1409.31
485.554	1420.31
485.772	1418.31
485.99	1402.31
486.209	1423.31
486.427	1392.31
486.645	1414.31
486.863	1418.31
487.081	1425.31
487.299	1422.31
487.517	1440.31
487.735	1446.31
487.953	1477.31
488.171	1454.31
488.389	1416.31
488.607	1413.31
488.825	1401.31
489.043	1406.31
489.261	1408.31
489.479	1403.31
489.696	1422.31
489.914	1427.31
490.132	1428.31
490.35	1467.31
490.568	1434.31
490.786	1413.31
491.003	1487.31
491.221	1464.31
491.439	1448.31
491.657	1491.31
491.874	1489.31
492.092	1522.31
492.31	1484.31
492.527	1544.31
492.745	1476.31
492.963	1516.31
493.18	1492.31
493.398	1503.31
493.615	1515.31
493.833	1549.31
494.05	1536.31
