Data from Ni(NO3)2Standard.Agarose3%.GreenCap.LampEnergy5.5.E.O_HRD10591_14-43-03-188.txt Node
Date: Mon Jul 22 14:43:03 EDT 2019
User: cochatt
Spectrometer: HR+D1059
Trigger mode: 1
Integration Time (sec): 1.000000E-1
Scans to average: 1
Electric dark correction enabled: true
Nonlinearity correction enabled: false
Boxcar width: 0
XAxis mode: Wavelengths
Number of Pixels in Spectrum: 2048
>>>>>Begin Spectral Data<<<<<
223.165	-8.5
223.4	-8.5
223.635	-8.5
223.869	-31.5
224.104	-17.5
224.338	-17.5
224.573	-15.5
224.808	-25.5
225.042	-9.5
225.277	0.5
225.511	1.5
225.746	11.5
225.98	6.5
226.215	8.5
226.449	17.5
226.683	10.5
226.918	29.5
227.152	39.5
227.387	35.5
227.621	35.5
227.856	39.5
228.09	46.5
228.324	47.5
228.559	54.5
228.793	66.5
229.027	78.5
229.262	78.5
229.496	70.5
229.73	62.5
229.964	76.5
230.199	74.5
230.433	60.5
230.667	78.5
230.901	76.5
231.136	76.5
231.37	80.5
231.604	77.5
231.838	75.5
232.072	65.5
232.306	74.5
232.541	93.5
232.775	75.5
233.009	79.5
233.243	66.5
233.477	68.5
233.711	73.5
233.945	87.5
234.179	76.5
234.413	71.5
234.647	78.5
234.881	86.5
235.115	85.5
235.349	94.5
235.583	81.5
235.817	87.5
236.051	77.5
236.285	84.5
236.519	72.5
236.753	100.5
236.987	86.5
237.221	93.5
237.455	82.5
237.689	70.5
237.922	63.5
238.156	82.5
238.39	74.5
238.624	85.5
238.858	71.5
239.091	58.5
239.325	75.5
239.559	84.5
239.793	70.5
240.027	85.5
240.26	86.5
240.494	82.5
240.728	84.5
240.961	85.5
241.195	85.5
241.429	86.5
241.662	87.5
241.896	87.5
242.13	62.5
242.363	76.5
242.597	66.5
242.83	82.5
243.064	69.5
243.298	80.5
243.531	77.5
243.765	71.5
243.998	85.5
244.232	85.5
244.465	72.5
244.699	79.5
244.932	87.5
245.166	69.5
245.399	79.5
245.633	89.5
245.866	77.5
246.099	75.5
246.333	78.5
246.566	78.5
246.8	76.5
247.033	84.5
247.266	93.5
247.5	84.5
247.733	67.5
247.966	70.5
248.2	95.5
248.433	74.5
248.666	79.5
248.899	84.5
249.133	75.5
249.366	86.5
249.599	77.5
249.832	81.5
250.066	84.5
250.299	67.5
250.532	85.5
250.765	83.5
250.998	72.5
251.231	67.5
251.465	76.5
251.698	88.5
251.931	80.5
252.164	76.5
252.397	75.5
252.63	72.5
252.863	84.5
253.096	89.5
253.329	84.5
253.562	77.5
253.795	89.5
254.028	89.5
254.261	86.5
254.494	94.5
254.727	79.5
254.96	80.5
255.193	76.5
255.426	88.5
255.659	84.5
255.892	77.5
256.124	91.5
256.357	85.5
256.59	89.5
256.823	79.5
257.056	87.5
257.289	86.5
257.521	95.5
257.754	99.5
257.987	79.5
258.22	80.5
258.452	75.5
258.685	88.5
258.918	88.5
259.151	93.5
259.383	85.5
259.616	83.5
259.849	92.5
260.081	92.5
260.314	77.5
260.547	76.5
260.779	92.5
261.012	86.5
261.244	98.5
261.477	88.5
261.71	73.5
261.942	74.5
262.175	80.5
262.407	91.5
262.64	70.5
262.872	83.5
263.105	87.5
263.337	82.5
263.57	78.5
263.802	69.5
264.035	68.5
264.267	96.5
264.499	82.5
264.732	74.5
264.964	74.5
265.197	69.5
265.429	75.5
265.661	94.5
265.894	87.5
266.126	89.5
266.358	92.5
266.591	91.5
266.823	79.5
267.055	85.5
267.287	79.5
267.52	80.5
267.752	85.5
267.984	79.5
268.216	84.5
268.448	87.5
268.681	89.5
268.913	92.5
269.145	95.5
269.377	94.5
269.609	57.5
269.841	79.5
270.073	82.5
270.306	91.5
270.538	94.5
270.77	83.5
271.002	71.5
271.234	96.5
271.466	84.5
271.698	84.5
271.93	86.5
272.162	90.5
272.394	102.5
272.626	79.5
272.858	74.5
273.09	77.5
273.322	70.5
273.553	77.5
273.785	89.5
274.017	86.5
274.249	88.5
274.481	91.5
274.713	69.5
274.945	84.5
275.176	71.5
275.408	88.5
275.64	78.5
275.872	78.5
276.104	102.5
276.335	93.5
276.567	76.5
276.799	77.5
277.031	80.5
277.262	72.5
277.494	92.5
277.726	84.5
277.957	89.5
278.189	91.5
278.421	76.5
278.652	89.5
278.884	86.5
279.115	77.5
279.347	82.5
279.579	79.5
279.81	86.5
280.042	81.5
280.273	80.5
280.505	99.5
280.736	89.5
280.968	82.5
281.199	95.5
281.431	82.5
281.662	86.5
281.894	78.5
282.125	91.5
282.356	80.5
282.588	84.5
282.819	87.5
283.051	88.5
283.282	78.5
283.513	92.5
283.745	96.5
283.976	88.5
284.207	85.5
284.439	79.5
284.67	86.5
284.901	77.5
285.132	92.5
285.364	84.5
285.595	75.5
285.826	78.5
286.057	101.5
286.288	86.5
286.52	84.5
286.751	91.5
286.982	84.5
287.213	81.5
287.444	92.5
287.675	75.5
287.906	91.5
288.138	77.5
288.369	85.5
288.6	98.5
288.831	104.5
289.062	90.5
289.293	84.5
289.524	86.5
289.755	90.5
289.986	93.5
290.217	98.5
290.448	100.5
290.679	93.5
290.91	87.5
291.141	72.5
291.371	104.5
291.602	93.5
291.833	97.5
292.064	88.5
292.295	81.5
292.526	97.5
292.757	99.5
292.987	91.5
293.218	93.5
293.449	97.5
293.68	91.5
293.91	89.5
294.141	98.5
294.372	89.5
294.603	91.5
294.833	83.5
295.064	90.5
295.295	82.5
295.525	78.5
295.756	106.5
295.987	94.5
296.217	84.5
296.448	83.5
296.679	93.5
296.909	88.5
297.14	84.5
297.37	80.5
297.601	87.5
297.831	90.5
298.062	78.5
298.292	80.5
298.523	84.5
298.753	88.5
298.984	83.5
299.214	92.5
299.445	98.5
299.675	84.5
299.905	91.5
300.136	103.5
300.366	88.5
300.597	92.5
300.827	80.5
301.057	84.5
301.288	84.5
301.518	90.5
301.748	88.5
301.979	89.5
302.209	85.5
302.439	84.5
302.669	91.5
302.9	91.5
303.13	86.5
303.36	94.5
303.59	86.5
303.82	92.5
304.051	82.5
304.281	102.5
304.511	91.5
304.741	88.5
304.971	87.5
305.201	75.5
305.431	87.5
305.661	75.5
305.891	93.5
306.121	92.5
306.352	89.5
306.582	90.5
306.812	95.5
307.042	83.5
307.272	89.5
307.502	86.5
307.731	91.5
307.961	76.5
308.191	79.5
308.421	80.5
308.651	97.5
308.881	84.5
309.111	96.5
309.341	86.5
309.571	101.5
309.8	86.5
310.03	88.5
310.26	79.5
310.49	92.5
310.72	89.5
310.949	87.5
311.179	96.5
311.409	83.5
311.639	81.5
311.868	91.5
312.098	82.5
312.328	91.5
312.557	78.5
312.787	80.5
313.017	98.5
313.246	83.5
313.476	80.5
313.706	76.5
313.935	99.5
314.165	80.5
314.394	85.5
314.624	93.5
314.853	95.5
315.083	86.5
315.312	96.5
315.542	82.5
315.771	91.5
316.001	90.5
316.23	81.5
316.46	87.5
316.689	85.5
316.919	77.5
317.148	76.5
317.377	93.5
317.607	88.5
317.836	81.5
318.065	81.5
318.295	88.5
318.524	90.5
318.753	89.5
318.983	75.5
319.212	99.5
319.441	83.5
319.67	70.5
319.9	80.5
320.129	78.5
320.358	78.5
320.587	100.5
320.816	84.5
321.046	84.5
321.275	75.5
321.504	88.5
321.733	87.5
321.962	86.5
322.191	90.5
322.42	83.5
322.649	86.5
322.878	96.5
323.108	87.5
323.337	78.5
323.566	78.5
323.795	87.5
324.024	91.5
324.253	99.5
324.482	95.5
324.71	102.5
324.939	75.5
325.168	86.5
325.397	95.5
325.626	84.5
325.855	80.5
326.084	92.5
326.313	96.5
326.542	82.5
326.77	88.5
326.999	92.5
327.228	83.5
327.457	78.5
327.686	86.5
327.914	81.5
328.143	96.5
328.372	90.5
328.6	85.5
328.829	90.5
329.058	87.5
329.287	80.5
329.515	92.5
329.744	96.5
329.972	80.5
330.201	74.5
330.43	76.5
330.658	84.5
330.887	83.5
331.115	80.5
331.344	91.5
331.572	95.5
331.801	88.5
332.03	92.5
332.258	94.5
332.486	83.5
332.715	92.5
332.943	78.5
333.172	100.5
333.4	90.5
333.629	92.5
333.857	95.5
334.085	96.5
334.314	91.5
334.542	82.5
334.771	81.5
334.999	95.5
335.227	102.5
335.455	92.5
335.684	94.5
335.912	94.5
336.14	74.5
336.369	67.5
336.597	92.5
336.825	86.5
337.053	90.5
337.281	103.5
337.51	99.5
337.738	95.5
337.966	87.5
338.194	91.5
338.422	78.5
338.65	89.5
338.878	94.5
339.106	95.5
339.334	96.5
339.562	92.5
339.79	91.5
340.018	99.5
340.246	95.5
340.474	80.5
340.702	87.5
340.93	94.5
341.158	86.5
341.386	93.5
341.614	92.5
341.842	88.5
342.07	90.5
342.298	89.5
342.526	69.5
342.754	80.5
342.981	88.5
343.209	91.5
343.437	84.5
343.665	91.5
343.893	84.5
344.12	93.5
344.348	90.5
344.576	82.5
344.804	93.5
345.031	90.5
345.259	89.5
345.487	83.5
345.714	94.5
345.942	82.5
346.17	83.5
346.397	91.5
346.625	68.5
346.853	77.5
347.08	95.5
347.308	90.5
347.535	89.5
347.763	86.5
347.99	88.5
348.218	81.5
348.445	93.5
348.673	84.5
348.9	76.5
349.128	96.5
349.355	78.5
349.583	71.5
349.81	91.5
350.037	90.5
350.265	86.5
350.492	95.5
350.72	88.5
350.947	83.5
351.174	88.5
351.402	88.5
351.629	96.5
351.856	95.5
352.083	101.5
352.311	91.5
352.538	96.5
352.765	93.5
352.992	72.5
353.22	90.5
353.447	75.5
353.674	80.5
353.901	104.5
354.128	89.5
354.355	85.5
354.583	97.5
354.81	91.5
355.037	84.5
355.264	98.5
355.491	94.5
355.718	94.5
355.945	84.5
356.172	88.5
356.399	84.5
356.626	89.5
356.853	92.5
357.08	88.5
357.307	96.5
357.534	92.5
357.761	76.5
357.988	92.5
358.215	76.5
358.441	82.5
358.668	79.5
358.895	89.5
359.122	80.5
359.349	84.5
359.576	79.5
359.802	74.5
360.029	97.5
360.256	86.5
360.483	89.5
360.709	87.5
360.936	80.5
361.163	89.5
361.39	82.5
361.616	82.5
361.843	85.5
362.07	82.5
362.296	85.5
362.523	84.5
362.749	92.5
362.976	76.5
363.203	92.5
363.429	75.5
363.656	82.5
363.882	90.5
364.109	108.5
364.335	84.5
364.562	93.5
364.788	79.5
365.015	85.5
365.241	96.5
365.468	94.5
365.694	75.5
365.92	75.5
366.147	85.5
366.373	95.5
366.599	85.5
366.826	91.5
367.052	89.5
367.278	77.5
367.505	93.5
367.731	94.5
367.957	94.5
368.184	92.5
368.41	88.5
368.636	84.5
368.862	81.5
369.089	79.5
369.315	99.5
369.541	86.5
369.767	90.5
369.993	84.5
370.219	85.5
370.445	84.5
370.672	89.5
370.898	84.5
371.124	72.5
371.35	77.5
371.576	83.5
371.802	85.5
372.028	90.5
372.254	96.5
372.48	86.5
372.706	96.5
372.932	95.5
373.158	91.5
373.384	89.5
373.61	89.5
373.835	98.5
374.061	79.5
374.287	82.5
374.513	88.5
374.739	75.5
374.965	91.5
375.191	84.5
375.416	78.5
375.642	86.5
375.868	103.5
376.094	86.5
376.319	91.5
376.545	79.5
376.771	82.5
376.997	77.5
377.222	86.5
377.448	82.5
377.674	94.5
377.899	85.5
378.125	86.5
378.35	78.5
378.576	83.5
378.802	86.5
379.027	91.5
379.253	89.5
379.478	88.5
379.704	90.5
379.929	92.5
380.155	86.5
380.38	92.5
380.606	82.5
380.831	80.5
381.057	82.5
381.282	92.5
381.507	91.5
381.733	99.5
381.958	83.5
382.184	81.5
382.409	84.5
382.634	80.5
382.86	94.5
383.085	90.5
383.31	104.5
383.535	95.5
383.761	82.5
383.986	81.5
384.211	108.5
384.436	79.5
384.662	87.5
384.887	94.5
385.112	88.5
385.337	87.5
385.562	91.5
385.787	86.5
386.013	91.5
386.238	86.5
386.463	89.5
386.688	96.5
386.913	82.5
387.138	103.5
387.363	91.5
387.588	88.5
387.813	80.5
388.038	84.5
388.263	85.5
388.488	73.5
388.713	96.5
388.938	80.5
389.163	91.5
389.387	77.5
389.612	79.5
389.837	91.5
390.062	104.5
390.287	76.5
390.512	83.5
390.736	70.5
390.961	71.5
391.186	92.5
391.411	85.5
391.636	77.5
391.86	87.5
392.085	79.5
392.31	80.5
392.534	87.5
392.759	76.5
392.984	79.5
393.208	89.5
393.433	99.5
393.658	88.5
393.882	79.5
394.107	84.5
394.331	82.5
394.556	79.5
394.78	92.5
395.005	87.5
395.229	94.5
395.454	96.5
395.678	97.5
395.903	100.5
396.127	93.5
396.352	90.5
396.576	74.5
396.801	89.5
397.025	66.5
397.249	81.5
397.474	89.5
397.698	81.5
397.922	99.5
398.147	77.5
398.371	95.5
398.595	84.5
398.82	75.5
399.044	79.5
399.268	78.5
399.492	95.5
399.717	101.5
399.941	80.5
400.165	81.5
400.389	94.5
400.613	75.5
400.837	80.5
401.062	87.5
401.286	81.5
401.51	86.5
401.734	91.5
401.958	92.5
402.182	71.5
402.406	100.5
402.63	70.5
402.854	74.5
403.078	87.5
403.302	78.5
403.526	80.5
403.75	84.5
403.974	86.5
404.198	80.5
404.422	77.5
404.645	87.5
404.869	92.5
405.093	90.5
405.317	71.5
405.541	96.5
405.765	94.5
405.988	94.5
406.212	75.5
406.436	81.5
406.66	91.5
406.883	85.5
407.107	98.5
407.331	81.5
407.555	89.5
407.778	80.5
408.002	91.5
408.226	90.5
408.449	79.5
408.673	91.5
408.896	82.5
409.12	91.5
409.344	86.5
409.567	93.5
409.791	93.5
410.014	95.5
410.238	84.5
410.461	72.5
410.685	92.5
410.908	95.5
411.132	98.5
411.355	89.5
411.578	91.5
411.802	86.5
412.025	70.5
412.249	100.5
412.472	90.5
412.695	84.5
412.919	91.5
413.142	89.5
413.365	89.5
413.589	97.5
413.812	83.5
414.035	91.5
414.258	89.5
414.482	100.5
414.705	93.5
414.928	98.5
415.151	85.5
415.374	90.5
415.597	88.5
415.821	76.5
416.044	83.5
416.267	89.5
416.49	105.5
416.713	79.5
416.936	107.5
417.159	73.5
417.382	90.5
417.605	95.5
417.828	96.5
418.051	82.5
418.274	91.5
418.497	86.5
418.72	72.5
418.943	75.5
419.166	81.5
419.389	88.5
419.611	82.5
419.834	92.5
420.057	95.5
420.28	87.5
420.503	92.5
420.726	84.5
420.948	94.5
421.171	79.5
421.394	88.5
421.617	92.5
421.839	85.5
422.062	78.5
422.285	76.5
422.507	88.5
422.73	75.5
422.953	79.5
423.175	78.5
423.398	80.5
423.621	87.5
423.843	85.5
424.066	74.5
424.288	111.5
424.511	89.5
424.733	84.5
424.956	74.5
425.178	74.5
425.401	94.5
425.623	90.5
425.846	86.5
426.068	103.5
426.291	81.5
426.513	77.5
426.735	89.5
426.958	81.5
427.18	84.5
427.402	97.5
427.625	75.5
427.847	65.5
428.069	79.5
428.292	76.5
428.514	67.5
428.736	79.5
428.958	85.5
429.181	84.5
429.403	87.5
429.625	81.5
429.847	84.5
430.069	88.5
430.292	89.5
430.514	79.5
430.736	79.5
430.958	83.5
431.18	93.5
431.402	86.5
431.624	92.5
431.846	92.5
432.068	83.5
432.29	87.5
432.512	95.5
432.734	82.5
432.956	88.5
433.178	81.5
433.4	83.5
433.622	85.5
433.844	91.5
434.066	93.5
434.287	77.5
434.509	85.5
434.731	76.5
434.953	93.5
435.175	101.5
435.397	107.5
435.618	101.5
435.84	82.5
436.062	84.5
436.284	94.5
436.505	83.5
436.727	84.5
436.949	91.5
437.17	90.5
437.392	83.5
437.614	85.5
437.835	82.5
438.057	92.5
438.278	77.5
438.5	85.5
438.721	82.5
438.943	88.5
439.165	101.5
439.386	98.5
439.608	90.5
439.829	83.5
440.05	83.5
440.272	69.5
440.493	86.5
440.715	89.5
440.936	90.5
441.158	91.5
441.379	91.5
441.6	73.5
441.822	85.5
442.043	96.5
442.264	93.5
442.486	79.5
442.707	86.5
442.928	77.5
443.149	108.5
443.371	80.5
443.592	95.5
443.813	99.5
444.034	89.5
444.255	90.5
444.476	90.5
444.698	93.5
444.919	78.5
445.14	206.5
445.361	132.5
445.582	90.5
445.803	93.5
446.024	86.5
446.245	98.5
446.466	77.5
446.687	88.5
446.908	93.5
447.129	91.5
447.35	76.5
447.571	99.5
447.792	83.5
448.013	83.5
448.234	67.5
448.455	69.5
448.675	66.5
448.896	97.5
449.117	93.5
449.338	113.5
449.559	77.5
449.779	78.5
450	93.5
450.221	79.5
450.442	86.5
450.662	74.5
450.883	71.5
451.104	87.5
451.324	106.5
451.545	92.5
451.766	89.5
451.986	91.5
452.207	79.5
452.428	95.5
452.648	95.5
452.869	79.5
453.089	87.5
453.31	76.5
453.53	84.5
453.751	90.5
453.971	91.5
454.192	80.5
454.412	95.5
454.633	88.5
454.853	90.5
455.073	93.5
455.294	84.5
455.514	83.5
455.734	86.5
455.955	79.5
456.175	63.5
456.395	90.5
456.616	87.5
456.836	77.5
457.056	84.5
457.276	93.5
457.497	88.5
457.717	77.5
457.937	89.5
458.157	84.5
458.377	93.5
458.598	88.5
458.818	76.5
459.038	80.5
459.258	86.5
459.478	91.5
459.698	84.5
459.918	91.5
460.138	77.5
460.358	70.5
460.578	94.5
460.798	87.5
461.018	84.5
461.238	88.5
461.458	86.5
461.678	92.5
461.898	85.5
462.118	87.5
462.338	91.5
462.558	94.5
462.777	86.5
462.997	82.5
463.217	93.5
463.437	96.5
463.657	104.5
463.876	79.5
464.096	82.5
464.316	87.5
464.536	94.5
464.755	101.5
464.975	76.5
465.195	86.5
465.414	83.5
465.634	87.5
465.854	99.5
466.073	83.5
466.293	86.5
466.512	83.5
466.732	110.5
466.951	93.5
467.171	83.5
467.391	93.5
467.61	73.5
467.829	86.5
468.049	82.5
468.268	78.5
468.488	72.5
468.707	86.5
468.927	70.5
469.146	77.5
469.365	90.5
469.585	103.5
469.804	94.5
470.023	91.5
470.243	83.5
470.462	89.5
470.681	94.5
470.901	80.5
471.12	104.5
471.339	94.5
471.558	97.5
471.777	92.5
471.997	77.5
472.216	79.5
472.435	88.5
472.654	78.5
472.873	83.5
473.092	84.5
473.311	90.5
473.53	92.5
473.749	83.5
473.968	95.5
474.187	100.5
474.406	88.5
474.625	89.5
474.844	95.5
475.063	87.5
475.282	73.5
475.501	73.5
475.72	78.5
475.939	78.5
476.158	73.5
476.377	81.5
476.596	86.5
476.814	86.5
477.033	96.5
477.252	98.5
477.471	93.5
477.69	93.5
477.908	102.5
478.127	99.5
478.346	86.5
478.564	92.5
478.783	78.5
479.002	89.5
479.22	88.5
479.439	92.5
479.658	96.5
479.876	87.5
480.095	88.5
480.313	99.5
480.532	110.5
480.751	100.5
480.969	93.5
481.188	76.5
481.406	86.5
481.624	99.5
481.843	94.5
482.061	90.5
482.28	73.5
482.498	94.5
482.717	86.5
482.935	101.5
483.153	93.5
483.372	92.5
483.59	92.5
483.808	96.5
484.027	101.5
484.245	96.5
484.463	86.5
484.681	108.5
484.9	100.5
485.118	100.5
485.336	87.5
485.554	98.5
485.772	93.5
485.99	89.5
486.209	93.5
486.427	105.5
486.645	90.5
486.863	79.5
487.081	95.5
487.299	104.5
487.517	92.5
487.735	99.5
487.953	97.5
488.171	101.5
488.389	102.5
488.607	93.5
488.825	98.5
489.043	100.5
489.261	92.5
489.479	87.5
489.696	93.5
489.914	94.5
490.132	105.5
490.35	84.5
490.568	92.5
490.786	85.5
491.003	89.5
491.221	97.5
491.439	89.5
491.657	91.5
491.874	90.5
492.092	90.5
492.31	98.5
492.527	99.5
492.745	86.5
492.963	96.5
493.18	95.5
493.398	83.5
493.615	102.5
493.833	93.5
494.05	107.5
494.268	100.5
494.485	91.5
494.703	104.5
494.92	108.5
495.138	98.5
495.355	84.5
495.573	86.5
495.79	102.5
496.008	107.5
496.225	98.5
496.442	104.5
496.66	93.5
496.877	108.5
497.094	84.5
497.312	90.5
497.529	111.5
497.746	107.5
497.963	108.5
498.181	91.5
498.398	95.5
498.615	99.5
498.832	107.5
499.049	86.5
499.267	92.5
499.484	101.5
499.701	122.5
499.918	120.5
500.135	110.5
500.352	114.5
500.569	126.5
500.786	120.5
501.003	117.5
501.22	106.5
501.437	99.5
501.654	102.5
501.871	106.5
502.088	114.5
502.305	103.5
502.522	100.5
502.739	98.5
502.956	101.5
503.172	90.5
503.389	99.5
503.606	92.5
503.823	75.5
504.04	100.5
504.256	93.5
504.473	91.5
504.69	83.5
504.907	102.5
505.123	87.5
505.34	99.5
505.557	85.5
505.773	103.5
505.99	84.5
506.207	92.5
506.423	80.5
506.64	88.5
506.856	88.5
507.073	94.5
507.289	92.5
507.506	106.5
507.722	88.5
507.939	109.5
508.155	105.5
508.372	90.5
508.588	81.5
508.805	86.5
509.021	93.5
509.238	76.5
509.454	92.5
509.67	87.5
509.887	112.5
510.103	94.5
510.319	101.5
510.536	102.5
510.752	85.5
510.968	101.5
511.184	92.5
511.401	90.5
511.617	96.5
511.833	93.5
512.049	90.5
512.265	89.5
512.481	90.5
512.698	93.5
512.914	77.5
513.13	94.5
513.346	87.5
513.562	84.5
513.778	90.5
513.994	85.5
514.21	86.5
514.426	101.5
514.642	92.5
514.858	100.5
515.074	89.5
515.29	94.5
515.506	83.5
515.721	99.5
515.937	103.5
516.153	101.5
516.369	81.5
516.585	95.5
516.801	86.5
517.016	106.5
517.232	88.5
517.448	107.5
517.664	99.5
517.879	98.5
518.095	88.5
518.311	100.5
518.527	96.5
518.742	99.5
518.958	98.5
519.173	89.5
519.389	95.5
519.605	100.5
519.82	86.5
520.036	97.5
520.251	101.5
520.467	103.5
520.682	88.5
520.898	98.5
521.113	83.5
521.329	91.5
521.544	88.5
521.76	90.5
521.975	80.5
522.19	93.5
522.406	86.5
522.621	82.5
522.836	100.5
523.052	100.5
523.267	87.5
523.482	91.5
523.698	80.5
523.913	108.5
524.128	101.5
524.343	86.5
524.559	80.5
524.774	103.5
524.989	97.5
525.204	98.5
525.419	97.5
525.634	79.5
525.849	96.5
526.064	96.5
526.28	87.5
526.495	88.5
526.71	100.5
526.925	113.5
527.14	86.5
527.355	92.5
527.57	93.5
527.785	79.5
527.999	81.5
528.214	97.5
528.429	88.5
528.644	95.5
528.859	85.5
529.074	95.5
529.289	91.5
529.503	93.5
529.718	92.5
529.933	94.5
530.148	91.5
530.363	104.5
530.577	96.5
530.792	94.5
531.007	89.5
531.221	93.5
531.436	81.5
531.651	87.5
531.865	90.5
532.08	80.5
532.295	100.5
532.509	85.5
532.724	86.5
532.938	88.5
533.153	92.5
533.367	95.5
533.582	95.5
533.796	83.5
534.011	86.5
534.225	103.5
534.44	98.5
534.654	96.5
534.868	86.5
535.083	82.5
535.297	83.5
535.511	89.5
535.726	77.5
535.94	88.5
536.154	92.5
536.369	104.5
536.583	82.5
536.797	82.5
537.011	100.5
537.225	93.5
537.44	80.5
537.654	96.5
537.868	98.5
538.082	87.5
