Data from Ni(NO3)2@0.25M.TitratingCurve.Agarose3%dH2O.NegLispCup.LampEnergy10.LIBS07252019_HRD10591_18-03-28-566.txt Node
Date: Thu Jul 25 18:03:28 EDT 2019
User: cochatt
Spectrometer: HR+D1059
Trigger mode: 1
Integration Time (sec): 1.000000E-1
Scans to average: 1
Electric dark correction enabled: true
Nonlinearity correction enabled: false
Boxcar width: 0
XAxis mode: Wavelengths
Number of Pixels in Spectrum: 2048
>>>>>Begin Spectral Data<<<<<
223.165	-5.75
223.4	-5.75
223.635	-5.75
223.869	-16.75
224.104	-18.75
224.338	-9.75
224.573	-11.75
224.808	-17.75
225.042	-9.75
225.277	-6.75
225.511	7.25
225.746	1.25
225.98	-1.75
226.215	9.25
226.449	19.25
226.683	14.25
226.918	16.25
227.152	31.25
227.387	30.25
227.621	24.25
227.856	43.25
228.09	44.25
228.324	44.25
228.559	60.25
228.793	59.25
229.027	89.25
229.262	85.25
229.496	105.25
229.73	98.25
229.964	122.25
230.199	123.25
230.433	131.25
230.667	123.25
230.901	131.25
231.136	114.25
231.37	135.25
231.604	136.25
231.838	139.25
232.072	150.25
232.306	133.25
232.541	141.25
232.775	111.25
233.009	107.25
233.243	136.25
233.477	132.25
233.711	131.25
233.945	116.25
234.179	148.25
234.413	136.25
234.647	131.25
234.881	131.25
235.115	130.25
235.349	128.25
235.583	116.25
235.817	126.25
236.051	114.25
236.285	121.25
236.519	118.25
236.753	124.25
236.987	130.25
237.221	153.25
237.455	128.25
237.689	129.25
237.922	146.25
238.156	142.25
238.39	136.25
238.624	136.25
238.858	142.25
239.091	140.25
239.325	132.25
239.559	128.25
239.793	154.25
240.027	149.25
240.26	144.25
240.494	131.25
240.728	121.25
240.961	145.25
241.195	148.25
241.429	133.25
241.662	148.25
241.896	143.25
242.13	150.25
242.363	154.25
242.597	151.25
242.83	154.25
243.064	150.25
243.298	144.25
243.531	144.25
243.765	160.25
243.998	166.25
244.232	161.25
244.465	161.25
244.699	159.25
244.932	150.25
245.166	168.25
245.399	182.25
245.633	185.25
245.866	162.25
246.099	172.25
246.333	169.25
246.566	177.25
246.8	183.25
247.033	178.25
247.266	179.25
247.5	201.25
247.733	173.25
247.966	183.25
248.2	203.25
248.433	185.25
248.666	192.25
248.899	182.25
249.133	199.25
249.366	215.25
249.599	201.25
249.832	213.25
250.066	217.25
250.299	238.25
250.532	251.25
250.765	234.25
250.998	232.25
251.231	252.25
251.465	282.25
251.698	258.25
251.931	246.25
252.164	250.25
252.397	256.25
252.63	283.25
252.863	270.25
253.096	278.25
253.329	273.25
253.562	290.25
253.795	308.25
254.028	333.25
254.261	298.25
254.494	316.25
254.727	299.25
254.96	337.25
255.193	311.25
255.426	349.25
255.659	339.25
255.892	350.25
256.124	334.25
256.357	344.25
256.59	361.25
256.823	370.25
257.056	382.25
257.289	391.25
257.521	376.25
257.754	375.25
257.987	374.25
258.22	383.25
258.452	372.25
258.685	386.25
258.918	403.25
259.151	382.25
259.383	409.25
259.616	385.25
259.849	398.25
260.081	418.25
260.314	419.25
260.547	424.25
260.779	428.25
261.012	409.25
261.244	420.25
261.477	428.25
261.71	426.25
261.942	429.25
262.175	448.25
262.407	446.25
262.64	428.25
262.872	437.25
263.105	447.25
263.337	428.25
263.57	451.25
263.802	440.25
264.035	425.25
264.267	429.25
264.499	443.25
264.732	465.25
264.964	456.25
265.197	437.25
265.429	466.25
265.661	452.25
265.894	447.25
266.126	462.25
266.358	480.25
266.591	481.25
266.823	478.25
267.055	488.25
267.287	466.25
267.52	470.25
267.752	468.25
267.984	478.25
268.216	463.25
268.448	476.25
268.681	487.25
268.913	493.25
269.145	495.25
269.377	492.25
269.609	492.25
269.841	493.25
270.073	501.25
270.306	502.25
270.538	483.25
270.77	501.25
271.002	512.25
271.234	488.25
271.466	498.25
271.698	491.25
271.93	504.25
272.162	510.25
272.394	504.25
272.626	513.25
272.858	492.25
273.09	518.25
273.322	498.25
273.553	530.25
273.785	511.25
274.017	503.25
274.249	510.25
274.481	518.25
274.713	508.25
274.945	506.25
275.176	520.25
275.408	506.25
275.64	509.25
275.872	513.25
276.104	523.25
276.335	503.25
276.567	550.25
276.799	512.25
277.031	500.25
277.262	533.25
277.494	514.25
277.726	543.25
277.957	523.25
278.189	524.25
278.421	533.25
278.652	524.25
278.884	515.25
279.115	521.25
279.347	505.25
279.579	494.25
279.81	540.25
280.042	540.25
280.273	533.25
280.505	514.25
280.736	529.25
280.968	538.25
281.199	522.25
281.431	524.25
281.662	539.25
281.894	526.25
282.125	524.25
282.356	530.25
282.588	508.25
282.819	537.25
283.051	536.25
283.282	538.25
283.513	527.25
283.745	543.25
283.976	534.25
284.207	540.25
284.439	536.25
284.67	519.25
284.901	532.25
285.132	514.25
285.364	544.25
285.595	527.25
285.826	520.25
286.057	554.25
286.288	538.25
286.52	546.25
286.751	533.25
286.982	534.25
287.213	523.25
287.444	546.25
287.675	526.25
287.906	552.25
288.138	532.25
288.369	547.25
288.6	528.25
288.831	528.25
289.062	545.25
289.293	536.25
289.524	529.25
289.755	522.25
289.986	531.25
290.217	534.25
290.448	524.25
290.679	527.25
290.91	538.25
291.141	519.25
291.371	532.25
291.602	549.25
291.833	539.25
292.064	534.25
292.295	516.25
292.526	527.25
292.757	532.25
292.987	523.25
293.218	520.25
293.449	531.25
293.68	507.25
293.91	526.25
294.141	514.25
294.372	525.25
294.603	508.25
294.833	518.25
295.064	538.25
295.295	534.25
295.525	512.25
295.756	543.25
295.987	524.25
296.217	547.25
296.448	544.25
296.679	543.25
296.909	544.25
297.14	521.25
297.37	560.25
297.601	542.25
297.831	544.25
298.062	554.25
298.292	536.25
298.523	554.25
298.753	558.25
298.984	560.25
299.214	578.25
299.445	571.25
299.675	567.25
299.905	562.25
300.136	583.25
300.366	570.25
300.597	589.25
300.827	580.25
301.057	587.25
301.288	567.25
301.518	556.25
301.748	562.25
301.979	599.25
302.209	606.25
302.439	583.25
302.669	598.25
302.9	572.25
303.13	599.25
303.36	594.25
303.59	602.25
303.82	602.25
304.051	602.25
304.281	591.25
304.511	594.25
304.741	610.25
304.971	598.25
305.201	618.25
305.431	616.25
305.661	612.25
305.891	620.25
306.121	611.25
306.352	603.25
306.582	619.25
306.812	610.25
307.042	631.25
307.272	594.25
307.502	606.25
307.731	617.25
307.961	615.25
308.191	619.25
308.421	644.25
308.651	639.25
308.881	594.25
309.111	626.25
309.341	638.25
309.571	643.25
309.8	646.25
310.03	664.25
310.26	678.25
310.49	684.25
310.72	664.25
310.949	675.25
311.179	675.25
311.409	688.25
311.639	688.25
311.868	698.25
312.098	684.25
312.328	694.25
312.557	709.25
312.787	693.25
313.017	718.25
313.246	712.25
313.476	736.25
313.706	767.25
313.935	729.25
314.165	754.25
314.394	750.25
314.624	728.25
314.853	743.25
315.083	774.25
315.312	756.25
315.542	802.25
315.771	783.25
316.001	751.25
316.23	780.25
316.46	780.25
316.689	821.25
316.919	821.25
317.148	851.25
317.377	814.25
317.607	834.25
317.836	838.25
318.065	851.25
318.295	845.25
318.524	861.25
318.753	862.25
318.983	859.25
319.212	847.25
319.441	874.25
319.67	890.25
319.9	887.25
320.129	912.25
320.358	894.25
320.587	887.25
320.816	926.25
321.046	952.25
321.275	931.25
321.504	972.25
321.733	951.25
321.962	928.25
322.191	979.25
322.42	976.25
322.649	989.25
322.878	983.25
323.108	966.25
323.337	978.25
323.566	997.25
323.795	1026.25
324.024	1038.25
324.253	1034.25
324.482	1047.25
324.71	1083.25
324.939	1069.25
325.168	1087.25
325.397	1082.25
325.626	1091.25
325.855	1080.25
326.084	1095.25
326.313	1110.25
326.542	1137.25
326.77	1128.25
326.999	1130.25
327.228	1142.25
327.457	1138.25
327.686	1146.25
327.914	1167.25
328.143	1170.25
328.372	1182.25
328.6	1187.25
328.829	1202.25
329.058	1206.25
329.287	1180.25
329.515	1214.25
329.744	1190.25
329.972	1223.25
330.201	1224.25
330.43	1229.25
330.658	1262.25
330.887	1254.25
331.115	1275.25
331.344	1288.25
331.572	1260.25
331.801	1263.25
332.03	1276.25
332.258	1287.25
332.486	1318.25
332.715	1317.25
332.943	1313.25
333.172	1312.25
333.4	1366.25
333.629	1319.25
333.857	1383.25
334.085	1364.25
334.314	1392.25
334.542	1406.25
334.771	1424.25
334.999	1438.25
335.227	1441.25
335.455	1448.25
335.684	1451.25
335.912	1465.25
336.14	1440.25
336.369	1444.25
336.597	1508.25
336.825	1443.25
337.053	1442.25
337.281	1448.25
337.51	1414.25
337.738	1461.25
337.966	1418.25
338.194	1411.25
338.422	1458.25
338.65	1413.25
338.878	1403.25
339.106	1407.25
339.334	1436.25
339.562	1407.25
339.79	1380.25
340.018	1403.25
340.246	1408.25
340.474	1425.25
340.702	1386.25
340.93	1378.25
341.158	1388.25
341.386	1390.25
341.614	1411.25
341.842	1377.25
342.07	1372.25
342.298	1377.25
342.526	1395.25
342.754	1420.25
342.981	1406.25
343.209	1403.25
343.437	1424.25
343.665	1417.25
343.893	1447.25
344.12	1467.25
344.348	1453.25
344.576	1494.25
344.804	1466.25
345.031	1438.25
345.259	1424.25
345.487	1428.25
345.714	1428.25
345.942	1422.25
346.17	1420.25
346.397	1377.25
346.625	1380.25
346.853	1408.25
347.08	1371.25
347.308	1400.25
347.535	1378.25
347.763	1365.25
347.99	1376.25
348.218	1360.25
348.445	1357.25
348.673	1382.25
348.9	1365.25
349.128	1369.25
349.355	1346.25
349.583	1350.25
349.81	1359.25
350.037	1355.25
350.265	1370.25
350.492	1352.25
350.72	1373.25
350.947	1349.25
351.174	1386.25
351.402	1368.25
351.629	1368.25
351.856	1349.25
352.083	1330.25
352.311	1359.25
352.538	1355.25
352.765	1335.25
352.992	1294.25
353.22	1343.25
353.447	1327.25
353.674	1322.25
353.901	1339.25
354.128	1327.25
354.355	1325.25
354.583	1330.25
354.81	1320.25
355.037	1352.25
355.264	1323.25
355.491	1310.25
355.718	1317.25
355.945	1332.25
356.172	1330.25
356.399	1334.25
356.626	1352.25
356.853	1351.25
357.08	1314.25
357.307	1355.25
357.534	1323.25
357.761	1320.25
357.988	1350.25
358.215	1331.25
358.441	1335.25
358.668	1322.25
358.895	1304.25
359.122	1322.25
359.349	1312.25
359.576	1317.25
359.802	1294.25
360.029	1323.25
360.256	1294.25
360.483	1328.25
360.709	1338.25
360.936	1276.25
361.163	1312.25
361.39	1294.25
361.616	1319.25
361.843	1316.25
362.07	1346.25
362.296	1323.25
362.523	1318.25
362.749	1302.25
362.976	1302.25
363.203	1320.25
363.429	1312.25
363.656	1318.25
363.882	1278.25
364.109	1313.25
364.335	1312.25
364.562	1314.25
364.788	1310.25
365.015	1333.25
365.241	1310.25
365.468	1286.25
365.694	1346.25
365.92	1306.25
366.147	1271.25
366.373	1319.25
366.599	1323.25
366.826	1311.25
367.052	1298.25
367.278	1301.25
367.505	1286.25
367.731	1297.25
367.957	1286.25
368.184	1312.25
368.41	1321.25
368.636	1304.25
368.862	1292.25
369.089	1304.25
369.315	1341.25
369.541	1325.25
369.767	1306.25
369.993	1313.25
370.219	1334.25
370.445	1344.25
370.672	1335.25
370.898	1326.25
371.124	1342.25
371.35	1327.25
371.576	1311.25
371.802	1307.25
372.028	1280.25
372.254	1342.25
372.48	1373.25
372.706	1315.25
372.932	1318.25
373.158	1358.25
373.384	1343.25
373.61	1293.25
373.835	1315.25
374.061	1295.25
374.287	1307.25
374.513	1326.25
374.739	1300.25
374.965	1347.25
375.191	1302.25
375.416	1310.25
375.642	1334.25
375.868	1308.25
376.094	1284.25
376.319	1270.25
376.545	1288.25
376.771	1286.25
376.997	1259.25
377.222	1290.25
377.448	1250.25
377.674	1230.25
377.899	1241.25
378.125	1227.25
378.35	1262.25
378.576	1234.25
378.802	1235.25
379.027	1228.25
379.253	1238.25
379.478	1225.25
379.704	1232.25
379.929	1225.25
380.155	1222.25
380.38	1212.25
380.606	1243.25
380.831	1218.25
381.057	1240.25
381.282	1210.25
381.507	1190.25
381.733	1252.25
381.958	1229.25
382.184	1235.25
382.409	1249.25
382.634	1227.25
382.86	1236.25
383.085	1231.25
383.31	1271.25
383.535	1272.25
383.761	1257.25
383.986	1224.25
384.211	1309.25
384.436	1247.25
384.662	1256.25
384.887	1275.25
385.112	1261.25
385.337	1280.25
385.562	1306.25
385.787	1278.25
386.013	1323.25
386.238	1304.25
386.463	1297.25
386.688	1322.25
386.913	1303.25
387.138	1288.25
387.363	1312.25
387.588	1283.25
387.813	1302.25
388.038	1348.25
388.263	1331.25
388.488	1334.25
388.713	1319.25
388.938	1324.25
389.163	1338.25
389.387	1338.25
389.612	1307.25
389.837	1292.25
390.062	1346.25
390.287	1314.25
390.512	1338.25
390.736	1367.25
390.961	1362.25
391.186	1335.25
391.411	1341.25
391.636	1357.25
391.86	1378.25
392.085	1345.25
392.31	1349.25
392.534	1384.25
392.759	1352.25
392.984	1385.25
393.208	1354.25
393.433	1339.25
393.658	1354.25
393.882	1366.25
394.107	1362.25
394.331	1324.25
394.556	1359.25
394.78	1359.25
395.005	1411.25
395.229	1368.25
395.454	1396.25
395.678	1370.25
395.903	1361.25
396.127	1431.25
396.352	1399.25
396.576	1407.25
396.801	1406.25
397.025	1407.25
397.249	1426.25
397.474	1424.25
397.698	1424.25
397.922	1444.25
398.147	1442.25
398.371	1450.25
398.595	1476.25
398.82	1540.25
399.044	1542.25
399.268	1575.25
399.492	1612.25
399.717	1618.25
399.941	1621.25
400.165	1658.25
400.389	1640.25
400.613	1614.25
400.837	1577.25
401.062	1580.25
401.286	1589.25
401.51	1548.25
401.734	1539.25
401.958	1545.25
402.182	1560.25
402.406	1567.25
402.63	1540.25
402.854	1570.25
403.078	1512.25
403.302	1538.25
403.526	1564.25
403.75	1538.25
403.974	1528.25
404.198	1515.25
404.422	1559.25
404.645	1542.25
404.869	1554.25
405.093	1567.25
405.317	1583.25
405.541	1587.25
405.765	1600.25
405.988	1575.25
406.212	1626.25
406.436	1626.25
406.66	1641.25
406.883	1636.25
407.107	1660.25
407.331	1650.25
407.555	1704.25
407.778	1688.25
408.002	1684.25
408.226	1704.25
408.449	1742.25
408.673	1733.25
408.896	1728.25
409.12	1690.25
409.344	1648.25
409.567	1652.25
409.791	1674.25
410.014	1682.25
410.238	1671.25
410.461	1673.25
410.685	1652.25
410.908	1651.25
411.132	1659.25
411.355	1634.25
411.578	1639.25
411.802	1650.25
412.025	1593.25
412.249	1641.25
412.472	1642.25
412.695	1629.25
412.919	1616.25
413.142	1652.25
413.365	1623.25
413.589	1648.25
413.812	1604.25
414.035	1641.25
414.258	1592.25
414.482	1590.25
414.705	1657.25
414.928	1620.25
415.151	1636.25
415.374	1647.25
415.597	1613.25
415.821	1590.25
416.044	1599.25
416.267	1585.25
416.49	1604.25
416.713	1597.25
416.936	1642.25
417.159	1625.25
417.382	1564.25
417.605	1619.25
417.828	1570.25
418.051	1611.25
418.274	1607.25
418.497	1578.25
418.72	1585.25
418.943	1590.25
419.166	1674.25
419.389	1776.25
419.611	1752.25
419.834	1686.25
420.057	1666.25
420.28	1599.25
420.503	1575.25
420.726	1599.25
420.948	1588.25
421.171	1620.25
421.394	1615.25
421.617	1572.25
421.839	1604.25
422.062	1625.25
422.285	1558.25
422.507	1647.25
422.73	1604.25
422.953	1620.25
423.175	1633.25
423.398	1613.25
423.621	1603.25
423.843	1624.25
424.066	1604.25
424.288	1626.25
424.511	1617.25
424.733	1632.25
424.956	1657.25
425.178	1627.25
425.401	1639.25
425.623	1687.25
425.846	1607.25
426.068	1629.25
426.291	1675.25
426.513	1627.25
426.735	1603.25
426.958	1663.25
427.18	1660.25
427.402	1615.25
427.625	1657.25
427.847	1620.25
428.069	1624.25
428.292	1639.25
428.514	1616.25
428.736	1668.25
428.958	1678.25
429.181	1662.25
429.403	1646.25
429.625	1657.25
429.847	1637.25
430.069	1622.25
430.292	1688.25
430.514	1624.25
430.736	1641.25
430.958	1674.25
431.18	1640.25
431.402	1684.25
431.624	1612.25
431.846	1651.25
432.068	1664.25
432.29	1654.25
432.512	1651.25
432.734	1714.25
432.956	1694.25
433.178	1703.25
433.4	1712.25
433.622	1724.25
433.844	1702.25
434.066	1710.25
434.287	1737.25
434.509	1671.25
434.731	1700.25
434.953	1686.25
435.175	1694.25
435.397	1746.25
435.618	1650.25
435.84	1697.25
436.062	1652.25
436.284	1648.25
436.505	1630.25
436.727	1689.25
436.949	1676.25
437.17	1689.25
437.392	1660.25
437.614	1673.25
437.835	1603.25
438.057	1654.25
438.278	1624.25
438.5	1628.25
438.721	1617.25
438.943	1654.25
439.165	1629.25
439.386	1661.25
439.608	1669.25
439.829	1667.25
440.05	1645.25
440.272	1674.25
440.493	1658.25
440.715	1664.25
440.936	1680.25
441.158	1665.25
441.379	1712.25
441.6	1728.25
441.822	1718.25
442.043	1707.25
442.264	1689.25
442.486	1689.25
442.707	1722.25
442.928	1731.25
443.149	1701.25
443.371	1686.25
443.592	1722.25
443.813	1740.25
444.034	1702.25
444.255	1750.25
444.476	1733.25
444.698	1734.25
444.919	1747.25
445.14	1803.25
445.361	1770.25
445.582	1756.25
445.803	1728.25
446.024	1700.25
446.245	1678.25
446.466	1683.25
446.687	1678.25
446.908	1682.25
447.129	1666.25
447.35	1627.25
447.571	1630.25
447.792	1592.25
448.013	1621.25
448.234	1582.25
448.455	1592.25
448.675	1590.25
448.896	1608.25
449.117	1551.25
449.338	1552.25
449.559	1559.25
449.779	1545.25
450	1582.25
450.221	1563.25
450.442	1575.25
450.662	1594.25
450.883	1575.25
451.104	1578.25
451.324	1544.25
451.545	1543.25
451.766	1536.25
451.986	1559.25
452.207	1522.25
452.428	1551.25
452.648	1525.25
452.869	1487.25
453.089	1492.25
453.31	1521.25
453.53	1509.25
453.751	1482.25
453.971	1507.25
454.192	1517.25
454.412	1503.25
454.633	1478.25
454.853	1512.25
455.073	1509.25
455.294	1507.25
455.514	1484.25
455.734	1523.25
455.955	1503.25
456.175	1507.25
456.395	1505.25
456.616	1485.25
456.836	1510.25
457.056	1487.25
457.276	1487.25
457.497	1539.25
457.717	1531.25
457.937	1546.25
458.157	1522.25
458.377	1522.25
458.598	1552.25
458.818	1551.25
459.038	1600.25
459.258	1581.25
459.478	1644.25
459.698	1653.25
459.918	1661.25
460.138	1654.25
460.358	1733.25
460.578	1737.25
460.798	1741.25
461.018	1728.25
461.238	1716.25
461.458	1725.25
461.678	1722.25
461.898	1782.25
462.118	1765.25
462.338	1807.25
462.558	1828.25
462.777	1887.25
462.997	1867.25
463.217	1866.25
463.437	1910.25
463.657	1866.25
463.876	1846.25
464.096	1848.25
464.316	1795.25
464.536	1798.25
464.755	1800.25
464.975	1817.25
465.195	1773.25
465.414	1755.25
465.634	1716.25
465.854	1711.25
466.073	1676.25
466.293	1643.25
466.512	1659.25
466.732	1647.25
466.951	1670.25
467.171	1677.25
467.391	1672.25
467.61	1635.25
467.829	1648.25
468.049	1622.25
468.268	1628.25
468.488	1603.25
468.707	1592.25
468.927	1609.25
469.146	1644.25
469.365	1614.25
469.585	1631.25
469.804	1620.25
470.023	1677.25
470.243	1629.25
470.462	1634.25
470.681	1646.25
470.901	1615.25
471.12	1644.25
471.339	1635.25
471.558	1646.25
471.777	1660.25
471.997	1650.25
472.216	1671.25
472.435	1671.25
472.654	1658.25
472.873	1647.25
473.092	1681.25
473.311	1708.25
473.53	1671.25
473.749	1699.25
473.968	1659.25
474.187	1664.25
474.406	1657.25
474.625	1692.25
474.844	1702.25
475.063	1708.25
475.282	1711.25
475.501	1736.25
475.72	1747.25
475.939	1735.25
476.158	1748.25
476.377	1786.25
476.596	1740.25
476.814	1754.25
477.033	1788.25
477.252	1790.25
477.471	1822.25
477.69	1855.25
477.908	1891.25
478.127	1862.25
478.346	1884.25
478.564	1910.25
478.783	1898.25
479.002	1932.25
479.22	1957.25
479.439	1932.25
479.658	1964.25
479.876	1944.25
480.095	1978.25
480.313	2019.25
480.532	1957.25
480.751	1985.25
480.969	2006.25
481.188	1946.25
481.406	1943.25
481.624	1994.25
481.843	1984.25
482.061	1976.25
482.28	1987.25
482.498	1996.25
482.717	2007.25
482.935	1983.25
483.153	1955.25
483.372	2014.25
483.59	2027.25
483.808	2049.25
484.027	2006.25
484.245	2028.25
484.463	2058.25
484.681	2021.25
484.9	2033.25
485.118	2035.25
485.336	2048.25
485.554	2051.25
485.772	2054.25
485.99	2079.25
486.209	2064.25
486.427	2034.25
486.645	2037.25
486.863	2073.25
487.081	2092.25
487.299	2054.25
487.517	2077.25
487.735	2148.25
487.953	2135.25
488.171	2120.25
488.389	2102.25
488.607	2041.25
488.825	2092.25
489.043	2101.25
489.261	2052.25
489.479	2084.25
489.696	2080.25
489.914	2113.25
490.132	2126.25
490.35	2079.25
490.568	2154.25
490.786	2125.25
491.003	2108.25
491.221	2122.25
491.439	2161.25
