Data from Ni(NO3)2@0.25M.TitratingCurve.Agarose3%dH2O.NegLispCup.LampEnergy10.LIBS07252019_HRD10591_18-05-27-566.txt Node
Date: Thu Jul 25 18:05:27 EDT 2019
User: cochatt
Spectrometer: HR+D1059
Trigger mode: 1
Integration Time (sec): 1.000000E-1
Scans to average: 1
Electric dark correction enabled: true
Nonlinearity correction enabled: false
Boxcar width: 0
XAxis mode: Wavelengths
Number of Pixels in Spectrum: 2048
>>>>>Begin Spectral Data<<<<<
223.165	-18.44
223.4	-18.44
223.635	-18.44
223.869	-9.44
224.104	-14.44
224.338	-27.44
224.573	-22.44
224.808	-14.44
225.042	-18.44
225.277	-4.44
225.511	-0.44
225.746	12.56
225.98	15.56
226.215	18.56
226.449	4.56
226.683	24.56
226.918	26.56
227.152	27.56
227.387	35.56
227.621	53.56
227.856	53.56
228.09	38.56
228.324	57.56
228.559	51.56
228.793	74.56
229.027	97.56
229.262	115.56
229.496	109.56
229.73	98.56
229.964	119.56
230.199	115.56
230.433	125.56
230.667	129.56
230.901	118.56
231.136	123.56
231.37	141.56
231.604	119.56
231.838	139.56
232.072	125.56
232.306	109.56
232.541	139.56
232.775	138.56
233.009	135.56
233.243	149.56
233.477	149.56
233.711	126.56
233.945	140.56
234.179	123.56
234.413	135.56
234.647	137.56
234.881	150.56
235.115	157.56
235.349	135.56
235.583	137.56
235.817	140.56
236.051	127.56
236.285	150.56
236.519	138.56
236.753	147.56
236.987	135.56
237.221	147.56
237.455	149.56
237.689	147.56
237.922	151.56
238.156	133.56
238.39	140.56
238.624	151.56
238.858	151.56
239.091	144.56
239.325	149.56
239.559	145.56
239.793	153.56
240.027	158.56
240.26	158.56
240.494	172.56
240.728	162.56
240.961	149.56
241.195	166.56
241.429	174.56
241.662	167.56
241.896	171.56
242.13	181.56
242.363	161.56
242.597	175.56
242.83	181.56
243.064	168.56
243.298	175.56
243.531	163.56
243.765	183.56
243.998	191.56
244.232	199.56
244.465	196.56
244.699	191.56
244.932	188.56
245.166	193.56
245.399	188.56
245.633	184.56
245.866	194.56
246.099	203.56
246.333	174.56
246.566	190.56
246.8	205.56
247.033	194.56
247.266	208.56
247.5	213.56
247.733	205.56
247.966	227.56
248.2	199.56
248.433	213.56
248.666	198.56
248.899	210.56
249.133	221.56
249.366	225.56
249.599	225.56
249.832	229.56
250.066	230.56
250.299	220.56
250.532	222.56
250.765	237.56
250.998	239.56
251.231	233.56
251.465	232.56
251.698	237.56
251.931	238.56
252.164	238.56
252.397	236.56
252.63	246.56
252.863	271.56
253.096	274.56
253.329	270.56
253.562	251.56
253.795	257.56
254.028	255.56
254.261	255.56
254.494	267.56
254.727	267.56
254.96	258.56
255.193	271.56
255.426	261.56
255.659	247.56
255.892	275.56
256.124	266.56
256.357	260.56
256.59	291.56
256.823	286.56
257.056	271.56
257.289	267.56
257.521	288.56
257.754	278.56
257.987	288.56
258.22	312.56
258.452	290.56
258.685	285.56
258.918	315.56
259.151	286.56
259.383	302.56
259.616	284.56
259.849	291.56
260.081	293.56
260.314	336.56
260.547	293.56
260.779	291.56
261.012	312.56
261.244	311.56
261.477	322.56
261.71	309.56
261.942	331.56
262.175	318.56
262.407	315.56
262.64	323.56
262.872	326.56
263.105	323.56
263.337	321.56
263.57	328.56
263.802	340.56
264.035	326.56
264.267	349.56
264.499	318.56
264.732	320.56
264.964	340.56
265.197	324.56
265.429	325.56
265.661	346.56
265.894	358.56
266.126	354.56
266.358	357.56
266.591	351.56
266.823	344.56
267.055	328.56
267.287	364.56
267.52	370.56
267.752	351.56
267.984	374.56
268.216	366.56
268.448	357.56
268.681	349.56
268.913	354.56
269.145	339.56
269.377	349.56
269.609	373.56
269.841	365.56
270.073	362.56
270.306	372.56
270.538	356.56
270.77	357.56
271.002	382.56
271.234	356.56
271.466	371.56
271.698	371.56
271.93	360.56
272.162	377.56
272.394	369.56
272.626	372.56
272.858	378.56
273.09	378.56
273.322	376.56
273.553	386.56
273.785	375.56
274.017	401.56
274.249	406.56
274.481	395.56
274.713	408.56
274.945	407.56
275.176	398.56
275.408	395.56
275.64	396.56
275.872	398.56
276.104	388.56
276.335	424.56
276.567	406.56
276.799	412.56
277.031	398.56
277.262	398.56
277.494	410.56
277.726	413.56
277.957	398.56
278.189	429.56
278.421	411.56
278.652	424.56
278.884	430.56
279.115	417.56
279.347	427.56
279.579	412.56
279.81	422.56
280.042	419.56
280.273	409.56
280.505	428.56
280.736	444.56
280.968	424.56
281.199	414.56
281.431	428.56
281.662	411.56
281.894	442.56
282.125	435.56
282.356	439.56
282.588	424.56
282.819	433.56
283.051	451.56
283.282	459.56
283.513	431.56
283.745	447.56
283.976	437.56
284.207	445.56
284.439	442.56
284.67	452.56
284.901	471.56
285.132	437.56
285.364	433.56
285.595	449.56
285.826	441.56
286.057	455.56
286.288	450.56
286.52	469.56
286.751	462.56
286.982	478.56
287.213	473.56
287.444	475.56
287.675	458.56
287.906	473.56
288.138	478.56
288.369	475.56
288.6	450.56
288.831	473.56
289.062	470.56
289.293	486.56
289.524	473.56
289.755	461.56
289.986	470.56
290.217	467.56
290.448	461.56
290.679	457.56
290.91	495.56
291.141	464.56
291.371	481.56
291.602	469.56
291.833	485.56
292.064	452.56
292.295	489.56
292.526	501.56
292.757	479.56
292.987	469.56
293.218	480.56
293.449	486.56
293.68	491.56
293.91	476.56
294.141	469.56
294.372	474.56
294.603	475.56
294.833	466.56
295.064	490.56
295.295	472.56
295.525	474.56
295.756	493.56
295.987	469.56
296.217	503.56
296.448	499.56
296.679	477.56
296.909	479.56
297.14	495.56
297.37	507.56
297.601	507.56
297.831	513.56
298.062	490.56
298.292	512.56
298.523	527.56
298.753	510.56
298.984	499.56
299.214	526.56
299.445	502.56
299.675	513.56
299.905	518.56
300.136	533.56
300.366	531.56
300.597	530.56
300.827	533.56
301.057	523.56
301.288	528.56
301.518	509.56
301.748	543.56
301.979	548.56
302.209	539.56
302.439	510.56
302.669	536.56
302.9	553.56
303.13	533.56
303.36	527.56
303.59	540.56
303.82	545.56
304.051	541.56
304.281	553.56
304.511	554.56
304.741	533.56
304.971	551.56
305.201	551.56
305.431	539.56
305.661	549.56
305.891	558.56
306.121	565.56
306.352	527.56
306.582	512.56
306.812	543.56
307.042	541.56
307.272	546.56
307.502	515.56
307.731	545.56
307.961	539.56
308.191	545.56
308.421	528.56
308.651	508.56
308.881	531.56
309.111	549.56
309.341	559.56
309.571	563.56
309.8	539.56
310.03	561.56
310.26	553.56
310.49	569.56
310.72	560.56
310.949	532.56
311.179	571.56
311.409	565.56
311.639	554.56
311.868	563.56
312.098	559.56
312.328	576.56
312.557	584.56
312.787	585.56
313.017	567.56
313.246	591.56
313.476	580.56
313.706	593.56
313.935	576.56
314.165	589.56
314.394	609.56
314.624	605.56
314.853	623.56
315.083	603.56
315.312	574.56
315.542	610.56
315.771	599.56
316.001	579.56
316.23	612.56
316.46	610.56
316.689	591.56
316.919	596.56
317.148	605.56
317.377	588.56
317.607	570.56
317.836	605.56
318.065	591.56
318.295	613.56
318.524	606.56
318.753	610.56
318.983	595.56
319.212	607.56
319.441	615.56
319.67	611.56
319.9	592.56
320.129	617.56
320.358	628.56
320.587	604.56
320.816	632.56
321.046	619.56
321.275	660.56
321.504	597.56
321.733	608.56
321.962	610.56
322.191	615.56
322.42	630.56
322.649	645.56
322.878	637.56
323.108	651.56
323.337	618.56
323.566	658.56
323.795	647.56
324.024	634.56
324.253	638.56
324.482	656.56
324.71	633.56
324.939	651.56
325.168	670.56
325.397	653.56
325.626	667.56
325.855	656.56
326.084	671.56
326.313	684.56
326.542	683.56
326.77	701.56
326.999	681.56
327.228	670.56
327.457	699.56
327.686	667.56
327.914	678.56
328.143	692.56
328.372	706.56
328.6	678.56
328.829	682.56
329.058	686.56
329.287	684.56
329.515	707.56
329.744	717.56
329.972	708.56
330.201	716.56
330.43	728.56
330.658	721.56
330.887	735.56
331.115	726.56
331.344	751.56
331.572	743.56
331.801	768.56
332.03	782.56
332.258	778.56
332.486	810.56
332.715	800.56
332.943	811.56
333.172	859.56
333.4	869.56
333.629	902.56
333.857	909.56
334.085	888.56
334.314	907.56
334.542	884.56
334.771	916.56
334.999	909.56
335.227	890.56
335.455	900.56
335.684	878.56
335.912	870.56
336.14	867.56
336.369	878.56
336.597	898.56
336.825	877.56
337.053	888.56
337.281	831.56
337.51	849.56
337.738	842.56
337.966	825.56
338.194	809.56
338.422	823.56
338.65	773.56
338.878	817.56
339.106	813.56
339.334	814.56
339.562	797.56
339.79	769.56
340.018	766.56
340.246	767.56
340.474	770.56
340.702	766.56
340.93	762.56
341.158	775.56
341.386	770.56
341.614	789.56
341.842	757.56
342.07	738.56
342.298	753.56
342.526	741.56
342.754	785.56
342.981	762.56
343.209	787.56
343.437	798.56
343.665	841.56
343.893	860.56
344.12	886.56
344.348	857.56
344.576	855.56
344.804	842.56
345.031	818.56
345.259	810.56
345.487	773.56
345.714	762.56
345.942	782.56
346.17	790.56
346.397	794.56
346.625	762.56
346.853	730.56
347.08	736.56
347.308	729.56
347.535	732.56
347.763	758.56
347.99	772.56
348.218	765.56
348.445	762.56
348.673	730.56
348.9	725.56
349.128	737.56
349.355	724.56
349.583	742.56
349.81	716.56
350.037	730.56
350.265	708.56
350.492	713.56
350.72	723.56
350.947	731.56
351.174	718.56
351.402	727.56
351.629	731.56
351.856	728.56
352.083	712.56
352.311	706.56
352.538	737.56
352.765	756.56
352.992	689.56
353.22	685.56
353.447	681.56
353.674	703.56
353.901	718.56
354.128	702.56
354.355	678.56
354.583	713.56
354.81	702.56
355.037	715.56
355.264	727.56
355.491	707.56
355.718	723.56
355.945	706.56
356.172	703.56
356.399	742.56
356.626	735.56
356.853	732.56
357.08	683.56
357.307	729.56
357.534	727.56
357.761	727.56
357.988	712.56
358.215	710.56
358.441	694.56
358.668	694.56
358.895	726.56
359.122	721.56
359.349	705.56
359.576	706.56
359.802	716.56
360.029	711.56
360.256	725.56
360.483	710.56
360.709	712.56
360.936	721.56
361.163	691.56
361.39	719.56
361.616	696.56
361.843	715.56
362.07	728.56
362.296	743.56
362.523	723.56
362.749	694.56
362.976	720.56
363.203	700.56
363.429	701.56
363.656	719.56
363.882	727.56
364.109	691.56
364.335	686.56
364.562	712.56
364.788	695.56
365.015	711.56
365.241	694.56
365.468	697.56
365.694	692.56
365.92	708.56
366.147	700.56
366.373	697.56
366.599	703.56
366.826	713.56
367.052	694.56
367.278	687.56
367.505	705.56
367.731	714.56
367.957	707.56
368.184	702.56
368.41	717.56
368.636	740.56
368.862	729.56
369.089	714.56
369.315	729.56
369.541	722.56
369.767	740.56
369.993	715.56
370.219	745.56
370.445	732.56
370.672	732.56
370.898	749.56
371.124	750.56
371.35	783.56
371.576	723.56
371.802	764.56
372.028	755.56
372.254	745.56
372.48	742.56
372.706	787.56
372.932	765.56
373.158	777.56
373.384	753.56
373.61	765.56
373.835	734.56
374.061	759.56
374.287	755.56
374.513	758.56
374.739	803.56
374.965	799.56
375.191	787.56
375.416	782.56
375.642	815.56
375.868	819.56
376.094	750.56
376.319	776.56
376.545	761.56
376.771	782.56
376.997	786.56
377.222	761.56
377.448	764.56
377.674	753.56
377.899	730.56
378.125	733.56
378.35	728.56
378.576	731.56
378.802	739.56
379.027	749.56
379.253	748.56
379.478	735.56
379.704	741.56
379.929	740.56
380.155	729.56
380.38	740.56
380.606	738.56
380.831	746.56
381.057	757.56
381.282	716.56
381.507	742.56
381.733	730.56
381.958	741.56
382.184	764.56
382.409	783.56
382.634	771.56
382.86	761.56
383.085	769.56
383.31	764.56
383.535	804.56
383.761	807.56
383.986	835.56
384.211	820.56
384.436	817.56
384.662	831.56
384.887	845.56
385.112	827.56
385.337	836.56
385.562	859.56
385.787	862.56
386.013	884.56
386.238	843.56
386.463	871.56
386.688	886.56
386.913	841.56
387.138	870.56
387.363	875.56
387.588	883.56
387.813	879.56
388.038	853.56
388.263	859.56
388.488	860.56
388.713	859.56
388.938	847.56
389.163	859.56
389.387	890.56
389.612	838.56
389.837	832.56
390.062	869.56
390.287	866.56
390.512	862.56
390.736	864.56
390.961	890.56
391.186	898.56
391.411	908.56
391.636	941.56
391.86	959.56
392.085	961.56
392.31	948.56
392.534	930.56
392.759	912.56
392.984	903.56
393.208	947.56
393.433	925.56
393.658	906.56
393.882	937.56
394.107	905.56
394.331	941.56
394.556	903.56
394.78	906.56
395.005	934.56
395.229	929.56
395.454	929.56
395.678	940.56
395.903	984.56
396.127	967.56
396.352	975.56
396.576	955.56
396.801	961.56
397.025	956.56
397.249	976.56
397.474	995.56
397.698	969.56
397.922	989.56
398.147	1021.56
398.371	989.56
398.595	1019.56
398.82	1099.56
399.044	1094.56
399.268	1197.56
399.492	1326.56
399.717	1445.56
399.941	1419.56
400.165	1362.56
400.389	1307.56
400.613	1230.56
400.837	1142.56
401.062	1099.56
401.286	1127.56
401.51	1102.56
401.734	1103.56
401.958	1117.56
402.182	1092.56
402.406	1081.56
402.63	1120.56
402.854	1109.56
403.078	1118.56
403.302	1129.56
403.526	1164.56
403.75	1139.56
403.974	1163.56
404.198	1140.56
404.422	1166.56
404.645	1159.56
404.869	1166.56
405.093	1155.56
405.317	1133.56
405.541	1153.56
405.765	1166.56
405.988	1155.56
406.212	1214.56
406.436	1138.56
406.66	1195.56
406.883	1199.56
407.107	1276.56
407.331	1307.56
407.555	1331.56
407.778	1350.56
408.002	1326.56
408.226	1309.56
408.449	1271.56
408.673	1260.56
408.896	1225.56
409.12	1191.56
409.344	1273.56
409.567	1193.56
409.791	1230.56
410.014	1245.56
410.238	1220.56
410.461	1219.56
410.685	1177.56
410.908	1163.56
411.132	1203.56
411.355	1124.56
411.578	1124.56
411.802	1121.56
412.025	1134.56
412.249	1155.56
412.472	1145.56
412.695	1141.56
412.919	1134.56
413.142	1078.56
413.365	1112.56
413.589	1108.56
413.812	1099.56
414.035	1103.56
414.258	1126.56
414.482	1115.56
414.705	1110.56
414.928	1107.56
415.151	1115.56
415.374	1080.56
415.597	1111.56
415.821	1074.56
416.044	1061.56
416.267	1073.56
416.49	1073.56
416.713	1078.56
416.936	1092.56
417.159	1075.56
417.382	1065.56
417.605	1075.56
417.828	1072.56
418.051	1067.56
418.274	1060.56
418.497	1067.56
418.72	1091.56
418.943	1091.56
419.166	1164.56
419.389	1228.56
419.611	1225.56
419.834	1156.56
420.057	1155.56
420.28	1097.56
420.503	1055.56
420.726	1083.56
420.948	1075.56
421.171	1093.56
421.394	1085.56
421.617	1098.56
421.839	1063.56
422.062	1133.56
422.285	1056.56
422.507	1109.56
422.73	1095.56
422.953	1058.56
423.175	1100.56
423.398	1138.56
423.621	1126.56
423.843	1114.56
424.066	1134.56
424.288	1143.56
424.511	1119.56
424.733	1124.56
424.956	1113.56
425.178	1099.56
425.401	1078.56
425.623	1088.56
425.846	1063.56
426.068	1089.56
426.291	1092.56
426.513	1044.56
426.735	1039.56
426.958	1038.56
427.18	1000.56
427.402	1025.56
427.625	1058.56
427.847	1002.56
428.069	996.56
428.292	1032.56
428.514	1031.56
428.736	1015.56
428.958	1013.56
429.181	997.56
429.403	992.56
429.625	997.56
429.847	990.56
430.069	985.56
430.292	1004.56
430.514	960.56
430.736	1003.56
430.958	1002.56
431.18	979.56
431.402	1015.56
431.624	1019.56
431.846	1038.56
432.068	1013.56
432.29	1039.56
432.512	1021.56
432.734	999.56
432.956	1023.56
433.178	1017.56
433.4	1012.56
433.622	1005.56
433.844	1039.56
434.066	1036.56
434.287	1047.56
434.509	1067.56
434.731	1081.56
434.953	1103.56
435.175	1090.56
435.397	1110.56
435.618	1090.56
435.84	1035.56
436.062	1032.56
436.284	1007.56
436.505	1027.56
436.727	1031.56
436.949	1050.56
437.17	1037.56
437.392	1012.56
437.614	1005.56
437.835	986.56
438.057	982.56
438.278	969.56
438.5	976.56
438.721	982.56
438.943	1000.56
439.165	1022.56
439.386	1001.56
439.608	998.56
439.829	1049.56
440.05	1011.56
440.272	1026.56
440.493	1004.56
440.715	1031.56
440.936	1049.56
441.158	1053.56
441.379	1081.56
441.6	1128.56
441.822	1125.56
442.043	1095.56
442.264	1093.56
442.486	1089.56
442.707	1080.56
442.928	1095.56
443.149	1113.56
443.371	1099.56
443.592	1100.56
443.813	1115.56
444.034	1108.56
444.255	1152.56
444.476	1172.56
444.698	1229.56
444.919	1230.56
445.14	1325.56
445.361	1226.56
445.582	1151.56
445.803	1109.56
446.024	1075.56
446.245	1091.56
446.466	1078.56
446.687	1054.56
446.908	1034.56
447.129	1026.56
447.35	1004.56
447.571	1036.56
447.792	970.56
448.013	959.56
448.234	950.56
448.455	948.56
448.675	939.56
448.896	962.56
449.117	953.56
449.338	935.56
449.559	899.56
449.779	921.56
450	900.56
450.221	905.56
450.442	937.56
450.662	952.56
450.883	947.56
451.104	956.56
451.324	981.56
451.545	954.56
451.766	957.56
451.986	926.56
452.207	926.56
452.428	941.56
452.648	936.56
452.869	907.56
453.089	907.56
453.31	922.56
453.53	910.56
453.751	874.56
453.971	899.56
454.192	911.56
454.412	893.56
454.633	893.56
454.853	887.56
455.073	885.56
455.294	872.56
455.514	895.56
455.734	894.56
455.955	870.56
456.175	869.56
456.395	845.56
456.616	861.56
456.836	885.56
457.056	865.56
457.276	851.56
457.497	889.56
457.717	858.56
457.937	908.56
458.157	890.56
458.377	916.56
458.598	924.56
458.818	933.56
459.038	956.56
459.258	979.56
459.478	1002.56
459.698	1074.56
459.918	1067.56
460.138	1080.56
460.358	1123.56
460.578	1141.56
460.798	1141.56
461.018	1162.56
461.238	1165.56
461.458	1148.56
461.678	1155.56
461.898	1174.56
462.118	1173.56
462.338	1245.56
462.558	1259.56
462.777	1320.56
462.997	1394.56
463.217	1467.56
463.437	1445.56
463.657	1390.56
463.876	1338.56
464.096	1303.56
464.316	1348.56
464.536	1332.56
464.755	1235.56
464.975	1245.56
465.195	1201.56
465.414	1175.56
465.634	1086.56
465.854	1060.56
466.073	1043.56
466.293	1044.56
466.512	998.56
466.732	982.56
466.951	993.56
467.171	1018.56
467.391	1001.56
467.61	974.56
467.829	968.56
468.049	973.56
468.268	960.56
468.488	975.56
468.707	983.56
468.927	931.56
469.146	971.56
469.365	959.56
469.585	955.56
469.804	992.56
470.023	996.56
470.243	1006.56
470.462	999.56
470.681	1027.56
470.901	983.56
471.12	1004.56
471.339	946.56
471.558	962.56
471.777	963.56
471.997	940.56
472.216	947.56
472.435	953.56
472.654	942.56
472.873	929.56
473.092	923.56
473.311	918.56
473.53	931.56
473.749	932.56
473.968	940.56
474.187	922.56
474.406	887.56
474.625	925.56
474.844	929.56
475.063	942.56
475.282	949.56
475.501	951.56
475.72	952.56
475.939	972.56
476.158	959.56
476.377	974.56
476.596	998.56
476.814	1018.56
477.033	974.56
477.252	1027.56
477.471	1013.56
477.69	1014.56
477.908	1034.56
478.127	1098.56
478.346	1083.56
478.564	1062.56
478.783	1122.56
479.002	1109.56
479.22	1137.56
479.439	1139.56
479.658	1102.56
479.876	1130.56
480.095	1158.56
480.313	1204.56
480.532	1190.56
480.751	1195.56
480.969	1148.56
481.188	1114.56
481.406	1129.56
481.624	1120.56
481.843	1062.56
482.061	1035.56
482.28	1051.56
482.498	1066.56
482.717	1060.56
482.935	1026.56
483.153	1076.56
483.372	1078.56
483.59	1087.56
483.808	1077.56
484.027	1090.56
484.245	1082.56
484.463	1063.56
484.681	1082.56
484.9	1082.56
485.118	1132.56
485.336	1094.56
485.554	1149.56
485.772	1089.56
485.99	1130.56
486.209	1139.56
486.427	1117.56
486.645	1155.56
486.863	1130.56
487.081	1125.56
487.299	1105.56
487.517	1093.56
487.735	1138.56
487.953	1127.56
488.171	1121.56
488.389	1113.56
488.607	1109.56
488.825	1107.56
489.043	1112.56
489.261	1097.56
489.479	1119.56
489.696	1122.56
489.914	1124.56
490.132	1089.56
490.35	1130.56
490.568	1124.56
490.786	1125.56
491.003	1138.56
491.221	1139.56
491.439	1146.56
491.657	1149.56
491.874	1148.56
492.092	1155.56
492.31	1180.56
492.527	1177.56
492.745	1168.56
492.963	1153.56
493.18	1163.56
493.398	1181.56
493.615	1197.56
493.833	1176.56
494.05	1211.56
494.268	1201.56
494.485	1224.56
494.703	1212.56
494.92	1196.56
495.138	1205.56
495.355	1219.56
495.573	1185.56
495.79	1219.56
496.008	1217.56
496.225	1249.56
496.442	1250.56
496.66	1255.56
496.877	1292.56
497.094	1315.56
