Data from Ni(NO3)2@0.5M.TitratingCurve.Agarose3%dH2O.NegLispCup.LampEnergy10.LIBS07252019_HRD10591_18-00-03-565.txt Node
Date: Thu Jul 25 18:00:03 EDT 2019
User: cochatt
Spectrometer: HR+D1059
Trigger mode: 1
Integration Time (sec): 1.000000E-1
Scans to average: 1
Electric dark correction enabled: true
Nonlinearity correction enabled: false
Boxcar width: 0
XAxis mode: Wavelengths
Number of Pixels in Spectrum: 2048
>>>>>Begin Spectral Data<<<<<
223.165	-17.62
223.4	-17.62
223.635	-17.62
223.869	-36.62
224.104	-22.62
224.338	-27.62
224.573	-29.62
224.808	2.38
225.042	-5.62
225.277	-0.62
225.511	-3.62
225.746	-1.62
225.98	16.38
226.215	19.38
226.449	21.38
226.683	19.38
226.918	27.38
227.152	39.38
227.387	23.38
227.621	23.38
227.856	37.38
228.09	31.38
228.324	38.38
228.559	49.38
228.793	63.38
229.027	89.38
229.262	91.38
229.496	97.38
229.73	113.38
229.964	118.38
230.199	127.38
230.433	120.38
230.667	115.38
230.901	120.38
231.136	134.38
231.37	117.38
231.604	124.38
231.838	136.38
232.072	131.38
232.306	113.38
232.541	101.38
232.775	117.38
233.009	133.38
233.243	122.38
233.477	125.38
233.711	108.38
233.945	118.38
234.179	112.38
234.413	111.38
234.647	127.38
234.881	121.38
235.115	112.38
235.349	120.38
235.583	116.38
235.817	118.38
236.051	111.38
236.285	116.38
236.519	102.38
236.753	120.38
236.987	117.38
237.221	129.38
237.455	114.38
237.689	116.38
237.922	126.38
238.156	114.38
238.39	132.38
238.624	115.38
238.858	138.38
239.091	136.38
239.325	131.38
239.559	126.38
239.793	136.38
240.027	155.38
240.26	138.38
240.494	134.38
240.728	136.38
240.961	128.38
241.195	122.38
241.429	146.38
241.662	152.38
241.896	154.38
242.13	130.38
242.363	133.38
242.597	143.38
242.83	136.38
243.064	137.38
243.298	133.38
243.531	151.38
243.765	142.38
243.998	162.38
244.232	148.38
244.465	146.38
244.699	151.38
244.932	157.38
245.166	150.38
245.399	166.38
245.633	144.38
245.866	155.38
246.099	150.38
246.333	158.38
246.566	151.38
246.8	161.38
247.033	153.38
247.266	145.38
247.5	139.38
247.733	152.38
247.966	158.38
248.2	166.38
248.433	155.38
248.666	148.38
248.899	158.38
249.133	157.38
249.366	162.38
249.599	175.38
249.832	150.38
250.066	182.38
250.299	162.38
250.532	174.38
250.765	191.38
250.998	173.38
251.231	185.38
251.465	178.38
251.698	188.38
251.931	180.38
252.164	176.38
252.397	179.38
252.63	186.38
252.863	175.38
253.096	194.38
253.329	188.38
253.562	200.38
253.795	185.38
254.028	208.38
254.261	191.38
254.494	193.38
254.727	208.38
254.96	174.38
255.193	172.38
255.426	176.38
255.659	191.38
255.892	198.38
256.124	191.38
256.357	208.38
256.59	185.38
256.823	191.38
257.056	217.38
257.289	204.38
257.521	205.38
257.754	184.38
257.987	215.38
258.22	200.38
258.452	199.38
258.685	202.38
258.918	218.38
259.151	202.38
259.383	203.38
259.616	195.38
259.849	195.38
260.081	213.38
260.314	224.38
260.547	227.38
260.779	188.38
261.012	224.38
261.244	227.38
261.477	230.38
261.71	226.38
261.942	207.38
262.175	227.38
262.407	217.38
262.64	211.38
262.872	208.38
263.105	229.38
263.337	226.38
263.57	232.38
263.802	222.38
264.035	226.38
264.267	224.38
264.499	224.38
264.732	224.38
264.964	241.38
265.197	232.38
265.429	211.38
265.661	230.38
265.894	230.38
266.126	237.38
266.358	245.38
266.591	231.38
266.823	239.38
267.055	246.38
267.287	239.38
267.52	227.38
267.752	248.38
267.984	236.38
268.216	240.38
268.448	252.38
268.681	265.38
268.913	248.38
269.145	239.38
269.377	261.38
269.609	233.38
269.841	241.38
270.073	256.38
270.306	258.38
270.538	262.38
270.77	236.38
271.002	255.38
271.234	252.38
271.466	267.38
271.698	253.38
271.93	248.38
272.162	258.38
272.394	265.38
272.626	261.38
272.858	263.38
273.09	253.38
273.322	273.38
273.553	278.38
273.785	271.38
274.017	260.38
274.249	275.38
274.481	261.38
274.713	266.38
274.945	275.38
275.176	273.38
275.408	277.38
275.64	286.38
275.872	276.38
276.104	297.38
276.335	284.38
276.567	278.38
276.799	271.38
277.031	265.38
277.262	276.38
277.494	272.38
277.726	290.38
277.957	276.38
278.189	292.38
278.421	301.38
278.652	297.38
278.884	306.38
279.115	295.38
279.347	293.38
279.579	270.38
279.81	294.38
280.042	290.38
280.273	293.38
280.505	297.38
280.736	303.38
280.968	300.38
281.199	296.38
281.431	292.38
281.662	283.38
281.894	294.38
282.125	300.38
282.356	297.38
282.588	286.38
282.819	309.38
283.051	315.38
283.282	313.38
283.513	316.38
283.745	313.38
283.976	318.38
284.207	308.38
284.439	317.38
284.67	305.38
284.901	320.38
285.132	324.38
285.364	313.38
285.595	310.38
285.826	316.38
286.057	336.38
286.288	308.38
286.52	330.38
286.751	328.38
286.982	317.38
287.213	319.38
287.444	317.38
287.675	310.38
287.906	328.38
288.138	333.38
288.369	330.38
288.6	334.38
288.831	315.38
289.062	311.38
289.293	332.38
289.524	345.38
289.755	339.38
289.986	312.38
290.217	327.38
290.448	339.38
290.679	322.38
290.91	326.38
291.141	329.38
291.371	344.38
291.602	342.38
291.833	347.38
292.064	325.38
292.295	337.38
292.526	328.38
292.757	306.38
292.987	346.38
293.218	340.38
293.449	333.38
293.68	325.38
293.91	339.38
294.141	348.38
294.372	340.38
294.603	340.38
294.833	352.38
295.064	360.38
295.295	325.38
295.525	334.38
295.756	351.38
295.987	336.38
296.217	354.38
296.448	346.38
296.679	337.38
296.909	345.38
297.14	354.38
297.37	358.38
297.601	367.38
297.831	360.38
298.062	377.38
298.292	360.38
298.523	362.38
298.753	364.38
298.984	377.38
299.214	371.38
299.445	365.38
299.675	365.38
299.905	372.38
300.136	367.38
300.366	363.38
300.597	348.38
300.827	369.38
301.057	366.38
301.288	388.38
301.518	390.38
301.748	360.38
301.979	400.38
302.209	397.38
302.439	361.38
302.669	368.38
302.9	380.38
303.13	385.38
303.36	376.38
303.59	389.38
303.82	406.38
304.051	406.38
304.281	391.38
304.511	370.38
304.741	376.38
304.971	404.38
305.201	386.38
305.431	399.38
305.661	371.38
305.891	391.38
306.121	369.38
306.352	393.38
306.582	383.38
306.812	383.38
307.042	378.38
307.272	385.38
307.502	369.38
307.731	369.38
307.961	390.38
308.191	380.38
308.421	390.38
308.651	377.38
308.881	373.38
309.111	398.38
309.341	378.38
309.571	402.38
309.8	389.38
310.03	394.38
310.26	408.38
310.49	400.38
310.72	411.38
310.949	386.38
311.179	382.38
311.409	388.38
311.639	386.38
311.868	387.38
312.098	408.38
312.328	401.38
312.557	395.38
312.787	391.38
313.017	398.38
313.246	421.38
313.476	399.38
313.706	433.38
313.935	400.38
314.165	410.38
314.394	406.38
314.624	408.38
314.853	394.38
315.083	416.38
315.312	438.38
315.542	423.38
315.771	428.38
316.001	400.38
316.23	392.38
316.46	416.38
316.689	421.38
316.919	432.38
317.148	411.38
317.377	411.38
317.607	428.38
317.836	412.38
318.065	410.38
318.295	414.38
318.524	401.38
318.753	398.38
318.983	418.38
319.212	401.38
319.441	419.38
319.67	436.38
319.9	407.38
320.129	408.38
320.358	430.38
320.587	409.38
320.816	405.38
321.046	434.38
321.275	424.38
321.504	425.38
321.733	426.38
321.962	415.38
322.191	433.38
322.42	441.38
322.649	421.38
322.878	430.38
323.108	444.38
323.337	426.38
323.566	419.38
323.795	440.38
324.024	435.38
324.253	461.38
324.482	430.38
324.71	446.38
324.939	447.38
325.168	454.38
325.397	453.38
325.626	447.38
325.855	438.38
326.084	472.38
326.313	458.38
326.542	453.38
326.77	458.38
326.999	443.38
327.228	466.38
327.457	458.38
327.686	468.38
327.914	466.38
328.143	462.38
328.372	469.38
328.6	448.38
328.829	455.38
329.058	458.38
329.287	468.38
329.515	470.38
329.744	462.38
329.972	469.38
330.201	461.38
330.43	482.38
330.658	488.38
330.887	481.38
331.115	484.38
331.344	471.38
331.572	490.38
331.801	493.38
332.03	494.38
332.258	496.38
332.486	500.38
332.715	501.38
332.943	518.38
333.172	530.38
333.4	529.38
333.629	561.38
333.857	569.38
334.085	564.38
334.314	568.38
334.542	566.38
334.771	572.38
334.999	566.38
335.227	570.38
335.455	550.38
335.684	574.38
335.912	562.38
336.14	559.38
336.369	533.38
336.597	537.38
336.825	548.38
337.053	546.38
337.281	558.38
337.51	543.38
337.738	528.38
337.966	538.38
338.194	521.38
338.422	522.38
338.65	517.38
338.878	499.38
339.106	512.38
339.334	537.38
339.562	513.38
339.79	490.38
340.018	510.38
340.246	494.38
340.474	510.38
340.702	484.38
340.93	505.38
341.158	504.38
341.386	535.38
341.614	520.38
341.842	522.38
342.07	490.38
342.298	492.38
342.526	489.38
342.754	500.38
342.981	494.38
343.209	488.38
343.437	527.38
343.665	543.38
343.893	534.38
344.12	550.38
344.348	549.38
344.576	529.38
344.804	523.38
345.031	521.38
345.259	500.38
345.487	489.38
345.714	488.38
345.942	484.38
346.17	544.38
346.397	505.38
346.625	497.38
346.853	493.38
347.08	497.38
347.308	506.38
347.535	480.38
347.763	496.38
347.99	476.38
348.218	482.38
348.445	477.38
348.673	496.38
348.9	465.38
349.128	466.38
349.355	505.38
349.583	488.38
349.81	476.38
350.037	483.38
350.265	500.38
350.492	480.38
350.72	457.38
350.947	470.38
351.174	480.38
351.402	482.38
351.629	494.38
351.856	485.38
352.083	476.38
352.311	463.38
352.538	491.38
352.765	485.38
352.992	462.38
353.22	464.38
353.447	473.38
353.674	465.38
353.901	461.38
354.128	470.38
354.355	466.38
354.583	454.38
354.81	457.38
355.037	466.38
355.264	460.38
355.491	463.38
355.718	479.38
355.945	468.38
356.172	440.38
356.399	481.38
356.626	473.38
356.853	483.38
357.08	457.38
357.307	489.38
357.534	457.38
357.761	466.38
357.988	465.38
358.215	453.38
358.441	454.38
358.668	461.38
358.895	456.38
359.122	473.38
359.349	471.38
359.576	470.38
359.802	457.38
360.029	452.38
360.256	473.38
360.483	482.38
360.709	457.38
360.936	492.38
361.163	468.38
361.39	476.38
361.616	460.38
361.843	470.38
362.07	475.38
362.296	490.38
362.523	473.38
362.749	461.38
362.976	474.38
363.203	488.38
363.429	463.38
363.656	463.38
363.882	480.38
364.109	473.38
364.335	477.38
364.562	492.38
364.788	466.38
365.015	484.38
365.241	475.38
365.468	471.38
365.694	463.38
365.92	470.38
366.147	477.38
366.373	497.38
366.599	460.38
366.826	482.38
367.052	483.38
367.278	466.38
367.505	467.38
367.731	483.38
367.957	481.38
368.184	488.38
368.41	477.38
368.636	465.38
368.862	490.38
369.089	477.38
369.315	483.38
369.541	499.38
369.767	496.38
369.993	496.38
370.219	465.38
370.445	497.38
370.672	502.38
370.898	501.38
371.124	485.38
371.35	492.38
371.576	480.38
371.802	504.38
372.028	512.38
372.254	536.38
372.48	503.38
372.706	518.38
372.932	527.38
373.158	519.38
373.384	528.38
373.61	523.38
373.835	503.38
374.061	500.38
374.287	520.38
374.513	523.38
374.739	541.38
374.965	537.38
375.191	526.38
375.416	537.38
375.642	499.38
375.868	529.38
376.094	533.38
376.319	519.38
376.545	523.38
376.771	529.38
376.997	509.38
377.222	510.38
377.448	511.38
377.674	489.38
377.899	492.38
378.125	511.38
378.35	520.38
378.576	502.38
378.802	499.38
379.027	494.38
379.253	506.38
379.478	508.38
379.704	494.38
379.929	495.38
380.155	507.38
380.38	495.38
380.606	498.38
380.831	509.38
381.057	520.38
381.282	512.38
381.507	499.38
381.733	492.38
381.958	518.38
382.184	532.38
382.409	519.38
382.634	522.38
382.86	534.38
383.085	544.38
383.31	525.38
383.535	534.38
383.761	511.38
383.986	542.38
384.211	534.38
384.436	546.38
384.662	557.38
384.887	560.38
385.112	552.38
385.337	558.38
385.562	559.38
385.787	587.38
386.013	570.38
386.238	580.38
386.463	570.38
386.688	576.38
386.913	582.38
387.138	576.38
387.363	559.38
387.588	588.38
387.813	589.38
388.038	571.38
388.263	566.38
388.488	589.38
388.713	577.38
388.938	598.38
389.163	590.38
389.387	572.38
389.612	577.38
389.837	598.38
390.062	580.38
390.287	574.38
390.512	566.38
390.736	574.38
390.961	585.38
391.186	571.38
391.411	597.38
391.636	600.38
391.86	612.38
392.085	625.38
392.31	621.38
392.534	600.38
392.759	638.38
392.984	606.38
393.208	613.38
393.433	615.38
393.658	585.38
393.882	601.38
394.107	620.38
394.331	604.38
394.556	597.38
394.78	595.38
395.005	602.38
395.229	621.38
395.454	648.38
395.678	628.38
395.903	629.38
396.127	635.38
396.352	623.38
396.576	623.38
396.801	637.38
397.025	626.38
397.249	650.38
397.474	641.38
397.698	636.38
397.922	674.38
398.147	649.38
398.371	636.38
398.595	670.38
398.82	702.38
399.044	724.38
399.268	742.38
399.492	799.38
399.717	833.38
399.941	828.38
400.165	793.38
400.389	778.38
400.613	770.38
400.837	749.38
401.062	708.38
401.286	705.38
401.51	688.38
401.734	681.38
401.958	685.38
402.182	673.38
402.406	701.38
402.63	709.38
402.854	720.38
403.078	720.38
403.302	712.38
403.526	698.38
403.75	713.38
403.974	718.38
404.198	714.38
404.422	744.38
404.645	730.38
404.869	735.38
405.093	741.38
405.317	730.38
405.541	727.38
405.765	723.38
405.988	732.38
406.212	724.38
406.436	731.38
406.66	745.38
406.883	774.38
407.107	788.38
407.331	807.38
407.555	830.38
407.778	808.38
408.002	819.38
408.226	797.38
408.449	819.38
408.673	777.38
408.896	777.38
409.12	777.38
409.344	756.38
409.567	757.38
409.791	771.38
410.014	751.38
410.238	775.38
410.461	744.38
410.685	728.38
410.908	735.38
411.132	736.38
411.355	717.38
411.578	732.38
411.802	753.38
412.025	750.38
412.249	733.38
412.472	734.38
412.695	710.38
412.919	708.38
413.142	704.38
413.365	733.38
413.589	710.38
413.812	709.38
414.035	705.38
414.258	705.38
414.482	731.38
414.705	711.38
414.928	712.38
415.151	714.38
415.374	694.38
415.597	688.38
415.821	661.38
416.044	674.38
416.267	681.38
416.49	681.38
416.713	663.38
416.936	673.38
417.159	681.38
417.382	689.38
417.605	660.38
417.828	671.38
418.051	672.38
418.274	691.38
418.497	680.38
418.72	681.38
418.943	694.38
419.166	740.38
419.389	775.38
419.611	761.38
419.834	702.38
420.057	715.38
420.28	682.38
420.503	690.38
420.726	700.38
420.948	680.38
421.171	698.38
421.394	673.38
421.617	664.38
421.839	713.38
422.062	703.38
422.285	664.38
422.507	694.38
422.73	664.38
422.953	690.38
423.175	673.38
423.398	691.38
423.621	672.38
423.843	699.38
424.066	664.38
424.288	688.38
424.511	682.38
424.733	688.38
424.956	669.38
425.178	682.38
425.401	694.38
425.623	691.38
425.846	666.38
426.068	642.38
426.291	658.38
426.513	649.38
426.735	641.38
426.958	681.38
427.18	649.38
427.402	636.38
427.625	656.38
427.847	639.38
428.069	642.38
428.292	666.38
428.514	633.38
428.736	664.38
428.958	640.38
429.181	637.38
429.403	650.38
429.625	620.38
429.847	600.38
430.069	632.38
430.292	635.38
430.514	617.38
430.736	658.38
430.958	663.38
431.18	640.38
431.402	625.38
431.624	636.38
431.846	647.38
432.068	638.38
432.29	644.38
432.512	626.38
432.734	631.38
432.956	622.38
433.178	685.38
433.4	642.38
433.622	646.38
433.844	652.38
434.066	662.38
434.287	666.38
434.509	664.38
434.731	660.38
434.953	696.38
435.175	693.38
435.397	705.38
435.618	673.38
435.84	651.38
436.062	667.38
436.284	665.38
436.505	632.38
436.727	665.38
436.949	642.38
437.17	654.38
437.392	644.38
437.614	626.38
437.835	633.38
438.057	628.38
438.278	602.38
438.5	609.38
438.721	634.38
438.943	636.38
439.165	609.38
439.386	616.38
439.608	629.38
439.829	644.38
440.05	623.38
440.272	640.38
440.493	661.38
440.715	660.38
440.936	689.38
441.158	680.38
441.379	675.38
441.6	696.38
441.822	676.38
442.043	678.38
442.264	671.38
442.486	671.38
442.707	698.38
442.928	676.38
443.149	677.38
443.371	676.38
443.592	718.38
443.813	718.38
444.034	686.38
444.255	699.38
444.476	744.38
444.698	748.38
444.919	772.38
445.14	829.38
445.361	752.38
445.582	704.38
445.803	718.38
446.024	697.38
446.245	698.38
446.466	687.38
446.687	641.38
446.908	624.38
447.129	612.38
447.35	631.38
447.571	621.38
447.792	626.38
448.013	616.38
448.234	616.38
448.455	590.38
448.675	605.38
448.896	595.38
449.117	606.38
449.338	610.38
449.559	617.38
449.779	606.38
450	597.38
450.221	603.38
450.442	572.38
450.662	589.38
450.883	596.38
451.104	612.38
451.324	585.38
451.545	614.38
451.766	618.38
451.986	609.38
452.207	598.38
452.428	593.38
452.648	591.38
452.869	584.38
453.089	573.38
453.31	590.38
453.53	586.38
453.751	567.38
453.971	580.38
454.192	589.38
454.412	585.38
454.633	560.38
454.853	563.38
455.073	562.38
455.294	562.38
455.514	558.38
455.734	565.38
455.955	570.38
456.175	566.38
456.395	584.38
456.616	569.38
456.836	537.38
457.056	567.38
457.276	570.38
457.497	570.38
457.717	586.38
457.937	557.38
458.157	578.38
458.377	590.38
458.598	589.38
458.818	592.38
459.038	594.38
459.258	605.38
459.478	635.38
459.698	668.38
459.918	674.38
460.138	671.38
460.358	676.38
460.578	688.38
460.798	705.38
461.018	724.38
461.238	693.38
461.458	708.38
461.678	700.38
461.898	711.38
462.118	709.38
462.338	750.38
462.558	745.38
462.777	803.38
462.997	804.38
463.217	843.38
463.437	844.38
463.657	845.38
463.876	810.38
464.096	789.38
464.316	775.38
464.536	787.38
464.755	735.38
464.975	711.38
465.195	722.38
465.414	684.38
465.634	678.38
465.854	664.38
466.073	670.38
466.293	662.38
466.512	630.38
466.732	633.38
466.951	606.38
467.171	618.38
467.391	633.38
467.61	645.38
467.829	627.38
468.049	597.38
468.268	606.38
468.488	606.38
468.707	603.38
468.927	611.38
469.146	629.38
469.365	640.38
469.585	619.38
469.804	609.38
470.023	623.38
470.243	619.38
470.462	632.38
470.681	646.38
470.901	624.38
471.12	626.38
471.339	626.38
471.558	605.38
471.777	611.38
471.997	603.38
472.216	573.38
472.435	594.38
472.654	585.38
472.873	615.38
473.092	578.38
473.311	598.38
473.53	581.38
473.749	608.38
473.968	587.38
474.187	575.38
474.406	599.38
474.625	576.38
474.844	603.38
475.063	603.38
475.282	624.38
475.501	629.38
475.72	623.38
475.939	587.38
476.158	621.38
476.377	633.38
476.596	624.38
476.814	632.38
477.033	629.38
477.252	646.38
477.471	633.38
477.69	646.38
477.908	676.38
478.127	690.38
478.346	693.38
478.564	702.38
478.783	701.38
479.002	702.38
479.22	734.38
479.439	729.38
479.658	722.38
479.876	721.38
480.095	714.38
480.313	741.38
480.532	740.38
480.751	740.38
480.969	716.38
481.188	689.38
481.406	726.38
481.624	702.38
481.843	698.38
482.061	679.38
482.28	700.38
482.498	678.38
482.717	726.38
482.935	710.38
483.153	687.38
483.372	723.38
483.59	725.38
483.808	720.38
484.027	688.38
484.245	693.38
484.463	710.38
484.681	703.38
484.9	727.38
485.118	728.38
485.336	725.38
485.554	701.38
485.772	709.38
485.99	711.38
486.209	696.38
486.427	713.38
486.645	712.38
486.863	722.38
487.081	720.38
487.299	742.38
487.517	721.38
487.735	733.38
487.953	749.38
488.171	723.38
488.389	744.38
488.607	726.38
488.825	728.38
489.043	707.38
489.261	710.38
489.479	712.38
489.696	717.38
489.914	712.38
490.132	724.38
490.35	705.38
490.568	707.38
490.786	759.38
491.003	744.38
491.221	741.38
491.439	742.38
491.657	761.38
491.874	731.38
492.092	752.38
492.31	752.38
492.527	759.38
492.745	743.38
492.963	762.38
493.18	743.38
493.398	753.38
493.615	753.38
493.833	779.38
494.05	755.38
494.268	743.38
494.485	782.38
494.703	748.38
494.92	787.38
495.138	744.38
495.355	772.38
495.573	772.38
495.79	793.38
496.008	783.38
496.225	811.38
496.442	793.38
496.66	820.38
496.877	803.38
497.094	804.38
497.312	797.38
497.529	829.38
497.746	832.38
497.963	852.38
498.181	895.38
498.398	902.38
498.615	968.38
498.832	980.38
499.049	1007.38
499.267	1075.38
499.484	1144.38
499.701	1221.38
499.918	1312.38
500.135	1375.38
500.352	1449.38
500.569	1455.38
500.786	1472.38
501.003	1407.38
501.22	1312.38
501.437	1234.38
