Data from Ni(NO3)2@0.0625M.TitratingCurve.Agarose3%dH2O.NegLispCup.LampEnergy10.LIBS07252019_HRD10591_18-16-07-569.txt Node
Date: Thu Jul 25 18:16:07 EDT 2019
User: cochatt
Spectrometer: HR+D1059
Trigger mode: 1
Integration Time (sec): 1.000000E-1
Scans to average: 1
Electric dark correction enabled: true
Nonlinearity correction enabled: false
Boxcar width: 0
XAxis mode: Wavelengths
Number of Pixels in Spectrum: 2048
>>>>>Begin Spectral Data<<<<<
223.165	-9.88
223.4	-9.88
223.635	-9.88
223.869	-13.88
224.104	-18.88
224.338	-25.88
224.573	-11.88
224.808	-10.88
225.042	-19.88
225.277	-8.88
225.511	-6.88
225.746	-2.88
225.98	25.12
226.215	11.12
226.449	15.12
226.683	19.12
226.918	21.12
227.152	38.12
227.387	40.12
227.621	50.12
227.856	46.12
228.09	41.12
228.324	45.12
228.559	54.12
228.793	83.12
229.027	108.12
229.262	109.12
229.496	108.12
229.73	114.12
229.964	114.12
230.199	128.12
230.433	116.12
230.667	138.12
230.901	135.12
231.136	142.12
231.37	130.12
231.604	137.12
231.838	133.12
232.072	141.12
232.306	137.12
232.541	149.12
232.775	135.12
233.009	143.12
233.243	147.12
233.477	149.12
233.711	143.12
233.945	155.12
234.179	154.12
234.413	147.12
234.647	141.12
234.881	144.12
235.115	150.12
235.349	150.12
235.583	162.12
235.817	146.12
236.051	150.12
236.285	154.12
236.519	141.12
236.753	146.12
236.987	147.12
237.221	154.12
237.455	166.12
237.689	157.12
237.922	161.12
238.156	154.12
238.39	164.12
238.624	168.12
238.858	157.12
239.091	174.12
239.325	161.12
239.559	176.12
239.793	172.12
240.027	162.12
240.26	167.12
240.494	179.12
240.728	181.12
240.961	186.12
241.195	188.12
241.429	190.12
241.662	193.12
241.896	195.12
242.13	160.12
242.363	174.12
242.597	190.12
242.83	171.12
243.064	200.12
243.298	177.12
243.531	211.12
243.765	183.12
243.998	187.12
244.232	212.12
244.465	189.12
244.699	200.12
244.932	196.12
245.166	217.12
245.399	221.12
245.633	208.12
245.866	216.12
246.099	198.12
246.333	198.12
246.566	206.12
246.8	208.12
247.033	197.12
247.266	220.12
247.5	232.12
247.733	221.12
247.966	237.12
248.2	221.12
248.433	241.12
248.666	242.12
248.899	221.12
249.133	227.12
249.366	241.12
249.599	217.12
249.832	244.12
250.066	222.12
250.299	235.12
250.532	218.12
250.765	235.12
250.998	243.12
251.231	244.12
251.465	243.12
251.698	261.12
251.931	247.12
252.164	255.12
252.397	265.12
252.63	262.12
252.863	263.12
253.096	268.12
253.329	257.12
253.562	241.12
253.795	258.12
254.028	277.12
254.261	270.12
254.494	290.12
254.727	268.12
254.96	276.12
255.193	264.12
255.426	267.12
255.659	270.12
255.892	263.12
256.124	283.12
256.357	270.12
256.59	306.12
256.823	292.12
257.056	261.12
257.289	275.12
257.521	292.12
257.754	279.12
257.987	285.12
258.22	305.12
258.452	280.12
258.685	299.12
258.918	286.12
259.151	281.12
259.383	294.12
259.616	274.12
259.849	297.12
260.081	300.12
260.314	289.12
260.547	309.12
260.779	307.12
261.012	322.12
261.244	302.12
261.477	298.12
261.71	320.12
261.942	314.12
262.175	290.12
262.407	335.12
262.64	308.12
262.872	319.12
263.105	311.12
263.337	306.12
263.57	323.12
263.802	305.12
264.035	353.12
264.267	320.12
264.499	316.12
264.732	329.12
264.964	329.12
265.197	330.12
265.429	320.12
265.661	314.12
265.894	331.12
266.126	338.12
266.358	334.12
266.591	338.12
266.823	335.12
267.055	345.12
267.287	317.12
267.52	333.12
267.752	341.12
267.984	356.12
268.216	348.12
268.448	344.12
268.681	365.12
268.913	366.12
269.145	355.12
269.377	359.12
269.609	361.12
269.841	366.12
270.073	371.12
270.306	347.12
270.538	385.12
270.77	380.12
271.002	368.12
271.234	342.12
271.466	358.12
271.698	352.12
271.93	381.12
272.162	374.12
272.394	375.12
272.626	371.12
272.858	380.12
273.09	362.12
273.322	387.12
273.553	370.12
273.785	379.12
274.017	359.12
274.249	371.12
274.481	381.12
274.713	397.12
274.945	401.12
275.176	408.12
275.408	389.12
275.64	397.12
275.872	403.12
276.104	403.12
276.335	388.12
276.567	398.12
276.799	399.12
277.031	420.12
277.262	405.12
277.494	416.12
277.726	419.12
277.957	418.12
278.189	409.12
278.421	391.12
278.652	429.12
278.884	409.12
279.115	421.12
279.347	414.12
279.579	437.12
279.81	424.12
280.042	411.12
280.273	412.12
280.505	449.12
280.736	441.12
280.968	434.12
281.199	428.12
281.431	433.12
281.662	449.12
281.894	444.12
282.125	452.12
282.356	452.12
282.588	459.12
282.819	435.12
283.051	450.12
283.282	458.12
283.513	459.12
283.745	454.12
283.976	434.12
284.207	429.12
284.439	453.12
284.67	449.12
284.901	451.12
285.132	443.12
285.364	458.12
285.595	486.12
285.826	475.12
286.057	475.12
286.288	461.12
286.52	459.12
286.751	483.12
286.982	479.12
287.213	468.12
287.444	490.12
287.675	483.12
287.906	474.12
288.138	493.12
288.369	477.12
288.6	490.12
288.831	494.12
289.062	488.12
289.293	509.12
289.524	505.12
289.755	483.12
289.986	493.12
290.217	494.12
290.448	480.12
290.679	474.12
290.91	504.12
291.141	504.12
291.371	506.12
291.602	517.12
291.833	491.12
292.064	483.12
292.295	514.12
292.526	498.12
292.757	516.12
292.987	509.12
293.218	498.12
293.449	503.12
293.68	502.12
293.91	517.12
294.141	504.12
294.372	512.12
294.603	525.12
294.833	517.12
295.064	527.12
295.295	520.12
295.525	521.12
295.756	516.12
295.987	509.12
296.217	527.12
296.448	524.12
296.679	517.12
296.909	521.12
297.14	533.12
297.37	551.12
297.601	568.12
297.831	553.12
298.062	555.12
298.292	556.12
298.523	591.12
298.753	554.12
298.984	565.12
299.214	561.12
299.445	557.12
299.675	531.12
299.905	551.12
300.136	540.12
300.366	555.12
300.597	554.12
300.827	583.12
301.057	606.12
301.288	602.12
301.518	594.12
301.748	571.12
301.979	604.12
302.209	585.12
302.439	581.12
302.669	575.12
302.9	587.12
303.13	563.12
303.36	565.12
303.59	576.12
303.82	591.12
304.051	569.12
304.281	565.12
304.511	586.12
304.741	567.12
304.971	582.12
305.201	546.12
305.431	575.12
305.661	565.12
305.891	576.12
306.121	550.12
306.352	558.12
306.582	563.12
306.812	546.12
307.042	535.12
307.272	546.12
307.502	541.12
307.731	579.12
307.961	569.12
308.191	563.12
308.421	553.12
308.651	565.12
308.881	572.12
309.111	553.12
309.341	565.12
309.571	571.12
309.8	562.12
310.03	590.12
310.26	554.12
310.49	570.12
310.72	545.12
310.949	590.12
311.179	573.12
311.409	578.12
311.639	571.12
311.868	583.12
312.098	577.12
312.328	595.12
312.557	590.12
312.787	606.12
313.017	579.12
313.246	617.12
313.476	611.12
313.706	635.12
313.935	627.12
314.165	620.12
314.394	599.12
314.624	599.12
314.853	613.12
315.083	597.12
315.312	602.12
315.542	618.12
315.771	612.12
316.001	601.12
316.23	599.12
316.46	576.12
316.689	586.12
316.919	586.12
317.148	589.12
317.377	596.12
317.607	577.12
317.836	604.12
318.065	588.12
318.295	587.12
318.524	611.12
318.753	587.12
318.983	567.12
319.212	609.12
319.441	600.12
319.67	588.12
319.9	580.12
320.129	580.12
320.358	592.12
320.587	611.12
320.816	598.12
321.046	594.12
321.275	594.12
321.504	583.12
321.733	601.12
321.962	612.12
322.191	591.12
322.42	589.12
322.649	601.12
322.878	605.12
323.108	589.12
323.337	619.12
323.566	609.12
323.795	617.12
324.024	641.12
324.253	625.12
324.482	601.12
324.71	606.12
324.939	641.12
325.168	639.12
325.397	620.12
325.626	649.12
325.855	651.12
326.084	655.12
326.313	651.12
326.542	653.12
326.77	681.12
326.999	652.12
327.228	659.12
327.457	659.12
327.686	665.12
327.914	627.12
328.143	674.12
328.372	679.12
328.6	669.12
328.829	665.12
329.058	651.12
329.287	657.12
329.515	674.12
329.744	682.12
329.972	681.12
330.201	689.12
330.43	672.12
330.658	671.12
330.887	679.12
331.115	674.12
331.344	669.12
331.572	702.12
331.801	701.12
332.03	712.12
332.258	765.12
332.486	789.12
332.715	799.12
332.943	813.12
333.172	843.12
333.4	887.12
333.629	897.12
333.857	890.12
334.085	895.12
334.314	881.12
334.542	863.12
334.771	861.12
334.999	835.12
335.227	839.12
335.455	826.12
335.684	809.12
335.912	806.12
336.14	803.12
336.369	781.12
336.597	800.12
336.825	783.12
337.053	770.12
337.281	756.12
337.51	756.12
337.738	766.12
337.966	723.12
338.194	766.12
338.422	746.12
338.65	706.12
338.878	716.12
339.106	737.12
339.334	728.12
339.562	729.12
339.79	705.12
340.018	695.12
340.246	710.12
340.474	709.12
340.702	683.12
340.93	695.12
341.158	701.12
341.386	712.12
341.614	687.12
341.842	690.12
342.07	691.12
342.298	672.12
342.526	684.12
342.754	698.12
342.981	692.12
343.209	707.12
343.437	726.12
343.665	779.12
343.893	836.12
344.12	867.12
344.348	862.12
344.576	794.12
344.804	734.12
345.031	742.12
345.259	718.12
345.487	679.12
345.714	713.12
345.942	679.12
346.17	697.12
346.397	676.12
346.625	660.12
346.853	690.12
347.08	675.12
347.308	673.12
347.535	668.12
347.763	678.12
347.99	700.12
348.218	679.12
348.445	667.12
348.673	668.12
348.9	665.12
349.128	622.12
349.355	620.12
349.583	649.12
349.81	662.12
350.037	649.12
350.265	665.12
350.492	668.12
350.72	648.12
350.947	647.12
351.174	673.12
351.402	639.12
351.629	653.12
351.856	631.12
352.083	637.12
352.311	644.12
352.538	617.12
352.765	647.12
352.992	641.12
353.22	645.12
353.447	636.12
353.674	627.12
353.901	636.12
354.128	625.12
354.355	649.12
354.583	628.12
354.81	649.12
355.037	654.12
355.264	655.12
355.491	640.12
355.718	663.12
355.945	658.12
356.172	671.12
356.399	657.12
356.626	670.12
356.853	682.12
357.08	643.12
357.307	650.12
357.534	646.12
357.761	678.12
357.988	645.12
358.215	649.12
358.441	642.12
358.668	654.12
358.895	645.12
359.122	663.12
359.349	668.12
359.576	656.12
359.802	637.12
360.029	644.12
360.256	665.12
360.483	655.12
360.709	671.12
360.936	658.12
361.163	638.12
361.39	649.12
361.616	671.12
361.843	656.12
362.07	671.12
362.296	665.12
362.523	662.12
362.749	663.12
362.976	632.12
363.203	663.12
363.429	655.12
363.656	661.12
363.882	651.12
364.109	655.12
364.335	645.12
364.562	653.12
364.788	642.12
365.015	635.12
365.241	644.12
365.468	663.12
365.694	632.12
365.92	628.12
366.147	651.12
366.373	636.12
366.599	640.12
366.826	644.12
367.052	655.12
367.278	653.12
367.505	658.12
367.731	662.12
367.957	647.12
368.184	667.12
368.41	667.12
368.636	650.12
368.862	683.12
369.089	671.12
369.315	681.12
369.541	680.12
369.767	685.12
369.993	683.12
370.219	663.12
370.445	699.12
370.672	713.12
370.898	708.12
371.124	699.12
371.35	697.12
371.576	699.12
371.802	711.12
372.028	684.12
372.254	692.12
372.48	700.12
372.706	714.12
372.932	755.12
373.158	753.12
373.384	728.12
373.61	723.12
373.835	718.12
374.061	721.12
374.287	714.12
374.513	732.12
374.739	754.12
374.965	778.12
375.191	798.12
375.416	788.12
375.642	784.12
375.868	750.12
376.094	730.12
376.319	699.12
376.545	723.12
376.771	725.12
376.997	717.12
377.222	709.12
377.448	731.12
377.674	701.12
377.899	708.12
378.125	695.12
378.35	748.12
378.576	725.12
378.802	701.12
379.027	685.12
379.253	698.12
379.478	699.12
379.704	685.12
379.929	702.12
380.155	694.12
380.38	694.12
380.606	696.12
380.831	683.12
381.057	705.12
381.282	689.12
381.507	702.12
381.733	701.12
381.958	721.12
382.184	761.12
382.409	735.12
382.634	729.12
382.86	749.12
383.085	762.12
383.31	759.12
383.535	779.12
383.761	797.12
383.986	803.12
384.211	829.12
384.436	814.12
384.662	825.12
384.887	847.12
385.112	849.12
385.337	862.12
385.562	863.12
385.787	867.12
386.013	881.12
386.238	855.12
386.463	886.12
386.688	855.12
386.913	807.12
387.138	830.12
387.363	841.12
387.588	841.12
387.813	845.12
388.038	841.12
388.263	838.12
388.488	852.12
388.713	861.12
388.938	839.12
389.163	812.12
389.387	818.12
389.612	807.12
389.837	830.12
390.062	830.12
390.287	815.12
390.512	839.12
390.736	851.12
390.961	870.12
391.186	860.12
391.411	912.12
391.636	908.12
391.86	964.12
392.085	973.12
392.31	930.12
392.534	959.12
392.759	899.12
392.984	910.12
393.208	910.12
393.433	861.12
393.658	901.12
393.882	915.12
394.107	921.12
394.331	901.12
394.556	876.12
394.78	907.12
395.005	929.12
395.229	931.12
395.454	955.12
395.678	975.12
395.903	956.12
396.127	929.12
396.352	912.12
396.576	878.12
396.801	897.12
397.025	885.12
397.249	903.12
397.474	972.12
397.698	948.12
397.922	958.12
398.147	941.12
398.371	986.12
398.595	1002.12
398.82	1052.12
399.044	1121.12
399.268	1230.12
399.492	1497.12
399.717	1724.12
399.941	1604.12
400.165	1432.12
400.389	1285.12
400.613	1173.12
400.837	1135.12
401.062	1064.12
401.286	1056.12
401.51	1094.12
401.734	1060.12
401.958	1107.12
402.182	1094.12
402.406	1097.12
402.63	1130.12
402.854	1167.12
403.078	1156.12
403.302	1215.12
403.526	1234.12
403.75	1257.12
403.974	1241.12
404.198	1278.12
404.422	1277.12
404.645	1230.12
404.869	1250.12
405.093	1238.12
405.317	1179.12
405.541	1181.12
405.765	1173.12
405.988	1135.12
406.212	1173.12
406.436	1150.12
406.66	1193.12
406.883	1228.12
407.107	1308.12
407.331	1395.12
407.555	1435.12
407.778	1357.12
408.002	1364.12
408.226	1296.12
408.449	1284.12
408.673	1217.12
408.896	1208.12
409.12	1186.12
409.344	1238.12
409.567	1197.12
409.791	1247.12
410.014	1226.12
410.238	1138.12
410.461	1197.12
410.685	1207.12
410.908	1153.12
411.132	1155.12
411.355	1101.12
411.578	1121.12
411.802	1122.12
412.025	1109.12
412.249	1154.12
412.472	1128.12
412.695	1093.12
412.919	1075.12
413.142	1108.12
413.365	1053.12
413.589	1082.12
413.812	1039.12
414.035	1033.12
414.258	1058.12
414.482	1064.12
414.705	1098.12
414.928	1084.12
415.151	1064.12
415.374	1099.12
415.597	1067.12
415.821	1051.12
416.044	1070.12
416.267	1045.12
416.49	1040.12
416.713	1028.12
416.936	1043.12
417.159	1059.12
417.382	1043.12
417.605	1015.12
417.828	1039.12
418.051	1093.12
418.274	1064.12
418.497	1049.12
418.72	1097.12
418.943	1060.12
419.166	1150.12
419.389	1261.12
419.611	1152.12
419.834	1124.12
420.057	1129.12
420.28	1077.12
420.503	1067.12
420.726	1045.12
420.948	1035.12
421.171	1037.12
421.394	1039.12
421.617	1071.12
421.839	1041.12
422.062	1050.12
422.285	1047.12
422.507	1097.12
422.73	1104.12
422.953	1095.12
423.175	1113.12
423.398	1118.12
423.621	1139.12
423.843	1171.12
424.066	1160.12
424.288	1125.12
424.511	1113.12
424.733	1087.12
424.956	1074.12
425.178	1087.12
425.401	1065.12
425.623	1065.12
425.846	1022.12
426.068	985.12
426.291	999.12
426.513	998.12
426.735	974.12
426.958	968.12
427.18	947.12
427.402	949.12
427.625	952.12
427.847	934.12
428.069	933.12
428.292	958.12
428.514	949.12
428.736	965.12
428.958	957.12
429.181	913.12
429.403	907.12
429.625	919.12
429.847	912.12
430.069	876.12
430.292	912.12
430.514	923.12
430.736	922.12
430.958	905.12
431.18	900.12
431.402	904.12
431.624	932.12
431.846	921.12
432.068	947.12
432.29	951.12
432.512	915.12
432.734	959.12
432.956	934.12
433.178	927.12
433.4	937.12
433.622	938.12
433.844	938.12
434.066	951.12
434.287	951.12
434.509	995.12
434.731	1024.12
434.953	1037.12
435.175	1055.12
435.397	1060.12
435.618	995.12
435.84	969.12
436.062	973.12
436.284	930.12
436.505	939.12
436.727	955.12
436.949	954.12
437.17	935.12
437.392	930.12
437.614	893.12
437.835	902.12
438.057	873.12
438.278	893.12
438.5	901.12
438.721	888.12
438.943	888.12
439.165	870.12
439.386	896.12
439.608	937.12
439.829	926.12
440.05	933.12
440.272	929.12
440.493	947.12
440.715	947.12
440.936	962.12
441.158	982.12
441.379	1004.12
441.6	1064.12
441.822	1073.12
442.043	1046.12
442.264	1022.12
442.486	1013.12
442.707	1045.12
442.928	1040.12
443.149	1049.12
443.371	1053.12
443.592	1032.12
443.813	1057.12
444.034	1095.12
444.255	1085.12
444.476	1150.12
444.698	1223.12
444.919	1287.12
445.14	1325.12
445.361	1155.12
445.582	1098.12
445.803	1010.12
446.024	975.12
446.245	975.12
446.466	972.12
446.687	957.12
446.908	935.12
447.129	902.12
447.35	890.12
447.571	901.12
447.792	874.12
448.013	888.12
448.234	868.12
448.455	894.12
448.675	851.12
448.896	874.12
449.117	859.12
449.338	839.12
449.559	863.12
449.779	853.12
450	856.12
450.221	847.12
450.442	861.12
450.662	871.12
450.883	858.12
451.104	865.12
451.324	875.12
451.545	857.12
451.766	892.12
451.986	894.12
452.207	852.12
452.428	857.12
452.648	867.12
452.869	835.12
453.089	847.12
453.31	882.12
453.53	851.12
453.751	876.12
453.971	815.12
454.192	827.12
454.412	825.12
454.633	805.12
454.853	801.12
455.073	809.12
455.294	789.12
455.514	802.12
455.734	793.12
455.955	795.12
456.175	813.12
456.395	806.12
456.616	802.12
456.836	805.12
457.056	827.12
457.276	797.12
457.497	827.12
457.717	781.12
457.937	820.12
458.157	798.12
458.377	816.12
458.598	825.12
458.818	852.12
459.038	855.12
459.258	927.12
459.478	950.12
459.698	943.12
459.918	1009.12
460.138	1023.12
460.358	1098.12
460.578	1118.12
460.798	1121.12
461.018	1134.12
461.238	1089.12
461.458	1091.12
461.678	1124.12
461.898	1132.12
462.118	1102.12
462.338	1194.12
462.558	1196.12
462.777	1222.12
462.997	1405.12
463.217	1534.12
463.437	1514.12
463.657	1397.12
463.876	1318.12
464.096	1305.12
464.316	1311.12
464.536	1332.12
464.755	1239.12
464.975	1176.12
465.195	1145.12
465.414	1090.12
465.634	1011.12
465.854	978.12
466.073	948.12
466.293	953.12
466.512	915.12
466.732	892.12
466.951	870.12
467.171	894.12
467.391	907.12
467.61	897.12
467.829	884.12
468.049	889.12
468.268	846.12
468.488	867.12
468.707	856.12
468.927	852.12
469.146	829.12
469.365	861.12
469.585	897.12
469.804	885.12
470.023	916.12
470.243	905.12
470.462	934.12
470.681	919.12
470.901	924.12
471.12	878.12
471.339	877.12
471.558	878.12
471.777	898.12
471.997	885.12
472.216	848.12
472.435	853.12
472.654	843.12
472.873	807.12
473.092	819.12
473.311	827.12
473.53	830.12
473.749	812.12
473.968	822.12
474.187	829.12
474.406	819.12
474.625	826.12
474.844	821.12
475.063	814.12
475.282	842.12
475.501	839.12
475.72	857.12
475.939	843.12
476.158	854.12
476.377	851.12
476.596	866.12
476.814	874.12
477.033	892.12
477.252	901.12
477.471	873.12
477.69	940.12
477.908	952.12
478.127	968.12
478.346	986.12
478.564	974.12
478.783	1002.12
479.002	1054.12
479.22	1057.12
479.439	1060.12
479.658	1038.12
479.876	1032.12
480.095	1014.12
480.313	1131.12
480.532	1124.12
480.751	1153.12
480.969	1105.12
481.188	1045.12
481.406	1010.12
481.624	974.12
481.843	964.12
482.061	987.12
482.28	965.12
482.498	950.12
482.717	948.12
482.935	927.12
483.153	945.12
483.372	938.12
483.59	926.12
483.808	937.12
484.027	940.12
484.245	977.12
484.463	965.12
484.681	1006.12
484.9	967.12
485.118	956.12
485.336	963.12
485.554	1001.12
485.772	1027.12
485.99	1014.12
486.209	1023.12
486.427	1023.12
486.645	1015.12
486.863	994.12
487.081	1014.12
487.299	990.12
487.517	990.12
487.735	990.12
487.953	992.12
488.171	990.12
488.389	991.12
488.607	957.12
488.825	978.12
489.043	945.12
489.261	961.12
489.479	986.12
489.696	1004.12
489.914	990.12
490.132	1006.12
490.35	975.12
490.568	983.12
490.786	965.12
491.003	1001.12
491.221	997.12
491.439	988.12
491.657	993.12
491.874	1002.12
492.092	999.12
492.31	997.12
492.527	994.12
492.745	1019.12
492.963	999.12
493.18	1009.12
493.398	1018.12
493.615	1038.12
493.833	1040.12
494.05	1001.12
494.268	1020.12
494.485	1027.12
494.703	1055.12
494.92	1063.12
495.138	1044.12
495.355	1040.12
495.573	1010.12
495.79	1027.12
496.008	1074.12
496.225	1063.12
496.442	1053.12
496.66	1111.12
496.877	1100.12
497.094	1091.12
497.312	1119.12
497.529	1172.12
497.746	1161.12
497.963	1201.12
498.181	1258.12
498.398	1319.12
