Data from Ni(NO3)2@0.5M.TitratingCurve.Agarose3%dH2O.NegLispCup.LampEnergy10.LIBS07252019_HRD10591_17-59-12-565.txt Node
Date: Thu Jul 25 17:59:12 EDT 2019
User: cochatt
Spectrometer: HR+D1059
Trigger mode: 1
Integration Time (sec): 1.000000E-1
Scans to average: 1
Electric dark correction enabled: true
Nonlinearity correction enabled: false
Boxcar width: 0
XAxis mode: Wavelengths
Number of Pixels in Spectrum: 2048
>>>>>Begin Spectral Data<<<<<
223.165	-23.56
223.4	-23.56
223.635	-23.56
223.869	-16.56
224.104	-11.56
224.338	-20.56
224.573	-26.56
224.808	-5.56
225.042	-7.56
225.277	-4.56
225.511	-3.56
225.746	-6.56
225.98	9.44
226.215	14.44
226.449	11.44
226.683	31.44
226.918	22.44
227.152	37.44
227.387	41.44
227.621	33.44
227.856	52.44
228.09	57.44
228.324	48.44
228.559	56.44
228.793	80.44
229.027	131.44
229.262	146.44
229.496	134.44
229.73	151.44
229.964	178.44
230.199	192.44
230.433	204.44
230.667	187.44
230.901	171.44
231.136	162.44
231.37	166.44
231.604	167.44
231.838	201.44
232.072	221.44
232.306	180.44
232.541	176.44
232.775	164.44
233.009	164.44
233.243	157.44
233.477	164.44
233.711	147.44
233.945	171.44
234.179	158.44
234.413	157.44
234.647	166.44
234.881	179.44
235.115	179.44
235.349	170.44
235.583	158.44
235.817	156.44
236.051	149.44
236.285	160.44
236.519	156.44
236.753	171.44
236.987	184.44
237.221	161.44
237.455	158.44
237.689	181.44
237.922	178.44
238.156	154.44
238.39	152.44
238.624	173.44
238.858	188.44
239.091	160.44
239.325	168.44
239.559	194.44
239.793	210.44
240.027	204.44
240.26	192.44
240.494	178.44
240.728	183.44
240.961	177.44
241.195	190.44
241.429	195.44
241.662	210.44
241.896	213.44
242.13	225.44
242.363	208.44
242.597	218.44
242.83	187.44
243.064	187.44
243.298	212.44
243.531	204.44
243.765	203.44
243.998	212.44
244.232	228.44
244.465	232.44
244.699	217.44
244.932	213.44
245.166	222.44
245.399	244.44
245.633	211.44
245.866	226.44
246.099	223.44
246.333	226.44
246.566	205.44
246.8	257.44
247.033	229.44
247.266	226.44
247.5	227.44
247.733	244.44
247.966	258.44
248.2	266.44
248.433	250.44
248.666	235.44
248.899	260.44
249.133	271.44
249.366	239.44
249.599	266.44
249.832	252.44
250.066	249.44
250.299	244.44
250.532	262.44
250.765	266.44
250.998	274.44
251.231	280.44
251.465	298.44
251.698	291.44
251.931	293.44
252.164	276.44
252.397	272.44
252.63	299.44
252.863	290.44
253.096	278.44
253.329	281.44
253.562	284.44
253.795	283.44
254.028	274.44
254.261	305.44
254.494	291.44
254.727	307.44
254.96	306.44
255.193	316.44
255.426	308.44
255.659	305.44
255.892	315.44
256.124	310.44
256.357	302.44
256.59	303.44
256.823	299.44
257.056	288.44
257.289	329.44
257.521	326.44
257.754	334.44
257.987	322.44
258.22	329.44
258.452	326.44
258.685	318.44
258.918	319.44
259.151	324.44
259.383	347.44
259.616	322.44
259.849	338.44
260.081	338.44
260.314	356.44
260.547	350.44
260.779	362.44
261.012	350.44
261.244	347.44
261.477	366.44
261.71	352.44
261.942	359.44
262.175	369.44
262.407	368.44
262.64	356.44
262.872	368.44
263.105	360.44
263.337	354.44
263.57	376.44
263.802	357.44
264.035	358.44
264.267	367.44
264.499	386.44
264.732	383.44
264.964	362.44
265.197	376.44
265.429	403.44
265.661	382.44
265.894	363.44
266.126	372.44
266.358	374.44
266.591	385.44
266.823	382.44
267.055	392.44
267.287	379.44
267.52	378.44
267.752	389.44
267.984	409.44
268.216	396.44
268.448	393.44
268.681	380.44
268.913	415.44
269.145	427.44
269.377	419.44
269.609	430.44
269.841	425.44
270.073	423.44
270.306	419.44
270.538	409.44
270.77	416.44
271.002	429.44
271.234	391.44
271.466	420.44
271.698	425.44
271.93	428.44
272.162	427.44
272.394	433.44
272.626	435.44
272.858	432.44
273.09	421.44
273.322	420.44
273.553	413.44
273.785	446.44
274.017	449.44
274.249	463.44
274.481	459.44
274.713	454.44
274.945	465.44
275.176	450.44
275.408	445.44
275.64	460.44
275.872	462.44
276.104	452.44
276.335	450.44
276.567	452.44
276.799	447.44
277.031	467.44
277.262	466.44
277.494	483.44
277.726	474.44
277.957	466.44
278.189	460.44
278.421	480.44
278.652	467.44
278.884	478.44
279.115	464.44
279.347	466.44
279.579	494.44
279.81	498.44
280.042	497.44
280.273	499.44
280.505	502.44
280.736	485.44
280.968	490.44
281.199	510.44
281.431	498.44
281.662	502.44
281.894	513.44
282.125	516.44
282.356	505.44
282.588	504.44
282.819	513.44
283.051	504.44
283.282	492.44
283.513	505.44
283.745	513.44
283.976	526.44
284.207	522.44
284.439	519.44
284.67	507.44
284.901	542.44
285.132	510.44
285.364	529.44
285.595	515.44
285.826	536.44
286.057	548.44
286.288	548.44
286.52	529.44
286.751	550.44
286.982	539.44
287.213	519.44
287.444	538.44
287.675	517.44
287.906	540.44
288.138	549.44
288.369	549.44
288.6	554.44
288.831	530.44
289.062	574.44
289.293	550.44
289.524	551.44
289.755	539.44
289.986	560.44
290.217	574.44
290.448	560.44
290.679	558.44
290.91	566.44
291.141	558.44
291.371	572.44
291.602	555.44
291.833	564.44
292.064	559.44
292.295	550.44
292.526	579.44
292.757	584.44
292.987	556.44
293.218	574.44
293.449	572.44
293.68	548.44
293.91	575.44
294.141	585.44
294.372	564.44
294.603	551.44
294.833	550.44
295.064	571.44
295.295	582.44
295.525	561.44
295.756	577.44
295.987	550.44
296.217	576.44
296.448	576.44
296.679	586.44
296.909	584.44
297.14	596.44
297.37	602.44
297.601	593.44
297.831	602.44
298.062	619.44
298.292	605.44
298.523	615.44
298.753	610.44
298.984	618.44
299.214	636.44
299.445	628.44
299.675	613.44
299.905	631.44
300.136	617.44
300.366	659.44
300.597	658.44
300.827	667.44
301.057	628.44
301.288	636.44
301.518	667.44
301.748	646.44
301.979	615.44
302.209	648.44
302.439	660.44
302.669	675.44
302.9	629.44
303.13	617.44
303.36	651.44
303.59	644.44
303.82	651.44
304.051	677.44
304.281	664.44
304.511	632.44
304.741	655.44
304.971	659.44
305.201	681.44
305.431	690.44
305.661	709.44
305.891	675.44
306.121	648.44
306.352	638.44
306.582	657.44
306.812	639.44
307.042	666.44
307.272	640.44
307.502	671.44
307.731	650.44
307.961	638.44
308.191	635.44
308.421	652.44
308.651	673.44
308.881	651.44
309.111	671.44
309.341	641.44
309.571	670.44
309.8	687.44
310.03	686.44
310.26	695.44
310.49	718.44
310.72	666.44
310.949	664.44
311.179	676.44
311.409	676.44
311.639	681.44
311.868	686.44
312.098	688.44
312.328	706.44
312.557	700.44
312.787	677.44
313.017	701.44
313.246	715.44
313.476	721.44
313.706	733.44
313.935	709.44
314.165	716.44
314.394	694.44
314.624	710.44
314.853	691.44
315.083	710.44
315.312	734.44
315.542	722.44
315.771	718.44
316.001	708.44
316.23	730.44
316.46	718.44
316.689	710.44
316.919	729.44
317.148	714.44
317.377	730.44
317.607	723.44
317.836	705.44
318.065	727.44
318.295	732.44
318.524	748.44
318.753	711.44
318.983	732.44
319.212	711.44
319.441	731.44
319.67	761.44
319.9	708.44
320.129	742.44
320.358	727.44
320.587	742.44
320.816	737.44
321.046	762.44
321.275	761.44
321.504	743.44
321.733	791.44
321.962	737.44
322.191	766.44
322.42	760.44
322.649	749.44
322.878	759.44
323.108	741.44
323.337	752.44
323.566	798.44
323.795	770.44
324.024	789.44
324.253	754.44
324.482	760.44
324.71	801.44
324.939	807.44
325.168	774.44
325.397	781.44
325.626	795.44
325.855	811.44
326.084	795.44
326.313	807.44
326.542	793.44
326.77	790.44
326.999	816.44
327.228	761.44
327.457	800.44
327.686	791.44
327.914	826.44
328.143	825.44
328.372	835.44
328.6	822.44
328.829	820.44
329.058	806.44
329.287	810.44
329.515	841.44
329.744	825.44
329.972	821.44
330.201	834.44
330.43	838.44
330.658	859.44
330.887	864.44
331.115	851.44
331.344	834.44
331.572	864.44
331.801	886.44
332.03	872.44
332.258	840.44
332.486	881.44
332.715	884.44
332.943	906.44
333.172	925.44
333.4	911.44
333.629	929.44
333.857	934.44
334.085	945.44
334.314	941.44
334.542	948.44
334.771	956.44
334.999	985.44
335.227	961.44
335.455	974.44
335.684	964.44
335.912	942.44
336.14	965.44
336.369	956.44
336.597	987.44
336.825	938.44
337.053	961.44
337.281	975.44
337.51	939.44
337.738	968.44
337.966	959.44
338.194	966.44
338.422	933.44
338.65	935.44
338.878	921.44
339.106	938.44
339.334	928.44
339.562	918.44
339.79	898.44
340.018	889.44
340.246	880.44
340.474	865.44
340.702	888.44
340.93	883.44
341.158	905.44
341.386	925.44
341.614	974.44
341.842	952.44
342.07	895.44
342.298	894.44
342.526	912.44
342.754	916.44
342.981	901.44
343.209	910.44
343.437	939.44
343.665	913.44
343.893	931.44
344.12	970.44
344.348	940.44
344.576	973.44
344.804	965.44
345.031	938.44
345.259	947.44
345.487	939.44
345.714	936.44
345.942	934.44
346.17	968.44
346.397	942.44
346.625	894.44
346.853	862.44
347.08	853.44
347.308	869.44
347.535	862.44
347.763	826.44
347.99	864.44
348.218	882.44
348.445	868.44
348.673	872.44
348.9	868.44
349.128	874.44
349.355	900.44
349.583	907.44
349.81	848.44
350.037	838.44
350.265	853.44
350.492	835.44
350.72	867.44
350.947	852.44
351.174	899.44
351.402	912.44
351.629	939.44
351.856	919.44
352.083	881.44
352.311	895.44
352.538	926.44
352.765	924.44
352.992	848.44
353.22	850.44
353.447	818.44
353.674	819.44
353.901	793.44
354.128	837.44
354.355	843.44
354.583	829.44
354.81	845.44
355.037	815.44
355.264	814.44
355.491	822.44
355.718	845.44
355.945	845.44
356.172	816.44
356.399	846.44
356.626	832.44
356.853	912.44
357.08	862.44
357.307	824.44
357.534	830.44
357.761	831.44
357.988	843.44
358.215	832.44
358.441	830.44
358.668	835.44
358.895	849.44
359.122	845.44
359.349	821.44
359.576	842.44
359.802	881.44
360.029	830.44
360.256	844.44
360.483	858.44
360.709	823.44
360.936	850.44
361.163	853.44
361.39	864.44
361.616	869.44
361.843	880.44
362.07	910.44
362.296	909.44
362.523	883.44
362.749	835.44
362.976	843.44
363.203	825.44
363.429	856.44
363.656	834.44
363.882	837.44
364.109	844.44
364.335	851.44
364.562	837.44
364.788	837.44
365.015	852.44
365.241	849.44
365.468	856.44
365.694	853.44
365.92	830.44
366.147	833.44
366.373	872.44
366.599	868.44
366.826	859.44
367.052	861.44
367.278	859.44
367.505	865.44
367.731	873.44
367.957	843.44
368.184	862.44
368.41	863.44
368.636	855.44
368.862	878.44
369.089	875.44
369.315	858.44
369.541	879.44
369.767	854.44
369.993	881.44
370.219	886.44
370.445	884.44
370.672	869.44
370.898	869.44
371.124	917.44
371.35	890.44
371.576	922.44
371.802	908.44
372.028	906.44
372.254	907.44
372.48	905.44
372.706	920.44
372.932	914.44
373.158	906.44
373.384	916.44
373.61	907.44
373.835	923.44
374.061	914.44
374.287	898.44
374.513	911.44
374.739	934.44
374.965	945.44
375.191	960.44
375.416	927.44
375.642	926.44
375.868	943.44
376.094	911.44
376.319	894.44
376.545	931.44
376.771	891.44
376.997	907.44
377.222	875.44
377.448	913.44
377.674	922.44
377.899	884.44
378.125	887.44
378.35	902.44
378.576	914.44
378.802	894.44
379.027	887.44
379.253	902.44
379.478	884.44
379.704	908.44
379.929	883.44
380.155	874.44
380.38	862.44
380.606	894.44
380.831	898.44
381.057	886.44
381.282	878.44
381.507	896.44
381.733	893.44
381.958	913.44
382.184	918.44
382.409	926.44
382.634	928.44
382.86	915.44
383.085	935.44
383.31	953.44
383.535	931.44
383.761	938.44
383.986	968.44
384.211	960.44
384.436	990.44
384.662	981.44
384.887	959.44
385.112	950.44
385.337	990.44
385.562	1009.44
385.787	995.44
386.013	1026.44
386.238	982.44
386.463	1026.44
386.688	1013.44
386.913	1023.44
387.138	1037.44
387.363	1029.44
387.588	1017.44
387.813	1031.44
388.038	1015.44
388.263	1017.44
388.488	1016.44
388.713	1029.44
388.938	1044.44
389.163	1016.44
389.387	1047.44
389.612	1043.44
389.837	1036.44
390.062	1043.44
390.287	1015.44
390.512	1044.44
390.736	1021.44
390.961	1066.44
391.186	1058.44
391.411	1063.44
391.636	1070.44
391.86	1093.44
392.085	1090.44
392.31	1086.44
392.534	1100.44
392.759	1095.44
392.984	1080.44
393.208	1097.44
393.433	1094.44
393.658	1094.44
393.882	1056.44
394.107	1081.44
394.331	1099.44
394.556	1070.44
394.78	1074.44
395.005	1061.44
395.229	1087.44
395.454	1068.44
395.678	1089.44
395.903	1088.44
396.127	1101.44
396.352	1112.44
396.576	1110.44
396.801	1106.44
397.025	1114.44
397.249	1121.44
397.474	1130.44
397.698	1134.44
397.922	1159.44
398.147	1158.44
398.371	1188.44
398.595	1212.44
398.82	1239.44
399.044	1220.44
399.268	1302.44
399.492	1371.44
399.717	1415.44
399.941	1408.44
400.165	1387.44
400.389	1347.44
400.613	1320.44
400.837	1262.44
401.062	1278.44
401.286	1242.44
401.51	1206.44
401.734	1203.44
401.958	1219.44
402.182	1199.44
402.406	1205.44
402.63	1248.44
402.854	1248.44
403.078	1214.44
403.302	1250.44
403.526	1259.44
403.75	1234.44
403.974	1237.44
404.198	1223.44
404.422	1291.44
404.645	1252.44
404.869	1259.44
405.093	1259.44
405.317	1236.44
405.541	1281.44
405.765	1244.44
405.988	1277.44
406.212	1294.44
406.436	1287.44
406.66	1300.44
406.883	1298.44
407.107	1342.44
407.331	1375.44
407.555	1417.44
407.778	1398.44
408.002	1377.44
408.226	1372.44
408.449	1390.44
408.673	1354.44
408.896	1349.44
409.12	1320.44
409.344	1345.44
409.567	1340.44
409.791	1325.44
410.014	1289.44
410.238	1264.44
410.461	1302.44
410.685	1271.44
410.908	1251.44
411.132	1267.44
411.355	1263.44
411.578	1224.44
411.802	1268.44
412.025	1259.44
412.249	1252.44
412.472	1271.44
412.695	1230.44
412.919	1250.44
413.142	1237.44
413.365	1206.44
413.589	1242.44
413.812	1224.44
414.035	1184.44
414.258	1228.44
414.482	1217.44
414.705	1240.44
414.928	1189.44
415.151	1230.44
415.374	1214.44
415.597	1194.44
415.821	1225.44
416.044	1172.44
416.267	1176.44
416.49	1182.44
416.713	1179.44
416.936	1193.44
417.159	1153.44
417.382	1180.44
417.605	1150.44
417.828	1182.44
418.051	1144.44
418.274	1187.44
418.497	1159.44
418.72	1194.44
418.943	1148.44
419.166	1211.44
419.389	1275.44
419.611	1271.44
419.834	1255.44
420.057	1210.44
420.28	1175.44
420.503	1170.44
420.726	1128.44
420.948	1170.44
421.171	1148.44
421.394	1150.44
421.617	1162.44
421.839	1140.44
422.062	1160.44
422.285	1162.44
422.507	1185.44
422.73	1157.44
422.953	1150.44
423.175	1139.44
423.398	1146.44
423.621	1145.44
423.843	1161.44
424.066	1169.44
424.288	1147.44
424.511	1178.44
424.733	1157.44
424.956	1160.44
425.178	1160.44
425.401	1143.44
425.623	1169.44
425.846	1146.44
426.068	1152.44
426.291	1142.44
426.513	1131.44
426.735	1154.44
426.958	1124.44
427.18	1130.44
427.402	1119.44
427.625	1142.44
427.847	1103.44
428.069	1074.44
428.292	1115.44
428.514	1103.44
428.736	1084.44
428.958	1083.44
429.181	1093.44
429.403	1107.44
429.625	1130.44
429.847	1101.44
430.069	1088.44
430.292	1114.44
430.514	1094.44
430.736	1084.44
430.958	1092.44
431.18	1100.44
431.402	1112.44
431.624	1114.44
431.846	1099.44
432.068	1116.44
432.29	1157.44
432.512	1106.44
432.734	1115.44
432.956	1143.44
433.178	1159.44
433.4	1165.44
433.622	1180.44
433.844	1170.44
434.066	1156.44
434.287	1154.44
434.509	1136.44
434.731	1158.44
434.953	1167.44
435.175	1170.44
435.397	1222.44
435.618	1198.44
435.84	1134.44
436.062	1124.44
436.284	1136.44
436.505	1128.44
436.727	1152.44
436.949	1106.44
437.17	1119.44
437.392	1099.44
437.614	1092.44
437.835	1070.44
438.057	1091.44
438.278	1075.44
438.5	1065.44
438.721	1086.44
438.943	1112.44
439.165	1094.44
439.386	1096.44
439.608	1088.44
439.829	1093.44
440.05	1112.44
440.272	1123.44
440.493	1152.44
440.715	1152.44
440.936	1133.44
441.158	1124.44
441.379	1154.44
441.6	1187.44
441.822	1186.44
442.043	1158.44
442.264	1210.44
442.486	1153.44
442.707	1156.44
442.928	1158.44
443.149	1169.44
443.371	1162.44
443.592	1232.44
443.813	1210.44
444.034	1180.44
444.255	1200.44
444.476	1235.44
444.698	1229.44
444.919	1241.44
445.14	1358.44
445.361	1312.44
445.582	1232.44
445.803	1167.44
446.024	1109.44
446.245	1137.44
446.466	1102.44
446.687	1104.44
446.908	1105.44
447.129	1097.44
447.35	1059.44
447.571	1075.44
447.792	1031.44
448.013	1068.44
448.234	1034.44
448.455	1040.44
448.675	1079.44
448.896	1043.44
449.117	1023.44
449.338	1031.44
449.559	1015.44
449.779	1031.44
450	1015.44
450.221	1010.44
450.442	1040.44
450.662	1037.44
450.883	1028.44
451.104	1037.44
451.324	1014.44
451.545	1015.44
451.766	1026.44
451.986	1021.44
452.207	1025.44
452.428	1008.44
452.648	986.44
452.869	992.44
453.089	1024.44
453.31	1008.44
453.53	1016.44
453.751	969.44
453.971	1004.44
454.192	1013.44
454.412	992.44
454.633	990.44
454.853	986.44
455.073	967.44
455.294	982.44
455.514	1014.44
455.734	1030.44
455.955	1043.44
456.175	1015.44
456.395	975.44
456.616	979.44
456.836	981.44
457.056	1014.44
457.276	944.44
457.497	1040.44
457.717	1017.44
457.937	1002.44
458.157	1038.44
458.377	1047.44
458.598	1010.44
458.818	1026.44
459.038	1043.44
459.258	1100.44
459.478	1163.44
459.698	1230.44
459.918	1263.44
460.138	1240.44
460.358	1202.44
460.578	1206.44
460.798	1242.44
461.018	1252.44
461.238	1203.44
461.458	1178.44
461.678	1199.44
461.898	1217.44
462.118	1231.44
462.338	1249.44
462.558	1314.44
462.777	1319.44
462.997	1365.44
463.217	1404.44
463.437	1461.44
463.657	1403.44
463.876	1326.44
464.096	1370.44
464.316	1326.44
464.536	1290.44
464.755	1266.44
464.975	1233.44
465.195	1217.44
465.414	1226.44
465.634	1180.44
465.854	1148.44
466.073	1147.44
466.293	1123.44
466.512	1098.44
466.732	1096.44
466.951	1098.44
467.171	1099.44
467.391	1088.44
467.61	1071.44
467.829	1072.44
468.049	1080.44
468.268	1048.44
468.488	1052.44
468.707	1039.44
468.927	1059.44
469.146	1054.44
469.365	1100.44
469.585	1087.44
469.804	1062.44
470.023	1076.44
470.243	1067.44
470.462	1074.44
470.681	1104.44
470.901	1086.44
471.12	1087.44
471.339	1049.44
471.558	1050.44
471.777	1097.44
471.997	1066.44
472.216	1066.44
472.435	1040.44
472.654	1059.44
472.873	1044.44
473.092	1066.44
473.311	1070.44
473.53	1047.44
473.749	1032.44
473.968	1067.44
474.187	1055.44
474.406	1035.44
474.625	1050.44
474.844	1067.44
475.063	1086.44
475.282	1110.44
475.501	1114.44
475.72	1089.44
475.939	1106.44
476.158	1100.44
476.377	1095.44
476.596	1100.44
476.814	1110.44
477.033	1115.44
477.252	1145.44
477.471	1150.44
477.69	1138.44
477.908	1202.44
478.127	1220.44
478.346	1241.44
478.564	1226.44
478.783	1230.44
479.002	1239.44
479.22	1315.44
479.439	1323.44
479.658	1265.44
479.876	1286.44
480.095	1274.44
480.313	1298.44
480.532	1281.44
480.751	1280.44
480.969	1293.44
481.188	1244.44
481.406	1217.44
481.624	1242.44
481.843	1234.44
482.061	1248.44
482.28	1267.44
482.498	1270.44
482.717	1270.44
482.935	1269.44
483.153	1241.44
483.372	1278.44
483.59	1293.44
483.808	1308.44
484.027	1260.44
484.245	1257.44
484.463	1260.44
484.681	1280.44
484.9	1274.44
485.118	1264.44
485.336	1262.44
485.554	1264.44
485.772	1279.44
485.99	1311.44
486.209	1280.44
486.427	1275.44
486.645	1291.44
486.863	1296.44
487.081	1288.44
487.299	1297.44
487.517	1269.44
487.735	1340.44
487.953	1356.44
488.171	1328.44
488.389	1278.44
488.607	1276.44
488.825	1329.44
489.043	1272.44
489.261	1264.44
489.479	1266.44
489.696	1292.44
489.914	1321.44
490.132	1297.44
490.35	1310.44
490.568	1310.44
490.786	1290.44
491.003	1301.44
491.221	1313.44
491.439	1322.44
491.657	1335.44
491.874	1316.44
492.092	1323.44
492.31	1334.44
492.527	1344.44
492.745	1344.44
492.963	1334.44
493.18	1376.44
493.398	1367.44
493.615	1319.44
493.833	1327.44
494.05	1340.44
494.268	1353.44
494.485	1346.44
494.703	1365.44
494.92	1367.44
