Data from Ni(NO3)2@0.125M.TitratingCurve.Agarose3%dH2O.NegLispCup.LampEnergy10.LIBS07252019_HRD10591_18-09-57-567.txt Node
Date: Thu Jul 25 18:09:57 EDT 2019
User: cochatt
Spectrometer: HR+D1059
Trigger mode: 1
Integration Time (sec): 1.000000E-1
Scans to average: 1
Electric dark correction enabled: true
Nonlinearity correction enabled: false
Boxcar width: 0
XAxis mode: Wavelengths
Number of Pixels in Spectrum: 2048
>>>>>Begin Spectral Data<<<<<
223.165	-9.5
223.4	-9.5
223.635	-9.5
223.869	-22.5
224.104	-28.5
224.338	-18.5
224.573	-16.5
224.808	-12.5
225.042	-12.5
225.277	10.5
225.511	-10.5
225.746	-6.5
225.98	15.5
226.215	18.5
226.449	27.5
226.683	17.5
226.918	20.5
227.152	27.5
227.387	31.5
227.621	33.5
227.856	39.5
228.09	56.5
228.324	50.5
228.559	58.5
228.793	72.5
229.027	105.5
229.262	106.5
229.496	118.5
229.73	111.5
229.964	124.5
230.199	115.5
230.433	137.5
230.667	131.5
230.901	135.5
231.136	127.5
231.37	119.5
231.604	126.5
231.838	132.5
232.072	143.5
232.306	144.5
232.541	142.5
232.775	135.5
233.009	138.5
233.243	139.5
233.477	152.5
233.711	140.5
233.945	158.5
234.179	128.5
234.413	148.5
234.647	149.5
234.881	140.5
235.115	145.5
235.349	143.5
235.583	153.5
235.817	156.5
236.051	158.5
236.285	139.5
236.519	143.5
236.753	153.5
236.987	155.5
237.221	156.5
237.455	161.5
237.689	153.5
237.922	157.5
238.156	154.5
238.39	155.5
238.624	158.5
238.858	154.5
239.091	165.5
239.325	141.5
239.559	188.5
239.793	175.5
240.027	163.5
240.26	159.5
240.494	179.5
240.728	177.5
240.961	165.5
241.195	163.5
241.429	160.5
241.662	168.5
241.896	202.5
242.13	174.5
242.363	173.5
242.597	205.5
242.83	190.5
243.064	184.5
243.298	186.5
243.531	192.5
243.765	198.5
243.998	193.5
244.232	202.5
244.465	214.5
244.699	215.5
244.932	202.5
245.166	208.5
245.399	197.5
245.633	206.5
245.866	223.5
246.099	199.5
246.333	212.5
246.566	209.5
246.8	213.5
247.033	231.5
247.266	224.5
247.5	220.5
247.733	218.5
247.966	211.5
248.2	208.5
248.433	227.5
248.666	234.5
248.899	226.5
249.133	228.5
249.366	227.5
249.599	257.5
249.832	238.5
250.066	239.5
250.299	229.5
250.532	234.5
250.765	239.5
250.998	263.5
251.231	250.5
251.465	249.5
251.698	243.5
251.931	260.5
252.164	263.5
252.397	258.5
252.63	281.5
252.863	278.5
253.096	263.5
253.329	252.5
253.562	260.5
253.795	245.5
254.028	261.5
254.261	257.5
254.494	285.5
254.727	269.5
254.96	251.5
255.193	275.5
255.426	259.5
255.659	270.5
255.892	266.5
256.124	270.5
256.357	269.5
256.59	278.5
256.823	276.5
257.056	297.5
257.289	279.5
257.521	285.5
257.754	287.5
257.987	300.5
258.22	302.5
258.452	287.5
258.685	292.5
258.918	298.5
259.151	280.5
259.383	267.5
259.616	290.5
259.849	298.5
260.081	303.5
260.314	313.5
260.547	302.5
260.779	312.5
261.012	316.5
261.244	296.5
261.477	296.5
261.71	320.5
261.942	313.5
262.175	331.5
262.407	307.5
262.64	319.5
262.872	334.5
263.105	333.5
263.337	321.5
263.57	304.5
263.802	301.5
264.035	320.5
264.267	330.5
264.499	329.5
264.732	318.5
264.964	330.5
265.197	325.5
265.429	328.5
265.661	326.5
265.894	311.5
266.126	342.5
266.358	341.5
266.591	336.5
266.823	339.5
267.055	331.5
267.287	349.5
267.52	363.5
267.752	341.5
267.984	359.5
268.216	351.5
268.448	364.5
268.681	375.5
268.913	356.5
269.145	352.5
269.377	353.5
269.609	353.5
269.841	364.5
270.073	346.5
270.306	353.5
270.538	371.5
270.77	353.5
271.002	362.5
271.234	367.5
271.466	373.5
271.698	363.5
271.93	363.5
272.162	351.5
272.394	372.5
272.626	359.5
272.858	375.5
273.09	389.5
273.322	385.5
273.553	383.5
273.785	383.5
274.017	381.5
274.249	378.5
274.481	379.5
274.713	393.5
274.945	375.5
275.176	391.5
275.408	405.5
275.64	379.5
275.872	371.5
276.104	402.5
276.335	405.5
276.567	391.5
276.799	401.5
277.031	402.5
277.262	411.5
277.494	415.5
277.726	427.5
277.957	410.5
278.189	400.5
278.421	413.5
278.652	399.5
278.884	412.5
279.115	435.5
279.347	423.5
279.579	431.5
279.81	440.5
280.042	432.5
280.273	427.5
280.505	419.5
280.736	424.5
280.968	428.5
281.199	446.5
281.431	433.5
281.662	432.5
281.894	432.5
282.125	451.5
282.356	465.5
282.588	444.5
282.819	432.5
283.051	437.5
283.282	438.5
283.513	436.5
283.745	448.5
283.976	445.5
284.207	451.5
284.439	470.5
284.67	468.5
284.901	479.5
285.132	456.5
285.364	459.5
285.595	469.5
285.826	464.5
286.057	457.5
286.288	474.5
286.52	479.5
286.751	479.5
286.982	480.5
287.213	469.5
287.444	501.5
287.675	469.5
287.906	480.5
288.138	493.5
288.369	506.5
288.6	511.5
288.831	512.5
289.062	485.5
289.293	495.5
289.524	492.5
289.755	498.5
289.986	485.5
290.217	503.5
290.448	507.5
290.679	481.5
290.91	515.5
291.141	507.5
291.371	522.5
291.602	501.5
291.833	478.5
292.064	495.5
292.295	490.5
292.526	526.5
292.757	517.5
292.987	494.5
293.218	489.5
293.449	507.5
293.68	493.5
293.91	497.5
294.141	500.5
294.372	513.5
294.603	503.5
294.833	506.5
295.064	517.5
295.295	505.5
295.525	520.5
295.756	548.5
295.987	533.5
296.217	539.5
296.448	538.5
296.679	510.5
296.909	519.5
297.14	504.5
297.37	540.5
297.601	517.5
297.831	550.5
298.062	547.5
298.292	543.5
298.523	560.5
298.753	568.5
298.984	549.5
299.214	541.5
299.445	552.5
299.675	521.5
299.905	539.5
300.136	556.5
300.366	557.5
300.597	552.5
300.827	588.5
301.057	587.5
301.288	574.5
301.518	596.5
301.748	569.5
301.979	609.5
302.209	591.5
302.439	565.5
302.669	577.5
302.9	575.5
303.13	556.5
303.36	557.5
303.59	557.5
303.82	570.5
304.051	569.5
304.281	577.5
304.511	577.5
304.741	563.5
304.971	567.5
305.201	565.5
305.431	553.5
305.661	588.5
305.891	554.5
306.121	565.5
306.352	576.5
306.582	556.5
306.812	547.5
307.042	570.5
307.272	573.5
307.502	553.5
307.731	552.5
307.961	560.5
308.191	552.5
308.421	566.5
308.651	571.5
308.881	551.5
309.111	558.5
309.341	528.5
309.571	571.5
309.8	576.5
310.03	551.5
310.26	585.5
310.49	589.5
310.72	571.5
310.949	576.5
311.179	547.5
311.409	578.5
311.639	552.5
311.868	563.5
312.098	574.5
312.328	579.5
312.557	589.5
312.787	575.5
313.017	613.5
313.246	636.5
313.476	605.5
313.706	610.5
313.935	601.5
314.165	601.5
314.394	593.5
314.624	604.5
314.853	621.5
315.083	624.5
315.312	627.5
315.542	625.5
315.771	607.5
316.001	613.5
316.23	600.5
316.46	582.5
316.689	602.5
316.919	577.5
317.148	589.5
317.377	597.5
317.607	599.5
317.836	572.5
318.065	597.5
318.295	609.5
318.524	609.5
318.753	598.5
318.983	570.5
319.212	584.5
319.441	582.5
319.67	581.5
319.9	599.5
320.129	598.5
320.358	598.5
320.587	593.5
320.816	601.5
321.046	639.5
321.275	599.5
321.504	580.5
321.733	612.5
321.962	611.5
322.191	605.5
322.42	609.5
322.649	620.5
322.878	605.5
323.108	609.5
323.337	633.5
323.566	629.5
323.795	601.5
324.024	627.5
324.253	638.5
324.482	608.5
324.71	637.5
324.939	622.5
325.168	641.5
325.397	632.5
325.626	621.5
325.855	651.5
326.084	643.5
326.313	654.5
326.542	686.5
326.77	677.5
326.999	674.5
327.228	680.5
327.457	651.5
327.686	650.5
327.914	670.5
328.143	656.5
328.372	645.5
328.6	661.5
328.829	673.5
329.058	649.5
329.287	665.5
329.515	663.5
329.744	667.5
329.972	685.5
330.201	678.5
330.43	665.5
330.658	678.5
330.887	681.5
331.115	686.5
331.344	706.5
331.572	713.5
331.801	718.5
332.03	734.5
332.258	735.5
332.486	790.5
332.715	819.5
332.943	803.5
333.172	863.5
333.4	895.5
333.629	897.5
333.857	898.5
334.085	913.5
334.314	889.5
334.542	873.5
334.771	883.5
334.999	859.5
335.227	837.5
335.455	851.5
335.684	816.5
335.912	823.5
336.14	795.5
336.369	800.5
336.597	814.5
336.825	794.5
337.053	805.5
337.281	771.5
337.51	780.5
337.738	783.5
337.966	768.5
338.194	746.5
338.422	713.5
338.65	712.5
338.878	734.5
339.106	731.5
339.334	749.5
339.562	717.5
339.79	717.5
340.018	705.5
340.246	668.5
340.474	696.5
340.702	699.5
340.93	697.5
341.158	694.5
341.386	675.5
341.614	695.5
341.842	713.5
342.07	693.5
342.298	705.5
342.526	662.5
342.754	692.5
342.981	737.5
343.209	742.5
343.437	760.5
343.665	782.5
343.893	862.5
344.12	875.5
344.348	838.5
344.576	793.5
344.804	765.5
345.031	716.5
345.259	730.5
345.487	737.5
345.714	716.5
345.942	693.5
346.17	683.5
346.397	683.5
346.625	704.5
346.853	678.5
347.08	677.5
347.308	680.5
347.535	694.5
347.763	708.5
347.99	698.5
348.218	683.5
348.445	673.5
348.673	667.5
348.9	645.5
349.128	677.5
349.355	678.5
349.583	689.5
349.81	673.5
350.037	654.5
350.265	649.5
350.492	643.5
350.72	681.5
350.947	649.5
351.174	651.5
351.402	654.5
351.629	654.5
351.856	640.5
352.083	648.5
352.311	654.5
352.538	639.5
352.765	661.5
352.992	664.5
353.22	664.5
353.447	635.5
353.674	629.5
353.901	635.5
354.128	653.5
354.355	643.5
354.583	669.5
354.81	645.5
355.037	684.5
355.264	645.5
355.491	675.5
355.718	653.5
355.945	673.5
356.172	659.5
356.399	658.5
356.626	654.5
356.853	668.5
357.08	648.5
357.307	671.5
357.534	661.5
357.761	669.5
357.988	678.5
358.215	650.5
358.441	653.5
358.668	646.5
358.895	678.5
359.122	674.5
359.349	655.5
359.576	662.5
359.802	645.5
360.029	659.5
360.256	675.5
360.483	650.5
360.709	646.5
360.936	662.5
361.163	653.5
361.39	653.5
361.616	639.5
361.843	649.5
362.07	673.5
362.296	676.5
362.523	671.5
362.749	658.5
362.976	642.5
363.203	675.5
363.429	606.5
363.656	647.5
363.882	657.5
364.109	644.5
364.335	651.5
364.562	671.5
364.788	623.5
365.015	656.5
365.241	677.5
365.468	654.5
365.694	668.5
365.92	641.5
366.147	667.5
366.373	627.5
366.599	641.5
366.826	653.5
367.052	656.5
367.278	674.5
367.505	647.5
367.731	653.5
367.957	640.5
368.184	683.5
368.41	675.5
368.636	661.5
368.862	676.5
369.089	677.5
369.315	673.5
369.541	655.5
369.767	676.5
369.993	685.5
370.219	684.5
370.445	715.5
370.672	673.5
370.898	695.5
371.124	704.5
371.35	725.5
371.576	706.5
371.802	717.5
372.028	708.5
372.254	713.5
372.48	705.5
372.706	739.5
372.932	740.5
373.158	729.5
373.384	712.5
373.61	711.5
373.835	733.5
374.061	709.5
374.287	714.5
374.513	713.5
374.739	745.5
374.965	786.5
375.191	792.5
375.416	796.5
375.642	775.5
375.868	747.5
376.094	740.5
376.319	745.5
376.545	717.5
376.771	725.5
376.997	692.5
377.222	704.5
377.448	720.5
377.674	705.5
377.899	723.5
378.125	691.5
378.35	711.5
378.576	685.5
378.802	695.5
379.027	711.5
379.253	691.5
379.478	697.5
379.704	711.5
379.929	703.5
380.155	698.5
380.38	699.5
380.606	724.5
380.831	720.5
381.057	684.5
381.282	718.5
381.507	718.5
381.733	713.5
381.958	740.5
382.184	702.5
382.409	724.5
382.634	750.5
382.86	744.5
383.085	780.5
383.31	750.5
383.535	781.5
383.761	770.5
383.986	789.5
384.211	823.5
384.436	837.5
384.662	849.5
384.887	861.5
385.112	857.5
385.337	891.5
385.562	837.5
385.787	871.5
386.013	861.5
386.238	883.5
386.463	876.5
386.688	855.5
386.913	851.5
387.138	867.5
387.363	819.5
387.588	849.5
387.813	841.5
388.038	824.5
388.263	825.5
388.488	855.5
388.713	861.5
388.938	829.5
389.163	843.5
389.387	810.5
389.612	814.5
389.837	839.5
390.062	835.5
390.287	830.5
390.512	817.5
390.736	886.5
390.961	848.5
391.186	865.5
391.411	886.5
391.636	941.5
391.86	937.5
392.085	994.5
392.31	954.5
392.534	905.5
392.759	920.5
392.984	895.5
393.208	904.5
393.433	904.5
393.658	892.5
393.882	899.5
394.107	922.5
394.331	947.5
394.556	927.5
394.78	917.5
395.005	927.5
395.229	921.5
395.454	950.5
395.678	977.5
395.903	973.5
396.127	960.5
396.352	929.5
396.576	892.5
396.801	887.5
397.025	887.5
397.249	905.5
397.474	945.5
397.698	953.5
397.922	935.5
398.147	963.5
398.371	975.5
398.595	1009.5
398.82	1037.5
399.044	1132.5
399.268	1226.5
399.492	1482.5
399.717	1653.5
399.941	1655.5
400.165	1437.5
400.389	1273.5
400.613	1180.5
400.837	1121.5
401.062	1097.5
401.286	1077.5
401.51	1037.5
401.734	1068.5
401.958	1062.5
402.182	1089.5
402.406	1100.5
402.63	1153.5
402.854	1163.5
403.078	1172.5
403.302	1185.5
403.526	1241.5
403.75	1281.5
403.974	1285.5
404.198	1276.5
404.422	1290.5
404.645	1249.5
404.869	1216.5
405.093	1235.5
405.317	1203.5
405.541	1217.5
405.765	1167.5
405.988	1173.5
406.212	1152.5
406.436	1167.5
406.66	1219.5
406.883	1249.5
407.107	1326.5
407.331	1390.5
407.555	1380.5
407.778	1437.5
408.002	1365.5
408.226	1300.5
408.449	1307.5
408.673	1234.5
408.896	1214.5
409.12	1218.5
409.344	1230.5
409.567	1244.5
409.791	1250.5
410.014	1229.5
410.238	1212.5
410.461	1198.5
410.685	1182.5
410.908	1149.5
411.132	1164.5
411.355	1109.5
411.578	1139.5
411.802	1147.5
412.025	1100.5
412.249	1139.5
412.472	1117.5
412.695	1096.5
412.919	1052.5
413.142	1079.5
413.365	1055.5
413.589	1113.5
413.812	1077.5
414.035	1047.5
414.258	1061.5
414.482	1079.5
414.705	1112.5
414.928	1099.5
415.151	1095.5
415.374	1060.5
415.597	1101.5
415.821	1068.5
416.044	1033.5
416.267	1040.5
416.49	1033.5
416.713	1035.5
416.936	1060.5
417.159	1057.5
417.382	1055.5
417.605	1052.5
417.828	1068.5
418.051	1054.5
418.274	1095.5
418.497	1064.5
418.72	1111.5
418.943	1076.5
419.166	1166.5
419.389	1248.5
419.611	1188.5
419.834	1151.5
420.057	1152.5
420.28	1074.5
420.503	1066.5
420.726	1061.5
420.948	1065.5
421.171	1047.5
421.394	1083.5
421.617	1068.5
421.839	1079.5
422.062	1103.5
422.285	1059.5
422.507	1093.5
422.73	1079.5
422.953	1101.5
423.175	1151.5
423.398	1147.5
423.621	1171.5
423.843	1167.5
424.066	1175.5
424.288	1160.5
424.511	1154.5
424.733	1106.5
424.956	1109.5
425.178	1087.5
425.401	1094.5
425.623	1063.5
425.846	1038.5
426.068	1063.5
426.291	1021.5
426.513	1024.5
426.735	980.5
426.958	1004.5
427.18	951.5
427.402	989.5
427.625	967.5
427.847	947.5
428.069	958.5
428.292	953.5
428.514	932.5
428.736	939.5
428.958	962.5
429.181	953.5
429.403	924.5
429.625	907.5
429.847	917.5
430.069	922.5
430.292	932.5
430.514	916.5
430.736	941.5
430.958	931.5
431.18	915.5
431.402	928.5
431.624	918.5
431.846	941.5
432.068	953.5
432.29	975.5
432.512	943.5
432.734	958.5
432.956	934.5
433.178	943.5
433.4	950.5
433.622	972.5
433.844	956.5
434.066	956.5
434.287	974.5
434.509	1004.5
434.731	1049.5
434.953	1029.5
435.175	1075.5
435.397	1037.5
435.618	1006.5
435.84	975.5
436.062	957.5
436.284	950.5
436.505	950.5
436.727	933.5
436.949	962.5
437.17	945.5
437.392	940.5
437.614	933.5
437.835	892.5
438.057	916.5
438.278	928.5
438.5	909.5
438.721	905.5
438.943	923.5
439.165	891.5
439.386	922.5
439.608	971.5
439.829	958.5
440.05	938.5
440.272	986.5
440.493	959.5
440.715	976.5
440.936	1001.5
441.158	992.5
441.379	1018.5
441.6	1081.5
441.822	1080.5
442.043	1068.5
442.264	1059.5
442.486	1063.5
442.707	1060.5
442.928	1039.5
443.149	1043.5
443.371	1072.5
443.592	1045.5
443.813	1111.5
444.034	1095.5
444.255	1130.5
444.476	1173.5
444.698	1258.5
444.919	1294.5
445.14	1352.5
445.361	1200.5
445.582	1108.5
445.803	1006.5
446.024	989.5
446.245	1009.5
446.466	993.5
446.687	958.5
446.908	974.5
447.129	951.5
447.35	921.5
447.571	932.5
447.792	891.5
448.013	883.5
448.234	893.5
448.455	870.5
448.675	876.5
448.896	894.5
449.117	853.5
449.338	847.5
449.559	853.5
449.779	864.5
450	845.5
450.221	868.5
450.442	886.5
450.662	877.5
450.883	909.5
451.104	913.5
451.324	899.5
451.545	870.5
451.766	905.5
451.986	887.5
452.207	879.5
452.428	881.5
452.648	897.5
452.869	852.5
453.089	855.5
453.31	894.5
453.53	851.5
453.751	844.5
453.971	852.5
454.192	836.5
454.412	823.5
454.633	842.5
454.853	819.5
455.073	829.5
455.294	837.5
455.514	811.5
455.734	810.5
455.955	793.5
456.175	808.5
456.395	809.5
456.616	768.5
456.836	812.5
457.056	796.5
457.276	786.5
457.497	831.5
457.717	800.5
457.937	811.5
458.157	836.5
458.377	841.5
458.598	847.5
458.818	887.5
459.038	903.5
459.258	932.5
459.478	943.5
459.698	969.5
459.918	1011.5
460.138	1081.5
460.358	1141.5
460.578	1135.5
460.798	1126.5
461.018	1148.5
461.238	1127.5
461.458	1123.5
461.678	1125.5
461.898	1104.5
462.118	1151.5
462.338	1211.5
462.558	1237.5
462.777	1239.5
462.997	1397.5
463.217	1567.5
463.437	1569.5
463.657	1412.5
463.876	1364.5
464.096	1338.5
464.316	1341.5
464.536	1301.5
464.755	1292.5
464.975	1222.5
465.195	1168.5
465.414	1105.5
465.634	1024.5
465.854	1004.5
466.073	987.5
466.293	963.5
466.512	921.5
466.732	902.5
466.951	905.5
467.171	907.5
467.391	911.5
467.61	919.5
467.829	913.5
468.049	911.5
468.268	870.5
468.488	854.5
468.707	859.5
468.927	887.5
469.146	849.5
469.365	847.5
469.585	873.5
469.804	912.5
470.023	928.5
470.243	951.5
470.462	942.5
470.681	959.5
470.901	965.5
471.12	925.5
471.339	909.5
471.558	892.5
471.777	895.5
471.997	864.5
472.216	866.5
472.435	847.5
472.654	867.5
472.873	847.5
473.092	839.5
473.311	861.5
473.53	836.5
473.749	851.5
473.968	836.5
474.187	825.5
474.406	805.5
474.625	862.5
474.844	822.5
475.063	869.5
475.282	871.5
475.501	871.5
475.72	881.5
475.939	883.5
476.158	864.5
476.377	907.5
476.596	873.5
476.814	921.5
477.033	925.5
477.252	928.5
477.471	924.5
477.69	958.5
477.908	982.5
478.127	1003.5
478.346	1027.5
478.564	1025.5
478.783	1074.5
479.002	1108.5
479.22	1098.5
479.439	1087.5
479.658	1052.5
479.876	1023.5
480.095	1065.5
480.313	1148.5
480.532	1163.5
480.751	1148.5
480.969	1104.5
481.188	1062.5
481.406	1023.5
481.624	992.5
481.843	952.5
482.061	954.5
482.28	973.5
482.498	971.5
482.717	924.5
482.935	956.5
483.153	985.5
483.372	965.5
483.59	949.5
483.808	949.5
484.027	947.5
484.245	959.5
484.463	990.5
484.681	987.5
484.9	990.5
485.118	1006.5
485.336	994.5
485.554	1002.5
485.772	1015.5
485.99	1025.5
486.209	1060.5
486.427	1002.5
486.645	1020.5
486.863	1037.5
487.081	1015.5
487.299	1014.5
487.517	1015.5
487.735	1003.5
487.953	1011.5
488.171	1007.5
488.389	1017.5
488.607	1003.5
488.825	977.5
489.043	996.5
489.261	1021.5
489.479	998.5
489.696	1017.5
489.914	1004.5
490.132	1029.5
490.35	1017.5
490.568	1008.5
490.786	1010.5
491.003	994.5
491.221	1045.5
491.439	1041.5
491.657	1023.5
491.874	1042.5
492.092	992.5
492.31	1015.5
492.527	1025.5
492.745	1082.5
492.963	1055.5
493.18	1077.5
493.398	1034.5
493.615	1078.5
493.833	1054.5
494.05	1077.5
494.268	1054.5
494.485	1040.5
494.703	1071.5
494.92	1056.5
495.138	1064.5
495.355	1083.5
495.573	1070.5
495.79	1097.5
496.008	1082.5
496.225	1093.5
496.442	1089.5
496.66	1122.5
496.877	1119.5
497.094	1175.5
497.312	1191.5
497.529	1146.5
497.746	1194.5
497.963	1252.5
498.181	1299.5
498.398	1352.5
498.615	1423.5
498.832	1575.5
499.049	1665.5
499.267	1837.5
499.484	1991.5
499.701	2239.5
499.918	2425.5
500.135	2855.5
500.352	3296.5
500.569	3507.5
500.786	3483.5
501.003	3124.5
501.22	2738.5
501.437	2372.5
501.654	2125.5
501.871	1915.5
502.088	1771.5
502.305	1611.5
502.522	1539.5
502.739	1454.5
502.956	1399.5
503.172	1348.5
503.389	1309.5
503.606	1251.5
503.823	1219.5
504.04	1213.5
504.256	1222.5
504.473	1303.5
504.69	1339.5
504.907	1274.5
505.123	1173.5
505.34	1096.5
505.557	1057.5
505.773	1027.5
505.99	1011.5
506.207	1017.5
506.423	988.5
506.64	995.5
506.856	977.5
507.073	948.5
507.289	945.5
507.506	952.5
507.722	953.5
507.939	961.5
508.155	905.5
508.372	913.5
508.588	883.5
508.805	897.5
509.021	901.5
509.238	879.5
509.454	875.5
509.67	887.5
509.887	837.5
510.103	870.5
510.319	859.5
510.536	858.5
510.752	860.5
510.968	862.5
511.184	849.5
511.401	848.5
511.617	849.5
511.833	854.5
512.049	853.5
512.265	853.5
512.481	864.5
512.698	870.5
512.914	843.5
513.13	833.5
513.346	866.5
513.562	869.5
513.778	859.5
513.994	871.5
514.21	871.5
514.426	841.5
514.642	883.5
514.858	856.5
515.074	868.5
515.29	889.5
