Data from Ni(NO3)2@0.0625M.TitratingCurve.Agarose3%dH2O.NegLispCup.LampEnergy10.LIBS07252019_HRD10591_18-14-29-569.txt Node
Date: Thu Jul 25 18:14:29 EDT 2019
User: cochatt
Spectrometer: HR+D1059
Trigger mode: 1
Integration Time (sec): 1.000000E-1
Scans to average: 1
Electric dark correction enabled: true
Nonlinearity correction enabled: false
Boxcar width: 0
XAxis mode: Wavelengths
Number of Pixels in Spectrum: 2048
>>>>>Begin Spectral Data<<<<<
223.165	-21.56
223.4	-21.56
223.635	-21.56
223.869	-8.56
224.104	-8.56
224.338	-3.56
224.573	-23.56
224.808	-14.56
225.042	-16.56
225.277	-11.56
225.511	3.44
225.746	6.44
225.98	-5.56
226.215	-0.56
226.449	18.44
226.683	23.44
226.918	33.44
227.152	29.44
227.387	24.44
227.621	44.44
227.856	44.44
228.09	43.44
228.324	44.44
228.559	53.44
228.793	56.44
229.027	89.44
229.262	104.44
229.496	99.44
229.73	107.44
229.964	107.44
230.199	124.44
230.433	122.44
230.667	125.44
230.901	117.44
231.136	128.44
231.37	132.44
231.604	136.44
231.838	121.44
232.072	140.44
232.306	150.44
232.541	126.44
232.775	121.44
233.009	125.44
233.243	131.44
233.477	132.44
233.711	136.44
233.945	128.44
234.179	138.44
234.413	103.44
234.647	126.44
234.881	123.44
235.115	142.44
235.349	133.44
235.583	141.44
235.817	132.44
236.051	138.44
236.285	130.44
236.519	138.44
236.753	121.44
236.987	130.44
237.221	143.44
237.455	132.44
237.689	120.44
237.922	137.44
238.156	141.44
238.39	126.44
238.624	144.44
238.858	142.44
239.091	141.44
239.325	148.44
239.559	156.44
239.793	158.44
240.027	162.44
240.26	142.44
240.494	149.44
240.728	144.44
240.961	143.44
241.195	161.44
241.429	162.44
241.662	147.44
241.896	161.44
242.13	173.44
242.363	159.44
242.597	158.44
242.83	158.44
243.064	177.44
243.298	168.44
243.531	160.44
243.765	164.44
243.998	163.44
244.232	161.44
244.465	177.44
244.699	167.44
244.932	162.44
245.166	172.44
245.399	164.44
245.633	172.44
245.866	164.44
246.099	171.44
246.333	170.44
246.566	188.44
246.8	186.44
247.033	184.44
247.266	164.44
247.5	174.44
247.733	189.44
247.966	198.44
248.2	192.44
248.433	189.44
248.666	176.44
248.899	180.44
249.133	192.44
249.366	209.44
249.599	193.44
249.832	198.44
250.066	184.44
250.299	198.44
250.532	200.44
250.765	204.44
250.998	205.44
251.231	214.44
251.465	198.44
251.698	206.44
251.931	195.44
252.164	216.44
252.397	190.44
252.63	233.44
252.863	206.44
253.096	222.44
253.329	202.44
253.562	214.44
253.795	212.44
254.028	234.44
254.261	220.44
254.494	238.44
254.727	214.44
254.96	231.44
255.193	214.44
255.426	214.44
255.659	218.44
255.892	220.44
256.124	209.44
256.357	242.44
256.59	242.44
256.823	219.44
257.056	224.44
257.289	241.44
257.521	228.44
257.754	229.44
257.987	231.44
258.22	251.44
258.452	243.44
258.685	216.44
258.918	230.44
259.151	245.44
259.383	229.44
259.616	235.44
259.849	251.44
260.081	252.44
260.314	250.44
260.547	256.44
260.779	251.44
261.012	257.44
261.244	267.44
261.477	251.44
261.71	247.44
261.942	243.44
262.175	254.44
262.407	264.44
262.64	267.44
262.872	237.44
263.105	245.44
263.337	275.44
263.57	258.44
263.802	285.44
264.035	258.44
264.267	250.44
264.499	270.44
264.732	271.44
264.964	257.44
265.197	270.44
265.429	258.44
265.661	263.44
265.894	272.44
266.126	260.44
266.358	255.44
266.591	267.44
266.823	273.44
267.055	261.44
267.287	276.44
267.52	268.44
267.752	288.44
267.984	280.44
268.216	263.44
268.448	290.44
268.681	271.44
268.913	301.44
269.145	298.44
269.377	296.44
269.609	281.44
269.841	302.44
270.073	275.44
270.306	265.44
270.538	276.44
270.77	299.44
271.002	297.44
271.234	289.44
271.466	306.44
271.698	311.44
271.93	301.44
272.162	299.44
272.394	296.44
272.626	295.44
272.858	292.44
273.09	286.44
273.322	308.44
273.553	305.44
273.785	303.44
274.017	297.44
274.249	304.44
274.481	303.44
274.713	299.44
274.945	323.44
275.176	311.44
275.408	333.44
275.64	330.44
275.872	324.44
276.104	320.44
276.335	320.44
276.567	328.44
276.799	310.44
277.031	315.44
277.262	337.44
277.494	330.44
277.726	325.44
277.957	325.44
278.189	315.44
278.421	324.44
278.652	330.44
278.884	329.44
279.115	339.44
279.347	341.44
279.579	340.44
279.81	331.44
280.042	328.44
280.273	334.44
280.505	340.44
280.736	333.44
280.968	352.44
281.199	364.44
281.431	350.44
281.662	350.44
281.894	381.44
282.125	370.44
282.356	361.44
282.588	356.44
282.819	361.44
283.051	349.44
283.282	376.44
283.513	358.44
283.745	370.44
283.976	368.44
284.207	371.44
284.439	372.44
284.67	375.44
284.901	384.44
285.132	390.44
285.364	370.44
285.595	387.44
285.826	364.44
286.057	380.44
286.288	372.44
286.52	357.44
286.751	388.44
286.982	380.44
287.213	372.44
287.444	373.44
287.675	376.44
287.906	398.44
288.138	401.44
288.369	381.44
288.6	388.44
288.831	384.44
289.062	397.44
289.293	381.44
289.524	407.44
289.755	404.44
289.986	388.44
290.217	399.44
290.448	382.44
290.679	397.44
290.91	391.44
291.141	409.44
291.371	422.44
291.602	403.44
291.833	410.44
292.064	400.44
292.295	395.44
292.526	400.44
292.757	398.44
292.987	408.44
293.218	408.44
293.449	400.44
293.68	424.44
293.91	404.44
294.141	413.44
294.372	403.44
294.603	419.44
294.833	385.44
295.064	423.44
295.295	385.44
295.525	394.44
295.756	419.44
295.987	427.44
296.217	419.44
296.448	428.44
296.679	414.44
296.909	403.44
297.14	430.44
297.37	427.44
297.601	423.44
297.831	445.44
298.062	434.44
298.292	435.44
298.523	460.44
298.753	453.44
298.984	437.44
299.214	448.44
299.445	453.44
299.675	433.44
299.905	450.44
300.136	442.44
300.366	453.44
300.597	453.44
300.827	474.44
301.057	461.44
301.288	462.44
301.518	477.44
301.748	456.44
301.979	449.44
302.209	459.44
302.439	473.44
302.669	474.44
302.9	453.44
303.13	446.44
303.36	459.44
303.59	470.44
303.82	455.44
304.051	466.44
304.281	452.44
304.511	460.44
304.741	466.44
304.971	438.44
305.201	445.44
305.431	462.44
305.661	460.44
305.891	471.44
306.121	438.44
306.352	445.44
306.582	460.44
306.812	468.44
307.042	432.44
307.272	428.44
307.502	456.44
307.731	455.44
307.961	456.44
308.191	452.44
308.421	449.44
308.651	430.44
308.881	448.44
309.111	436.44
309.341	434.44
309.571	454.44
309.8	445.44
310.03	449.44
310.26	470.44
310.49	465.44
310.72	446.44
310.949	432.44
311.179	450.44
311.409	459.44
311.639	454.44
311.868	464.44
312.098	459.44
312.328	454.44
312.557	479.44
312.787	438.44
313.017	464.44
313.246	484.44
313.476	464.44
313.706	476.44
313.935	477.44
314.165	492.44
314.394	471.44
314.624	467.44
314.853	485.44
315.083	459.44
315.312	481.44
315.542	476.44
315.771	473.44
316.001	480.44
316.23	484.44
316.46	470.44
316.689	466.44
316.919	459.44
317.148	448.44
317.377	456.44
317.607	481.44
317.836	484.44
318.065	479.44
318.295	483.44
318.524	485.44
318.753	461.44
318.983	457.44
319.212	460.44
319.441	475.44
319.67	483.44
319.9	465.44
320.129	468.44
320.358	471.44
320.587	476.44
320.816	482.44
321.046	462.44
321.275	472.44
321.504	451.44
321.733	471.44
321.962	471.44
322.191	480.44
322.42	465.44
322.649	468.44
322.878	476.44
323.108	473.44
323.337	485.44
323.566	465.44
323.795	489.44
324.024	514.44
324.253	490.44
324.482	482.44
324.71	496.44
324.939	476.44
325.168	485.44
325.397	498.44
325.626	502.44
325.855	521.44
326.084	494.44
326.313	538.44
326.542	519.44
326.77	522.44
326.999	521.44
327.228	502.44
327.457	525.44
327.686	500.44
327.914	521.44
328.143	508.44
328.372	529.44
328.6	506.44
328.829	544.44
329.058	522.44
329.287	528.44
329.515	508.44
329.744	535.44
329.972	530.44
330.201	525.44
330.43	531.44
330.658	505.44
330.887	543.44
331.115	539.44
331.344	554.44
331.572	535.44
331.801	578.44
332.03	582.44
332.258	590.44
332.486	594.44
332.715	615.44
332.943	642.44
333.172	677.44
333.4	700.44
333.629	693.44
333.857	711.44
334.085	697.44
334.314	687.44
334.542	669.44
334.771	666.44
334.999	660.44
335.227	641.44
335.455	638.44
335.684	638.44
335.912	645.44
336.14	617.44
336.369	630.44
336.597	656.44
336.825	640.44
337.053	635.44
337.281	632.44
337.51	607.44
337.738	622.44
337.966	590.44
338.194	580.44
338.422	594.44
338.65	556.44
338.878	557.44
339.106	574.44
339.334	587.44
339.562	571.44
339.79	538.44
340.018	562.44
340.246	545.44
340.474	536.44
340.702	554.44
340.93	565.44
341.158	564.44
341.386	553.44
341.614	568.44
341.842	569.44
342.07	530.44
342.298	543.44
342.526	525.44
342.754	535.44
342.981	542.44
343.209	550.44
343.437	590.44
343.665	629.44
343.893	678.44
344.12	693.44
344.348	660.44
344.576	609.44
344.804	611.44
345.031	597.44
345.259	560.44
345.487	558.44
345.714	560.44
345.942	563.44
346.17	561.44
346.397	568.44
346.625	548.44
346.853	532.44
347.08	548.44
347.308	544.44
347.535	554.44
347.763	567.44
347.99	564.44
348.218	555.44
348.445	539.44
348.673	533.44
348.9	544.44
349.128	554.44
349.355	553.44
349.583	539.44
349.81	534.44
350.037	538.44
350.265	518.44
350.492	508.44
350.72	534.44
350.947	514.44
351.174	531.44
351.402	540.44
351.629	517.44
351.856	523.44
352.083	525.44
352.311	535.44
352.538	530.44
352.765	527.44
352.992	525.44
353.22	520.44
353.447	519.44
353.674	518.44
353.901	525.44
354.128	506.44
354.355	510.44
354.583	515.44
354.81	523.44
355.037	511.44
355.264	526.44
355.491	532.44
355.718	520.44
355.945	535.44
356.172	508.44
356.399	523.44
356.626	545.44
356.853	548.44
357.08	532.44
357.307	521.44
357.534	506.44
357.761	521.44
357.988	512.44
358.215	514.44
358.441	506.44
358.668	526.44
358.895	535.44
359.122	534.44
359.349	544.44
359.576	522.44
359.802	516.44
360.029	502.44
360.256	532.44
360.483	521.44
360.709	518.44
360.936	507.44
361.163	509.44
361.39	507.44
361.616	526.44
361.843	509.44
362.07	550.44
362.296	508.44
362.523	506.44
362.749	517.44
362.976	505.44
363.203	521.44
363.429	505.44
363.656	513.44
363.882	490.44
364.109	490.44
364.335	507.44
364.562	500.44
364.788	535.44
365.015	497.44
365.241	506.44
365.468	508.44
365.694	514.44
365.92	512.44
366.147	505.44
366.373	514.44
366.599	521.44
366.826	526.44
367.052	524.44
367.278	505.44
367.505	522.44
367.731	527.44
367.957	514.44
368.184	532.44
368.41	517.44
368.636	512.44
368.862	544.44
369.089	534.44
369.315	529.44
369.541	546.44
369.767	538.44
369.993	528.44
370.219	552.44
370.445	537.44
370.672	552.44
370.898	567.44
371.124	544.44
371.35	572.44
371.576	565.44
371.802	560.44
372.028	562.44
372.254	558.44
372.48	578.44
372.706	597.44
372.932	610.44
373.158	616.44
373.384	582.44
373.61	557.44
373.835	558.44
374.061	577.44
374.287	576.44
374.513	582.44
374.739	591.44
374.965	632.44
375.191	632.44
375.416	640.44
375.642	603.44
375.868	597.44
376.094	593.44
376.319	579.44
376.545	586.44
376.771	567.44
376.997	578.44
377.222	565.44
377.448	583.44
377.674	558.44
377.899	565.44
378.125	534.44
378.35	582.44
378.576	558.44
378.802	549.44
379.027	555.44
379.253	552.44
379.478	560.44
379.704	546.44
379.929	552.44
380.155	565.44
380.38	552.44
380.606	574.44
380.831	565.44
381.057	569.44
381.282	587.44
381.507	568.44
381.733	576.44
381.958	567.44
382.184	581.44
382.409	608.44
382.634	599.44
382.86	600.44
383.085	596.44
383.31	611.44
383.535	619.44
383.761	621.44
383.986	642.44
384.211	652.44
384.436	640.44
384.662	661.44
384.887	677.44
385.112	665.44
385.337	668.44
385.562	678.44
385.787	694.44
386.013	698.44
386.238	682.44
386.463	683.44
386.688	681.44
386.913	663.44
387.138	655.44
387.363	684.44
387.588	664.44
387.813	642.44
388.038	658.44
388.263	662.44
388.488	683.44
388.713	650.44
388.938	669.44
389.163	662.44
389.387	654.44
389.612	658.44
389.837	667.44
390.062	642.44
390.287	654.44
390.512	676.44
390.736	667.44
390.961	675.44
391.186	670.44
391.411	702.44
391.636	732.44
391.86	755.44
392.085	798.44
392.31	746.44
392.534	738.44
392.759	713.44
392.984	736.44
393.208	707.44
393.433	703.44
393.658	733.44
393.882	700.44
394.107	715.44
394.331	739.44
394.556	718.44
394.78	718.44
395.005	726.44
395.229	705.44
395.454	742.44
395.678	746.44
395.903	784.44
396.127	770.44
396.352	708.44
396.576	701.44
396.801	720.44
397.025	728.44
397.249	749.44
397.474	774.44
397.698	759.44
397.922	738.44
398.147	761.44
398.371	760.44
398.595	800.44
398.82	817.44
399.044	891.44
399.268	986.44
399.492	1149.44
399.717	1325.44
399.941	1292.44
400.165	1131.44
400.389	1010.44
400.613	941.44
400.837	872.44
401.062	872.44
401.286	839.44
401.51	820.44
401.734	834.44
401.958	824.44
402.182	838.44
402.406	861.44
402.63	881.44
402.854	892.44
403.078	904.44
403.302	935.44
403.526	964.44
403.75	964.44
403.974	988.44
404.198	1002.44
404.422	1001.44
404.645	965.44
404.869	962.44
405.093	974.44
405.317	960.44
405.541	938.44
405.765	941.44
405.988	897.44
406.212	940.44
406.436	932.44
406.66	949.44
406.883	963.44
407.107	1039.44
407.331	1074.44
407.555	1104.44
407.778	1107.44
408.002	1044.44
408.226	1039.44
408.449	984.44
408.673	972.44
408.896	973.44
409.12	954.44
409.344	979.44
409.567	949.44
409.791	966.44
410.014	956.44
410.238	957.44
410.461	949.44
410.685	939.44
410.908	920.44
411.132	920.44
411.355	877.44
411.578	878.44
411.802	893.44
412.025	873.44
412.249	925.44
412.472	870.44
412.695	845.44
412.919	820.44
413.142	844.44
413.365	858.44
413.589	835.44
413.812	840.44
414.035	811.44
414.258	810.44
414.482	829.44
414.705	843.44
414.928	883.44
415.151	889.44
415.374	845.44
415.597	840.44
415.821	829.44
416.044	812.44
416.267	807.44
416.49	823.44
416.713	804.44
416.936	820.44
417.159	860.44
417.382	820.44
417.605	843.44
417.828	842.44
418.051	820.44
418.274	845.44
418.497	828.44
418.72	867.44
418.943	846.44
419.166	898.44
419.389	982.44
419.611	946.44
419.834	911.44
420.057	861.44
420.28	849.44
420.503	812.44
420.726	850.44
420.948	816.44
421.171	831.44
421.394	845.44
421.617	826.44
421.839	832.44
422.062	854.44
422.285	808.44
422.507	883.44
422.73	877.44
422.953	868.44
423.175	874.44
423.398	884.44
423.621	877.44
423.843	904.44
424.066	892.44
424.288	895.44
424.511	891.44
424.733	872.44
424.956	868.44
425.178	866.44
425.401	857.44
425.623	835.44
425.846	816.44
426.068	822.44
426.291	807.44
426.513	806.44
426.735	782.44
426.958	790.44
427.18	743.44
427.402	761.44
427.625	738.44
427.847	716.44
428.069	765.44
428.292	755.44
428.514	752.44
428.736	746.44
428.958	755.44
429.181	728.44
429.403	725.44
429.625	733.44
429.847	745.44
430.069	734.44
430.292	724.44
430.514	734.44
430.736	730.44
430.958	755.44
431.18	723.44
431.402	720.44
431.624	721.44
431.846	747.44
432.068	737.44
432.29	766.44
432.512	780.44
432.734	736.44
432.956	756.44
433.178	757.44
433.4	749.44
433.622	746.44
433.844	748.44
434.066	772.44
434.287	778.44
434.509	816.44
434.731	816.44
434.953	854.44
435.175	857.44
435.397	852.44
435.618	782.44
435.84	768.44
436.062	752.44
436.284	770.44
436.505	768.44
436.727	754.44
436.949	766.44
437.17	749.44
437.392	729.44
437.614	727.44
437.835	705.44
438.057	751.44
438.278	728.44
438.5	702.44
438.721	716.44
438.943	737.44
439.165	754.44
439.386	733.44
439.608	752.44
439.829	724.44
440.05	746.44
440.272	768.44
440.493	763.44
440.715	781.44
440.936	765.44
441.158	781.44
441.379	845.44
441.6	836.44
441.822	840.44
442.043	865.44
442.264	856.44
442.486	853.44
442.707	867.44
442.928	809.44
443.149	845.44
443.371	864.44
443.592	874.44
443.813	859.44
444.034	830.44
444.255	897.44
444.476	952.44
444.698	982.44
444.919	1027.44
445.14	1110.44
445.361	972.44
445.582	874.44
445.803	829.44
446.024	807.44
446.245	801.44
446.466	788.44
446.687	790.44
446.908	786.44
447.129	750.44
447.35	718.44
447.571	723.44
447.792	723.44
448.013	718.44
448.234	728.44
448.455	720.44
448.675	720.44
448.896	706.44
449.117	670.44
449.338	681.44
449.559	685.44
449.779	676.44
450	670.44
450.221	693.44
450.442	697.44
450.662	684.44
450.883	706.44
451.104	734.44
451.324	701.44
451.545	725.44
451.766	706.44
451.986	689.44
452.207	698.44
452.428	707.44
452.648	713.44
452.869	662.44
453.089	684.44
453.31	717.44
453.53	674.44
453.751	694.44
453.971	682.44
454.192	666.44
454.412	655.44
454.633	679.44
454.853	649.44
455.073	653.44
455.294	656.44
455.514	672.44
455.734	651.44
455.955	653.44
456.175	659.44
456.395	633.44
456.616	627.44
456.836	658.44
457.056	642.44
457.276	652.44
457.497	660.44
457.717	656.44
457.937	656.44
458.157	676.44
458.377	670.44
458.598	691.44
458.818	707.44
459.038	707.44
459.258	738.44
459.478	798.44
459.698	782.44
459.918	847.44
460.138	836.44
460.358	901.44
460.578	894.44
460.798	924.44
461.018	908.44
461.238	916.44
461.458	915.44
461.678	893.44
461.898	905.44
462.118	901.44
462.338	947.44
462.558	1007.44
462.777	1032.44
462.997	1115.44
463.217	1234.44
463.437	1225.44
463.657	1136.44
463.876	1060.44
464.096	1088.44
464.316	1079.44
464.536	1094.44
464.755	1032.44
464.975	974.44
465.195	929.44
465.414	883.44
465.634	832.44
465.854	788.44
466.073	781.44
466.293	775.44
466.512	748.44
466.732	735.44
466.951	752.44
467.171	756.44
467.391	748.44
467.61	754.44
467.829	739.44
468.049	720.44
468.268	723.44
468.488	699.44
468.707	714.44
468.927	690.44
469.146	730.44
469.365	705.44
469.585	703.44
469.804	732.44
470.023	759.44
470.243	740.44
470.462	756.44
470.681	773.44
470.901	755.44
471.12	733.44
471.339	739.44
471.558	707.44
471.777	713.44
471.997	698.44
472.216	699.44
472.435	714.44
472.654	682.44
472.873	668.44
473.092	676.44
473.311	677.44
473.53	676.44
473.749	704.44
473.968	664.44
474.187	670.44
474.406	667.44
474.625	696.44
474.844	678.44
475.063	712.44
475.282	693.44
475.501	694.44
475.72	704.44
475.939	708.44
476.158	706.44
476.377	723.44
476.596	709.44
476.814	718.44
477.033	729.44
477.252	773.44
477.471	746.44
477.69	777.44
477.908	810.44
478.127	796.44
478.346	811.44
478.564	830.44
478.783	845.44
479.002	864.44
479.22	906.44
479.439	892.44
479.658	830.44
479.876	870.44
480.095	878.44
480.313	914.44
480.532	951.44
480.751	937.44
480.969	893.44
481.188	857.44
481.406	827.44
481.624	795.44
481.843	812.44
482.061	790.44
482.28	776.44
482.498	793.44
482.717	780.44
482.935	812.44
483.153	808.44
483.372	820.44
483.59	814.44
483.808	796.44
484.027	790.44
484.245	824.44
484.463	784.44
484.681	836.44
484.9	831.44
485.118	834.44
485.336	820.44
485.554	820.44
485.772	860.44
485.99	853.44
486.209	866.44
486.427	841.44
486.645	833.44
486.863	856.44
487.081	856.44
487.299	833.44
487.517	892.44
487.735	823.44
487.953	837.44
488.171	843.44
488.389	832.44
488.607	805.44
488.825	845.44
489.043	830.44
489.261	792.44
489.479	839.44
489.696	829.44
489.914	826.44
490.132	840.44
490.35	849.44
490.568	813.44
490.786	848.44
491.003	858.44
491.221	827.44
491.439	824.44
491.657	836.44
491.874	869.44
492.092	842.44
492.31	834.44
492.527	852.44
492.745	877.44
492.963	880.44
493.18	869.44
493.398	873.44
493.615	852.44
493.833	874.44
494.05	886.44
494.268	850.44
494.485	887.44
494.703	891.44
494.92	873.44
495.138	871.44
495.355	875.44
495.573	910.44
495.79	886.44
496.008	882.44
496.225	892.44
496.442	915.44
496.66	926.44
496.877	912.44
497.094	911.44
497.312	933.44
497.529	957.44
497.746	1003.44
497.963	997.44
498.181	1042.44
498.398	1082.44
498.615	1149.44
498.832	1208.44
499.049	1316.44
499.267	1394.44
499.484	1576.44
499.701	1733.44
499.918	1914.44
500.135	2235.44
500.352	2531.44
500.569	2691.44
500.786	2650.44
501.003	2444.44
