Data from Ni(NO3)2@0.0625M.TitratingCurve.Agarose3%dH2O.NegLispCup.LampEnergy10.LIBS07252019_HRD10591_18-15-31-570.txt Node
Date: Thu Jul 25 18:15:31 EDT 2019
User: cochatt
Spectrometer: HR+D1059
Trigger mode: 1
Integration Time (sec): 1.000000E-1
Scans to average: 1
Electric dark correction enabled: true
Nonlinearity correction enabled: false
Boxcar width: 0
XAxis mode: Wavelengths
Number of Pixels in Spectrum: 2048
>>>>>Begin Spectral Data<<<<<
223.165	-1.75
223.4	-1.75
223.635	-1.75
223.869	-21.75
224.104	-17.75
224.338	-10.75
224.573	-9.75
224.808	-11.75
225.042	-5.75
225.277	-8.75
225.511	-6.75
225.746	-4.75
225.98	-1.75
226.215	16.25
226.449	16.25
226.683	12.25
226.918	29.25
227.152	27.25
227.387	37.25
227.621	19.25
227.856	37.25
228.09	49.25
228.324	32.25
228.559	68.25
228.793	73.25
229.027	89.25
229.262	104.25
229.496	101.25
229.73	111.25
229.964	119.25
230.199	115.25
230.433	122.25
230.667	128.25
230.901	138.25
231.136	123.25
231.37	138.25
231.604	140.25
231.838	148.25
232.072	136.25
232.306	145.25
232.541	138.25
232.775	150.25
233.009	133.25
233.243	146.25
233.477	154.25
233.711	137.25
233.945	140.25
234.179	147.25
234.413	142.25
234.647	135.25
234.881	153.25
235.115	156.25
235.349	148.25
235.583	152.25
235.817	143.25
236.051	145.25
236.285	156.25
236.519	143.25
236.753	147.25
236.987	156.25
237.221	145.25
237.455	146.25
237.689	153.25
237.922	151.25
238.156	156.25
238.39	146.25
238.624	156.25
238.858	168.25
239.091	146.25
239.325	178.25
239.559	162.25
239.793	157.25
240.027	144.25
240.26	178.25
240.494	177.25
240.728	181.25
240.961	160.25
241.195	164.25
241.429	166.25
241.662	153.25
241.896	194.25
242.13	174.25
242.363	164.25
242.597	183.25
242.83	184.25
243.064	184.25
243.298	203.25
243.531	190.25
243.765	187.25
243.998	192.25
244.232	192.25
244.465	202.25
244.699	200.25
244.932	200.25
245.166	201.25
245.399	215.25
245.633	209.25
245.866	198.25
246.099	187.25
246.333	213.25
246.566	194.25
246.8	210.25
247.033	210.25
247.266	199.25
247.5	216.25
247.733	232.25
247.966	202.25
248.2	205.25
248.433	211.25
248.666	237.25
248.899	233.25
249.133	223.25
249.366	232.25
249.599	237.25
249.832	224.25
250.066	237.25
250.299	236.25
250.532	242.25
250.765	242.25
250.998	237.25
251.231	245.25
251.465	245.25
251.698	246.25
251.931	253.25
252.164	265.25
252.397	220.25
252.63	254.25
252.863	265.25
253.096	250.25
253.329	268.25
253.562	237.25
253.795	267.25
254.028	245.25
254.261	264.25
254.494	255.25
254.727	263.25
254.96	261.25
255.193	251.25
255.426	258.25
255.659	260.25
255.892	265.25
256.124	277.25
256.357	268.25
256.59	268.25
256.823	272.25
257.056	294.25
257.289	277.25
257.521	279.25
257.754	289.25
257.987	288.25
258.22	295.25
258.452	294.25
258.685	280.25
258.918	284.25
259.151	281.25
259.383	302.25
259.616	296.25
259.849	288.25
260.081	297.25
260.314	281.25
260.547	289.25
260.779	293.25
261.012	281.25
261.244	304.25
261.477	308.25
261.71	308.25
261.942	307.25
262.175	293.25
262.407	300.25
262.64	314.25
262.872	280.25
263.105	293.25
263.337	323.25
263.57	298.25
263.802	318.25
264.035	316.25
264.267	333.25
264.499	315.25
264.732	316.25
264.964	319.25
265.197	331.25
265.429	339.25
265.661	343.25
265.894	339.25
266.126	328.25
266.358	312.25
266.591	339.25
266.823	334.25
267.055	354.25
267.287	331.25
267.52	347.25
267.752	330.25
267.984	354.25
268.216	345.25
268.448	346.25
268.681	340.25
268.913	338.25
269.145	346.25
269.377	347.25
269.609	352.25
269.841	350.25
270.073	343.25
270.306	339.25
270.538	341.25
270.77	337.25
271.002	340.25
271.234	343.25
271.466	349.25
271.698	333.25
271.93	347.25
272.162	370.25
272.394	349.25
272.626	359.25
272.858	364.25
273.09	369.25
273.322	360.25
273.553	365.25
273.785	382.25
274.017	360.25
274.249	380.25
274.481	375.25
274.713	357.25
274.945	372.25
275.176	366.25
275.408	395.25
275.64	397.25
275.872	410.25
276.104	396.25
276.335	379.25
276.567	380.25
276.799	411.25
277.031	396.25
277.262	396.25
277.494	394.25
277.726	393.25
277.957	402.25
278.189	388.25
278.421	408.25
278.652	403.25
278.884	403.25
279.115	399.25
279.347	395.25
279.579	432.25
279.81	404.25
280.042	400.25
280.273	405.25
280.505	405.25
280.736	414.25
280.968	424.25
281.199	427.25
281.431	414.25
281.662	434.25
281.894	432.25
282.125	432.25
282.356	420.25
282.588	431.25
282.819	430.25
283.051	442.25
283.282	455.25
283.513	442.25
283.745	440.25
283.976	436.25
284.207	438.25
284.439	431.25
284.67	425.25
284.901	461.25
285.132	456.25
285.364	453.25
285.595	468.25
285.826	431.25
286.057	454.25
286.288	456.25
286.52	467.25
286.751	452.25
286.982	463.25
287.213	464.25
287.444	451.25
287.675	456.25
287.906	459.25
288.138	497.25
288.369	475.25
288.6	475.25
288.831	476.25
289.062	476.25
289.293	475.25
289.524	473.25
289.755	459.25
289.986	470.25
290.217	463.25
290.448	487.25
290.679	474.25
290.91	479.25
291.141	480.25
291.371	469.25
291.602	498.25
291.833	465.25
292.064	493.25
292.295	478.25
292.526	489.25
292.757	501.25
292.987	496.25
293.218	479.25
293.449	499.25
293.68	484.25
293.91	492.25
294.141	488.25
294.372	478.25
294.603	494.25
294.833	502.25
295.064	500.25
295.295	491.25
295.525	487.25
295.756	488.25
295.987	503.25
296.217	513.25
296.448	517.25
296.679	529.25
296.909	528.25
297.14	492.25
297.37	546.25
297.601	529.25
297.831	532.25
298.062	557.25
298.292	540.25
298.523	558.25
298.753	532.25
298.984	519.25
299.214	534.25
299.445	546.25
299.675	533.25
299.905	553.25
300.136	539.25
300.366	547.25
300.597	537.25
300.827	576.25
301.057	588.25
301.288	575.25
301.518	562.25
301.748	559.25
301.979	586.25
302.209	555.25
302.439	539.25
302.669	541.25
302.9	530.25
303.13	537.25
303.36	541.25
303.59	570.25
303.82	545.25
304.051	551.25
304.281	552.25
304.511	548.25
304.741	539.25
304.971	549.25
305.201	547.25
305.431	537.25
305.661	564.25
305.891	536.25
306.121	536.25
306.352	542.25
306.582	547.25
306.812	539.25
307.042	554.25
307.272	545.25
307.502	544.25
307.731	532.25
307.961	532.25
308.191	525.25
308.421	536.25
308.651	524.25
308.881	520.25
309.111	526.25
309.341	554.25
309.571	538.25
309.8	546.25
310.03	538.25
310.26	552.25
310.49	533.25
310.72	536.25
310.949	528.25
311.179	547.25
311.409	526.25
311.639	535.25
311.868	555.25
312.098	575.25
312.328	539.25
312.557	576.25
312.787	565.25
313.017	571.25
313.246	567.25
313.476	549.25
313.706	576.25
313.935	594.25
314.165	578.25
314.394	585.25
314.624	587.25
314.853	595.25
315.083	564.25
315.312	558.25
315.542	583.25
315.771	561.25
316.001	555.25
316.23	569.25
316.46	541.25
316.689	565.25
316.919	556.25
317.148	552.25
317.377	555.25
317.607	546.25
317.836	556.25
318.065	548.25
318.295	538.25
318.524	575.25
318.753	556.25
318.983	580.25
319.212	547.25
319.441	554.25
319.67	545.25
319.9	545.25
320.129	541.25
320.358	569.25
320.587	533.25
320.816	565.25
321.046	562.25
321.275	548.25
321.504	554.25
321.733	563.25
321.962	563.25
322.191	549.25
322.42	580.25
322.649	569.25
322.878	554.25
323.108	567.25
323.337	571.25
323.566	553.25
323.795	560.25
324.024	558.25
324.253	555.25
324.482	561.25
324.71	557.25
324.939	583.25
325.168	580.25
325.397	565.25
325.626	568.25
325.855	565.25
326.084	629.25
326.313	624.25
326.542	627.25
326.77	637.25
326.999	607.25
327.228	609.25
327.457	608.25
327.686	617.25
327.914	611.25
328.143	611.25
328.372	613.25
328.6	616.25
328.829	616.25
329.058	617.25
329.287	597.25
329.515	598.25
329.744	602.25
329.972	626.25
330.201	630.25
330.43	596.25
330.658	598.25
330.887	603.25
331.115	648.25
331.344	630.25
331.572	644.25
331.801	676.25
332.03	670.25
332.258	681.25
332.486	720.25
332.715	719.25
332.943	780.25
333.172	804.25
333.4	816.25
333.629	854.25
333.857	839.25
334.085	830.25
334.314	807.25
334.542	786.25
334.771	779.25
334.999	765.25
335.227	785.25
335.455	787.25
335.684	759.25
335.912	766.25
336.14	726.25
336.369	752.25
336.597	734.25
336.825	740.25
337.053	747.25
337.281	721.25
337.51	728.25
337.738	696.25
337.966	697.25
338.194	669.25
338.422	688.25
338.65	670.25
338.878	672.25
339.106	660.25
339.334	654.25
339.562	653.25
339.79	650.25
340.018	624.25
340.246	630.25
340.474	655.25
340.702	634.25
340.93	643.25
341.158	635.25
341.386	653.25
341.614	640.25
341.842	653.25
342.07	638.25
342.298	654.25
342.526	622.25
342.754	633.25
342.981	651.25
343.209	635.25
343.437	677.25
343.665	701.25
343.893	785.25
344.12	809.25
344.348	797.25
344.576	737.25
344.804	706.25
345.031	678.25
345.259	655.25
345.487	635.25
345.714	635.25
345.942	624.25
346.17	640.25
346.397	627.25
346.625	624.25
346.853	640.25
347.08	610.25
347.308	652.25
347.535	653.25
347.763	652.25
347.99	658.25
348.218	644.25
348.445	641.25
348.673	658.25
348.9	639.25
349.128	644.25
349.355	620.25
349.583	621.25
349.81	604.25
350.037	597.25
350.265	596.25
350.492	602.25
350.72	588.25
350.947	605.25
351.174	576.25
351.402	603.25
351.629	617.25
351.856	618.25
352.083	607.25
352.311	589.25
352.538	588.25
352.765	598.25
352.992	590.25
353.22	595.25
353.447	581.25
353.674	601.25
353.901	573.25
354.128	598.25
354.355	609.25
354.583	600.25
354.81	617.25
355.037	603.25
355.264	612.25
355.491	606.25
355.718	610.25
355.945	603.25
356.172	604.25
356.399	637.25
356.626	618.25
356.853	620.25
357.08	603.25
357.307	602.25
357.534	596.25
357.761	613.25
357.988	593.25
358.215	594.25
358.441	594.25
358.668	584.25
358.895	604.25
359.122	621.25
359.349	578.25
359.576	620.25
359.802	606.25
360.029	612.25
360.256	603.25
360.483	615.25
360.709	595.25
360.936	598.25
361.163	605.25
361.39	602.25
361.616	614.25
361.843	618.25
362.07	601.25
362.296	600.25
362.523	613.25
362.749	603.25
362.976	599.25
363.203	597.25
363.429	581.25
363.656	594.25
363.882	608.25
364.109	611.25
364.335	597.25
364.562	608.25
364.788	621.25
365.015	604.25
365.241	596.25
365.468	602.25
365.694	584.25
365.92	588.25
366.147	601.25
366.373	585.25
366.599	593.25
366.826	591.25
367.052	595.25
367.278	610.25
367.505	617.25
367.731	604.25
367.957	597.25
368.184	577.25
368.41	599.25
368.636	610.25
368.862	599.25
369.089	612.25
369.315	616.25
369.541	629.25
369.767	629.25
369.993	618.25
370.219	620.25
370.445	629.25
370.672	640.25
370.898	640.25
371.124	649.25
371.35	655.25
371.576	666.25
371.802	652.25
372.028	642.25
372.254	668.25
372.48	658.25
372.706	668.25
372.932	664.25
373.158	686.25
373.384	678.25
373.61	672.25
373.835	673.25
374.061	662.25
374.287	663.25
374.513	680.25
374.739	697.25
374.965	725.25
375.191	732.25
375.416	748.25
375.642	708.25
375.868	681.25
376.094	664.25
376.319	658.25
376.545	674.25
376.771	675.25
376.997	665.25
377.222	662.25
377.448	683.25
377.674	686.25
377.899	675.25
378.125	635.25
378.35	637.25
378.576	665.25
378.802	651.25
379.027	642.25
379.253	664.25
379.478	629.25
379.704	673.25
379.929	649.25
380.155	608.25
380.38	634.25
380.606	622.25
380.831	639.25
381.057	640.25
381.282	646.25
381.507	636.25
381.733	649.25
381.958	657.25
382.184	666.25
382.409	684.25
382.634	700.25
382.86	677.25
383.085	701.25
383.31	717.25
383.535	733.25
383.761	724.25
383.986	747.25
384.211	775.25
384.436	773.25
384.662	800.25
384.887	786.25
385.112	804.25
385.337	795.25
385.562	800.25
385.787	806.25
386.013	790.25
386.238	797.25
386.463	780.25
386.688	817.25
386.913	781.25
387.138	795.25
387.363	783.25
387.588	765.25
387.813	755.25
388.038	764.25
388.263	768.25
388.488	774.25
388.713	777.25
388.938	787.25
389.163	759.25
389.387	776.25
389.612	756.25
389.837	749.25
390.062	775.25
390.287	755.25
390.512	759.25
390.736	780.25
390.961	752.25
391.186	798.25
391.411	826.25
391.636	868.25
391.86	880.25
392.085	882.25
392.31	887.25
392.534	840.25
392.759	851.25
392.984	845.25
393.208	823.25
393.433	849.25
393.658	821.25
393.882	854.25
394.107	835.25
394.331	891.25
394.556	845.25
394.78	841.25
395.005	838.25
395.229	836.25
395.454	858.25
395.678	868.25
395.903	906.25
396.127	882.25
396.352	851.25
396.576	828.25
396.801	806.25
397.025	839.25
397.249	848.25
397.474	878.25
397.698	898.25
397.922	880.25
398.147	876.25
398.371	878.25
398.595	918.25
398.82	950.25
399.044	1025.25
399.268	1125.25
399.492	1348.25
399.717	1560.25
399.941	1547.25
400.165	1330.25
400.389	1169.25
400.613	1088.25
400.837	1016.25
401.062	999.25
401.286	968.25
401.51	972.25
401.734	953.25
401.958	972.25
402.182	1015.25
402.406	1035.25
402.63	1047.25
402.854	1057.25
403.078	1103.25
403.302	1100.25
403.526	1128.25
403.75	1133.25
403.974	1162.25
404.198	1162.25
404.422	1177.25
404.645	1170.25
404.869	1144.25
405.093	1130.25
405.317	1069.25
405.541	1078.25
405.765	1084.25
405.988	1102.25
406.212	1072.25
406.436	1076.25
406.66	1123.25
406.883	1102.25
407.107	1204.25
407.331	1248.25
407.555	1305.25
407.778	1299.25
408.002	1273.25
408.226	1212.25
408.449	1194.25
408.673	1122.25
408.896	1157.25
409.12	1157.25
409.344	1152.25
409.567	1127.25
409.791	1186.25
410.014	1152.25
410.238	1114.25
410.461	1137.25
410.685	1116.25
410.908	1083.25
411.132	1048.25
411.355	1036.25
411.578	1037.25
411.802	1006.25
412.025	1032.25
412.249	1030.25
412.472	1049.25
412.695	1022.25
412.919	973.25
413.142	993.25
413.365	1023.25
413.589	1010.25
413.812	961.25
414.035	968.25
414.258	998.25
414.482	1006.25
414.705	1004.25
414.928	1019.25
415.151	1028.25
415.374	988.25
415.597	992.25
415.821	981.25
416.044	968.25
416.267	950.25
416.49	958.25
416.713	971.25
416.936	980.25
417.159	962.25
417.382	974.25
417.605	958.25
417.828	963.25
418.051	981.25
418.274	997.25
418.497	984.25
418.72	1000.25
418.943	1037.25
419.166	1069.25
419.389	1121.25
419.611	1145.25
419.834	1059.25
420.057	1046.25
420.28	1015.25
420.503	1016.25
420.726	945.25
420.948	952.25
421.171	969.25
421.394	964.25
421.617	972.25
421.839	1001.25
422.062	977.25
422.285	963.25
422.507	1018.25
422.73	1012.25
422.953	1020.25
423.175	1041.25
423.398	1024.25
423.621	1031.25
423.843	1050.25
424.066	1100.25
424.288	1068.25
424.511	1055.25
424.733	1026.25
424.956	1006.25
425.178	998.25
425.401	1005.25
425.623	974.25
425.846	960.25
426.068	981.25
426.291	907.25
426.513	944.25
426.735	927.25
426.958	936.25
427.18	913.25
427.402	875.25
427.625	880.25
427.847	902.25
428.069	900.25
428.292	881.25
428.514	846.25
428.736	872.25
428.958	882.25
429.181	848.25
429.403	854.25
429.625	832.25
429.847	834.25
430.069	840.25
430.292	854.25
430.514	868.25
430.736	823.25
430.958	864.25
431.18	837.25
431.402	850.25
431.624	853.25
431.846	871.25
432.068	886.25
432.29	906.25
432.512	889.25
432.734	883.25
432.956	898.25
433.178	862.25
433.4	854.25
433.622	865.25
433.844	874.25
434.066	882.25
434.287	911.25
434.509	929.25
434.731	970.25
434.953	997.25
435.175	1029.25
435.397	999.25
435.618	942.25
435.84	910.25
436.062	893.25
436.284	912.25
436.505	865.25
436.727	865.25
436.949	886.25
437.17	900.25
437.392	869.25
437.614	852.25
437.835	860.25
438.057	855.25
438.278	826.25
438.5	826.25
438.721	840.25
438.943	849.25
439.165	822.25
439.386	850.25
439.608	869.25
439.829	852.25
440.05	885.25
440.272	884.25
440.493	902.25
440.715	922.25
440.936	921.25
441.158	931.25
441.379	950.25
441.6	986.25
441.822	1018.25
442.043	1001.25
442.264	955.25
442.486	965.25
442.707	1009.25
442.928	980.25
443.149	985.25
443.371	971.25
443.592	963.25
443.813	1001.25
444.034	1014.25
444.255	1031.25
444.476	1091.25
444.698	1166.25
444.919	1195.25
445.14	1304.25
445.361	1117.25
445.582	1040.25
445.803	973.25
446.024	956.25
446.245	876.25
446.466	907.25
446.687	888.25
446.908	875.25
447.129	895.25
447.35	873.25
447.571	840.25
447.792	830.25
448.013	841.25
448.234	820.25
448.455	844.25
448.675	821.25
448.896	798.25
449.117	802.25
449.338	812.25
449.559	779.25
449.779	801.25
450	801.25
450.221	813.25
450.442	815.25
450.662	834.25
450.883	832.25
451.104	845.25
451.324	858.25
451.545	844.25
451.766	833.25
451.986	843.25
452.207	842.25
452.428	810.25
452.648	814.25
452.869	822.25
453.089	819.25
453.31	816.25
453.53	809.25
453.751	772.25
453.971	790.25
454.192	804.25
454.412	759.25
454.633	796.25
454.853	778.25
455.073	761.25
455.294	770.25
455.514	767.25
455.734	745.25
455.955	732.25
456.175	741.25
456.395	745.25
456.616	761.25
456.836	754.25
457.056	742.25
457.276	727.25
457.497	750.25
457.717	747.25
457.937	738.25
458.157	796.25
458.377	767.25
458.598	834.25
458.818	826.25
459.038	847.25
459.258	852.25
459.478	856.25
459.698	912.25
459.918	934.25
460.138	1008.25
460.358	1011.25
460.578	1045.25
460.798	1055.25
461.018	1102.25
461.238	1078.25
461.458	1075.25
461.678	1028.25
461.898	1063.25
462.118	1078.25
462.338	1101.25
462.558	1130.25
462.777	1187.25
462.997	1302.25
463.217	1435.25
463.437	1496.25
463.657	1307.25
463.876	1265.25
464.096	1250.25
464.316	1248.25
464.536	1258.25
464.755	1215.25
464.975	1180.25
465.195	1097.25
465.414	997.25
465.634	936.25
465.854	930.25
466.073	923.25
466.293	874.25
466.512	906.25
466.732	854.25
466.951	883.25
467.171	875.25
467.391	862.25
467.61	854.25
467.829	872.25
468.049	849.25
468.268	816.25
468.488	765.25
468.707	799.25
468.927	836.25
469.146	831.25
469.365	810.25
469.585	848.25
469.804	862.25
470.023	872.25
470.243	858.25
470.462	889.25
470.681	902.25
470.901	894.25
471.12	853.25
471.339	843.25
471.558	844.25
471.777	817.25
471.997	826.25
472.216	809.25
472.435	808.25
472.654	805.25
472.873	784.25
473.092	802.25
473.311	791.25
473.53	791.25
473.749	792.25
473.968	789.25
474.187	810.25
474.406	748.25
474.625	793.25
474.844	811.25
475.063	797.25
475.282	804.25
475.501	840.25
475.72	818.25
475.939	813.25
476.158	813.25
476.377	838.25
476.596	820.25
476.814	842.25
477.033	837.25
477.252	856.25
477.471	858.25
477.69	892.25
477.908	905.25
478.127	941.25
478.346	960.25
478.564	968.25
478.783	1000.25
479.002	1011.25
479.22	1013.25
479.439	990.25
479.658	954.25
479.876	1000.25
480.095	996.25
480.313	1059.25
480.532	1125.25
480.751	1085.25
480.969	1019.25
481.188	999.25
481.406	984.25
481.624	958.25
481.843	907.25
482.061	910.25
482.28	922.25
482.498	888.25
482.717	900.25
482.935	909.25
483.153	894.25
483.372	911.25
483.59	914.25
483.808	910.25
484.027	931.25
484.245	922.25
484.463	894.25
484.681	925.25
484.9	935.25
485.118	944.25
485.336	930.25
485.554	956.25
485.772	982.25
485.99	997.25
486.209	971.25
486.427	990.25
486.645	983.25
486.863	1000.25
487.081	977.25
487.299	965.25
487.517	968.25
487.735	964.25
487.953	975.25
488.171	963.25
488.389	960.25
488.607	952.25
488.825	925.25
489.043	957.25
489.261	962.25
489.479	958.25
489.696	950.25
489.914	939.25
490.132	948.25
490.35	968.25
490.568	934.25
490.786	953.25
491.003	968.25
491.221	976.25
491.439	932.25
491.657	945.25
491.874	949.25
492.092	967.25
492.31	963.25
492.527	968.25
492.745	978.25
492.963	988.25
493.18	968.25
493.398	994.25
493.615	972.25
493.833	989.25
494.05	1018.25
494.268	1018.25
494.485	1021.25
494.703	991.25
494.92	1012.25
495.138	1013.25
495.355	1002.25
495.573	1017.25
495.79	1024.25
496.008	1005.25
496.225	988.25
496.442	1042.25
496.66	1033.25
496.877	1041.25
497.094	1064.25
497.312	1094.25
497.529	1075.25
497.746	1110.25
497.963	1147.25
498.181	1186.25
498.398	1254.25
498.615	1348.25
498.832	1402.25
499.049	1526.25
499.267	1650.25
499.484	1827.25
