Data from Ni(NO3)2@0.125M.TitratingCurve.Agarose3%dH2O.NegLispCup.LampEnergy10.LIBS07252019_HRD10591_18-08-33-567.txt Node
Date: Thu Jul 25 18:08:33 EDT 2019
User: cochatt
Spectrometer: HR+D1059
Trigger mode: 1
Integration Time (sec): 1.000000E-1
Scans to average: 1
Electric dark correction enabled: true
Nonlinearity correction enabled: false
Boxcar width: 0
XAxis mode: Wavelengths
Number of Pixels in Spectrum: 2048
>>>>>Begin Spectral Data<<<<<
223.165	-23
223.4	-23
223.635	-23
223.869	-25
224.104	-13
224.338	-19
224.573	-14
224.808	-29
225.042	6
225.277	-12
225.511	-6
225.746	7
225.98	2
226.215	12
226.449	28
226.683	30
226.918	31
227.152	25
227.387	28
227.621	35
227.856	44
228.09	50
228.324	55
228.559	46
228.793	69
229.027	126
229.262	125
229.496	124
229.73	126
229.964	148
230.199	141
230.433	132
230.667	144
230.901	148
231.136	147
231.37	144
231.604	146
231.838	147
232.072	157
232.306	165
232.541	161
232.775	142
233.009	157
233.243	168
233.477	155
233.711	158
233.945	155
234.179	169
234.413	166
234.647	163
234.881	177
235.115	178
235.349	148
235.583	159
235.817	153
236.051	166
236.285	161
236.519	174
236.753	185
236.987	181
237.221	165
237.455	167
237.689	188
237.922	167
238.156	197
238.39	192
238.624	172
238.858	188
239.091	176
239.325	178
239.559	192
239.793	197
240.027	218
240.26	201
240.494	206
240.728	188
240.961	217
241.195	201
241.429	198
241.662	201
241.896	203
242.13	214
242.363	226
242.597	231
242.83	234
243.064	218
243.298	216
243.531	228
243.765	217
243.998	225
244.232	243
244.465	236
244.699	222
244.932	248
245.166	245
245.399	241
245.633	240
245.866	248
246.099	236
246.333	249
246.566	266
246.8	265
247.033	241
247.266	253
247.5	260
247.733	280
247.966	268
248.2	280
248.433	273
248.666	289
248.899	261
249.133	279
249.366	276
249.599	299
249.832	288
250.066	289
250.299	269
250.532	291
250.765	285
250.998	309
251.231	314
251.465	304
251.698	294
251.931	293
252.164	298
252.397	327
252.63	331
252.863	334
253.096	338
253.329	326
253.562	325
253.795	315
254.028	327
254.261	325
254.494	323
254.727	322
254.96	341
255.193	329
255.426	355
255.659	331
255.892	334
256.124	348
256.357	347
256.59	346
256.823	342
257.056	341
257.289	342
257.521	360
257.754	356
257.987	358
258.22	364
258.452	363
258.685	360
258.918	375
259.151	349
259.383	384
259.616	378
259.849	374
260.081	377
260.314	382
260.547	398
260.779	351
261.012	392
261.244	392
261.477	394
261.71	357
261.942	378
262.175	366
262.407	380
262.64	382
262.872	397
263.105	399
263.337	412
263.57	405
263.802	426
264.035	402
264.267	386
264.499	413
264.732	407
264.964	386
265.197	408
265.429	428
265.661	424
265.894	412
266.126	429
266.358	424
266.591	421
266.823	422
267.055	418
267.287	440
267.52	436
267.752	421
267.984	426
268.216	442
268.448	464
268.681	451
268.913	438
269.145	437
269.377	463
269.609	479
269.841	446
270.073	436
270.306	452
270.538	459
270.77	460
271.002	456
271.234	469
271.466	454
271.698	456
271.93	475
272.162	460
272.394	476
272.626	473
272.858	474
273.09	484
273.322	486
273.553	482
273.785	491
274.017	496
274.249	496
274.481	485
274.713	477
274.945	498
275.176	485
275.408	499
275.64	514
275.872	520
276.104	500
276.335	522
276.567	514
276.799	502
277.031	497
277.262	508
277.494	501
277.726	513
277.957	509
278.189	521
278.421	526
278.652	548
278.884	550
279.115	538
279.347	522
279.579	526
279.81	559
280.042	527
280.273	549
280.505	511
280.736	546
280.968	542
281.199	540
281.431	541
281.662	552
281.894	561
282.125	548
282.356	553
282.588	580
282.819	564
283.051	582
283.282	574
283.513	585
283.745	591
283.976	558
284.207	567
284.439	582
284.67	593
284.901	587
285.132	588
285.364	576
285.595	576
285.826	577
286.057	605
286.288	585
286.52	608
286.751	605
286.982	620
287.213	607
287.444	616
287.675	627
287.906	627
288.138	627
288.369	617
288.6	608
288.831	620
289.062	613
289.293	603
289.524	630
289.755	616
289.986	618
290.217	640
290.448	592
290.679	588
290.91	608
291.141	614
291.371	644
291.602	619
291.833	625
292.064	623
292.295	617
292.526	642
292.757	636
292.987	600
293.218	601
293.449	635
293.68	644
293.91	619
294.141	637
294.372	615
294.603	648
294.833	626
295.064	605
295.295	644
295.525	653
295.756	648
295.987	650
296.217	652
296.448	662
296.679	649
296.909	664
297.14	662
297.37	660
297.601	668
297.831	661
298.062	648
298.292	664
298.523	669
298.753	683
298.984	693
299.214	692
299.445	660
299.675	685
299.905	708
300.136	692
300.366	679
300.597	694
300.827	705
301.057	728
301.288	735
301.518	729
301.748	731
301.979	727
302.209	718
302.439	745
302.669	717
302.9	714
303.13	722
303.36	726
303.59	700
303.82	706
304.051	725
304.281	702
304.511	704
304.741	728
304.971	711
305.201	688
305.431	741
305.661	714
305.891	724
306.121	695
306.352	720
306.582	697
306.812	700
307.042	699
307.272	726
307.502	702
307.731	701
307.961	712
308.191	701
308.421	688
308.651	700
308.881	711
309.111	712
309.341	710
309.571	700
309.8	731
310.03	721
310.26	730
310.49	698
310.72	700
310.949	694
311.179	709
311.409	730
311.639	737
311.868	739
312.098	750
312.328	774
312.557	747
312.787	765
313.017	736
313.246	736
313.476	746
313.706	770
313.935	768
314.165	770
314.394	764
314.624	768
314.853	752
315.083	772
315.312	748
315.542	771
315.771	747
316.001	732
316.23	743
316.46	768
316.689	760
316.919	725
317.148	769
317.377	779
317.607	746
317.836	737
318.065	769
318.295	739
318.524	750
318.753	740
318.983	738
319.212	762
319.441	753
319.67	754
319.9	764
320.129	761
320.358	747
320.587	758
320.816	766
321.046	790
321.275	766
321.504	780
321.733	782
321.962	769
322.191	794
322.42	769
322.649	790
322.878	762
323.108	795
323.337	770
323.566	774
323.795	768
324.024	793
324.253	773
324.482	809
324.71	785
324.939	809
325.168	807
325.397	816
325.626	811
325.855	818
326.084	846
326.313	868
326.542	862
326.77	876
326.999	833
327.228	826
327.457	841
327.686	846
327.914	834
328.143	835
328.372	850
328.6	832
328.829	858
329.058	848
329.287	900
329.515	876
329.744	846
329.972	882
330.201	876
330.43	859
330.658	869
330.887	862
331.115	878
331.344	896
331.572	910
331.801	937
332.03	986
332.258	956
332.486	1039
332.715	1041
332.943	1092
333.172	1123
333.4	1201
333.629	1194
333.857	1201
334.085	1222
334.314	1161
334.542	1154
334.771	1142
334.999	1117
335.227	1078
335.455	1086
335.684	1061
335.912	1061
336.14	1056
336.369	1069
336.597	1042
336.825	1045
337.053	1038
337.281	1038
337.51	980
337.738	987
337.966	994
338.194	971
338.422	936
338.65	957
338.878	933
339.106	960
339.334	975
339.562	924
339.79	903
340.018	900
340.246	905
340.474	910
340.702	892
340.93	903
341.158	907
341.386	937
341.614	922
341.842	930
342.07	915
342.298	892
342.526	898
342.754	880
342.981	900
343.209	937
343.437	975
343.665	1048
343.893	1134
344.12	1165
344.348	1124
344.576	1028
344.804	981
345.031	948
345.259	952
345.487	904
345.714	887
345.942	880
346.17	901
346.397	896
346.625	865
346.853	877
347.08	870
347.308	877
347.535	883
347.763	920
347.99	889
348.218	875
348.445	879
348.673	870
348.9	831
349.128	886
349.355	842
349.583	858
349.81	866
350.037	856
350.265	850
350.492	855
350.72	827
350.947	859
351.174	838
351.402	853
351.629	848
351.856	854
352.083	820
352.311	849
352.538	825
352.765	853
352.992	828
353.22	820
353.447	824
353.674	823
353.901	812
354.128	826
354.355	834
354.583	830
354.81	839
355.037	869
355.264	821
355.491	842
355.718	822
355.945	872
356.172	877
356.399	832
356.626	843
356.853	834
357.08	836
357.307	861
357.534	850
357.761	852
357.988	828
358.215	853
358.441	844
358.668	839
358.895	830
359.122	866
359.349	867
359.576	865
359.802	866
360.029	869
360.256	842
360.483	835
360.709	837
360.936	838
361.163	851
361.39	860
361.616	839
361.843	828
362.07	837
362.296	871
362.523	844
362.749	875
362.976	838
363.203	829
363.429	837
363.656	842
363.882	821
364.109	848
364.335	806
364.562	848
364.788	823
365.015	816
365.241	816
365.468	814
365.694	824
365.92	861
366.147	850
366.373	848
366.599	805
366.826	836
367.052	841
367.278	851
367.505	824
367.731	864
367.957	861
368.184	843
368.41	842
368.636	831
368.862	842
369.089	860
369.315	859
369.541	850
369.767	892
369.993	875
370.219	884
370.445	898
370.672	891
370.898	877
371.124	877
371.35	898
371.576	909
371.802	915
372.028	893
372.254	933
372.48	927
372.706	957
372.932	934
373.158	959
373.384	938
373.61	892
373.835	946
374.061	917
374.287	928
374.513	935
374.739	971
374.965	974
375.191	1024
375.416	1026
375.642	959
375.868	935
376.094	953
376.319	914
376.545	941
376.771	900
376.997	912
377.222	904
377.448	895
377.674	888
377.899	893
378.125	923
378.35	891
378.576	892
378.802	898
379.027	893
379.253	891
379.478	874
379.704	904
379.929	892
380.155	906
380.38	894
380.606	893
380.831	902
381.057	900
381.282	890
381.507	880
381.733	928
381.958	905
382.184	922
382.409	936
382.634	949
382.86	961
383.085	970
383.31	980
383.535	979
383.761	1002
383.986	1034
384.211	1052
384.436	1083
384.662	1102
384.887	1101
385.112	1077
385.337	1130
385.562	1067
385.787	1113
386.013	1112
386.238	1113
386.463	1125
386.688	1130
386.913	1073
387.138	1065
387.363	1097
387.588	1066
387.813	1089
388.038	1078
388.263	1080
388.488	1085
388.713	1066
388.938	1076
389.163	1043
389.387	1050
389.612	1015
389.837	1068
390.062	1052
390.287	1088
390.512	1072
390.736	1074
390.961	1099
391.186	1076
391.411	1130
391.636	1173
391.86	1257
392.085	1236
392.31	1211
392.534	1180
392.759	1193
392.984	1199
393.208	1166
393.433	1140
393.658	1140
393.882	1145
394.107	1142
394.331	1174
394.556	1176
394.78	1172
395.005	1171
395.229	1180
395.454	1223
395.678	1226
395.903	1245
396.127	1240
396.352	1178
396.576	1144
396.801	1148
397.025	1186
397.249	1193
397.474	1236
397.698	1223
397.922	1228
398.147	1233
398.371	1241
398.595	1290
398.82	1392
399.044	1453
399.268	1648
399.492	1914
399.717	2180
399.941	2125
400.165	1848
400.389	1669
400.613	1544
400.837	1446
401.062	1381
401.286	1377
401.51	1359
401.734	1355
401.958	1398
402.182	1380
402.406	1435
402.63	1440
402.854	1506
403.078	1518
403.302	1596
403.526	1578
403.75	1586
403.974	1628
404.198	1656
404.422	1619
404.645	1634
404.869	1592
405.093	1605
405.317	1530
405.541	1548
405.765	1479
405.988	1536
406.212	1514
406.436	1500
406.66	1553
406.883	1606
407.107	1692
407.331	1751
407.555	1836
407.778	1793
408.002	1779
408.226	1699
408.449	1655
408.673	1601
408.896	1566
409.12	1596
409.344	1579
409.567	1581
409.791	1596
410.014	1584
410.238	1568
410.461	1524
410.685	1523
410.908	1475
411.132	1472
411.355	1452
411.578	1491
411.802	1447
412.025	1456
412.249	1473
412.472	1456
412.695	1423
412.919	1387
413.142	1381
413.365	1381
413.589	1405
413.812	1364
414.035	1366
414.258	1378
414.482	1386
414.705	1427
414.928	1392
415.151	1393
415.374	1372
415.597	1400
415.821	1375
416.044	1351
416.267	1324
416.49	1369
416.713	1401
416.936	1371
417.159	1385
417.382	1355
417.605	1344
417.828	1360
418.051	1376
418.274	1395
418.497	1368
418.72	1394
418.943	1404
419.166	1472
419.389	1594
419.611	1576
419.834	1489
420.057	1449
420.28	1408
420.503	1372
420.726	1346
420.948	1346
421.171	1371
421.394	1354
421.617	1349
421.839	1330
422.062	1412
422.285	1388
422.507	1430
422.73	1446
422.953	1414
423.175	1454
423.398	1482
423.621	1479
423.843	1471
424.066	1499
424.288	1500
424.511	1497
424.733	1440
424.956	1420
425.178	1423
425.401	1374
425.623	1385
425.846	1317
426.068	1338
426.291	1308
426.513	1276
426.735	1264
426.958	1284
427.18	1265
427.402	1292
427.625	1236
427.847	1224
428.069	1217
428.292	1253
428.514	1212
428.736	1204
428.958	1245
429.181	1183
429.403	1178
429.625	1176
429.847	1194
430.069	1172
430.292	1172
430.514	1160
430.736	1203
430.958	1204
431.18	1180
431.402	1211
431.624	1176
431.846	1215
432.068	1223
432.29	1239
432.512	1214
432.734	1222
432.956	1246
433.178	1229
433.4	1227
433.622	1226
433.844	1223
434.066	1250
434.287	1255
434.509	1280
434.731	1344
434.953	1370
435.175	1408
435.397	1383
435.618	1292
435.84	1258
436.062	1234
436.284	1229
436.505	1202
436.727	1229
436.949	1230
437.17	1195
437.392	1201
437.614	1193
437.835	1180
438.057	1176
438.278	1156
438.5	1146
438.721	1174
438.943	1188
439.165	1210
439.386	1190
439.608	1230
439.829	1236
440.05	1212
440.272	1221
440.493	1243
440.715	1249
440.936	1266
441.158	1279
441.379	1313
441.6	1412
441.822	1402
442.043	1403
442.264	1396
442.486	1364
442.707	1342
442.928	1325
443.149	1358
443.371	1346
443.592	1372
443.813	1388
444.034	1422
444.255	1474
444.476	1533
444.698	1656
444.919	1713
445.14	1777
445.361	1551
445.582	1432
445.803	1386
446.024	1323
446.245	1278
446.466	1262
446.687	1224
446.908	1256
447.129	1173
447.35	1204
447.571	1184
447.792	1132
448.013	1156
448.234	1154
448.455	1129
448.675	1162
448.896	1139
449.117	1090
449.338	1121
449.559	1136
449.779	1092
450	1127
450.221	1108
450.442	1157
450.662	1128
450.883	1144
451.104	1180
451.324	1163
451.545	1123
451.766	1135
451.986	1108
452.207	1120
452.428	1114
452.648	1108
452.869	1099
453.089	1111
453.31	1123
453.53	1086
453.751	1058
453.971	1078
454.192	1089
454.412	1053
454.633	1094
454.853	1073
455.073	1049
455.294	1036
455.514	1046
455.734	1020
455.955	1036
456.175	1014
456.395	1047
456.616	1012
456.836	1044
457.056	1041
457.276	1058
457.497	1036
457.717	1015
457.937	1040
458.157	1046
458.377	1058
458.598	1089
458.818	1100
459.038	1155
459.258	1172
459.478	1226
459.698	1276
459.918	1293
460.138	1388
460.358	1464
460.578	1458
460.798	1450
461.018	1485
461.238	1441
461.458	1474
461.678	1404
461.898	1436
462.118	1475
462.338	1549
462.558	1607
462.777	1677
462.997	1813
463.217	2030
463.437	2067
463.657	1798
463.876	1680
464.096	1729
464.316	1706
464.536	1722
464.755	1632
464.975	1587
465.195	1492
465.414	1428
465.634	1319
465.854	1271
466.073	1261
466.293	1230
466.512	1213
466.732	1183
466.951	1180
467.171	1156
467.391	1189
467.61	1165
467.829	1161
468.049	1162
468.268	1137
468.488	1118
468.707	1133
468.927	1129
469.146	1133
469.365	1154
469.585	1140
469.804	1166
470.023	1218
470.243	1225
470.462	1224
470.681	1227
470.901	1209
471.12	1207
471.339	1147
471.558	1122
471.777	1123
471.997	1139
472.216	1130
472.435	1123
472.654	1099
472.873	1096
473.092	1107
473.311	1105
473.53	1046
473.749	1064
473.968	1081
474.187	1086
474.406	1089
474.625	1083
474.844	1069
475.063	1085
475.282	1116
475.501	1104
475.72	1090
475.939	1122
476.158	1128
476.377	1129
476.596	1112
476.814	1163
477.033	1142
477.252	1173
477.471	1201
477.69	1234
477.908	1253
478.127	1304
478.346	1290
478.564	1352
478.783	1361
479.002	1383
479.22	1405
479.439	1364
479.658	1325
479.876	1378
480.095	1394
480.313	1453
480.532	1494
480.751	1484
480.969	1418
481.188	1323
481.406	1307
481.624	1304
481.843	1248
482.061	1272
482.28	1237
482.498	1237
482.717	1216
482.935	1232
483.153	1248
483.372	1242
483.59	1241
483.808	1247
484.027	1250
484.245	1255
484.463	1264
484.681	1234
484.9	1235
485.118	1271
485.336	1284
485.554	1292
485.772	1335
485.99	1286
486.209	1283
486.427	1318
486.645	1298
486.863	1314
487.081	1327
487.299	1310
487.517	1269
487.735	1288
487.953	1285
488.171	1334
488.389	1305
488.607	1295
488.825	1269
489.043	1263
489.261	1268
489.479	1315
489.696	1302
489.914	1330
490.132	1280
490.35	1300
490.568	1320
490.786	1284
491.003	1317
491.221	1320
491.439	1290
491.657	1278
491.874	1327
492.092	1328
492.31	1367
492.527	1360
492.745	1332
492.963	1346
493.18	1353
493.398	1333
493.615	1401
493.833	1390
494.05	1372
494.268	1408
494.485	1430
494.703	1389
494.92	1396
495.138	1400
495.355	1380
495.573	1378
495.79	1412
496.008	1412
496.225	1405
496.442	1440
496.66	1444
496.877	1466
497.094	1489
497.312	1494
497.529	1557
497.746	1584
497.963	1639
498.181	1669
498.398	1762
498.615	1901
498.832	1989
499.049	2166
499.267	2377
499.484	2608
499.701	2950
499.918	3248
500.135	3725
500.352	4402
500.569	4567
500.786	4462
501.003	4069
501.22	3596
501.437	3121
501.654	2766
501.871	2515
502.088	2284
502.305	2151
502.522	2028
502.739	1975
502.956	1860
503.172	1742
503.389	1679
503.606	1655
503.823	1575
504.04	1588
504.256	1629
504.473	1643
504.69	1723
504.907	1650
505.123	1508
505.34	1440
505.557	1378
505.773	1359
505.99	1327
506.207	1316
506.423	1282
506.64	1306
506.856	1227
507.073	1208
507.289	1242
507.506	1216
507.722	1210
507.939	1185
508.155	1180
508.372	1174
508.588	1179
508.805	1173
509.021	1159
509.238	1154
509.454	1121
509.67	1110
509.887	1110
510.103	1156
510.319	1099
510.536	1107
510.752	1084
510.968	1101
511.184	1125
511.401	1129
511.617	1129
511.833	1109
512.049	1102
512.265	1121
512.481	1121
512.698	1075
512.914	1070
513.13	1078
513.346	1114
513.562	1098
513.778	1141
513.994	1110
514.21	1107
514.426	1132
514.642	1109
514.858	1152
515.074	1166
515.29	1173
515.506	1156
515.721	1180
515.937	1206
516.153	1226
516.369	1220
516.585	1288
516.801	1339
517.016	1405
517.232	1460
517.448	1554
517.664	1605
517.879	1609
518.095	1616
518.311	1581
518.527	1487
518.742	1436
518.958	1350
519.173	1322
519.389	1294
519.605	1227
519.82	1210
520.036	1194
520.251	1156
520.467	1138
520.682	1136
520.898	1107
521.113	1101
521.329	1096
521.544	1084
521.76	1044
521.975	1065
522.19	1056
522.406	1075
522.621	1046
522.836	1026
523.052	1059
523.267	1036
523.482	1014
523.698	1028
523.913	1022
524.128	1018
524.343	998
524.559	1002
524.774	980
524.989	1048
525.204	1033
525.419	989
525.634	990
525.849	1000
526.064	992
526.28	988
526.495	998
526.71	999
526.925	1008
527.14	993
527.355	1001
527.57	991
527.785	1005
527.999	992
528.214	988
528.429	1005
528.644	998
528.859	993
529.074	1013
529.289	1020
529.503	1057
529.718	1015
529.933	1003
530.148	980
530.363	968
530.577	1007
530.792	1000
531.007	990
531.221	981
531.436	988
531.651	988
531.865	998
532.08	1026
532.295	1010
532.509	1020
532.724	982
532.938	1013
533.153	995
533.367	1027
533.582	994
533.796	1001
534.011	1005
534.225	987
534.44	1007
534.654	960
534.868	971
535.083	987
535.297	977
535.511	979
535.726	973
535.94	953
536.154	949
536.369	937
536.583	950
536.797	932
537.011	920
537.225	892
537.44	924
537.654	922
537.868	928
538.082	901
538.296	901
538.51	882
538.724	931
538.938	917
539.153	888
539.367	899
539.581	873
539.795	884
540.009	896
540.222	880
540.436	888
540.65	894
540.864	870
541.078	889
541.292	894
541.506	897
541.72	909
541.934	890
542.147	938
542.361	902
542.575	883
542.789	919
543.002	882
543.216	874
543.43	855
543.644	861
543.857	883
544.071	888
544.285	904
544.498	877
544.712	893
544.925	935
545.139	961
545.352	931
545.566	941
545.779	902
545.993	955
546.206	938
546.42	949
546.633	953
546.847	917
547.06	919
547.274	888
547.487	901
547.7	942
547.914	948
548.127	916
548.34	923
548.554	915
548.767	925
548.98	944
549.193	914
549.407	921
549.62	940
549.833	980
550.046	958
550.259	942
550.473	884
550.686	891
550.899	876
551.112	894
551.325	898
551.538	893
551.751	896
