Data from Ni(NO3)2@0.0625M.TitratingCurve.Agarose3%dH2O.NegLispCup.LampEnergy10.LIBS07252019_HRD10591_18-15-48-569.txt Node
Date: Thu Jul 25 18:15:48 EDT 2019
User: cochatt
Spectrometer: HR+D1059
Trigger mode: 1
Integration Time (sec): 1.000000E-1
Scans to average: 1
Electric dark correction enabled: true
Nonlinearity correction enabled: false
Boxcar width: 0
XAxis mode: Wavelengths
Number of Pixels in Spectrum: 2048
>>>>>Begin Spectral Data<<<<<
223.165	-16.25
223.4	-16.25
223.635	-16.25
223.869	-14.25
224.104	-7.25
224.338	-31.25
224.573	-13.25
224.808	-20.25
225.042	-5.25
225.277	-3.25
225.511	-12.25
225.746	3.75
225.98	2.75
226.215	16.75
226.449	14.75
226.683	22.75
226.918	28.75
227.152	33.75
227.387	25.75
227.621	43.75
227.856	50.75
228.09	52.75
228.324	57.75
228.559	58.75
228.793	64.75
229.027	103.75
229.262	116.75
229.496	111.75
229.73	125.75
229.964	114.75
230.199	121.75
230.433	125.75
230.667	130.75
230.901	129.75
231.136	127.75
231.37	127.75
231.604	122.75
231.838	131.75
232.072	129.75
232.306	131.75
232.541	129.75
232.775	146.75
233.009	135.75
233.243	159.75
233.477	153.75
233.711	135.75
233.945	128.75
234.179	139.75
234.413	140.75
234.647	151.75
234.881	147.75
235.115	151.75
235.349	136.75
235.583	137.75
235.817	137.75
236.051	167.75
236.285	155.75
236.519	134.75
236.753	141.75
236.987	143.75
237.221	149.75
237.455	156.75
237.689	156.75
237.922	141.75
238.156	154.75
238.39	146.75
238.624	147.75
238.858	152.75
239.091	166.75
239.325	169.75
239.559	171.75
239.793	176.75
240.027	153.75
240.26	164.75
240.494	166.75
240.728	159.75
240.961	156.75
241.195	168.75
241.429	161.75
241.662	165.75
241.896	179.75
242.13	185.75
242.363	167.75
242.597	183.75
242.83	177.75
243.064	169.75
243.298	177.75
243.531	194.75
243.765	187.75
243.998	187.75
244.232	178.75
244.465	193.75
244.699	189.75
244.932	203.75
245.166	189.75
245.399	196.75
245.633	189.75
245.866	186.75
246.099	201.75
246.333	197.75
246.566	206.75
246.8	205.75
247.033	205.75
247.266	213.75
247.5	215.75
247.733	203.75
247.966	209.75
248.2	215.75
248.433	218.75
248.666	207.75
248.899	219.75
249.133	233.75
249.366	217.75
249.599	236.75
249.832	218.75
250.066	199.75
250.299	230.75
250.532	218.75
250.765	222.75
250.998	220.75
251.231	213.75
251.465	243.75
251.698	251.75
251.931	244.75
252.164	250.75
252.397	237.75
252.63	243.75
252.863	238.75
253.096	239.75
253.329	249.75
253.562	262.75
253.795	277.75
254.028	255.75
254.261	237.75
254.494	254.75
254.727	247.75
254.96	245.75
255.193	261.75
255.426	265.75
255.659	258.75
255.892	249.75
256.124	262.75
256.357	271.75
256.59	261.75
256.823	266.75
257.056	269.75
257.289	278.75
257.521	267.75
257.754	270.75
257.987	242.75
258.22	281.75
258.452	288.75
258.685	276.75
258.918	270.75
259.151	288.75
259.383	279.75
259.616	277.75
259.849	282.75
260.081	278.75
260.314	298.75
260.547	291.75
260.779	293.75
261.012	278.75
261.244	298.75
261.477	301.75
261.71	304.75
261.942	291.75
262.175	287.75
262.407	284.75
262.64	280.75
262.872	299.75
263.105	303.75
263.337	294.75
263.57	298.75
263.802	297.75
264.035	292.75
264.267	308.75
264.499	309.75
264.732	312.75
264.964	311.75
265.197	297.75
265.429	327.75
265.661	285.75
265.894	292.75
266.126	314.75
266.358	316.75
266.591	310.75
266.823	331.75
267.055	324.75
267.287	312.75
267.52	322.75
267.752	322.75
267.984	327.75
268.216	310.75
268.448	352.75
268.681	336.75
268.913	348.75
269.145	326.75
269.377	335.75
269.609	323.75
269.841	337.75
270.073	324.75
270.306	330.75
270.538	340.75
270.77	335.75
271.002	336.75
271.234	347.75
271.466	345.75
271.698	338.75
271.93	332.75
272.162	367.75
272.394	338.75
272.626	361.75
272.858	368.75
273.09	348.75
273.322	373.75
273.553	356.75
273.785	341.75
274.017	359.75
274.249	352.75
274.481	358.75
274.713	353.75
274.945	378.75
275.176	359.75
275.408	371.75
275.64	390.75
275.872	368.75
276.104	371.75
276.335	369.75
276.567	379.75
276.799	381.75
277.031	382.75
277.262	387.75
277.494	357.75
277.726	379.75
277.957	370.75
278.189	385.75
278.421	389.75
278.652	383.75
278.884	381.75
279.115	422.75
279.347	406.75
279.579	402.75
279.81	390.75
280.042	412.75
280.273	405.75
280.505	394.75
280.736	414.75
280.968	420.75
281.199	409.75
281.431	433.75
281.662	446.75
281.894	432.75
282.125	401.75
282.356	405.75
282.588	418.75
282.819	425.75
283.051	417.75
283.282	420.75
283.513	443.75
283.745	421.75
283.976	413.75
284.207	417.75
284.439	445.75
284.67	428.75
284.901	435.75
285.132	442.75
285.364	449.75
285.595	448.75
285.826	439.75
286.057	443.75
286.288	453.75
286.52	445.75
286.751	450.75
286.982	454.75
287.213	453.75
287.444	467.75
287.675	444.75
287.906	459.75
288.138	459.75
288.369	457.75
288.6	483.75
288.831	443.75
289.062	488.75
289.293	472.75
289.524	477.75
289.755	496.75
289.986	451.75
290.217	467.75
290.448	479.75
290.679	484.75
290.91	468.75
291.141	451.75
291.371	463.75
291.602	478.75
291.833	467.75
292.064	480.75
292.295	461.75
292.526	469.75
292.757	482.75
292.987	465.75
293.218	464.75
293.449	484.75
293.68	480.75
293.91	475.75
294.141	474.75
294.372	492.75
294.603	458.75
294.833	486.75
295.064	467.75
295.295	491.75
295.525	467.75
295.756	496.75
295.987	472.75
296.217	486.75
296.448	494.75
296.679	497.75
296.909	535.75
297.14	486.75
297.37	514.75
297.601	525.75
297.831	518.75
298.062	504.75
298.292	496.75
298.523	523.75
298.753	536.75
298.984	509.75
299.214	530.75
299.445	511.75
299.675	529.75
299.905	524.75
300.136	530.75
300.366	507.75
300.597	522.75
300.827	535.75
301.057	554.75
301.288	543.75
301.518	531.75
301.748	551.75
301.979	532.75
302.209	561.75
302.439	551.75
302.669	535.75
302.9	533.75
303.13	516.75
303.36	518.75
303.59	525.75
303.82	548.75
304.051	534.75
304.281	555.75
304.511	539.75
304.741	533.75
304.971	552.75
305.201	537.75
305.431	535.75
305.661	518.75
305.891	513.75
306.121	508.75
306.352	511.75
306.582	538.75
306.812	514.75
307.042	544.75
307.272	544.75
307.502	540.75
307.731	539.75
307.961	520.75
308.191	518.75
308.421	509.75
308.651	511.75
308.881	523.75
309.111	520.75
309.341	521.75
309.571	521.75
309.8	511.75
310.03	535.75
310.26	513.75
310.49	530.75
310.72	539.75
310.949	527.75
311.179	535.75
311.409	542.75
311.639	546.75
311.868	547.75
312.098	548.75
312.328	535.75
312.557	547.75
312.787	545.75
313.017	554.75
313.246	569.75
313.476	561.75
313.706	578.75
313.935	564.75
314.165	570.75
314.394	580.75
314.624	575.75
314.853	570.75
315.083	588.75
315.312	566.75
315.542	566.75
315.771	556.75
316.001	560.75
316.23	578.75
316.46	539.75
316.689	580.75
316.919	563.75
317.148	567.75
317.377	552.75
317.607	550.75
317.836	553.75
318.065	559.75
318.295	554.75
318.524	554.75
318.753	545.75
318.983	532.75
319.212	536.75
319.441	541.75
319.67	567.75
319.9	549.75
320.129	560.75
320.358	545.75
320.587	559.75
320.816	569.75
321.046	563.75
321.275	561.75
321.504	555.75
321.733	570.75
321.962	536.75
322.191	551.75
322.42	546.75
322.649	554.75
322.878	563.75
323.108	559.75
323.337	577.75
323.566	573.75
323.795	591.75
324.024	603.75
324.253	564.75
324.482	569.75
324.71	580.75
324.939	571.75
325.168	599.75
325.397	572.75
325.626	587.75
325.855	609.75
326.084	577.75
326.313	609.75
326.542	609.75
326.77	608.75
326.999	610.75
327.228	611.75
327.457	610.75
327.686	590.75
327.914	615.75
328.143	626.75
328.372	629.75
328.6	604.75
328.829	614.75
329.058	598.75
329.287	613.75
329.515	615.75
329.744	628.75
329.972	615.75
330.201	619.75
330.43	639.75
330.658	613.75
330.887	629.75
331.115	629.75
331.344	656.75
331.572	637.75
331.801	673.75
332.03	676.75
332.258	696.75
332.486	736.75
332.715	767.75
332.943	762.75
333.172	815.75
333.4	849.75
333.629	883.75
333.857	848.75
334.085	841.75
334.314	818.75
334.542	810.75
334.771	801.75
334.999	768.75
335.227	780.75
335.455	761.75
335.684	764.75
335.912	755.75
336.14	735.75
336.369	720.75
336.597	735.75
336.825	748.75
337.053	724.75
337.281	743.75
337.51	714.75
337.738	698.75
337.966	708.75
338.194	677.75
338.422	664.75
338.65	655.75
338.878	663.75
339.106	669.75
339.334	683.75
339.562	646.75
339.79	649.75
340.018	642.75
340.246	642.75
340.474	644.75
340.702	654.75
340.93	653.75
341.158	655.75
341.386	651.75
341.614	627.75
341.842	628.75
342.07	638.75
342.298	678.75
342.526	650.75
342.754	640.75
342.981	641.75
343.209	645.75
343.437	717.75
343.665	740.75
343.893	764.75
344.12	789.75
344.348	775.75
344.576	714.75
344.804	687.75
345.031	672.75
345.259	644.75
345.487	668.75
345.714	650.75
345.942	651.75
346.17	633.75
346.397	610.75
346.625	621.75
346.853	617.75
347.08	622.75
347.308	633.75
347.535	626.75
347.763	638.75
347.99	640.75
348.218	618.75
348.445	641.75
348.673	605.75
348.9	609.75
349.128	611.75
349.355	620.75
349.583	623.75
349.81	610.75
350.037	627.75
350.265	645.75
350.492	618.75
350.72	601.75
350.947	632.75
351.174	604.75
351.402	620.75
351.629	626.75
351.856	584.75
352.083	589.75
352.311	619.75
352.538	604.75
352.765	595.75
352.992	583.75
353.22	592.75
353.447	584.75
353.674	599.75
353.901	587.75
354.128	597.75
354.355	568.75
354.583	602.75
354.81	590.75
355.037	613.75
355.264	595.75
355.491	612.75
355.718	612.75
355.945	600.75
356.172	600.75
356.399	615.75
356.626	611.75
356.853	591.75
357.08	599.75
357.307	618.75
357.534	609.75
357.761	597.75
357.988	614.75
358.215	573.75
358.441	587.75
358.668	594.75
358.895	595.75
359.122	621.75
359.349	615.75
359.576	607.75
359.802	615.75
360.029	583.75
360.256	619.75
360.483	616.75
360.709	621.75
360.936	604.75
361.163	599.75
361.39	596.75
361.616	607.75
361.843	610.75
362.07	634.75
362.296	602.75
362.523	594.75
362.749	610.75
362.976	600.75
363.203	576.75
363.429	575.75
363.656	584.75
363.882	575.75
364.109	576.75
364.335	588.75
364.562	609.75
364.788	619.75
365.015	590.75
365.241	616.75
365.468	609.75
365.694	604.75
365.92	587.75
366.147	578.75
366.373	602.75
366.599	603.75
366.826	603.75
367.052	610.75
367.278	596.75
367.505	617.75
367.731	640.75
367.957	595.75
368.184	598.75
368.41	608.75
368.636	618.75
368.862	627.75
369.089	618.75
369.315	595.75
369.541	629.75
369.767	607.75
369.993	633.75
370.219	654.75
370.445	616.75
370.672	637.75
370.898	610.75
371.124	654.75
371.35	651.75
371.576	663.75
371.802	653.75
372.028	656.75
372.254	655.75
372.48	649.75
372.706	702.75
372.932	680.75
373.158	680.75
373.384	669.75
373.61	650.75
373.835	672.75
374.061	655.75
374.287	687.75
374.513	657.75
374.739	704.75
374.965	708.75
375.191	719.75
375.416	726.75
375.642	723.75
375.868	696.75
376.094	692.75
376.319	679.75
376.545	651.75
376.771	677.75
376.997	689.75
377.222	659.75
377.448	657.75
377.674	668.75
377.899	630.75
378.125	642.75
378.35	644.75
378.576	659.75
378.802	653.75
379.027	641.75
379.253	652.75
379.478	638.75
379.704	652.75
379.929	637.75
380.155	641.75
380.38	679.75
380.606	637.75
380.831	641.75
381.057	659.75
381.282	629.75
381.507	656.75
381.733	653.75
381.958	678.75
382.184	652.75
382.409	676.75
382.634	698.75
382.86	694.75
383.085	710.75
383.31	711.75
383.535	716.75
383.761	715.75
383.986	735.75
384.211	767.75
384.436	787.75
384.662	772.75
384.887	803.75
385.112	779.75
385.337	803.75
385.562	798.75
385.787	785.75
386.013	796.75
386.238	784.75
386.463	801.75
386.688	795.75
386.913	770.75
387.138	781.75
387.363	785.75
387.588	753.75
387.813	764.75
388.038	773.75
388.263	772.75
388.488	770.75
388.713	799.75
388.938	781.75
389.163	789.75
389.387	777.75
389.612	772.75
389.837	788.75
390.062	771.75
390.287	756.75
390.512	742.75
390.736	779.75
390.961	777.75
391.186	820.75
391.411	825.75
391.636	851.75
391.86	899.75
392.085	897.75
392.31	903.75
392.534	855.75
392.759	844.75
392.984	840.75
393.208	842.75
393.433	845.75
393.658	808.75
393.882	845.75
394.107	826.75
394.331	844.75
394.556	819.75
394.78	870.75
395.005	828.75
395.229	857.75
395.454	885.75
395.678	895.75
395.903	902.75
396.127	869.75
396.352	862.75
396.576	827.75
396.801	818.75
397.025	835.75
397.249	866.75
397.474	890.75
397.698	903.75
397.922	896.75
398.147	883.75
398.371	904.75
398.595	951.75
398.82	973.75
399.044	1075.75
399.268	1171.75
399.492	1371.75
399.717	1593.75
399.941	1573.75
400.165	1352.75
400.389	1163.75
400.613	1093.75
400.837	1034.75
401.062	1029.75
401.286	986.75
401.51	1005.75
401.734	990.75
401.958	1026.75
402.182	1027.75
402.406	1025.75
402.63	1053.75
402.854	1078.75
403.078	1062.75
403.302	1122.75
403.526	1140.75
403.75	1161.75
403.974	1159.75
404.198	1185.75
404.422	1189.75
404.645	1160.75
404.869	1135.75
405.093	1149.75
405.317	1106.75
405.541	1100.75
405.765	1066.75
405.988	1095.75
406.212	1099.75
406.436	1091.75
406.66	1118.75
406.883	1121.75
407.107	1212.75
407.331	1281.75
407.555	1329.75
407.778	1298.75
408.002	1253.75
408.226	1212.75
408.449	1179.75
408.673	1142.75
408.896	1157.75
409.12	1126.75
409.344	1137.75
409.567	1105.75
409.791	1168.75
410.014	1144.75
410.238	1123.75
410.461	1122.75
410.685	1114.75
410.908	1082.75
411.132	1055.75
411.355	1013.75
411.578	1042.75
411.802	1011.75
412.025	1013.75
412.249	1037.75
412.472	1026.75
412.695	1013.75
412.919	978.75
413.142	1007.75
413.365	1003.75
413.589	979.75
413.812	978.75
414.035	951.75
414.258	994.75
414.482	1015.75
414.705	1000.75
414.928	1003.75
415.151	999.75
415.374	1004.75
415.597	988.75
415.821	968.75
416.044	967.75
416.267	955.75
416.49	976.75
416.713	973.75
416.936	982.75
417.159	957.75
417.382	957.75
417.605	976.75
417.828	974.75
418.051	954.75
418.274	996.75
418.497	1001.75
418.72	1017.75
418.943	1034.75
419.166	1036.75
419.389	1143.75
419.611	1095.75
419.834	1093.75
420.057	1049.75
420.28	996.75
420.503	962.75
420.726	930.75
420.948	946.75
421.171	970.75
421.394	985.75
421.617	981.75
421.839	990.75
422.062	991.75
422.285	983.75
422.507	993.75
422.73	995.75
422.953	1007.75
423.175	1050.75
423.398	1061.75
423.621	1070.75
423.843	1084.75
424.066	1081.75
424.288	1049.75
424.511	1027.75
424.733	1010.75
424.956	984.75
425.178	1011.75
425.401	985.75
425.623	969.75
425.846	962.75
426.068	930.75
426.291	908.75
426.513	932.75
426.735	920.75
426.958	924.75
427.18	898.75
427.402	870.75
427.625	899.75
427.847	860.75
428.069	873.75
428.292	883.75
428.514	847.75
428.736	847.75
428.958	873.75
429.181	855.75
429.403	839.75
429.625	840.75
429.847	843.75
430.069	829.75
430.292	864.75
430.514	812.75
430.736	843.75
430.958	820.75
431.18	817.75
431.402	838.75
431.624	859.75
431.846	865.75
432.068	910.75
432.29	919.75
432.512	873.75
432.734	851.75
432.956	855.75
433.178	853.75
433.4	866.75
433.622	861.75
433.844	865.75
434.066	866.75
434.287	899.75
434.509	910.75
434.731	925.75
434.953	975.75
435.175	1012.75
435.397	991.75
435.618	933.75
435.84	896.75
436.062	876.75
436.284	885.75
436.505	863.75
436.727	865.75
436.949	857.75
437.17	863.75
437.392	859.75
437.614	832.75
437.835	823.75
438.057	830.75
438.278	829.75
438.5	820.75
438.721	848.75
438.943	856.75
439.165	833.75
439.386	859.75
439.608	861.75
439.829	863.75
440.05	854.75
440.272	855.75
440.493	897.75
440.715	895.75
440.936	884.75
441.158	903.75
441.379	925.75
441.6	981.75
441.822	1037.75
442.043	1014.75
442.264	985.75
442.486	943.75
442.707	977.75
442.928	938.75
443.149	967.75
443.371	974.75
443.592	951.75
443.813	994.75
444.034	1007.75
444.255	1023.75
444.476	1057.75
444.698	1157.75
444.919	1197.75
445.14	1238.75
445.361	1083.75
445.582	981.75
445.803	950.75
446.024	913.75
446.245	915.75
446.466	916.75
446.687	848.75
446.908	890.75
447.129	822.75
447.35	832.75
447.571	836.75
447.792	813.75
448.013	815.75
448.234	808.75
448.455	795.75
448.675	802.75
448.896	817.75
449.117	805.75
449.338	809.75
449.559	772.75
449.779	767.75
450	777.75
450.221	785.75
450.442	780.75
450.662	821.75
450.883	817.75
451.104	820.75
451.324	826.75
451.545	832.75
451.766	829.75
451.986	821.75
452.207	786.75
452.428	813.75
452.648	796.75
452.869	787.75
453.089	784.75
453.31	784.75
453.53	775.75
453.751	786.75
453.971	795.75
454.192	769.75
454.412	737.75
454.633	770.75
454.853	754.75
455.073	740.75
455.294	769.75
455.514	742.75
455.734	753.75
455.955	748.75
456.175	747.75
456.395	767.75
456.616	728.75
456.836	717.75
457.056	736.75
457.276	733.75
457.497	744.75
457.717	721.75
457.937	756.75
458.157	775.75
458.377	749.75
458.598	779.75
458.818	800.75
459.038	813.75
459.258	857.75
459.478	882.75
459.698	894.75
459.918	920.75
460.138	970.75
460.358	1023.75
460.578	1048.75
460.798	1034.75
461.018	1043.75
461.238	1013.75
461.458	1031.75
461.678	1037.75
461.898	1053.75
462.118	1044.75
462.338	1105.75
462.558	1132.75
462.777	1177.75
462.997	1286.75
463.217	1443.75
463.437	1446.75
463.657	1269.75
463.876	1223.75
464.096	1242.75
464.316	1214.75
464.536	1257.75
464.755	1160.75
464.975	1096.75
465.195	1099.75
465.414	1016.75
465.634	923.75
465.854	907.75
466.073	904.75
466.293	882.75
466.512	852.75
466.732	844.75
466.951	810.75
467.171	835.75
467.391	860.75
467.61	822.75
467.829	825.75
468.049	839.75
468.268	811.75
468.488	776.75
468.707	784.75
468.927	800.75
469.146	824.75
469.365	823.75
469.585	792.75
469.804	844.75
470.023	850.75
470.243	870.75
470.462	854.75
470.681	864.75
470.901	873.75
471.12	848.75
471.339	852.75
471.558	826.75
471.777	808.75
471.997	795.75
472.216	793.75
472.435	780.75
472.654	799.75
472.873	764.75
473.092	753.75
473.311	779.75
473.53	771.75
473.749	771.75
473.968	772.75
474.187	772.75
474.406	776.75
474.625	778.75
474.844	778.75
475.063	788.75
475.282	779.75
475.501	787.75
475.72	808.75
475.939	812.75
476.158	796.75
476.377	794.75
476.596	789.75
476.814	839.75
477.033	802.75
477.252	838.75
477.471	852.75
477.69	856.75
477.908	886.75
478.127	903.75
478.346	908.75
478.564	942.75
478.783	981.75
479.002	963.75
479.22	988.75
479.439	955.75
479.658	941.75
479.876	954.75
480.095	988.75
480.313	1041.75
480.532	1079.75
480.751	1092.75
480.969	1016.75
481.188	983.75
481.406	926.75
481.624	934.75
481.843	889.75
482.061	866.75
482.28	882.75
482.498	863.75
482.717	870.75
482.935	852.75
483.153	891.75
483.372	851.75
483.59	864.75
483.808	881.75
484.027	875.75
484.245	896.75
484.463	907.75
484.681	908.75
484.9	935.75
485.118	949.75
485.336	911.75
485.554	925.75
485.772	924.75
485.99	941.75
486.209	905.75
486.427	925.75
486.645	923.75
486.863	921.75
487.081	954.75
487.299	921.75
487.517	923.75
487.735	906.75
487.953	916.75
488.171	921.75
488.389	930.75
488.607	899.75
488.825	895.75
489.043	895.75
489.261	891.75
489.479	907.75
489.696	916.75
489.914	948.75
490.132	940.75
490.35	895.75
490.568	931.75
490.786	912.75
491.003	923.75
491.221	933.75
491.439	886.75
491.657	907.75
491.874	916.75
492.092	949.75
492.31	932.75
492.527	913.75
492.745	907.75
492.963	930.75
493.18	935.75
493.398	958.75
493.615	970.75
493.833	995.75
494.05	980.75
494.268	980.75
494.485	971.75
494.703	963.75
494.92	1002.75
495.138	955.75
495.355	939.75
495.573	963.75
495.79	978.75
496.008	987.75
496.225	983.75
496.442	974.75
496.66	995.75
496.877	1021.75
497.094	1040.75
497.312	1087.75
497.529	1104.75
497.746	1109.75
497.963	1116.75
498.181	1178.75
498.398	1257.75
498.615	1312.75
498.832	1371.75
499.049	1509.75
499.267	1608.75
499.484	1821.75
499.701	2028.75
