Data from Ni(NO3)2@0.0625M.TitratingCurve.Agarose3%dH2O.NegLispCup.LampEnergy10.LIBS07252019_HRD10591_18-14-25-569.txt Node
Date: Thu Jul 25 18:14:25 EDT 2019
User: cochatt
Spectrometer: HR+D1059
Trigger mode: 1
Integration Time (sec): 1.000000E-1
Scans to average: 1
Electric dark correction enabled: true
Nonlinearity correction enabled: false
Boxcar width: 0
XAxis mode: Wavelengths
Number of Pixels in Spectrum: 2048
>>>>>Begin Spectral Data<<<<<
223.165	-19.88
223.4	-19.88
223.635	-19.88
223.869	-20.88
224.104	-16.88
224.338	-13.88
224.573	-6.88
224.808	-23.88
225.042	-16.88
225.277	4.12
225.511	7.12
225.746	-7.88
225.98	9.12
226.215	9.12
226.449	7.12
226.683	27.12
226.918	30.12
227.152	33.12
227.387	35.12
227.621	37.12
227.856	47.12
228.09	66.12
228.324	31.12
228.559	39.12
228.793	77.12
229.027	99.12
229.262	112.12
229.496	104.12
229.73	113.12
229.964	130.12
230.199	136.12
230.433	140.12
230.667	143.12
230.901	137.12
231.136	130.12
231.37	129.12
231.604	135.12
231.838	145.12
232.072	157.12
232.306	145.12
232.541	164.12
232.775	135.12
233.009	157.12
233.243	141.12
233.477	150.12
233.711	148.12
233.945	158.12
234.179	163.12
234.413	163.12
234.647	133.12
234.881	156.12
235.115	157.12
235.349	148.12
235.583	143.12
235.817	152.12
236.051	157.12
236.285	151.12
236.519	155.12
236.753	137.12
236.987	159.12
237.221	157.12
237.455	172.12
237.689	160.12
237.922	159.12
238.156	172.12
238.39	160.12
238.624	153.12
238.858	172.12
239.091	169.12
239.325	178.12
239.559	185.12
239.793	168.12
240.027	172.12
240.26	192.12
240.494	180.12
240.728	178.12
240.961	167.12
241.195	189.12
241.429	195.12
241.662	190.12
241.896	202.12
242.13	206.12
242.363	205.12
242.597	212.12
242.83	217.12
243.064	187.12
243.298	192.12
243.531	196.12
243.765	220.12
243.998	206.12
244.232	209.12
244.465	207.12
244.699	229.12
244.932	218.12
245.166	208.12
245.399	199.12
245.633	204.12
245.866	223.12
246.099	214.12
246.333	218.12
246.566	216.12
246.8	230.12
247.033	233.12
247.266	229.12
247.5	224.12
247.733	223.12
247.966	224.12
248.2	244.12
248.433	226.12
248.666	239.12
248.899	217.12
249.133	247.12
249.366	239.12
249.599	238.12
249.832	224.12
250.066	249.12
250.299	236.12
250.532	246.12
250.765	234.12
250.998	250.12
251.231	262.12
251.465	255.12
251.698	240.12
251.931	277.12
252.164	262.12
252.397	253.12
252.63	266.12
252.863	256.12
253.096	280.12
253.329	266.12
253.562	274.12
253.795	275.12
254.028	272.12
254.261	284.12
254.494	271.12
254.727	273.12
254.96	265.12
255.193	281.12
255.426	265.12
255.659	268.12
255.892	286.12
256.124	294.12
256.357	296.12
256.59	286.12
256.823	290.12
257.056	307.12
257.289	294.12
257.521	289.12
257.754	314.12
257.987	301.12
258.22	310.12
258.452	308.12
258.685	314.12
258.918	301.12
259.151	276.12
259.383	310.12
259.616	302.12
259.849	315.12
260.081	309.12
260.314	324.12
260.547	304.12
260.779	318.12
261.012	295.12
261.244	304.12
261.477	333.12
261.71	319.12
261.942	334.12
262.175	333.12
262.407	315.12
262.64	329.12
262.872	327.12
263.105	345.12
263.337	348.12
263.57	324.12
263.802	324.12
264.035	326.12
264.267	357.12
264.499	333.12
264.732	337.12
264.964	340.12
265.197	335.12
265.429	345.12
265.661	329.12
265.894	344.12
266.126	370.12
266.358	348.12
266.591	351.12
266.823	360.12
267.055	378.12
267.287	371.12
267.52	343.12
267.752	369.12
267.984	370.12
268.216	357.12
268.448	352.12
268.681	349.12
268.913	360.12
269.145	359.12
269.377	373.12
269.609	374.12
269.841	363.12
270.073	382.12
270.306	376.12
270.538	361.12
270.77	364.12
271.002	389.12
271.234	379.12
271.466	383.12
271.698	361.12
271.93	382.12
272.162	383.12
272.394	382.12
272.626	374.12
272.858	383.12
273.09	383.12
273.322	389.12
273.553	374.12
273.785	391.12
274.017	407.12
274.249	393.12
274.481	385.12
274.713	406.12
274.945	406.12
275.176	395.12
275.408	426.12
275.64	400.12
275.872	406.12
276.104	407.12
276.335	406.12
276.567	412.12
276.799	421.12
277.031	401.12
277.262	421.12
277.494	410.12
277.726	415.12
277.957	410.12
278.189	425.12
278.421	442.12
278.652	402.12
278.884	416.12
279.115	453.12
279.347	425.12
279.579	418.12
279.81	435.12
280.042	431.12
280.273	441.12
280.505	446.12
280.736	434.12
280.968	428.12
281.199	446.12
281.431	428.12
281.662	434.12
281.894	445.12
282.125	442.12
282.356	441.12
282.588	488.12
282.819	473.12
283.051	454.12
283.282	476.12
283.513	467.12
283.745	479.12
283.976	467.12
284.207	473.12
284.439	484.12
284.67	475.12
284.901	466.12
285.132	471.12
285.364	468.12
285.595	483.12
285.826	486.12
286.057	480.12
286.288	486.12
286.52	480.12
286.751	482.12
286.982	488.12
287.213	482.12
287.444	502.12
287.675	495.12
287.906	508.12
288.138	478.12
288.369	487.12
288.6	497.12
288.831	511.12
289.062	526.12
289.293	502.12
289.524	504.12
289.755	496.12
289.986	514.12
290.217	495.12
290.448	504.12
290.679	517.12
290.91	509.12
291.141	486.12
291.371	484.12
291.602	533.12
291.833	524.12
292.064	514.12
292.295	511.12
292.526	519.12
292.757	533.12
292.987	513.12
293.218	513.12
293.449	510.12
293.68	517.12
293.91	509.12
294.141	515.12
294.372	513.12
294.603	532.12
294.833	516.12
295.064	517.12
295.295	535.12
295.525	528.12
295.756	533.12
295.987	529.12
296.217	553.12
296.448	538.12
296.679	541.12
296.909	535.12
297.14	547.12
297.37	579.12
297.601	551.12
297.831	557.12
298.062	550.12
298.292	549.12
298.523	557.12
298.753	562.12
298.984	584.12
299.214	584.12
299.445	537.12
299.675	534.12
299.905	554.12
300.136	567.12
300.366	581.12
300.597	582.12
300.827	573.12
301.057	569.12
301.288	589.12
301.518	589.12
301.748	580.12
301.979	583.12
302.209	583.12
302.439	603.12
302.669	591.12
302.9	587.12
303.13	559.12
303.36	602.12
303.59	586.12
303.82	582.12
304.051	575.12
304.281	566.12
304.511	591.12
304.741	577.12
304.971	564.12
305.201	574.12
305.431	597.12
305.661	586.12
305.891	576.12
306.121	586.12
306.352	573.12
306.582	556.12
306.812	559.12
307.042	553.12
307.272	551.12
307.502	542.12
307.731	564.12
307.961	568.12
308.191	588.12
308.421	567.12
308.651	567.12
308.881	560.12
309.111	572.12
309.341	574.12
309.571	569.12
309.8	583.12
310.03	591.12
310.26	569.12
310.49	558.12
310.72	586.12
310.949	559.12
311.179	582.12
311.409	564.12
311.639	586.12
311.868	572.12
312.098	598.12
312.328	583.12
312.557	606.12
312.787	598.12
313.017	610.12
313.246	598.12
313.476	594.12
313.706	604.12
313.935	605.12
314.165	600.12
314.394	597.12
314.624	609.12
314.853	608.12
315.083	597.12
315.312	583.12
315.542	600.12
315.771	591.12
316.001	616.12
316.23	614.12
316.46	615.12
316.689	597.12
316.919	591.12
317.148	591.12
317.377	620.12
317.607	600.12
317.836	588.12
318.065	572.12
318.295	606.12
318.524	585.12
318.753	573.12
318.983	605.12
319.212	607.12
319.441	593.12
319.67	596.12
319.9	594.12
320.129	598.12
320.358	594.12
320.587	599.12
320.816	601.12
321.046	615.12
321.275	603.12
321.504	603.12
321.733	603.12
321.962	609.12
322.191	597.12
322.42	604.12
322.649	620.12
322.878	637.12
323.108	613.12
323.337	637.12
323.566	611.12
323.795	626.12
324.024	630.12
324.253	630.12
324.482	623.12
324.71	624.12
324.939	635.12
325.168	617.12
325.397	617.12
325.626	626.12
325.855	642.12
326.084	672.12
326.313	668.12
326.542	662.12
326.77	680.12
326.999	661.12
327.228	621.12
327.457	648.12
327.686	629.12
327.914	659.12
328.143	663.12
328.372	650.12
328.6	641.12
328.829	648.12
329.058	684.12
329.287	658.12
329.515	668.12
329.744	689.12
329.972	684.12
330.201	676.12
330.43	673.12
330.658	687.12
330.887	694.12
331.115	669.12
331.344	687.12
331.572	702.12
331.801	708.12
332.03	735.12
332.258	717.12
332.486	766.12
332.715	786.12
332.943	824.12
333.172	859.12
333.4	854.12
333.629	912.12
333.857	908.12
334.085	869.12
334.314	862.12
334.542	849.12
334.771	859.12
334.999	864.12
335.227	826.12
335.455	806.12
335.684	806.12
335.912	813.12
336.14	797.12
336.369	786.12
336.597	812.12
336.825	805.12
337.053	805.12
337.281	794.12
337.51	742.12
337.738	748.12
337.966	724.12
338.194	734.12
338.422	732.12
338.65	721.12
338.878	729.12
339.106	728.12
339.334	730.12
339.562	712.12
339.79	695.12
340.018	700.12
340.246	685.12
340.474	690.12
340.702	702.12
340.93	704.12
341.158	698.12
341.386	704.12
341.614	700.12
341.842	670.12
342.07	692.12
342.298	701.12
342.526	710.12
342.754	676.12
342.981	676.12
343.209	702.12
343.437	725.12
343.665	792.12
343.893	830.12
344.12	860.12
344.348	822.12
344.576	780.12
344.804	746.12
345.031	719.12
345.259	698.12
345.487	700.12
345.714	705.12
345.942	683.12
346.17	706.12
346.397	660.12
346.625	673.12
346.853	675.12
347.08	674.12
347.308	680.12
347.535	695.12
347.763	686.12
347.99	686.12
348.218	687.12
348.445	696.12
348.673	657.12
348.9	656.12
349.128	683.12
349.355	636.12
349.583	641.12
349.81	643.12
350.037	650.12
350.265	657.12
350.492	646.12
350.72	639.12
350.947	635.12
351.174	644.12
351.402	652.12
351.629	646.12
351.856	643.12
352.083	635.12
352.311	668.12
352.538	641.12
352.765	641.12
352.992	654.12
353.22	651.12
353.447	650.12
353.674	643.12
353.901	638.12
354.128	637.12
354.355	637.12
354.583	662.12
354.81	667.12
355.037	641.12
355.264	649.12
355.491	642.12
355.718	650.12
355.945	665.12
356.172	669.12
356.399	655.12
356.626	648.12
356.853	678.12
357.08	659.12
357.307	623.12
357.534	644.12
357.761	654.12
357.988	668.12
358.215	653.12
358.441	657.12
358.668	657.12
358.895	640.12
359.122	666.12
359.349	637.12
359.576	660.12
359.802	648.12
360.029	659.12
360.256	652.12
360.483	647.12
360.709	639.12
360.936	689.12
361.163	639.12
361.39	642.12
361.616	636.12
361.843	665.12
362.07	650.12
362.296	664.12
362.523	630.12
362.749	683.12
362.976	649.12
363.203	629.12
363.429	644.12
363.656	630.12
363.882	646.12
364.109	658.12
364.335	663.12
364.562	662.12
364.788	636.12
365.015	641.12
365.241	639.12
365.468	636.12
365.694	623.12
365.92	638.12
366.147	656.12
366.373	638.12
366.599	642.12
366.826	664.12
367.052	665.12
367.278	664.12
367.505	649.12
367.731	638.12
367.957	654.12
368.184	666.12
368.41	663.12
368.636	633.12
368.862	670.12
369.089	658.12
369.315	670.12
369.541	645.12
369.767	685.12
369.993	687.12
370.219	666.12
370.445	687.12
370.672	701.12
370.898	722.12
371.124	708.12
371.35	688.12
371.576	709.12
371.802	732.12
372.028	692.12
372.254	687.12
372.48	715.12
372.706	727.12
372.932	730.12
373.158	712.12
373.384	715.12
373.61	694.12
373.835	716.12
374.061	686.12
374.287	702.12
374.513	716.12
374.739	758.12
374.965	756.12
375.191	754.12
375.416	803.12
375.642	780.12
375.868	748.12
376.094	751.12
376.319	738.12
376.545	746.12
376.771	712.12
376.997	715.12
377.222	718.12
377.448	721.12
377.674	722.12
377.899	706.12
378.125	680.12
378.35	702.12
378.576	683.12
378.802	714.12
379.027	688.12
379.253	685.12
379.478	664.12
379.704	675.12
379.929	700.12
380.155	701.12
380.38	701.12
380.606	686.12
380.831	700.12
381.057	719.12
381.282	711.12
381.507	705.12
381.733	727.12
381.958	711.12
382.184	687.12
382.409	750.12
382.634	715.12
382.86	761.12
383.085	749.12
383.31	752.12
383.535	776.12
383.761	788.12
383.986	797.12
384.211	825.12
384.436	846.12
384.662	841.12
384.887	849.12
385.112	854.12
385.337	860.12
385.562	860.12
385.787	870.12
386.013	867.12
386.238	834.12
386.463	838.12
386.688	851.12
386.913	826.12
387.138	826.12
387.363	848.12
387.588	809.12
387.813	820.12
388.038	841.12
388.263	814.12
388.488	851.12
388.713	834.12
388.938	824.12
389.163	825.12
389.387	805.12
389.612	817.12
389.837	810.12
390.062	812.12
390.287	813.12
390.512	827.12
390.736	833.12
390.961	853.12
391.186	868.12
391.411	895.12
391.636	902.12
391.86	932.12
392.085	975.12
392.31	953.12
392.534	929.12
392.759	913.12
392.984	878.12
393.208	884.12
393.433	851.12
393.658	901.12
393.882	862.12
394.107	890.12
394.331	922.12
394.556	904.12
394.78	910.12
395.005	933.12
395.229	909.12
395.454	928.12
395.678	938.12
395.903	964.12
396.127	899.12
396.352	897.12
396.576	866.12
396.801	898.12
397.025	896.12
397.249	944.12
397.474	924.12
397.698	906.12
397.922	926.12
398.147	951.12
398.371	986.12
398.595	976.12
398.82	1010.12
399.044	1053.12
399.268	1226.12
399.492	1377.12
399.717	1635.12
399.941	1631.12
400.165	1424.12
400.389	1253.12
400.613	1128.12
400.837	1087.12
401.062	1068.12
401.286	1046.12
401.51	1054.12
401.734	1021.12
401.958	1063.12
402.182	1052.12
402.406	1080.12
402.63	1113.12
402.854	1129.12
403.078	1113.12
403.302	1208.12
403.526	1177.12
403.75	1228.12
403.974	1251.12
404.198	1210.12
404.422	1247.12
404.645	1227.12
404.869	1177.12
405.093	1190.12
405.317	1160.12
405.541	1190.12
405.765	1170.12
405.988	1172.12
406.212	1143.12
406.436	1133.12
406.66	1201.12
406.883	1202.12
407.107	1238.12
407.331	1342.12
407.555	1382.12
407.778	1359.12
408.002	1332.12
408.226	1297.12
408.449	1279.12
408.673	1206.12
408.896	1217.12
409.12	1164.12
409.344	1213.12
409.567	1240.12
409.791	1177.12
410.014	1205.12
410.238	1175.12
410.461	1209.12
410.685	1189.12
410.908	1168.12
411.132	1134.12
411.355	1102.12
411.578	1117.12
411.802	1138.12
412.025	1104.12
412.249	1116.12
412.472	1097.12
412.695	1050.12
412.919	1053.12
413.142	1032.12
413.365	1092.12
413.589	1054.12
413.812	1005.12
414.035	1019.12
414.258	1020.12
414.482	1069.12
414.705	1064.12
414.928	1071.12
415.151	1080.12
415.374	1065.12
415.597	1069.12
415.821	1055.12
416.044	1037.12
416.267	1017.12
416.49	1019.12
416.713	1005.12
416.936	1035.12
417.159	1029.12
417.382	1025.12
417.605	1045.12
417.828	1018.12
418.051	1042.12
418.274	1071.12
418.497	1047.12
418.72	1074.12
418.943	1088.12
419.166	1134.12
419.389	1194.12
419.611	1147.12
419.834	1106.12
420.057	1076.12
420.28	1063.12
420.503	1016.12
420.726	1012.12
420.948	1031.12
421.171	1024.12
421.394	1031.12
421.617	983.12
421.839	1032.12
422.062	1032.12
422.285	1055.12
422.507	1072.12
422.73	1052.12
422.953	1056.12
423.175	1083.12
423.398	1108.12
423.621	1109.12
423.843	1113.12
424.066	1116.12
424.288	1081.12
424.511	1067.12
424.733	1087.12
424.956	1092.12
425.178	1063.12
425.401	1036.12
425.623	1034.12
425.846	992.12
426.068	995.12
426.291	1024.12
426.513	967.12
426.735	967.12
426.958	957.12
427.18	934.12
427.402	934.12
427.625	931.12
427.847	944.12
428.069	910.12
428.292	960.12
428.514	942.12
428.736	941.12
428.958	929.12
429.181	929.12
429.403	872.12
429.625	909.12
429.847	887.12
430.069	890.12
430.292	906.12
430.514	871.12
430.736	916.12
430.958	896.12
431.18	908.12
431.402	893.12
431.624	901.12
431.846	934.12
432.068	953.12
432.29	957.12
432.512	921.12
432.734	917.12
432.956	920.12
433.178	930.12
433.4	955.12
433.622	941.12
433.844	923.12
434.066	955.12
434.287	964.12
434.509	994.12
434.731	1006.12
434.953	1082.12
435.175	1064.12
435.397	1037.12
435.618	999.12
435.84	987.12
436.062	955.12
436.284	930.12
436.505	932.12
436.727	932.12
436.949	944.12
437.17	935.12
437.392	926.12
437.614	918.12
437.835	885.12
438.057	901.12
438.278	895.12
438.5	905.12
438.721	888.12
438.943	919.12
439.165	908.12
439.386	885.12
439.608	928.12
439.829	920.12
440.05	914.12
440.272	940.12
440.493	930.12
440.715	936.12
440.936	955.12
441.158	978.12
441.379	1006.12
441.6	1097.12
441.822	1070.12
442.043	1047.12
442.264	1032.12
442.486	998.12
442.707	1034.12
442.928	1038.12
443.149	1046.12
443.371	1018.12
443.592	1045.12
443.813	1008.12
444.034	1054.12
444.255	1104.12
444.476	1131.12
444.698	1213.12
444.919	1233.12
445.14	1339.12
445.361	1209.12
445.582	1094.12
445.803	1000.12
446.024	997.12
446.245	995.12
446.466	981.12
446.687	936.12
446.908	954.12
447.129	918.12
447.35	894.12
447.571	878.12
447.792	871.12
448.013	892.12
448.234	856.12
448.455	880.12
448.675	833.12
448.896	870.12
449.117	836.12
449.338	862.12
449.559	870.12
449.779	859.12
450	841.12
450.221	849.12
450.442	866.12
450.662	895.12
450.883	866.12
451.104	883.12
451.324	894.12
451.545	881.12
451.766	876.12
451.986	856.12
452.207	841.12
452.428	876.12
452.648	834.12
452.869	847.12
453.089	842.12
453.31	856.12
453.53	845.12
453.751	829.12
453.971	839.12
454.192	840.12
454.412	820.12
454.633	829.12
454.853	824.12
455.073	798.12
455.294	811.12
455.514	808.12
455.734	806.12
455.955	806.12
456.175	779.12
456.395	804.12
456.616	776.12
456.836	802.12
457.056	793.12
457.276	819.12
457.497	808.12
457.717	797.12
457.937	782.12
458.157	824.12
458.377	857.12
458.598	864.12
458.818	861.12
459.038	894.12
459.258	893.12
459.478	909.12
459.698	982.12
459.918	1000.12
460.138	1027.12
460.358	1077.12
460.578	1101.12
460.798	1091.12
461.018	1134.12
461.238	1125.12
461.458	1050.12
461.678	1078.12
461.898	1077.12
462.118	1120.12
462.338	1152.12
462.558	1192.12
462.777	1257.12
462.997	1348.12
463.217	1528.12
463.437	1546.12
463.657	1360.12
463.876	1298.12
464.096	1293.12
464.316	1269.12
464.536	1322.12
464.755	1246.12
464.975	1212.12
465.195	1128.12
465.414	1080.12
465.634	1016.12
465.854	1004.12
466.073	949.12
466.293	940.12
466.512	956.12
466.732	926.12
466.951	909.12
467.171	896.12
467.391	906.12
467.61	906.12
467.829	919.12
468.049	892.12
468.268	881.12
468.488	860.12
468.707	859.12
468.927	862.12
469.146	863.12
469.365	883.12
469.585	868.12
469.804	865.12
470.023	917.12
470.243	918.12
470.462	936.12
470.681	958.12
470.901	940.12
471.12	917.12
471.339	921.12
471.558	903.12
471.777	867.12
471.997	872.12
472.216	876.12
472.435	874.12
472.654	858.12
472.873	834.12
473.092	828.12
473.311	843.12
473.53	850.12
473.749	865.12
473.968	849.12
474.187	829.12
474.406	840.12
474.625	853.12
474.844	852.12
475.063	840.12
475.282	825.12
475.501	858.12
475.72	846.12
475.939	866.12
476.158	885.12
476.377	867.12
476.596	850.12
476.814	892.12
477.033	867.12
477.252	896.12
477.471	926.12
477.69	957.12
477.908	946.12
478.127	992.12
478.346	1009.12
478.564	1008.12
478.783	1015.12
479.002	1035.12
479.22	1077.12
479.439	1068.12
479.658	1038.12
479.876	1046.12
480.095	1063.12
480.313	1108.12
480.532	1163.12
480.751	1156.12
480.969	1104.12
481.188	1048.12
481.406	1031.12
481.624	975.12
481.843	953.12
482.061	952.12
482.28	957.12
482.498	946.12
482.717	936.12
482.935	949.12
483.153	980.12
483.372	973.12
483.59	958.12
483.808	953.12
484.027	1000.12
484.245	975.12
484.463	964.12
484.681	974.12
484.9	1010.12
485.118	1018.12
485.336	983.12
485.554	992.12
485.772	1005.12
485.99	1058.12
486.209	1049.12
486.427	1037.12
486.645	1043.12
486.863	1049.12
487.081	1006.12
487.299	1021.12
487.517	1005.12
487.735	1021.12
487.953	1008.12
488.171	991.12
488.389	1000.12
488.607	985.12
488.825	980.12
489.043	967.12
489.261	1028.12
489.479	991.12
489.696	996.12
489.914	997.12
490.132	1024.12
490.35	999.12
490.568	1015.12
490.786	1009.12
491.003	1033.12
491.221	1031.12
491.439	1033.12
491.657	1016.12
491.874	1021.12
492.092	1006.12
492.31	1018.12
492.527	1025.12
492.745	1039.12
492.963	1035.12
493.18	1035.12
493.398	1069.12
493.615	1040.12
493.833	1044.12
494.05	1051.12
494.268	1057.12
494.485	1085.12
494.703	1057.12
494.92	1082.12
495.138	1070.12
495.355	1047.12
495.573	1093.12
495.79	1085.12
496.008	1075.12
496.225	1071.12
496.442	1081.12
496.66	1109.12
496.877	1098.12
497.094	1128.12
497.312	1133.12
497.529	1189.12
497.746	1169.12
497.963	1205.12
498.181	1260.12
498.398	1322.12
