Data from Ni(NO3)2Standard.Agarose3%.GreenCap.LampEnergy5.5.E.O_HRD10591_14-40-57-188.txt Node
Date: Mon Jul 22 14:40:57 EDT 2019
User: cochatt
Spectrometer: HR+D1059
Trigger mode: 1
Integration Time (sec): 1.000000E-1
Scans to average: 1
Electric dark correction enabled: true
Nonlinearity correction enabled: false
Boxcar width: 0
XAxis mode: Wavelengths
Number of Pixels in Spectrum: 2048
>>>>>Begin Spectral Data<<<<<
223.165	-30.44
223.4	-30.44
223.635	-30.44
223.869	-15.44
224.104	-21.44
224.338	-13.44
224.573	9.56
224.808	-16.44
225.042	-5.44
225.277	-6.44
225.511	-23.44
225.746	1.56
225.98	0.56
226.215	17.56
226.449	32.56
226.683	19.56
226.918	28.56
227.152	22.56
227.387	39.56
227.621	32.56
227.856	41.56
228.09	48.56
228.324	25.56
228.559	59.56
228.793	57.56
229.027	69.56
229.262	55.56
229.496	62.56
229.73	49.56
229.964	61.56
230.199	61.56
230.433	79.56
230.667	79.56
230.901	72.56
231.136	68.56
231.37	82.56
231.604	89.56
231.838	86.56
232.072	65.56
232.306	75.56
232.541	74.56
232.775	71.56
233.009	88.56
233.243	69.56
233.477	75.56
233.711	81.56
233.945	74.56
234.179	83.56
234.413	88.56
234.647	82.56
234.881	94.56
235.115	83.56
235.349	88.56
235.583	80.56
235.817	79.56
236.051	75.56
236.285	79.56
236.519	69.56
236.753	78.56
236.987	60.56
237.221	63.56
237.455	69.56
237.689	72.56
237.922	70.56
238.156	71.56
238.39	66.56
238.624	71.56
238.858	81.56
239.091	71.56
239.325	79.56
239.559	77.56
239.793	77.56
240.027	66.56
240.26	73.56
240.494	77.56
240.728	78.56
240.961	71.56
241.195	53.56
241.429	79.56
241.662	73.56
241.896	74.56
242.13	81.56
242.363	63.56
242.597	70.56
242.83	69.56
243.064	69.56
243.298	74.56
243.531	61.56
243.765	71.56
243.998	66.56
244.232	75.56
244.465	63.56
244.699	83.56
244.932	69.56
245.166	72.56
245.399	80.56
245.633	78.56
245.866	79.56
246.099	82.56
246.333	79.56
246.566	72.56
246.8	72.56
247.033	74.56
247.266	64.56
247.5	78.56
247.733	84.56
247.966	86.56
248.2	72.56
248.433	69.56
248.666	81.56
248.899	61.56
249.133	82.56
249.366	87.56
249.599	74.56
249.832	97.56
250.066	71.56
250.299	83.56
250.532	90.56
250.765	78.56
250.998	64.56
251.231	72.56
251.465	85.56
251.698	71.56
251.931	84.56
252.164	69.56
252.397	65.56
252.63	88.56
252.863	82.56
253.096	73.56
253.329	75.56
253.562	73.56
253.795	82.56
254.028	67.56
254.261	84.56
254.494	87.56
254.727	81.56
254.96	91.56
255.193	83.56
255.426	75.56
255.659	82.56
255.892	83.56
256.124	82.56
256.357	67.56
256.59	80.56
256.823	83.56
257.056	80.56
257.289	81.56
257.521	70.56
257.754	79.56
257.987	77.56
258.22	88.56
258.452	89.56
258.685	63.56
258.918	87.56
259.151	79.56
259.383	67.56
259.616	74.56
259.849	83.56
260.081	82.56
260.314	78.56
260.547	73.56
260.779	79.56
261.012	77.56
261.244	72.56
261.477	83.56
261.71	78.56
261.942	70.56
262.175	76.56
262.407	79.56
262.64	70.56
262.872	79.56
263.105	75.56
263.337	89.56
263.57	76.56
263.802	74.56
264.035	75.56
264.267	75.56
264.499	86.56
264.732	88.56
264.964	94.56
265.197	74.56
265.429	96.56
265.661	85.56
265.894	70.56
266.126	70.56
266.358	78.56
266.591	88.56
266.823	82.56
267.055	82.56
267.287	77.56
267.52	85.56
267.752	83.56
267.984	83.56
268.216	81.56
268.448	83.56
268.681	88.56
268.913	77.56
269.145	80.56
269.377	71.56
269.609	95.56
269.841	74.56
270.073	80.56
270.306	74.56
270.538	91.56
270.77	72.56
271.002	97.56
271.234	77.56
271.466	88.56
271.698	85.56
271.93	78.56
272.162	80.56
272.394	94.56
272.626	81.56
272.858	80.56
273.09	89.56
273.322	78.56
273.553	85.56
273.785	76.56
274.017	98.56
274.249	84.56
274.481	89.56
274.713	86.56
274.945	85.56
275.176	84.56
275.408	72.56
275.64	79.56
275.872	88.56
276.104	78.56
276.335	77.56
276.567	85.56
276.799	100.56
277.031	88.56
277.262	88.56
277.494	86.56
277.726	93.56
277.957	85.56
278.189	72.56
278.421	86.56
278.652	75.56
278.884	91.56
279.115	75.56
279.347	80.56
279.579	95.56
279.81	70.56
280.042	88.56
280.273	88.56
280.505	90.56
280.736	89.56
280.968	71.56
281.199	85.56
281.431	93.56
281.662	88.56
281.894	74.56
282.125	72.56
282.356	70.56
282.588	84.56
282.819	94.56
283.051	85.56
283.282	75.56
283.513	79.56
283.745	80.56
283.976	91.56
284.207	85.56
284.439	80.56
284.67	94.56
284.901	75.56
285.132	81.56
285.364	77.56
285.595	84.56
285.826	82.56
286.057	84.56
286.288	86.56
286.52	74.56
286.751	75.56
286.982	80.56
287.213	82.56
287.444	83.56
287.675	86.56
287.906	77.56
288.138	74.56
288.369	65.56
288.6	77.56
288.831	62.56
289.062	80.56
289.293	79.56
289.524	80.56
289.755	74.56
289.986	79.56
290.217	74.56
290.448	69.56
290.679	78.56
290.91	89.56
291.141	90.56
291.371	89.56
291.602	67.56
291.833	82.56
292.064	72.56
292.295	77.56
292.526	88.56
292.757	78.56
292.987	93.56
293.218	89.56
293.449	93.56
293.68	83.56
293.91	72.56
294.141	92.56
294.372	87.56
294.603	89.56
294.833	75.56
295.064	91.56
295.295	88.56
295.525	83.56
295.756	80.56
295.987	73.56
296.217	77.56
296.448	89.56
296.679	98.56
296.909	81.56
297.14	82.56
297.37	77.56
297.601	82.56
297.831	94.56
298.062	90.56
298.292	84.56
298.523	85.56
298.753	87.56
298.984	80.56
299.214	85.56
299.445	86.56
299.675	84.56
299.905	75.56
300.136	75.56
300.366	75.56
300.597	83.56
300.827	79.56
301.057	86.56
301.288	76.56
301.518	84.56
301.748	74.56
301.979	73.56
302.209	81.56
302.439	93.56
302.669	79.56
302.9	72.56
303.13	84.56
303.36	89.56
303.59	82.56
303.82	90.56
304.051	93.56
304.281	65.56
304.511	82.56
304.741	96.56
304.971	86.56
305.201	83.56
305.431	75.56
305.661	100.56
305.891	81.56
306.121	84.56
306.352	71.56
306.582	81.56
306.812	77.56
307.042	90.56
307.272	75.56
307.502	76.56
307.731	85.56
307.961	82.56
308.191	85.56
308.421	97.56
308.651	101.56
308.881	84.56
309.111	90.56
309.341	74.56
309.571	78.56
309.8	82.56
310.03	90.56
310.26	87.56
310.49	75.56
310.72	79.56
310.949	81.56
311.179	77.56
311.409	82.56
311.639	80.56
311.868	82.56
312.098	72.56
312.328	77.56
312.557	86.56
312.787	85.56
313.017	80.56
313.246	94.56
313.476	90.56
313.706	86.56
313.935	72.56
314.165	94.56
314.394	79.56
314.624	93.56
314.853	81.56
315.083	83.56
315.312	82.56
315.542	79.56
315.771	86.56
316.001	78.56
316.23	88.56
316.46	86.56
316.689	72.56
316.919	90.56
317.148	89.56
317.377	83.56
317.607	70.56
317.836	88.56
318.065	75.56
318.295	87.56
318.524	81.56
318.753	82.56
318.983	80.56
319.212	96.56
319.441	90.56
319.67	105.56
319.9	94.56
320.129	93.56
320.358	83.56
320.587	86.56
320.816	83.56
321.046	94.56
321.275	93.56
321.504	91.56
321.733	93.56
321.962	89.56
322.191	81.56
322.42	77.56
322.649	86.56
322.878	96.56
323.108	96.56
323.337	87.56
323.566	88.56
323.795	82.56
324.024	79.56
324.253	92.56
324.482	75.56
324.71	97.56
324.939	80.56
325.168	94.56
325.397	73.56
325.626	78.56
325.855	89.56
326.084	84.56
326.313	67.56
326.542	81.56
326.77	79.56
326.999	78.56
327.228	70.56
327.457	86.56
327.686	90.56
327.914	89.56
328.143	79.56
328.372	92.56
328.6	97.56
328.829	87.56
329.058	72.56
329.287	98.56
329.515	89.56
329.744	87.56
329.972	84.56
330.201	96.56
330.43	88.56
330.658	82.56
330.887	88.56
331.115	83.56
331.344	72.56
331.572	86.56
331.801	86.56
332.03	83.56
332.258	82.56
332.486	75.56
332.715	86.56
332.943	91.56
333.172	80.56
333.4	93.56
333.629	92.56
333.857	102.56
334.085	83.56
334.314	82.56
334.542	78.56
334.771	94.56
334.999	81.56
335.227	82.56
335.455	85.56
335.684	73.56
335.912	84.56
336.14	75.56
336.369	92.56
336.597	97.56
336.825	78.56
337.053	90.56
337.281	95.56
337.51	94.56
337.738	86.56
337.966	73.56
338.194	90.56
338.422	75.56
338.65	84.56
338.878	82.56
339.106	87.56
339.334	86.56
339.562	82.56
339.79	84.56
340.018	89.56
340.246	94.56
340.474	87.56
340.702	80.56
340.93	78.56
341.158	71.56
341.386	88.56
341.614	86.56
341.842	98.56
342.07	92.56
342.298	94.56
342.526	76.56
342.754	87.56
342.981	91.56
343.209	74.56
343.437	86.56
343.665	84.56
343.893	83.56
344.12	84.56
344.348	89.56
344.576	82.56
344.804	86.56
345.031	88.56
345.259	80.56
345.487	81.56
345.714	91.56
345.942	97.56
346.17	84.56
346.397	71.56
346.625	88.56
346.853	89.56
347.08	85.56
347.308	74.56
347.535	68.56
347.763	84.56
347.99	90.56
348.218	78.56
348.445	91.56
348.673	92.56
348.9	90.56
349.128	87.56
349.355	87.56
349.583	91.56
349.81	94.56
350.037	82.56
350.265	81.56
350.492	86.56
350.72	85.56
350.947	87.56
351.174	89.56
351.402	84.56
351.629	97.56
351.856	80.56
352.083	95.56
352.311	96.56
352.538	76.56
352.765	74.56
352.992	89.56
353.22	76.56
353.447	81.56
353.674	94.56
353.901	84.56
354.128	74.56
354.355	62.56
354.583	81.56
354.81	95.56
355.037	95.56
355.264	75.56
355.491	90.56
355.718	88.56
355.945	83.56
356.172	73.56
356.399	93.56
356.626	82.56
356.853	77.56
357.08	80.56
357.307	75.56
357.534	85.56
357.761	91.56
357.988	79.56
358.215	81.56
358.441	79.56
358.668	81.56
358.895	88.56
359.122	78.56
359.349	80.56
359.576	99.56
359.802	89.56
360.029	87.56
360.256	83.56
360.483	92.56
360.709	92.56
360.936	97.56
361.163	75.56
361.39	69.56
361.616	80.56
361.843	89.56
362.07	77.56
362.296	80.56
362.523	75.56
362.749	83.56
362.976	86.56
363.203	92.56
363.429	85.56
363.656	77.56
363.882	82.56
364.109	87.56
364.335	70.56
364.562	83.56
364.788	79.56
365.015	73.56
365.241	79.56
365.468	87.56
365.694	78.56
365.92	75.56
366.147	88.56
366.373	74.56
366.599	84.56
366.826	80.56
367.052	75.56
367.278	92.56
367.505	89.56
367.731	69.56
367.957	75.56
368.184	76.56
368.41	79.56
368.636	68.56
368.862	90.56
369.089	94.56
369.315	77.56
369.541	76.56
369.767	77.56
369.993	94.56
370.219	78.56
370.445	76.56
370.672	93.56
370.898	81.56
371.124	88.56
371.35	81.56
371.576	77.56
371.802	84.56
372.028	85.56
372.254	69.56
372.48	96.56
372.706	77.56
372.932	74.56
373.158	74.56
373.384	94.56
373.61	86.56
373.835	79.56
374.061	80.56
374.287	79.56
374.513	74.56
374.739	95.56
374.965	80.56
375.191	76.56
375.416	90.56
375.642	96.56
375.868	93.56
376.094	91.56
376.319	84.56
376.545	94.56
376.771	94.56
376.997	82.56
377.222	78.56
377.448	86.56
377.674	73.56
377.899	66.56
378.125	82.56
378.35	82.56
378.576	95.56
378.802	83.56
379.027	87.56
379.253	87.56
379.478	84.56
379.704	79.56
379.929	76.56
380.155	91.56
380.38	89.56
380.606	74.56
380.831	104.56
381.057	88.56
381.282	64.56
381.507	80.56
381.733	80.56
381.958	80.56
382.184	83.56
382.409	100.56
382.634	89.56
382.86	83.56
383.085	78.56
383.31	75.56
383.535	91.56
383.761	81.56
383.986	78.56
384.211	89.56
384.436	73.56
384.662	75.56
384.887	72.56
385.112	86.56
385.337	87.56
385.562	89.56
385.787	78.56
386.013	78.56
386.238	86.56
386.463	75.56
386.688	74.56
386.913	94.56
387.138	81.56
387.363	86.56
387.588	88.56
387.813	69.56
388.038	81.56
388.263	90.56
388.488	89.56
388.713	88.56
388.938	92.56
389.163	90.56
389.387	79.56
389.612	83.56
389.837	95.56
390.062	87.56
390.287	89.56
390.512	89.56
390.736	77.56
390.961	71.56
391.186	86.56
391.411	73.56
391.636	82.56
391.86	84.56
392.085	72.56
392.31	87.56
392.534	74.56
392.759	77.56
392.984	85.56
393.208	82.56
393.433	79.56
393.658	86.56
393.882	75.56
394.107	71.56
394.331	86.56
394.556	81.56
394.78	64.56
395.005	78.56
395.229	67.56
395.454	86.56
395.678	87.56
395.903	100.56
396.127	93.56
396.352	63.56
396.576	79.56
396.801	89.56
397.025	79.56
397.249	79.56
397.474	86.56
397.698	73.56
397.922	72.56
398.147	82.56
398.371	86.56
398.595	89.56
398.82	66.56
399.044	75.56
399.268	92.56
399.492	88.56
399.717	103.56
399.941	75.56
400.165	77.56
400.389	82.56
400.613	87.56
400.837	79.56
401.062	88.56
401.286	92.56
401.51	95.56
401.734	85.56
401.958	82.56
402.182	71.56
402.406	81.56
402.63	89.56
402.854	83.56
403.078	85.56
403.302	81.56
403.526	94.56
403.75	86.56
403.974	74.56
404.198	90.56
404.422	86.56
404.645	68.56
404.869	74.56
405.093	86.56
405.317	81.56
405.541	88.56
405.765	85.56
405.988	94.56
406.212	92.56
406.436	82.56
406.66	85.56
406.883	81.56
407.107	91.56
407.331	75.56
407.555	80.56
407.778	82.56
408.002	99.56
408.226	75.56
408.449	70.56
408.673	71.56
408.896	78.56
409.12	90.56
409.344	86.56
409.567	81.56
409.791	83.56
410.014	90.56
410.238	80.56
410.461	79.56
410.685	94.56
410.908	79.56
411.132	97.56
411.355	82.56
411.578	76.56
411.802	85.56
412.025	73.56
412.249	86.56
412.472	85.56
412.695	84.56
412.919	82.56
413.142	92.56
413.365	80.56
413.589	82.56
413.812	93.56
414.035	110.56
414.258	90.56
414.482	86.56
414.705	82.56
414.928	85.56
415.151	87.56
415.374	88.56
415.597	94.56
415.821	103.56
416.044	82.56
416.267	80.56
416.49	84.56
416.713	85.56
416.936	77.56
417.159	80.56
417.382	84.56
417.605	93.56
417.828	82.56
418.051	88.56
418.274	63.56
418.497	89.56
418.72	74.56
418.943	101.56
419.166	75.56
419.389	72.56
419.611	81.56
419.834	83.56
420.057	87.56
420.28	70.56
420.503	85.56
420.726	97.56
420.948	91.56
421.171	69.56
421.394	79.56
421.617	77.56
421.839	84.56
422.062	85.56
422.285	96.56
422.507	77.56
422.73	76.56
422.953	78.56
423.175	81.56
423.398	81.56
423.621	86.56
423.843	85.56
424.066	80.56
424.288	97.56
424.511	81.56
424.733	88.56
424.956	78.56
425.178	89.56
425.401	70.56
425.623	87.56
425.846	90.56
426.068	88.56
426.291	95.56
426.513	73.56
426.735	84.56
426.958	70.56
427.18	88.56
427.402	86.56
427.625	87.56
427.847	86.56
428.069	81.56
428.292	78.56
428.514	89.56
428.736	81.56
428.958	84.56
429.181	72.56
429.403	86.56
429.625	80.56
429.847	72.56
430.069	83.56
430.292	89.56
430.514	80.56
430.736	92.56
430.958	90.56
431.18	83.56
431.402	74.56
431.624	86.56
431.846	75.56
432.068	82.56
432.29	87.56
432.512	83.56
432.734	87.56
432.956	70.56
433.178	69.56
433.4	89.56
433.622	87.56
433.844	73.56
434.066	83.56
434.287	67.56
434.509	73.56
434.731	81.56
434.953	87.56
435.175	75.56
435.397	91.56
435.618	87.56
435.84	86.56
436.062	81.56
436.284	83.56
436.505	73.56
436.727	81.56
436.949	72.56
437.17	88.56
437.392	80.56
437.614	74.56
437.835	79.56
438.057	71.56
438.278	83.56
438.5	67.56
438.721	86.56
438.943	92.56
439.165	79.56
439.386	83.56
439.608	83.56
439.829	77.56
440.05	79.56
440.272	76.56
440.493	75.56
440.715	87.56
440.936	82.56
441.158	79.56
441.379	78.56
441.6	86.56
441.822	80.56
442.043	83.56
442.264	100.56
442.486	93.56
442.707	75.56
442.928	86.56
443.149	79.56
443.371	65.56
443.592	90.56
443.813	88.56
444.034	73.56
444.255	72.56
444.476	81.56
444.698	89.56
444.919	64.56
445.14	207.56
445.361	149.56
445.582	93.56
445.803	63.56
446.024	75.56
446.245	81.56
446.466	82.56
446.687	85.56
446.908	93.56
447.129	89.56
447.35	83.56
447.571	83.56
447.792	76.56
448.013	70.56
448.234	83.56
448.455	75.56
448.675	101.56
448.896	86.56
449.117	85.56
449.338	79.56
449.559	89.56
449.779	92.56
450	89.56
450.221	77.56
450.442	90.56
450.662	82.56
450.883	83.56
451.104	86.56
451.324	70.56
451.545	83.56
451.766	77.56
451.986	98.56
452.207	76.56
452.428	89.56
452.648	83.56
452.869	81.56
453.089	87.56
453.31	88.56
453.53	86.56
453.751	72.56
453.971	73.56
454.192	72.56
454.412	87.56
454.633	93.56
454.853	81.56
455.073	75.56
455.294	76.56
455.514	81.56
455.734	87.56
455.955	74.56
456.175	86.56
456.395	78.56
456.616	85.56
456.836	85.56
457.056	82.56
457.276	89.56
457.497	93.56
457.717	84.56
457.937	82.56
458.157	95.56
458.377	80.56
458.598	83.56
458.818	90.56
459.038	82.56
459.258	96.56
459.478	90.56
459.698	87.56
459.918	85.56
460.138	88.56
460.358	74.56
460.578	67.56
460.798	104.56
461.018	85.56
461.238	99.56
461.458	86.56
461.678	80.56
461.898	95.56
462.118	101.56
462.338	74.56
462.558	88.56
462.777	91.56
462.997	83.56
463.217	84.56
463.437	75.56
463.657	79.56
463.876	78.56
464.096	88.56
464.316	75.56
464.536	84.56
464.755	95.56
464.975	85.56
465.195	89.56
465.414	84.56
465.634	81.56
465.854	66.56
466.073	73.56
466.293	75.56
466.512	74.56
466.732	78.56
466.951	81.56
467.171	84.56
467.391	83.56
467.61	90.56
467.829	83.56
468.049	88.56
468.268	63.56
468.488	75.56
468.707	82.56
468.927	85.56
469.146	75.56
469.365	87.56
469.585	86.56
469.804	70.56
470.023	69.56
470.243	81.56
470.462	87.56
470.681	80.56
470.901	84.56
471.12	88.56
471.339	79.56
471.558	84.56
471.777	91.56
471.997	82.56
472.216	84.56
472.435	93.56
472.654	89.56
472.873	86.56
473.092	89.56
473.311	83.56
473.53	91.56
473.749	84.56
473.968	91.56
474.187	96.56
474.406	86.56
474.625	83.56
474.844	98.56
475.063	89.56
475.282	106.56
475.501	83.56
475.72	95.56
475.939	72.56
476.158	60.56
476.377	102.56
476.596	85.56
476.814	87.56
477.033	96.56
477.252	91.56
477.471	93.56
477.69	82.56
477.908	77.56
478.127	83.56
478.346	86.56
478.564	85.56
478.783	102.56
479.002	70.56
479.22	80.56
479.439	93.56
479.658	83.56
479.876	93.56
480.095	84.56
480.313	90.56
480.532	95.56
480.751	98.56
480.969	84.56
481.188	91.56
481.406	88.56
481.624	87.56
481.843	84.56
482.061	85.56
482.28	93.56
482.498	78.56
482.717	73.56
482.935	81.56
483.153	96.56
483.372	84.56
483.59	81.56
483.808	101.56
484.027	94.56
484.245	73.56
484.463	79.56
484.681	89.56
484.9	94.56
485.118	78.56
485.336	91.56
485.554	82.56
485.772	87.56
485.99	92.56
486.209	85.56
486.427	77.56
486.645	81.56
486.863	94.56
487.081	80.56
487.299	92.56
487.517	82.56
487.735	94.56
487.953	88.56
488.171	89.56
488.389	91.56
488.607	95.56
488.825	82.56
489.043	101.56
489.261	99.56
489.479	86.56
489.696	94.56
489.914	98.56
490.132	72.56
490.35	84.56
490.568	92.56
490.786	89.56
491.003	89.56
491.221	105.56
491.439	87.56
491.657	86.56
491.874	83.56
492.092	89.56
492.31	96.56
492.527	95.56
492.745	89.56
492.963	107.56
493.18	97.56
493.398	93.56
493.615	94.56
493.833	86.56
494.05	88.56
494.268	85.56
494.485	97.56
494.703	87.56
494.92	94.56
495.138	89.56
495.355	94.56
495.573	87.56
495.79	98.56
496.008	98.56
496.225	89.56
496.442	97.56
496.66	97.56
496.877	95.56
497.094	101.56
497.312	96.56
497.529	99.56
497.746	104.56
497.963	84.56
498.181	106.56
498.398	92.56
498.615	83.56
498.832	94.56
499.049	97.56
499.267	99.56
499.484	112.56
499.701	93.56
499.918	104.56
500.135	92.56
500.352	104.56
500.569	121.56
500.786	109.56
501.003	116.56
501.22	98.56
501.437	89.56
501.654	92.56
501.871	103.56
502.088	90.56
502.305	99.56
502.522	100.56
502.739	80.56
502.956	91.56
503.172	100.56
503.389	91.56
503.606	86.56
503.823	102.56
504.04	97.56
504.256	99.56
504.473	91.56
504.69	89.56
504.907	97.56
505.123	101.56
505.34	98.56
505.557	85.56
505.773	86.56
505.99	90.56
506.207	91.56
506.423	89.56
506.64	91.56
506.856	97.56
507.073	78.56
507.289	87.56
507.506	92.56
507.722	91.56
507.939	91.56
508.155	97.56
508.372	86.56
508.588	91.56
508.805	82.56
509.021	82.56
509.238	82.56
509.454	85.56
509.67	90.56
509.887	88.56
510.103	90.56
510.319	91.56
510.536	98.56
510.752	99.56
510.968	97.56
511.184	87.56
511.401	99.56
511.617	83.56
511.833	91.56
512.049	94.56
512.265	85.56
512.481	81.56
512.698	96.56
512.914	81.56
513.13	69.56
513.346	90.56
513.562	81.56
513.778	85.56
513.994	84.56
514.21	86.56
514.426	84.56
514.642	87.56
514.858	99.56
515.074	81.56
515.29	89.56
515.506	85.56
515.721	93.56
515.937	89.56
516.153	81.56
516.369	95.56
516.585	102.56
516.801	104.56
517.016	94.56
517.232	81.56
517.448	102.56
517.664	106.56
517.879	96.56
518.095	109.56
518.311	89.56
518.527	101.56
518.742	82.56
518.958	82.56
