Data from Ni(NO3)2@0.25M.TitratingCurve.Agarose3%dH2O.NegLispCup.LampEnergy10.LIBS07252019_HRD10591_18-04-28-565.txt Node
Date: Thu Jul 25 18:04:28 EDT 2019
User: cochatt
Spectrometer: HR+D1059
Trigger mode: 1
Integration Time (sec): 1.000000E-1
Scans to average: 1
Electric dark correction enabled: true
Nonlinearity correction enabled: false
Boxcar width: 0
XAxis mode: Wavelengths
Number of Pixels in Spectrum: 2048
>>>>>Begin Spectral Data<<<<<
223.165	-21.81
223.4	-21.81
223.635	-21.81
223.869	-21.81
224.104	-21.81
224.338	-21.81
224.573	-12.81
224.808	-6.81
225.042	-5.81
225.277	-10.81
225.511	-7.81
225.746	0.19
225.98	8.19
226.215	11.19
226.449	23.19
226.683	21.19
226.918	34.19
227.152	33.19
227.387	34.19
227.621	36.19
227.856	38.19
228.09	43.19
228.324	58.19
228.559	39.19
228.793	68.19
229.027	93.19
229.262	107.19
229.496	85.19
229.73	107.19
229.964	110.19
230.199	108.19
230.433	107.19
230.667	125.19
230.901	122.19
231.136	129.19
231.37	117.19
231.604	133.19
231.838	124.19
232.072	138.19
232.306	129.19
232.541	125.19
232.775	130.19
233.009	118.19
233.243	127.19
233.477	127.19
233.711	140.19
233.945	122.19
234.179	134.19
234.413	143.19
234.647	125.19
234.881	138.19
235.115	133.19
235.349	140.19
235.583	131.19
235.817	125.19
236.051	124.19
236.285	102.19
236.519	121.19
236.753	135.19
236.987	136.19
237.221	127.19
237.455	131.19
237.689	128.19
237.922	127.19
238.156	131.19
238.39	135.19
238.624	131.19
238.858	125.19
239.091	150.19
239.325	139.19
239.559	153.19
239.793	133.19
240.027	135.19
240.26	147.19
240.494	142.19
240.728	134.19
240.961	128.19
241.195	153.19
241.429	151.19
241.662	155.19
241.896	148.19
242.13	151.19
242.363	159.19
242.597	146.19
242.83	151.19
243.064	162.19
243.298	154.19
243.531	158.19
243.765	155.19
243.998	164.19
244.232	157.19
244.465	166.19
244.699	155.19
244.932	158.19
245.166	163.19
245.399	162.19
245.633	169.19
245.866	170.19
246.099	164.19
246.333	162.19
246.566	167.19
246.8	167.19
247.033	183.19
247.266	165.19
247.5	178.19
247.733	179.19
247.966	199.19
248.2	184.19
248.433	181.19
248.666	196.19
248.899	174.19
249.133	180.19
249.366	202.19
249.599	198.19
249.832	170.19
250.066	209.19
250.299	193.19
250.532	208.19
250.765	188.19
250.998	219.19
251.231	203.19
251.465	196.19
251.698	201.19
251.931	192.19
252.164	196.19
252.397	214.19
252.63	213.19
252.863	201.19
253.096	214.19
253.329	217.19
253.562	206.19
253.795	221.19
254.028	211.19
254.261	226.19
254.494	228.19
254.727	223.19
254.96	235.19
255.193	233.19
255.426	235.19
255.659	217.19
255.892	252.19
256.124	241.19
256.357	247.19
256.59	245.19
256.823	241.19
257.056	235.19
257.289	243.19
257.521	245.19
257.754	235.19
257.987	266.19
258.22	254.19
258.452	246.19
258.685	254.19
258.918	262.19
259.151	248.19
259.383	262.19
259.616	250.19
259.849	253.19
260.081	262.19
260.314	245.19
260.547	263.19
260.779	276.19
261.012	261.19
261.244	265.19
261.477	265.19
261.71	263.19
261.942	266.19
262.175	274.19
262.407	267.19
262.64	274.19
262.872	285.19
263.105	286.19
263.337	282.19
263.57	295.19
263.802	269.19
264.035	283.19
264.267	290.19
264.499	294.19
264.732	294.19
264.964	301.19
265.197	298.19
265.429	289.19
265.661	290.19
265.894	294.19
266.126	298.19
266.358	283.19
266.591	282.19
266.823	298.19
267.055	286.19
267.287	289.19
267.52	306.19
267.752	282.19
267.984	315.19
268.216	309.19
268.448	301.19
268.681	302.19
268.913	301.19
269.145	304.19
269.377	315.19
269.609	300.19
269.841	305.19
270.073	304.19
270.306	314.19
270.538	309.19
270.77	308.19
271.002	312.19
271.234	315.19
271.466	321.19
271.698	318.19
271.93	328.19
272.162	287.19
272.394	308.19
272.626	307.19
272.858	315.19
273.09	325.19
273.322	305.19
273.553	307.19
273.785	319.19
274.017	330.19
274.249	318.19
274.481	326.19
274.713	330.19
274.945	320.19
275.176	339.19
275.408	329.19
275.64	334.19
275.872	323.19
276.104	341.19
276.335	325.19
276.567	347.19
276.799	342.19
277.031	338.19
277.262	338.19
277.494	335.19
277.726	344.19
277.957	343.19
278.189	354.19
278.421	358.19
278.652	357.19
278.884	349.19
279.115	365.19
279.347	327.19
279.579	367.19
279.81	379.19
280.042	354.19
280.273	361.19
280.505	349.19
280.736	356.19
280.968	364.19
281.199	363.19
281.431	359.19
281.662	355.19
281.894	370.19
282.125	379.19
282.356	353.19
282.588	359.19
282.819	367.19
283.051	362.19
283.282	353.19
283.513	359.19
283.745	377.19
283.976	379.19
284.207	398.19
284.439	383.19
284.67	383.19
284.901	381.19
285.132	364.19
285.364	393.19
285.595	379.19
285.826	381.19
286.057	388.19
286.288	376.19
286.52	389.19
286.751	390.19
286.982	374.19
287.213	391.19
287.444	392.19
287.675	404.19
287.906	404.19
288.138	402.19
288.369	404.19
288.6	371.19
288.831	407.19
289.062	401.19
289.293	402.19
289.524	406.19
289.755	399.19
289.986	402.19
290.217	376.19
290.448	402.19
290.679	405.19
290.91	403.19
291.141	397.19
291.371	407.19
291.602	398.19
291.833	409.19
292.064	403.19
292.295	421.19
292.526	417.19
292.757	404.19
292.987	376.19
293.218	395.19
293.449	381.19
293.68	408.19
293.91	390.19
294.141	395.19
294.372	402.19
294.603	413.19
294.833	403.19
295.064	393.19
295.295	391.19
295.525	398.19
295.756	388.19
295.987	398.19
296.217	391.19
296.448	399.19
296.679	395.19
296.909	428.19
297.14	426.19
297.37	416.19
297.601	428.19
297.831	422.19
298.062	408.19
298.292	437.19
298.523	442.19
298.753	427.19
298.984	435.19
299.214	422.19
299.445	429.19
299.675	421.19
299.905	447.19
300.136	443.19
300.366	444.19
300.597	454.19
300.827	441.19
301.057	454.19
301.288	460.19
301.518	451.19
301.748	443.19
301.979	461.19
302.209	457.19
302.439	443.19
302.669	436.19
302.9	445.19
303.13	443.19
303.36	461.19
303.59	468.19
303.82	459.19
304.051	462.19
304.281	463.19
304.511	466.19
304.741	429.19
304.971	471.19
305.201	486.19
305.431	460.19
305.661	462.19
305.891	444.19
306.121	450.19
306.352	467.19
306.582	456.19
306.812	455.19
307.042	466.19
307.272	450.19
307.502	456.19
307.731	441.19
307.961	437.19
308.191	460.19
308.421	460.19
308.651	430.19
308.881	447.19
309.111	464.19
309.341	451.19
309.571	481.19
309.8	464.19
310.03	446.19
310.26	475.19
310.49	478.19
310.72	465.19
310.949	484.19
311.179	474.19
311.409	469.19
311.639	448.19
311.868	460.19
312.098	480.19
312.328	461.19
312.557	506.19
312.787	472.19
313.017	478.19
313.246	497.19
313.476	516.19
313.706	529.19
313.935	489.19
314.165	499.19
314.394	490.19
314.624	498.19
314.853	511.19
315.083	500.19
315.312	524.19
315.542	489.19
315.771	501.19
316.001	511.19
316.23	502.19
316.46	479.19
316.689	522.19
316.919	513.19
317.148	518.19
317.377	521.19
317.607	503.19
317.836	487.19
318.065	472.19
318.295	515.19
318.524	516.19
318.753	505.19
318.983	502.19
319.212	511.19
319.441	491.19
319.67	510.19
319.9	506.19
320.129	518.19
320.358	544.19
320.587	523.19
320.816	547.19
321.046	542.19
321.275	525.19
321.504	539.19
321.733	538.19
321.962	527.19
322.191	543.19
322.42	538.19
322.649	541.19
322.878	537.19
323.108	542.19
323.337	554.19
323.566	546.19
323.795	556.19
324.024	559.19
324.253	557.19
324.482	572.19
324.71	553.19
324.939	551.19
325.168	563.19
325.397	590.19
325.626	579.19
325.855	606.19
326.084	618.19
326.313	593.19
326.542	583.19
326.77	588.19
326.999	592.19
327.228	572.19
327.457	600.19
327.686	591.19
327.914	597.19
328.143	579.19
328.372	595.19
328.6	613.19
328.829	601.19
329.058	600.19
329.287	609.19
329.515	601.19
329.744	625.19
329.972	628.19
330.201	627.19
330.43	619.19
330.658	646.19
330.887	641.19
331.115	641.19
331.344	642.19
331.572	653.19
331.801	687.19
332.03	686.19
332.258	685.19
332.486	675.19
332.715	734.19
332.943	747.19
333.172	730.19
333.4	764.19
333.629	797.19
333.857	813.19
334.085	811.19
334.314	797.19
334.542	779.19
334.771	783.19
334.999	775.19
335.227	740.19
335.455	777.19
335.684	771.19
335.912	773.19
336.14	779.19
336.369	752.19
336.597	771.19
336.825	738.19
337.053	757.19
337.281	761.19
337.51	743.19
337.738	742.19
337.966	740.19
338.194	722.19
338.422	708.19
338.65	704.19
338.878	708.19
339.106	683.19
339.334	712.19
339.562	704.19
339.79	691.19
340.018	674.19
340.246	677.19
340.474	665.19
340.702	687.19
340.93	673.19
341.158	673.19
341.386	694.19
341.614	693.19
341.842	700.19
342.07	674.19
342.298	664.19
342.526	656.19
342.754	682.19
342.981	680.19
343.209	691.19
343.437	730.19
343.665	743.19
343.893	761.19
344.12	775.19
344.348	750.19
344.576	751.19
344.804	750.19
345.031	719.19
345.259	703.19
345.487	682.19
345.714	707.19
345.942	706.19
346.17	713.19
346.397	684.19
346.625	678.19
346.853	665.19
347.08	653.19
347.308	663.19
347.535	660.19
347.763	673.19
347.99	654.19
348.218	640.19
348.445	649.19
348.673	635.19
348.9	647.19
349.128	642.19
349.355	669.19
349.583	677.19
349.81	677.19
350.037	621.19
350.265	635.19
350.492	630.19
350.72	618.19
350.947	651.19
351.174	650.19
351.402	668.19
351.629	657.19
351.856	662.19
352.083	629.19
352.311	656.19
352.538	651.19
352.765	655.19
352.992	622.19
353.22	628.19
353.447	611.19
353.674	627.19
353.901	632.19
354.128	621.19
354.355	629.19
354.583	629.19
354.81	611.19
355.037	629.19
355.264	636.19
355.491	617.19
355.718	625.19
355.945	640.19
356.172	630.19
356.399	635.19
356.626	660.19
356.853	671.19
357.08	642.19
357.307	635.19
357.534	656.19
357.761	624.19
357.988	649.19
358.215	626.19
358.441	627.19
358.668	623.19
358.895	620.19
359.122	650.19
359.349	645.19
359.576	630.19
359.802	627.19
360.029	633.19
360.256	648.19
360.483	614.19
360.709	617.19
360.936	656.19
361.163	622.19
361.39	620.19
361.616	639.19
361.843	652.19
362.07	661.19
362.296	661.19
362.523	632.19
362.749	611.19
362.976	605.19
363.203	632.19
363.429	609.19
363.656	631.19
363.882	627.19
364.109	618.19
364.335	599.19
364.562	631.19
364.788	617.19
365.015	610.19
365.241	635.19
365.468	620.19
365.694	616.19
365.92	604.19
366.147	612.19
366.373	626.19
366.599	613.19
366.826	603.19
367.052	635.19
367.278	614.19
367.505	635.19
367.731	633.19
367.957	613.19
368.184	623.19
368.41	636.19
368.636	626.19
368.862	643.19
369.089	650.19
369.315	646.19
369.541	615.19
369.767	643.19
369.993	633.19
370.219	619.19
370.445	651.19
370.672	656.19
370.898	667.19
371.124	630.19
371.35	649.19
371.576	677.19
371.802	639.19
372.028	672.19
372.254	661.19
372.48	654.19
372.706	682.19
372.932	692.19
373.158	668.19
373.384	684.19
373.61	677.19
373.835	678.19
374.061	668.19
374.287	685.19
374.513	678.19
374.739	679.19
374.965	707.19
375.191	705.19
375.416	701.19
375.642	705.19
375.868	701.19
376.094	646.19
376.319	675.19
376.545	637.19
376.771	664.19
376.997	642.19
377.222	663.19
377.448	652.19
377.674	661.19
377.899	653.19
378.125	636.19
378.35	652.19
378.576	641.19
378.802	621.19
379.027	653.19
379.253	655.19
379.478	646.19
379.704	644.19
379.929	650.19
380.155	651.19
380.38	636.19
380.606	652.19
380.831	626.19
381.057	653.19
381.282	632.19
381.507	637.19
381.733	642.19
381.958	651.19
382.184	667.19
382.409	674.19
382.634	671.19
382.86	668.19
383.085	702.19
383.31	683.19
383.535	669.19
383.761	701.19
383.986	696.19
384.211	723.19
384.436	744.19
384.662	700.19
384.887	756.19
385.112	725.19
385.337	767.19
385.562	724.19
385.787	765.19
386.013	783.19
386.238	756.19
386.463	791.19
386.688	786.19
386.913	742.19
387.138	773.19
387.363	765.19
387.588	760.19
387.813	753.19
388.038	776.19
388.263	775.19
388.488	758.19
388.713	755.19
388.938	758.19
389.163	769.19
389.387	744.19
389.612	756.19
389.837	745.19
390.062	751.19
390.287	755.19
390.512	779.19
390.736	741.19
390.961	777.19
391.186	806.19
391.411	801.19
391.636	793.19
391.86	815.19
392.085	828.19
392.31	817.19
392.534	817.19
392.759	799.19
392.984	774.19
393.208	790.19
393.433	804.19
393.658	827.19
393.882	809.19
394.107	808.19
394.331	808.19
394.556	824.19
394.78	812.19
395.005	823.19
395.229	839.19
395.454	829.19
395.678	824.19
395.903	848.19
396.127	849.19
396.352	819.19
396.576	853.19
396.801	817.19
397.025	853.19
397.249	856.19
397.474	871.19
397.698	859.19
397.922	865.19
398.147	874.19
398.371	894.19
398.595	917.19
398.82	971.19
399.044	1035.19
399.268	1062.19
399.492	1170.19
399.717	1256.19
399.941	1283.19
400.165	1197.19
400.389	1111.19
400.613	1077.19
400.837	1015.19
401.062	1023.19
401.286	998.19
401.51	954.19
401.734	945.19
401.958	967.19
402.182	961.19
402.406	954.19
402.63	984.19
402.854	1028.19
403.078	1001.19
403.302	1016.19
403.526	988.19
403.75	1005.19
403.974	1034.19
404.198	989.19
404.422	1020.19
404.645	1011.19
404.869	988.19
405.093	1045.19
405.317	1026.19
405.541	1013.19
405.765	995.19
405.988	1024.19
406.212	1030.19
406.436	1062.19
406.66	1051.19
406.883	1090.19
407.107	1147.19
407.331	1162.19
407.555	1207.19
407.778	1185.19
408.002	1174.19
408.226	1126.19
408.449	1161.19
408.673	1122.19
408.896	1087.19
409.12	1075.19
409.344	1092.19
409.567	1073.19
409.791	1095.19
410.014	1063.19
410.238	1084.19
410.461	1029.19
410.685	1021.19
410.908	1014.19
411.132	1024.19
411.355	1004.19
411.578	1018.19
411.802	1007.19
412.025	1010.19
412.249	1022.19
412.472	1036.19
412.695	995.19
412.919	975.19
413.142	995.19
413.365	984.19
413.589	992.19
413.812	968.19
414.035	975.19
414.258	980.19
414.482	970.19
414.705	972.19
414.928	992.19
415.151	983.19
415.374	974.19
415.597	956.19
415.821	973.19
416.044	946.19
416.267	929.19
416.49	967.19
416.713	939.19
416.936	940.19
417.159	951.19
417.382	927.19
417.605	933.19
417.828	962.19
418.051	990.19
418.274	957.19
418.497	962.19
418.72	998.19
418.943	965.19
419.166	1037.19
419.389	1106.19
419.611	1085.19
419.834	1042.19
420.057	1011.19
420.28	995.19
420.503	965.19
420.726	963.19
420.948	959.19
421.171	953.19
421.394	941.19
421.617	979.19
421.839	967.19
422.062	985.19
422.285	953.19
422.507	1004.19
422.73	958.19
422.953	978.19
423.175	1002.19
423.398	997.19
423.621	978.19
423.843	975.19
424.066	1003.19
424.288	994.19
424.511	997.19
424.733	982.19
424.956	980.19
425.178	984.19
425.401	996.19
425.623	974.19
425.846	938.19
426.068	958.19
426.291	939.19
426.513	937.19
426.735	943.19
426.958	941.19
427.18	922.19
427.402	903.19
427.625	923.19
427.847	889.19
428.069	896.19
428.292	900.19
428.514	898.19
428.736	926.19
428.958	939.19
429.181	908.19
429.403	885.19
429.625	915.19
429.847	899.19
430.069	885.19
430.292	901.19
430.514	897.19
430.736	901.19
430.958	900.19
431.18	878.19
431.402	919.19
431.624	907.19
431.846	900.19
432.068	919.19
432.29	901.19
432.512	909.19
432.734	916.19
432.956	911.19
433.178	910.19
433.4	931.19
433.622	932.19
433.844	930.19
434.066	907.19
434.287	916.19
434.509	968.19
434.731	969.19
434.953	975.19
435.175	983.19
435.397	969.19
435.618	957.19
435.84	927.19
436.062	906.19
436.284	926.19
436.505	894.19
436.727	906.19
436.949	910.19
437.17	914.19
437.392	922.19
437.614	919.19
437.835	873.19
438.057	887.19
438.278	857.19
438.5	899.19
438.721	866.19
438.943	897.19
439.165	892.19
439.386	906.19
439.608	924.19
439.829	917.19
440.05	920.19
440.272	929.19
440.493	936.19
440.715	953.19
440.936	956.19
441.158	958.19
441.379	956.19
441.6	1017.19
441.822	1014.19
442.043	1020.19
442.264	997.19
442.486	959.19
442.707	998.19
442.928	992.19
443.149	997.19
443.371	999.19
443.592	1006.19
443.813	1002.19
444.034	1017.19
444.255	1038.19
444.476	1091.19
444.698	1113.19
444.919	1131.19
445.14	1198.19
445.361	1080.19
445.582	1053.19
445.803	990.19
446.024	955.19
446.245	955.19
446.466	943.19
446.687	943.19
446.908	966.19
447.129	955.19
447.35	910.19
447.571	882.19
447.792	883.19
448.013	882.19
448.234	873.19
448.455	857.19
448.675	874.19
448.896	862.19
449.117	858.19
449.338	854.19
449.559	875.19
449.779	829.19
450	862.19
450.221	825.19
450.442	853.19
450.662	860.19
450.883	850.19
451.104	875.19
451.324	865.19
451.545	886.19
451.766	862.19
451.986	839.19
452.207	868.19
452.428	836.19
452.648	851.19
452.869	805.19
453.089	797.19
453.31	855.19
453.53	829.19
453.751	817.19
453.971	792.19
454.192	825.19
454.412	836.19
454.633	794.19
454.853	815.19
455.073	830.19
455.294	807.19
455.514	791.19
455.734	818.19
455.955	778.19
456.175	810.19
456.395	804.19
456.616	773.19
456.836	806.19
457.056	801.19
457.276	808.19
457.497	811.19
457.717	806.19
457.937	791.19
458.157	827.19
458.377	839.19
458.598	845.19
458.818	852.19
459.038	858.19
459.258	890.19
459.478	898.19
459.698	922.19
459.918	949.19
460.138	973.19
460.358	1020.19
460.578	1030.19
460.798	1057.19
461.018	1049.19
461.238	1067.19
461.458	1074.19
461.678	1035.19
461.898	1101.19
462.118	1104.19
462.338	1129.19
462.558	1146.19
462.777	1142.19
462.997	1261.19
463.217	1281.19
463.437	1309.19
463.657	1260.19
463.876	1226.19
464.096	1212.19
464.316	1182.19
464.536	1180.19
464.755	1168.19
464.975	1119.19
465.195	1043.19
465.414	1032.19
465.634	990.19
465.854	945.19
466.073	951.19
466.293	916.19
466.512	882.19
466.732	925.19
466.951	918.19
467.171	890.19
467.391	869.19
467.61	876.19
467.829	859.19
468.049	883.19
468.268	883.19
468.488	860.19
468.707	853.19
468.927	866.19
469.146	872.19
469.365	877.19
469.585	881.19
469.804	890.19
470.023	901.19
470.243	890.19
470.462	911.19
470.681	906.19
470.901	905.19
471.12	917.19
471.339	926.19
471.558	879.19
471.777	855.19
471.997	864.19
472.216	838.19
472.435	861.19
472.654	825.19
472.873	850.19
473.092	833.19
473.311	834.19
473.53	858.19
473.749	841.19
473.968	845.19
474.187	836.19
474.406	839.19
474.625	837.19
474.844	838.19
475.063	849.19
475.282	844.19
475.501	847.19
475.72	844.19
475.939	877.19
476.158	867.19
476.377	888.19
476.596	899.19
476.814	886.19
477.033	869.19
477.252	926.19
477.471	911.19
477.69	966.19
477.908	942.19
478.127	984.19
478.346	995.19
478.564	980.19
478.783	1005.19
479.002	1003.19
479.22	1029.19
479.439	1044.19
479.658	1003.19
479.876	1041.19
480.095	1056.19
480.313	1073.19
480.532	1054.19
480.751	1075.19
480.969	1008.19
481.188	1031.19
481.406	960.19
481.624	978.19
481.843	958.19
482.061	966.19
482.28	946.19
482.498	952.19
482.717	949.19
482.935	966.19
483.153	967.19
483.372	970.19
483.59	984.19
483.808	964.19
484.027	966.19
484.245	979.19
484.463	959.19
484.681	1003.19
484.9	978.19
485.118	948.19
485.336	1002.19
485.554	1005.19
485.772	999.19
485.99	1007.19
486.209	969.19
486.427	989.19
486.645	999.19
486.863	1027.19
487.081	1011.19
487.299	1025.19
487.517	1018.19
487.735	1013.19
487.953	1041.19
488.171	1023.19
488.389	995.19
488.607	1009.19
488.825	997.19
489.043	981.19
489.261	994.19
489.479	1005.19
489.696	1002.19
489.914	1010.19
490.132	1034.19
490.35	996.19
490.568	1005.19
490.786	1014.19
491.003	1031.19
491.221	1025.19
491.439	1013.19
491.657	1040.19
491.874	1086.19
492.092	1054.19
492.31	1108.19
492.527	1049.19
492.745	1089.19
492.963	1061.19
493.18	1052.19
493.398	1066.19
493.615	1083.19
493.833	1046.19
494.05	1084.19
494.268	1071.19
494.485	1107.19
494.703	1077.19
494.92	1045.19
495.138	1097.19
495.355	1124.19
495.573	1101.19
495.79	1109.19
496.008	1127.19
496.225	1142.19
496.442	1137.19
496.66	1145.19
496.877	1185.19
497.094	1162.19
497.312	1240.19
497.529	1245.19
497.746	1246.19
497.963	1315.19
498.181	1344.19
498.398	1379.19
498.615	1474.19
498.832	1551.19
499.049	1627.19
499.267	1694.19
