Data from Ni(NO3)2@0.25M.TitratingCurve.Agarose3%dH2O.NegLispCup.LampEnergy10.LIBS07252019_HRD10591_18-04-48-566.txt Node
Date: Thu Jul 25 18:04:48 EDT 2019
User: cochatt
Spectrometer: HR+D1059
Trigger mode: 1
Integration Time (sec): 1.000000E-1
Scans to average: 1
Electric dark correction enabled: true
Nonlinearity correction enabled: false
Boxcar width: 0
XAxis mode: Wavelengths
Number of Pixels in Spectrum: 2048
>>>>>Begin Spectral Data<<<<<
223.165	-6.81
223.4	-6.81
223.635	-6.81
223.869	-15.81
224.104	-19.81
224.338	-16.81
224.573	-13.81
224.808	-14.81
225.042	-9.81
225.277	-6.81
225.511	-2.81
225.746	4.19
225.98	8.19
226.215	9.19
226.449	11.19
226.683	24.19
226.918	27.19
227.152	23.19
227.387	34.19
227.621	31.19
227.856	34.19
228.09	43.19
228.324	53.19
228.559	54.19
228.793	62.19
229.027	108.19
229.262	111.19
229.496	101.19
229.73	121.19
229.964	118.19
230.199	131.19
230.433	121.19
230.667	134.19
230.901	130.19
231.136	131.19
231.37	134.19
231.604	147.19
231.838	125.19
232.072	142.19
232.306	137.19
232.541	141.19
232.775	138.19
233.009	138.19
233.243	134.19
233.477	145.19
233.711	142.19
233.945	134.19
234.179	153.19
234.413	138.19
234.647	153.19
234.881	146.19
235.115	149.19
235.349	151.19
235.583	151.19
235.817	136.19
236.051	134.19
236.285	131.19
236.519	160.19
236.753	146.19
236.987	167.19
237.221	147.19
237.455	154.19
237.689	144.19
237.922	147.19
238.156	137.19
238.39	161.19
238.624	173.19
238.858	158.19
239.091	155.19
239.325	159.19
239.559	167.19
239.793	161.19
240.027	175.19
240.26	166.19
240.494	156.19
240.728	168.19
240.961	164.19
241.195	166.19
241.429	166.19
241.662	164.19
241.896	176.19
242.13	184.19
242.363	185.19
242.597	194.19
242.83	187.19
243.064	182.19
243.298	182.19
243.531	189.19
243.765	177.19
243.998	193.19
244.232	197.19
244.465	189.19
244.699	192.19
244.932	201.19
245.166	207.19
245.399	205.19
245.633	206.19
245.866	220.19
246.099	225.19
246.333	199.19
246.566	216.19
246.8	209.19
247.033	203.19
247.266	187.19
247.5	221.19
247.733	218.19
247.966	243.19
248.2	229.19
248.433	229.19
248.666	239.19
248.899	255.19
249.133	242.19
249.366	259.19
249.599	261.19
249.832	253.19
250.066	245.19
250.299	257.19
250.532	253.19
250.765	265.19
250.998	248.19
251.231	278.19
251.465	266.19
251.698	263.19
251.931	272.19
252.164	273.19
252.397	280.19
252.63	273.19
252.863	274.19
253.096	273.19
253.329	277.19
253.562	289.19
253.795	297.19
254.028	281.19
254.261	305.19
254.494	298.19
254.727	295.19
254.96	281.19
255.193	303.19
255.426	302.19
255.659	313.19
255.892	321.19
256.124	323.19
256.357	302.19
256.59	313.19
256.823	321.19
257.056	319.19
257.289	338.19
257.521	326.19
257.754	334.19
257.987	340.19
258.22	330.19
258.452	349.19
258.685	337.19
258.918	340.19
259.151	333.19
259.383	356.19
259.616	350.19
259.849	344.19
260.081	348.19
260.314	353.19
260.547	361.19
260.779	337.19
261.012	326.19
261.244	374.19
261.477	365.19
261.71	369.19
261.942	354.19
262.175	372.19
262.407	366.19
262.64	368.19
262.872	367.19
263.105	381.19
263.337	388.19
263.57	377.19
263.802	386.19
264.035	379.19
264.267	399.19
264.499	375.19
264.732	402.19
264.964	374.19
265.197	411.19
265.429	403.19
265.661	401.19
265.894	409.19
266.126	384.19
266.358	410.19
266.591	404.19
266.823	406.19
267.055	401.19
267.287	417.19
267.52	414.19
267.752	419.19
267.984	421.19
268.216	406.19
268.448	410.19
268.681	400.19
268.913	406.19
269.145	433.19
269.377	424.19
269.609	417.19
269.841	411.19
270.073	426.19
270.306	423.19
270.538	430.19
270.77	410.19
271.002	422.19
271.234	414.19
271.466	416.19
271.698	438.19
271.93	419.19
272.162	431.19
272.394	433.19
272.626	440.19
272.858	450.19
273.09	436.19
273.322	444.19
273.553	462.19
273.785	456.19
274.017	450.19
274.249	461.19
274.481	467.19
274.713	456.19
274.945	460.19
275.176	449.19
275.408	482.19
275.64	471.19
275.872	471.19
276.104	485.19
276.335	463.19
276.567	442.19
276.799	472.19
277.031	481.19
277.262	486.19
277.494	488.19
277.726	480.19
277.957	471.19
278.189	488.19
278.421	473.19
278.652	464.19
278.884	467.19
279.115	477.19
279.347	495.19
279.579	473.19
279.81	498.19
280.042	505.19
280.273	478.19
280.505	484.19
280.736	504.19
280.968	463.19
281.199	528.19
281.431	497.19
281.662	496.19
281.894	488.19
282.125	521.19
282.356	505.19
282.588	524.19
282.819	530.19
283.051	515.19
283.282	511.19
283.513	524.19
283.745	517.19
283.976	507.19
284.207	525.19
284.439	518.19
284.67	526.19
284.901	532.19
285.132	542.19
285.364	500.19
285.595	537.19
285.826	522.19
286.057	529.19
286.288	533.19
286.52	543.19
286.751	525.19
286.982	565.19
287.213	548.19
287.444	558.19
287.675	537.19
287.906	531.19
288.138	530.19
288.369	554.19
288.6	562.19
288.831	569.19
289.062	549.19
289.293	550.19
289.524	526.19
289.755	543.19
289.986	550.19
290.217	552.19
290.448	550.19
290.679	559.19
290.91	527.19
291.141	552.19
291.371	550.19
291.602	553.19
291.833	530.19
292.064	531.19
292.295	561.19
292.526	573.19
292.757	520.19
292.987	554.19
293.218	560.19
293.449	561.19
293.68	558.19
293.91	545.19
294.141	563.19
294.372	554.19
294.603	573.19
294.833	571.19
295.064	568.19
295.295	566.19
295.525	557.19
295.756	579.19
295.987	566.19
296.217	557.19
296.448	554.19
296.679	572.19
296.909	604.19
297.14	578.19
297.37	573.19
297.601	583.19
297.831	575.19
298.062	575.19
298.292	584.19
298.523	597.19
298.753	594.19
298.984	585.19
299.214	579.19
299.445	592.19
299.675	568.19
299.905	590.19
300.136	603.19
300.366	595.19
300.597	608.19
300.827	601.19
301.057	602.19
301.288	623.19
301.518	626.19
301.748	625.19
301.979	632.19
302.209	617.19
302.439	635.19
302.669	605.19
302.9	633.19
303.13	616.19
303.36	602.19
303.59	636.19
303.82	625.19
304.051	635.19
304.281	639.19
304.511	627.19
304.741	633.19
304.971	622.19
305.201	645.19
305.431	622.19
305.661	650.19
305.891	635.19
306.121	613.19
306.352	605.19
306.582	633.19
306.812	629.19
307.042	614.19
307.272	635.19
307.502	607.19
307.731	626.19
307.961	634.19
308.191	607.19
308.421	609.19
308.651	630.19
308.881	643.19
309.111	626.19
309.341	611.19
309.571	642.19
309.8	633.19
310.03	649.19
310.26	662.19
310.49	639.19
310.72	650.19
310.949	647.19
311.179	644.19
311.409	656.19
311.639	656.19
311.868	649.19
312.098	678.19
312.328	679.19
312.557	677.19
312.787	676.19
313.017	679.19
313.246	677.19
313.476	690.19
313.706	709.19
313.935	685.19
314.165	707.19
314.394	690.19
314.624	694.19
314.853	680.19
315.083	712.19
315.312	716.19
315.542	715.19
315.771	703.19
316.001	701.19
316.23	710.19
316.46	722.19
316.689	739.19
316.919	718.19
317.148	709.19
317.377	703.19
317.607	731.19
317.836	735.19
318.065	710.19
318.295	714.19
318.524	733.19
318.753	711.19
318.983	740.19
319.212	735.19
319.441	729.19
319.67	728.19
319.9	722.19
320.129	742.19
320.358	719.19
320.587	740.19
320.816	753.19
321.046	731.19
321.275	765.19
321.504	753.19
321.733	754.19
321.962	784.19
322.191	778.19
322.42	768.19
322.649	787.19
322.878	778.19
323.108	779.19
323.337	796.19
323.566	775.19
323.795	787.19
324.024	793.19
324.253	777.19
324.482	790.19
324.71	797.19
324.939	811.19
325.168	772.19
325.397	816.19
325.626	817.19
325.855	835.19
326.084	850.19
326.313	832.19
326.542	831.19
326.77	879.19
326.999	844.19
327.228	851.19
327.457	851.19
327.686	849.19
327.914	872.19
328.143	845.19
328.372	839.19
328.6	878.19
328.829	863.19
329.058	860.19
329.287	877.19
329.515	888.19
329.744	872.19
329.972	907.19
330.201	925.19
330.43	919.19
330.658	949.19
330.887	937.19
331.115	935.19
331.344	933.19
331.572	931.19
331.801	941.19
332.03	960.19
332.258	957.19
332.486	978.19
332.715	969.19
332.943	1001.19
333.172	1027.19
333.4	1088.19
333.629	1069.19
333.857	1060.19
334.085	1099.19
334.314	1098.19
334.542	1093.19
334.771	1134.19
334.999	1095.19
335.227	1116.19
335.455	1107.19
335.684	1096.19
335.912	1104.19
336.14	1096.19
336.369	1110.19
336.597	1124.19
336.825	1103.19
337.053	1107.19
337.281	1121.19
337.51	1080.19
337.738	1067.19
337.966	1061.19
338.194	1069.19
338.422	1040.19
338.65	1006.19
338.878	1032.19
339.106	1012.19
339.334	1023.19
339.562	1031.19
339.79	992.19
340.018	961.19
340.246	974.19
340.474	975.19
340.702	981.19
340.93	952.19
341.158	1021.19
341.386	1004.19
341.614	998.19
341.842	1019.19
342.07	959.19
342.298	983.19
342.526	978.19
342.754	975.19
342.981	981.19
343.209	983.19
343.437	1011.19
343.665	1049.19
343.893	1087.19
344.12	1103.19
344.348	1064.19
344.576	1102.19
344.804	1100.19
345.031	1041.19
345.259	993.19
345.487	991.19
345.714	1028.19
345.942	1033.19
346.17	999.19
346.397	1030.19
346.625	965.19
346.853	953.19
347.08	928.19
347.308	955.19
347.535	943.19
347.763	941.19
347.99	902.19
348.218	945.19
348.445	950.19
348.673	924.19
348.9	934.19
349.128	947.19
349.355	957.19
349.583	955.19
349.81	937.19
350.037	940.19
350.265	927.19
350.492	930.19
350.72	896.19
350.947	970.19
351.174	954.19
351.402	927.19
351.629	938.19
351.856	934.19
352.083	899.19
352.311	935.19
352.538	939.19
352.765	946.19
352.992	924.19
353.22	887.19
353.447	867.19
353.674	913.19
353.901	884.19
354.128	886.19
354.355	871.19
354.583	881.19
354.81	916.19
355.037	910.19
355.264	918.19
355.491	881.19
355.718	903.19
355.945	897.19
356.172	911.19
356.399	901.19
356.626	915.19
356.853	914.19
357.08	922.19
357.307	911.19
357.534	912.19
357.761	921.19
357.988	920.19
358.215	930.19
358.441	902.19
358.668	889.19
358.895	898.19
359.122	901.19
359.349	891.19
359.576	893.19
359.802	904.19
360.029	892.19
360.256	923.19
360.483	898.19
360.709	891.19
360.936	895.19
361.163	945.19
361.39	917.19
361.616	911.19
361.843	927.19
362.07	948.19
362.296	924.19
362.523	904.19
362.749	898.19
362.976	934.19
363.203	911.19
363.429	905.19
363.656	879.19
363.882	874.19
364.109	911.19
364.335	887.19
364.562	898.19
364.788	901.19
365.015	895.19
365.241	898.19
365.468	896.19
365.694	907.19
365.92	877.19
366.147	870.19
366.373	898.19
366.599	901.19
366.826	897.19
367.052	894.19
367.278	893.19
367.505	890.19
367.731	894.19
367.957	912.19
368.184	895.19
368.41	905.19
368.636	944.19
368.862	922.19
369.089	930.19
369.315	914.19
369.541	919.19
369.767	922.19
369.993	930.19
370.219	915.19
370.445	915.19
370.672	916.19
370.898	903.19
371.124	918.19
371.35	959.19
371.576	963.19
371.802	952.19
372.028	946.19
372.254	953.19
372.48	953.19
372.706	973.19
372.932	967.19
373.158	941.19
373.384	963.19
373.61	934.19
373.835	955.19
374.061	967.19
374.287	966.19
374.513	970.19
374.739	977.19
374.965	991.19
375.191	1030.19
375.416	995.19
375.642	974.19
375.868	991.19
376.094	948.19
376.319	968.19
376.545	952.19
376.771	946.19
376.997	947.19
377.222	949.19
377.448	955.19
377.674	942.19
377.899	927.19
378.125	934.19
378.35	926.19
378.576	912.19
378.802	922.19
379.027	910.19
379.253	902.19
379.478	922.19
379.704	919.19
379.929	926.19
380.155	923.19
380.38	911.19
380.606	903.19
380.831	917.19
381.057	913.19
381.282	901.19
381.507	913.19
381.733	935.19
381.958	938.19
382.184	929.19
382.409	936.19
382.634	972.19
382.86	974.19
383.085	954.19
383.31	945.19
383.535	954.19
383.761	955.19
383.986	990.19
384.211	1018.19
384.436	984.19
384.662	1021.19
384.887	1025.19
385.112	981.19
385.337	1037.19
385.562	1065.19
385.787	1030.19
386.013	1051.19
386.238	1074.19
386.463	1065.19
386.688	1078.19
386.913	1035.19
387.138	1081.19
387.363	1089.19
387.588	1090.19
387.813	1065.19
388.038	1071.19
388.263	1099.19
388.488	1089.19
388.713	1102.19
388.938	1075.19
389.163	1073.19
389.387	1061.19
389.612	1073.19
389.837	1087.19
390.062	1059.19
390.287	1076.19
390.512	1092.19
390.736	1094.19
390.961	1147.19
391.186	1126.19
391.411	1119.19
391.636	1133.19
391.86	1157.19
392.085	1176.19
392.31	1164.19
392.534	1150.19
392.759	1190.19
392.984	1183.19
393.208	1148.19
393.433	1159.19
393.658	1141.19
393.882	1160.19
394.107	1150.19
394.331	1137.19
394.556	1153.19
394.78	1142.19
395.005	1144.19
395.229	1136.19
395.454	1182.19
395.678	1185.19
395.903	1209.19
396.127	1199.19
396.352	1186.19
396.576	1172.19
396.801	1182.19
397.025	1219.19
397.249	1189.19
397.474	1234.19
397.698	1255.19
397.922	1277.19
398.147	1216.19
398.371	1289.19
398.595	1311.19
398.82	1334.19
399.044	1423.19
399.268	1470.19
399.492	1559.19
399.717	1582.19
399.941	1710.19
400.165	1633.19
400.389	1535.19
400.613	1512.19
400.837	1466.19
401.062	1412.19
401.286	1384.19
401.51	1397.19
401.734	1368.19
401.958	1367.19
402.182	1337.19
402.406	1354.19
402.63	1391.19
402.854	1412.19
403.078	1367.19
403.302	1386.19
403.526	1432.19
403.75	1369.19
403.974	1345.19
404.198	1390.19
404.422	1423.19
404.645	1371.19
404.869	1361.19
405.093	1402.19
405.317	1408.19
405.541	1411.19
405.765	1418.19
405.988	1407.19
406.212	1447.19
406.436	1441.19
406.66	1466.19
406.883	1514.19
407.107	1532.19
407.331	1562.19
407.555	1659.19
407.778	1587.19
408.002	1630.19
408.226	1582.19
408.449	1576.19
408.673	1568.19
408.896	1571.19
409.12	1494.19
409.344	1465.19
409.567	1495.19
409.791	1521.19
410.014	1490.19
410.238	1472.19
410.461	1440.19
410.685	1478.19
410.908	1434.19
411.132	1427.19
411.355	1413.19
411.578	1437.19
411.802	1418.19
412.025	1422.19
412.249	1433.19
412.472	1420.19
412.695	1399.19
412.919	1387.19
413.142	1414.19
413.365	1387.19
413.589	1429.19
413.812	1358.19
414.035	1369.19
414.258	1365.19
414.482	1391.19
414.705	1391.19
414.928	1403.19
415.151	1388.19
415.374	1355.19
415.597	1336.19
415.821	1334.19
416.044	1340.19
416.267	1313.19
416.49	1344.19
416.713	1314.19
416.936	1350.19
417.159	1342.19
417.382	1303.19
417.605	1318.19
417.828	1345.19
418.051	1334.19
418.274	1302.19
418.497	1334.19
418.72	1338.19
418.943	1369.19
419.166	1413.19
419.389	1495.19
419.611	1494.19
419.834	1470.19
420.057	1434.19
420.28	1375.19
420.503	1334.19
420.726	1329.19
420.948	1331.19
421.171	1335.19
421.394	1348.19
421.617	1342.19
421.839	1367.19
422.062	1396.19
422.285	1310.19
422.507	1363.19
422.73	1369.19
422.953	1341.19
423.175	1345.19
423.398	1316.19
423.621	1329.19
423.843	1383.19
424.066	1377.19
424.288	1330.19
424.511	1335.19
424.733	1368.19
424.956	1358.19
425.178	1334.19
425.401	1346.19
425.623	1356.19
425.846	1349.19
426.068	1329.19
426.291	1318.19
426.513	1309.19
426.735	1343.19
426.958	1314.19
427.18	1276.19
427.402	1303.19
427.625	1327.19
427.847	1283.19
428.069	1266.19
428.292	1294.19
428.514	1271.19
428.736	1267.19
428.958	1282.19
429.181	1286.19
429.403	1274.19
429.625	1267.19
429.847	1244.19
430.069	1281.19
430.292	1277.19
430.514	1232.19
430.736	1289.19
430.958	1297.19
431.18	1287.19
431.402	1246.19
431.624	1247.19
431.846	1248.19
432.068	1310.19
432.29	1282.19
432.512	1287.19
432.734	1277.19
432.956	1277.19
433.178	1305.19
433.4	1303.19
433.622	1313.19
433.844	1329.19
434.066	1297.19
434.287	1313.19
434.509	1342.19
434.731	1330.19
434.953	1377.19
435.175	1364.19
435.397	1391.19
435.618	1351.19
435.84	1350.19
436.062	1320.19
436.284	1307.19
436.505	1283.19
436.727	1295.19
436.949	1290.19
437.17	1295.19
437.392	1270.19
437.614	1295.19
437.835	1241.19
438.057	1270.19
438.278	1219.19
438.5	1240.19
438.721	1268.19
438.943	1261.19
439.165	1261.19
439.386	1260.19
439.608	1259.19
439.829	1274.19
440.05	1294.19
440.272	1302.19
440.493	1301.19
440.715	1303.19
440.936	1327.19
441.158	1319.19
441.379	1329.19
441.6	1405.19
441.822	1363.19
442.043	1379.19
442.264	1385.19
442.486	1347.19
442.707	1361.19
442.928	1356.19
443.149	1386.19
443.371	1374.19
443.592	1407.19
443.813	1375.19
444.034	1380.19
444.255	1404.19
444.476	1447.19
444.698	1491.19
444.919	1482.19
445.14	1587.19
445.361	1499.19
445.582	1427.19
445.803	1392.19
446.024	1364.19
446.245	1337.19
446.466	1378.19
446.687	1315.19
446.908	1325.19
447.129	1266.19
447.35	1267.19
447.571	1261.19
447.792	1253.19
448.013	1250.19
448.234	1207.19
448.455	1206.19
448.675	1202.19
448.896	1233.19
449.117	1206.19
449.338	1192.19
449.559	1183.19
449.779	1192.19
450	1171.19
450.221	1173.19
450.442	1169.19
450.662	1201.19
450.883	1185.19
451.104	1202.19
451.324	1185.19
451.545	1207.19
451.766	1186.19
451.986	1149.19
452.207	1161.19
452.428	1181.19
452.648	1175.19
452.869	1155.19
453.089	1141.19
453.31	1138.19
453.53	1105.19
453.751	1098.19
453.971	1109.19
454.192	1143.19
454.412	1089.19
454.633	1135.19
454.853	1117.19
455.073	1132.19
455.294	1129.19
455.514	1125.19
455.734	1135.19
455.955	1117.19
456.175	1146.19
456.395	1128.19
456.616	1094.19
456.836	1149.19
457.056	1155.19
457.276	1085.19
457.497	1148.19
457.717	1110.19
457.937	1153.19
458.157	1141.19
458.377	1173.19
458.598	1195.19
458.818	1192.19
459.038	1232.19
459.258	1247.19
459.478	1265.19
459.698	1316.19
459.918	1333.19
460.138	1337.19
460.358	1403.19
460.578	1419.19
460.798	1416.19
461.018	1487.19
461.238	1481.19
461.458	1451.19
461.678	1453.19
461.898	1480.19
462.118	1512.19
462.338	1536.19
462.558	1578.19
462.777	1611.19
462.997	1692.19
463.217	1697.19
463.437	1755.19
463.657	1711.19
463.876	1668.19
464.096	1660.19
464.316	1629.19
464.536	1627.19
464.755	1594.19
464.975	1547.19
465.195	1518.19
465.414	1453.19
465.634	1398.19
465.854	1378.19
466.073	1324.19
466.293	1299.19
466.512	1248.19
466.732	1268.19
466.951	1277.19
467.171	1253.19
467.391	1255.19
467.61	1235.19
467.829	1221.19
468.049	1214.19
468.268	1188.19
468.488	1192.19
468.707	1208.19
468.927	1224.19
469.146	1199.19
469.365	1228.19
469.585	1229.19
469.804	1240.19
470.023	1262.19
470.243	1225.19
470.462	1248.19
470.681	1242.19
470.901	1283.19
471.12	1271.19
471.339	1270.19
471.558	1258.19
471.777	1244.19
471.997	1226.19
472.216	1253.19
472.435	1231.19
472.654	1197.19
472.873	1168.19
473.092	1217.19
473.311	1216.19
473.53	1185.19
473.749	1201.19
473.968	1218.19
474.187	1188.19
474.406	1200.19
474.625	1207.19
474.844	1196.19
475.063	1216.19
475.282	1235.19
475.501	1219.19
475.72	1258.19
475.939	1257.19
476.158	1236.19
476.377	1263.19
476.596	1254.19
476.814	1256.19
477.033	1277.19
477.252	1297.19
477.471	1329.19
477.69	1349.19
477.908	1363.19
478.127	1347.19
478.346	1367.19
478.564	1431.19
478.783	1418.19
479.002	1456.19
479.22	1431.19
479.439	1449.19
479.658	1445.19
479.876	1472.19
480.095	1492.19
480.313	1470.19
480.532	1498.19
480.751	1460.19
480.969	1466.19
481.188	1449.19
481.406	1416.19
481.624	1415.19
481.843	1386.19
482.061	1403.19
482.28	1400.19
482.498	1374.19
482.717	1384.19
482.935	1371.19
483.153	1414.19
483.372	1415.19
483.59	1404.19
483.808	1378.19
484.027	1378.19
484.245	1410.19
484.463	1373.19
484.681	1449.19
484.9	1409.19
485.118	1426.19
485.336	1429.19
485.554	1405.19
485.772	1429.19
485.99	1428.19
486.209	1428.19
486.427	1440.19
486.645	1463.19
486.863	1445.19
487.081	1437.19
487.299	1441.19
487.517	1477.19
487.735	1445.19
487.953	1457.19
488.171	1459.19
488.389	1434.19
488.607	1423.19
488.825	1418.19
489.043	1401.19
489.261	1458.19
489.479	1474.19
489.696	1419.19
489.914	1449.19
490.132	1454.19
490.35	1463.19
490.568	1459.19
490.786	1498.19
491.003	1517.19
491.221	1473.19
491.439	1488.19
491.657	1492.19
491.874	1485.19
492.092	1512.19
492.31	1480.19
492.527	1562.19
492.745	1534.19
492.963	1546.19
493.18	1544.19
493.398	1505.19
493.615	1532.19
493.833	1537.19
494.05	1568.19
494.268	1553.19
