Data from Ni(NO3)2@0.0625M.TitratingCurve.Agarose3%dH2O.NegLispCup.LampEnergy10.LIBS07252019_HRD10591_18-15-25-570.txt Node
Date: Thu Jul 25 18:15:25 EDT 2019
User: cochatt
Spectrometer: HR+D1059
Trigger mode: 1
Integration Time (sec): 1.000000E-1
Scans to average: 1
Electric dark correction enabled: true
Nonlinearity correction enabled: false
Boxcar width: 0
XAxis mode: Wavelengths
Number of Pixels in Spectrum: 2048
>>>>>Begin Spectral Data<<<<<
223.165	-20.81
223.4	-20.81
223.635	-20.81
223.869	-30.81
224.104	-30.81
224.338	-15.81
224.573	-6.81
224.808	-11.81
225.042	-13.81
225.277	0.19
225.511	-7.81
225.746	3.19
225.98	10.19
226.215	21.19
226.449	9.19
226.683	37.19
226.918	22.19
227.152	35.19
227.387	16.19
227.621	51.19
227.856	38.19
228.09	51.19
228.324	42.19
228.559	60.19
228.793	65.19
229.027	86.19
229.262	108.19
229.496	101.19
229.73	103.19
229.964	114.19
230.199	137.19
230.433	104.19
230.667	127.19
230.901	130.19
231.136	145.19
231.37	119.19
231.604	131.19
231.838	127.19
232.072	127.19
232.306	128.19
232.541	123.19
232.775	117.19
233.009	123.19
233.243	113.19
233.477	120.19
233.711	122.19
233.945	147.19
234.179	139.19
234.413	142.19
234.647	131.19
234.881	141.19
235.115	139.19
235.349	132.19
235.583	129.19
235.817	130.19
236.051	127.19
236.285	128.19
236.519	151.19
236.753	111.19
236.987	127.19
237.221	114.19
237.455	133.19
237.689	138.19
237.922	128.19
238.156	127.19
238.39	142.19
238.624	159.19
238.858	138.19
239.091	148.19
239.325	148.19
239.559	165.19
239.793	148.19
240.027	153.19
240.26	149.19
240.494	144.19
240.728	139.19
240.961	155.19
241.195	161.19
241.429	162.19
241.662	145.19
241.896	151.19
242.13	159.19
242.363	166.19
242.597	160.19
242.83	159.19
243.064	155.19
243.298	156.19
243.531	159.19
243.765	156.19
243.998	171.19
244.232	172.19
244.465	176.19
244.699	159.19
244.932	180.19
245.166	172.19
245.399	170.19
245.633	184.19
245.866	171.19
246.099	172.19
246.333	159.19
246.566	189.19
246.8	180.19
247.033	194.19
247.266	196.19
247.5	195.19
247.733	186.19
247.966	174.19
248.2	195.19
248.433	208.19
248.666	190.19
248.899	199.19
249.133	203.19
249.366	209.19
249.599	198.19
249.832	214.19
250.066	199.19
250.299	198.19
250.532	191.19
250.765	204.19
250.998	210.19
251.231	217.19
251.465	210.19
251.698	210.19
251.931	204.19
252.164	203.19
252.397	225.19
252.63	223.19
252.863	222.19
253.096	221.19
253.329	227.19
253.562	223.19
253.795	197.19
254.028	209.19
254.261	223.19
254.494	221.19
254.727	216.19
254.96	223.19
255.193	223.19
255.426	227.19
255.659	227.19
255.892	227.19
256.124	242.19
256.357	239.19
256.59	233.19
256.823	225.19
257.056	216.19
257.289	224.19
257.521	241.19
257.754	215.19
257.987	227.19
258.22	242.19
258.452	232.19
258.685	251.19
258.918	233.19
259.151	229.19
259.383	263.19
259.616	232.19
259.849	234.19
260.081	271.19
260.314	244.19
260.547	255.19
260.779	254.19
261.012	262.19
261.244	239.19
261.477	265.19
261.71	270.19
261.942	238.19
262.175	275.19
262.407	272.19
262.64	257.19
262.872	267.19
263.105	251.19
263.337	270.19
263.57	261.19
263.802	279.19
264.035	264.19
264.267	265.19
264.499	272.19
264.732	292.19
264.964	284.19
265.197	266.19
265.429	264.19
265.661	274.19
265.894	275.19
266.126	302.19
266.358	305.19
266.591	284.19
266.823	279.19
267.055	297.19
267.287	285.19
267.52	282.19
267.752	280.19
267.984	284.19
268.216	298.19
268.448	284.19
268.681	289.19
268.913	295.19
269.145	267.19
269.377	299.19
269.609	287.19
269.841	277.19
270.073	298.19
270.306	288.19
270.538	284.19
270.77	292.19
271.002	306.19
271.234	287.19
271.466	299.19
271.698	313.19
271.93	297.19
272.162	299.19
272.394	307.19
272.626	321.19
272.858	318.19
273.09	308.19
273.322	326.19
273.553	307.19
273.785	321.19
274.017	316.19
274.249	309.19
274.481	326.19
274.713	328.19
274.945	333.19
275.176	327.19
275.408	325.19
275.64	329.19
275.872	322.19
276.104	340.19
276.335	316.19
276.567	316.19
276.799	327.19
277.031	331.19
277.262	327.19
277.494	329.19
277.726	335.19
277.957	332.19
278.189	350.19
278.421	345.19
278.652	339.19
278.884	345.19
279.115	338.19
279.347	350.19
279.579	345.19
279.81	350.19
280.042	349.19
280.273	344.19
280.505	355.19
280.736	349.19
280.968	366.19
281.199	363.19
281.431	358.19
281.662	359.19
281.894	358.19
282.125	356.19
282.356	354.19
282.588	356.19
282.819	365.19
283.051	381.19
283.282	373.19
283.513	368.19
283.745	363.19
283.976	376.19
284.207	375.19
284.439	382.19
284.67	377.19
284.901	387.19
285.132	380.19
285.364	374.19
285.595	375.19
285.826	380.19
286.057	374.19
286.288	397.19
286.52	396.19
286.751	395.19
286.982	385.19
287.213	396.19
287.444	398.19
287.675	379.19
287.906	398.19
288.138	396.19
288.369	395.19
288.6	413.19
288.831	390.19
289.062	395.19
289.293	410.19
289.524	393.19
289.755	412.19
289.986	404.19
290.217	408.19
290.448	391.19
290.679	392.19
290.91	400.19
291.141	429.19
291.371	406.19
291.602	391.19
291.833	428.19
292.064	420.19
292.295	413.19
292.526	419.19
292.757	424.19
292.987	408.19
293.218	408.19
293.449	411.19
293.68	429.19
293.91	418.19
294.141	423.19
294.372	418.19
294.603	404.19
294.833	412.19
295.064	415.19
295.295	447.19
295.525	416.19
295.756	431.19
295.987	407.19
296.217	430.19
296.448	428.19
296.679	442.19
296.909	431.19
297.14	436.19
297.37	451.19
297.601	446.19
297.831	425.19
298.062	429.19
298.292	451.19
298.523	475.19
298.753	449.19
298.984	443.19
299.214	440.19
299.445	455.19
299.675	464.19
299.905	458.19
300.136	448.19
300.366	454.19
300.597	471.19
300.827	457.19
301.057	474.19
301.288	491.19
301.518	453.19
301.748	472.19
301.979	496.19
302.209	485.19
302.439	484.19
302.669	470.19
302.9	481.19
303.13	452.19
303.36	461.19
303.59	466.19
303.82	473.19
304.051	461.19
304.281	485.19
304.511	452.19
304.741	466.19
304.971	472.19
305.201	473.19
305.431	481.19
305.661	458.19
305.891	475.19
306.121	465.19
306.352	471.19
306.582	452.19
306.812	463.19
307.042	467.19
307.272	444.19
307.502	432.19
307.731	476.19
307.961	457.19
308.191	470.19
308.421	466.19
308.651	471.19
308.881	451.19
309.111	472.19
309.341	471.19
309.571	459.19
309.8	449.19
310.03	452.19
310.26	493.19
310.49	463.19
310.72	455.19
310.949	470.19
311.179	500.19
311.409	475.19
311.639	453.19
311.868	462.19
312.098	493.19
312.328	471.19
312.557	472.19
312.787	495.19
313.017	477.19
313.246	479.19
313.476	486.19
313.706	504.19
313.935	505.19
314.165	512.19
314.394	520.19
314.624	477.19
314.853	499.19
315.083	513.19
315.312	514.19
315.542	491.19
315.771	493.19
316.001	492.19
316.23	476.19
316.46	496.19
316.689	505.19
316.919	475.19
317.148	466.19
317.377	493.19
317.607	486.19
317.836	467.19
318.065	462.19
318.295	485.19
318.524	500.19
318.753	483.19
318.983	483.19
319.212	461.19
319.441	459.19
319.67	492.19
319.9	487.19
320.129	480.19
320.358	460.19
320.587	497.19
320.816	485.19
321.046	497.19
321.275	492.19
321.504	481.19
321.733	484.19
321.962	499.19
322.191	519.19
322.42	489.19
322.649	471.19
322.878	490.19
323.108	497.19
323.337	495.19
323.566	510.19
323.795	522.19
324.024	503.19
324.253	504.19
324.482	524.19
324.71	501.19
324.939	519.19
325.168	511.19
325.397	520.19
325.626	518.19
325.855	509.19
326.084	522.19
326.313	552.19
326.542	546.19
326.77	551.19
326.999	546.19
327.228	526.19
327.457	524.19
327.686	513.19
327.914	529.19
328.143	547.19
328.372	561.19
328.6	531.19
328.829	535.19
329.058	526.19
329.287	523.19
329.515	535.19
329.744	532.19
329.972	571.19
330.201	563.19
330.43	563.19
330.658	543.19
330.887	555.19
331.115	610.19
331.344	571.19
331.572	586.19
331.801	588.19
332.03	580.19
332.258	620.19
332.486	635.19
332.715	646.19
332.943	659.19
333.172	679.19
333.4	727.19
333.629	731.19
333.857	714.19
334.085	684.19
334.314	703.19
334.542	691.19
334.771	711.19
334.999	691.19
335.227	645.19
335.455	663.19
335.684	665.19
335.912	645.19
336.14	641.19
336.369	651.19
336.597	667.19
336.825	647.19
337.053	629.19
337.281	647.19
337.51	640.19
337.738	625.19
337.966	606.19
338.194	615.19
338.422	591.19
338.65	573.19
338.878	597.19
339.106	571.19
339.334	605.19
339.562	596.19
339.79	554.19
340.018	575.19
340.246	577.19
340.474	588.19
340.702	562.19
340.93	599.19
341.158	581.19
341.386	598.19
341.614	588.19
341.842	570.19
342.07	554.19
342.298	580.19
342.526	565.19
342.754	548.19
342.981	553.19
343.209	588.19
343.437	609.19
343.665	660.19
343.893	691.19
344.12	709.19
344.348	667.19
344.576	641.19
344.804	636.19
345.031	603.19
345.259	581.19
345.487	570.19
345.714	567.19
345.942	578.19
346.17	576.19
346.397	554.19
346.625	569.19
346.853	563.19
347.08	547.19
347.308	547.19
347.535	551.19
347.763	565.19
347.99	587.19
348.218	563.19
348.445	555.19
348.673	572.19
348.9	575.19
349.128	555.19
349.355	539.19
349.583	534.19
349.81	535.19
350.037	528.19
350.265	531.19
350.492	549.19
350.72	551.19
350.947	537.19
351.174	531.19
351.402	538.19
351.629	538.19
351.856	544.19
352.083	533.19
352.311	537.19
352.538	520.19
352.765	560.19
352.992	530.19
353.22	525.19
353.447	540.19
353.674	543.19
353.901	517.19
354.128	539.19
354.355	532.19
354.583	530.19
354.81	532.19
355.037	539.19
355.264	539.19
355.491	523.19
355.718	566.19
355.945	532.19
356.172	543.19
356.399	533.19
356.626	547.19
356.853	563.19
357.08	523.19
357.307	536.19
357.534	543.19
357.761	562.19
357.988	556.19
358.215	531.19
358.441	519.19
358.668	545.19
358.895	564.19
359.122	557.19
359.349	548.19
359.576	533.19
359.802	543.19
360.029	527.19
360.256	525.19
360.483	532.19
360.709	517.19
360.936	529.19
361.163	548.19
361.39	528.19
361.616	529.19
361.843	547.19
362.07	549.19
362.296	545.19
362.523	533.19
362.749	540.19
362.976	552.19
363.203	541.19
363.429	531.19
363.656	526.19
363.882	521.19
364.109	511.19
364.335	531.19
364.562	540.19
364.788	543.19
365.015	515.19
365.241	532.19
365.468	545.19
365.694	518.19
365.92	554.19
366.147	509.19
366.373	521.19
366.599	537.19
366.826	517.19
367.052	529.19
367.278	534.19
367.505	543.19
367.731	532.19
367.957	548.19
368.184	539.19
368.41	537.19
368.636	536.19
368.862	565.19
369.089	538.19
369.315	545.19
369.541	556.19
369.767	568.19
369.993	554.19
370.219	548.19
370.445	560.19
370.672	581.19
370.898	572.19
371.124	587.19
371.35	588.19
371.576	590.19
371.802	583.19
372.028	545.19
372.254	580.19
372.48	612.19
372.706	612.19
372.932	593.19
373.158	604.19
373.384	597.19
373.61	587.19
373.835	583.19
374.061	584.19
374.287	593.19
374.513	601.19
374.739	621.19
374.965	628.19
375.191	679.19
375.416	650.19
375.642	624.19
375.868	623.19
376.094	604.19
376.319	559.19
376.545	581.19
376.771	611.19
376.997	595.19
377.222	586.19
377.448	575.19
377.674	570.19
377.899	584.19
378.125	572.19
378.35	586.19
378.576	578.19
378.802	573.19
379.027	576.19
379.253	591.19
379.478	575.19
379.704	581.19
379.929	599.19
380.155	568.19
380.38	571.19
380.606	585.19
380.831	576.19
381.057	603.19
381.282	579.19
381.507	607.19
381.733	597.19
381.958	593.19
382.184	579.19
382.409	612.19
382.634	620.19
382.86	616.19
383.085	628.19
383.31	625.19
383.535	636.19
383.761	653.19
383.986	633.19
384.211	670.19
384.436	673.19
384.662	682.19
384.887	693.19
385.112	712.19
385.337	696.19
385.562	696.19
385.787	705.19
386.013	704.19
386.238	692.19
386.463	717.19
386.688	718.19
386.913	682.19
387.138	680.19
387.363	703.19
387.588	669.19
387.813	663.19
388.038	679.19
388.263	700.19
388.488	693.19
388.713	682.19
388.938	669.19
389.163	675.19
389.387	679.19
389.612	671.19
389.837	687.19
390.062	674.19
390.287	708.19
390.512	695.19
390.736	709.19
390.961	717.19
391.186	703.19
391.411	697.19
391.636	748.19
391.86	780.19
392.085	778.19
392.31	784.19
392.534	794.19
392.759	762.19
392.984	737.19
393.208	725.19
393.433	724.19
393.658	730.19
393.882	724.19
394.107	758.19
394.331	764.19
394.556	748.19
394.78	735.19
395.005	740.19
395.229	735.19
395.454	754.19
395.678	779.19
395.903	764.19
396.127	777.19
396.352	752.19
396.576	716.19
396.801	759.19
397.025	745.19
397.249	746.19
397.474	783.19
397.698	780.19
397.922	807.19
398.147	769.19
398.371	797.19
398.595	796.19
398.82	866.19
399.044	901.19
399.268	1004.19
399.492	1191.19
399.717	1340.19
399.941	1317.19
400.165	1142.19
400.389	1013.19
400.613	947.19
400.837	902.19
401.062	889.19
401.286	877.19
401.51	884.19
401.734	890.19
401.958	896.19
402.182	864.19
402.406	899.19
402.63	893.19
402.854	929.19
403.078	943.19
403.302	959.19
403.526	991.19
403.75	991.19
403.974	1014.19
404.198	1007.19
404.422	995.19
404.645	992.19
404.869	961.19
405.093	977.19
405.317	970.19
405.541	963.19
405.765	952.19
405.988	961.19
406.212	968.19
406.436	967.19
406.66	999.19
406.883	1003.19
407.107	1048.19
407.331	1107.19
407.555	1155.19
407.778	1124.19
408.002	1063.19
408.226	1064.19
408.449	1048.19
408.673	999.19
408.896	984.19
409.12	988.19
409.344	991.19
409.567	998.19
409.791	966.19
410.014	984.19
410.238	985.19
410.461	983.19
410.685	963.19
410.908	941.19
411.132	928.19
411.355	886.19
411.578	913.19
411.802	886.19
412.025	893.19
412.249	911.19
412.472	903.19
412.695	855.19
412.919	859.19
413.142	857.19
413.365	873.19
413.589	896.19
413.812	870.19
414.035	854.19
414.258	873.19
414.482	882.19
414.705	879.19
414.928	897.19
415.151	902.19
415.374	875.19
415.597	834.19
415.821	817.19
416.044	833.19
416.267	817.19
416.49	841.19
416.713	860.19
416.936	854.19
417.159	840.19
417.382	858.19
417.605	855.19
417.828	867.19
418.051	863.19
418.274	850.19
418.497	845.19
418.72	881.19
418.943	893.19
419.166	935.19
419.389	991.19
419.611	955.19
419.834	922.19
420.057	901.19
420.28	874.19
420.503	845.19
420.726	839.19
420.948	857.19
421.171	848.19
421.394	873.19
421.617	873.19
421.839	838.19
422.062	865.19
422.285	853.19
422.507	868.19
422.73	888.19
422.953	901.19
423.175	918.19
423.398	943.19
423.621	915.19
423.843	936.19
424.066	924.19
424.288	948.19
424.511	891.19
424.733	905.19
424.956	873.19
425.178	863.19
425.401	860.19
425.623	868.19
425.846	849.19
426.068	828.19
426.291	800.19
426.513	784.19
426.735	790.19
426.958	804.19
427.18	784.19
427.402	768.19
427.625	761.19
427.847	773.19
428.069	761.19
428.292	753.19
428.514	765.19
428.736	760.19
428.958	751.19
429.181	745.19
429.403	757.19
429.625	755.19
429.847	743.19
430.069	763.19
430.292	744.19
430.514	707.19
430.736	732.19
430.958	756.19
431.18	742.19
431.402	731.19
431.624	752.19
431.846	764.19
432.068	763.19
432.29	776.19
432.512	755.19
432.734	768.19
432.956	760.19
433.178	753.19
433.4	775.19
433.622	791.19
433.844	776.19
434.066	788.19
434.287	788.19
434.509	817.19
434.731	849.19
434.953	869.19
435.175	860.19
435.397	854.19
435.618	819.19
435.84	772.19
436.062	783.19
436.284	779.19
436.505	760.19
436.727	770.19
436.949	768.19
437.17	736.19
437.392	777.19
437.614	727.19
437.835	731.19
438.057	723.19
438.278	711.19
438.5	716.19
438.721	732.19
438.943	712.19
439.165	724.19
439.386	746.19
439.608	756.19
439.829	791.19
440.05	781.19
440.272	799.19
440.493	804.19
440.715	807.19
440.936	805.19
441.158	805.19
441.379	830.19
441.6	866.19
441.822	868.19
442.043	872.19
442.264	875.19
442.486	849.19
442.707	861.19
442.928	849.19
443.149	855.19
443.371	856.19
443.592	860.19
443.813	870.19
444.034	889.19
444.255	933.19
444.476	931.19
444.698	1023.19
444.919	1041.19
445.14	1099.19
445.361	977.19
445.582	891.19
445.803	861.19
446.024	839.19
446.245	820.19
446.466	779.19
446.687	758.19
446.908	797.19
447.129	751.19
447.35	723.19
447.571	725.19
447.792	720.19
448.013	731.19
448.234	719.19
448.455	717.19
448.675	732.19
448.896	708.19
449.117	681.19
449.338	712.19
449.559	694.19
449.779	673.19
450	707.19
450.221	690.19
450.442	710.19
450.662	719.19
450.883	727.19
451.104	693.19
451.324	737.19
451.545	728.19
451.766	721.19
451.986	716.19
452.207	707.19
452.428	723.19
452.648	710.19
452.869	677.19
453.089	693.19
453.31	697.19
453.53	669.19
453.751	675.19
453.971	701.19
454.192	687.19
454.412	693.19
454.633	689.19
454.853	656.19
455.073	660.19
455.294	659.19
455.514	666.19
455.734	637.19
455.955	655.19
456.175	671.19
456.395	651.19
456.616	648.19
456.836	659.19
457.056	657.19
457.276	646.19
457.497	655.19
457.717	684.19
457.937	664.19
458.157	680.19
458.377	667.19
458.598	697.19
458.818	709.19
459.038	735.19
459.258	762.19
459.478	771.19
459.698	803.19
459.918	844.19
460.138	877.19
460.358	903.19
460.578	930.19
460.798	932.19
461.018	938.19
461.238	906.19
461.458	913.19
461.678	890.19
461.898	895.19
462.118	913.19
462.338	992.19
462.558	979.19
462.777	1023.19
462.997	1147.19
463.217	1252.19
463.437	1219.19
463.657	1132.19
463.876	1069.19
464.096	1083.19
464.316	1073.19
464.536	1065.19
464.755	998.19
464.975	997.19
465.195	961.19
465.414	898.19
465.634	826.19
465.854	820.19
466.073	817.19
466.293	755.19
466.512	774.19
466.732	745.19
466.951	729.19
467.171	764.19
467.391	755.19
467.61	719.19
467.829	755.19
468.049	724.19
468.268	729.19
468.488	717.19
468.707	705.19
468.927	661.19
469.146	703.19
469.365	708.19
469.585	715.19
469.804	755.19
470.023	777.19
470.243	748.19
470.462	759.19
470.681	773.19
470.901	754.19
471.12	755.19
471.339	719.19
471.558	722.19
471.777	705.19
471.997	706.19
472.216	720.19
472.435	709.19
472.654	683.19
472.873	685.19
473.092	700.19
473.311	692.19
473.53	696.19
473.749	682.19
473.968	680.19
474.187	663.19
474.406	677.19
474.625	716.19
474.844	692.19
475.063	681.19
475.282	702.19
475.501	710.19
475.72	732.19
475.939	707.19
476.158	712.19
476.377	704.19
476.596	752.19
476.814	742.19
477.033	728.19
477.252	763.19
477.471	803.19
477.69	781.19
477.908	793.19
478.127	823.19
478.346	848.19
478.564	849.19
478.783	850.19
479.002	889.19
479.22	880.19
479.439	876.19
479.658	833.19
479.876	835.19
480.095	877.19
480.313	912.19
480.532	933.19
480.751	935.19
480.969	912.19
481.188	880.19
481.406	839.19
481.624	810.19
481.843	812.19
482.061	790.19
482.28	796.19
482.498	806.19
482.717	788.19
482.935	788.19
483.153	797.19
483.372	804.19
483.59	815.19
483.808	781.19
484.027	820.19
484.245	804.19
484.463	811.19
484.681	802.19
484.9	824.19
485.118	847.19
485.336	844.19
485.554	832.19
485.772	865.19
485.99	840.19
486.209	850.19
486.427	834.19
486.645	847.19
486.863	868.19
487.081	828.19
487.299	859.19
487.517	825.19
487.735	831.19
487.953	816.19
488.171	842.19
488.389	815.19
488.607	825.19
488.825	849.19
489.043	832.19
489.261	843.19
489.479	847.19
489.696	840.19
489.914	809.19
490.132	832.19
490.35	836.19
490.568	831.19
490.786	834.19
491.003	834.19
491.221	825.19
491.439	841.19
491.657	852.19
491.874	823.19
492.092	850.19
492.31	829.19
492.527	863.19
492.745	835.19
492.963	820.19
493.18	850.19
493.398	887.19
493.615	879.19
493.833	865.19
494.05	867.19
494.268	869.19
494.485	857.19
494.703	875.19
494.92	891.19
495.138	874.19
495.355	862.19
495.573	875.19
495.79	863.19
496.008	893.19
496.225	911.19
496.442	892.19
496.66	908.19
496.877	910.19
497.094	934.19
497.312	929.19
497.529	948.19
497.746	967.19
497.963	991.19
498.181	1062.19
498.398	1099.19
498.615	1146.19
498.832	1269.19
499.049	1379.19
499.267	1462.19
499.484	1618.19
499.701	1768.19
499.918	1969.19
500.135	2235.19
500.352	2578.19
500.569	2735.19
500.786	2649.19
501.003	2454.19
