Data from Ni(NO3)2@0.0625M.TitratingCurve.Agarose3%dH2O.NegLispCup.LampEnergy10.LIBS07252019_HRD10591_18-15-09-569.txt Node
Date: Thu Jul 25 18:15:09 EDT 2019
User: cochatt
Spectrometer: HR+D1059
Trigger mode: 1
Integration Time (sec): 1.000000E-1
Scans to average: 1
Electric dark correction enabled: true
Nonlinearity correction enabled: false
Boxcar width: 0
XAxis mode: Wavelengths
Number of Pixels in Spectrum: 2048
>>>>>Begin Spectral Data<<<<<
223.165	-13.12
223.4	-13.12
223.635	-13.12
223.869	-24.12
224.104	-26.12
224.338	-9.12
224.573	-5.12
224.808	-9.12
225.042	-0.12
225.277	-17.12
225.511	7.88
225.746	5.88
225.98	-2.12
226.215	13.88
226.449	15.88
226.683	10.88
226.918	20.88
227.152	30.88
227.387	43.88
227.621	36.88
227.856	39.88
228.09	46.88
228.324	52.88
228.559	65.88
228.793	61.88
229.027	105.88
229.262	103.88
229.496	95.88
229.73	97.88
229.964	108.88
230.199	118.88
230.433	135.88
230.667	121.88
230.901	121.88
231.136	119.88
231.37	119.88
231.604	126.88
231.838	138.88
232.072	141.88
232.306	134.88
232.541	121.88
232.775	151.88
233.009	132.88
233.243	141.88
233.477	148.88
233.711	130.88
233.945	137.88
234.179	143.88
234.413	134.88
234.647	140.88
234.881	145.88
235.115	129.88
235.349	143.88
235.583	141.88
235.817	127.88
236.051	136.88
236.285	137.88
236.519	141.88
236.753	142.88
236.987	133.88
237.221	143.88
237.455	111.88
237.689	136.88
237.922	129.88
238.156	145.88
238.39	147.88
238.624	142.88
238.858	141.88
239.091	150.88
239.325	151.88
239.559	146.88
239.793	167.88
240.027	158.88
240.26	153.88
240.494	152.88
240.728	158.88
240.961	148.88
241.195	152.88
241.429	155.88
241.662	155.88
241.896	155.88
242.13	162.88
242.363	155.88
242.597	175.88
242.83	164.88
243.064	158.88
243.298	170.88
243.531	168.88
243.765	173.88
243.998	172.88
244.232	173.88
244.465	160.88
244.699	170.88
244.932	167.88
245.166	178.88
245.399	164.88
245.633	188.88
245.866	172.88
246.099	169.88
246.333	190.88
246.566	179.88
246.8	171.88
247.033	189.88
247.266	175.88
247.5	190.88
247.733	190.88
247.966	188.88
248.2	200.88
248.433	197.88
248.666	186.88
248.899	172.88
249.133	183.88
249.366	201.88
249.599	177.88
249.832	179.88
250.066	202.88
250.299	195.88
250.532	204.88
250.765	203.88
250.998	205.88
251.231	207.88
251.465	214.88
251.698	214.88
251.931	211.88
252.164	214.88
252.397	203.88
252.63	201.88
252.863	202.88
253.096	205.88
253.329	212.88
253.562	188.88
253.795	210.88
254.028	213.88
254.261	227.88
254.494	223.88
254.727	219.88
254.96	202.88
255.193	226.88
255.426	230.88
255.659	221.88
255.892	208.88
256.124	212.88
256.357	223.88
256.59	234.88
256.823	203.88
257.056	236.88
257.289	230.88
257.521	215.88
257.754	234.88
257.987	230.88
258.22	235.88
258.452	223.88
258.685	219.88
258.918	236.88
259.151	249.88
259.383	233.88
259.616	245.88
259.849	237.88
260.081	227.88
260.314	238.88
260.547	257.88
260.779	233.88
261.012	251.88
261.244	242.88
261.477	253.88
261.71	257.88
261.942	247.88
262.175	246.88
262.407	259.88
262.64	241.88
262.872	268.88
263.105	259.88
263.337	256.88
263.57	263.88
263.802	270.88
264.035	255.88
264.267	280.88
264.499	248.88
264.732	269.88
264.964	246.88
265.197	266.88
265.429	273.88
265.661	270.88
265.894	271.88
266.126	274.88
266.358	297.88
266.591	265.88
266.823	268.88
267.055	276.88
267.287	269.88
267.52	282.88
267.752	294.88
267.984	279.88
268.216	298.88
268.448	273.88
268.681	273.88
268.913	286.88
269.145	302.88
269.377	285.88
269.609	282.88
269.841	280.88
270.073	285.88
270.306	279.88
270.538	312.88
270.77	277.88
271.002	281.88
271.234	289.88
271.466	298.88
271.698	307.88
271.93	300.88
272.162	299.88
272.394	293.88
272.626	287.88
272.858	310.88
273.09	308.88
273.322	303.88
273.553	299.88
273.785	303.88
274.017	292.88
274.249	301.88
274.481	292.88
274.713	312.88
274.945	309.88
275.176	312.88
275.408	323.88
275.64	323.88
275.872	316.88
276.104	327.88
276.335	299.88
276.567	309.88
276.799	320.88
277.031	306.88
277.262	315.88
277.494	307.88
277.726	329.88
277.957	338.88
278.189	310.88
278.421	327.88
278.652	327.88
278.884	327.88
279.115	337.88
279.347	329.88
279.579	336.88
279.81	314.88
280.042	327.88
280.273	341.88
280.505	335.88
280.736	354.88
280.968	342.88
281.199	339.88
281.431	356.88
281.662	341.88
281.894	358.88
282.125	345.88
282.356	355.88
282.588	354.88
282.819	364.88
283.051	344.88
283.282	338.88
283.513	358.88
283.745	359.88
283.976	364.88
284.207	361.88
284.439	348.88
284.67	358.88
284.901	370.88
285.132	371.88
285.364	332.88
285.595	376.88
285.826	367.88
286.057	381.88
286.288	377.88
286.52	376.88
286.751	374.88
286.982	377.88
287.213	366.88
287.444	378.88
287.675	366.88
287.906	383.88
288.138	389.88
288.369	377.88
288.6	378.88
288.831	385.88
289.062	399.88
289.293	374.88
289.524	387.88
289.755	387.88
289.986	383.88
290.217	371.88
290.448	384.88
290.679	371.88
290.91	410.88
291.141	403.88
291.371	382.88
291.602	398.88
291.833	400.88
292.064	383.88
292.295	417.88
292.526	389.88
292.757	387.88
292.987	395.88
293.218	391.88
293.449	395.88
293.68	427.88
293.91	393.88
294.141	408.88
294.372	388.88
294.603	404.88
294.833	398.88
295.064	391.88
295.295	412.88
295.525	397.88
295.756	397.88
295.987	431.88
296.217	413.88
296.448	411.88
296.679	400.88
296.909	409.88
297.14	422.88
297.37	440.88
297.601	442.88
297.831	420.88
298.062	436.88
298.292	439.88
298.523	435.88
298.753	454.88
298.984	432.88
299.214	443.88
299.445	456.88
299.675	428.88
299.905	454.88
300.136	433.88
300.366	461.88
300.597	458.88
300.827	453.88
301.057	492.88
301.288	470.88
301.518	461.88
301.748	457.88
301.979	454.88
302.209	460.88
302.439	449.88
302.669	469.88
302.9	444.88
303.13	425.88
303.36	456.88
303.59	431.88
303.82	441.88
304.051	465.88
304.281	451.88
304.511	435.88
304.741	459.88
304.971	452.88
305.201	459.88
305.431	466.88
305.661	454.88
305.891	467.88
306.121	457.88
306.352	465.88
306.582	426.88
306.812	439.88
307.042	441.88
307.272	445.88
307.502	445.88
307.731	453.88
307.961	450.88
308.191	439.88
308.421	450.88
308.651	445.88
308.881	439.88
309.111	446.88
309.341	421.88
309.571	461.88
309.8	458.88
310.03	457.88
310.26	450.88
310.49	453.88
310.72	446.88
310.949	428.88
311.179	443.88
311.409	430.88
311.639	443.88
311.868	461.88
312.098	455.88
312.328	481.88
312.557	463.88
312.787	456.88
313.017	469.88
313.246	490.88
313.476	467.88
313.706	476.88
313.935	465.88
314.165	474.88
314.394	465.88
314.624	460.88
314.853	471.88
315.083	475.88
315.312	481.88
315.542	470.88
315.771	454.88
316.001	441.88
316.23	461.88
316.46	471.88
316.689	468.88
316.919	452.88
317.148	460.88
317.377	460.88
317.607	454.88
317.836	446.88
318.065	436.88
318.295	466.88
318.524	475.88
318.753	467.88
318.983	489.88
319.212	465.88
319.441	458.88
319.67	467.88
319.9	464.88
320.129	479.88
320.358	464.88
320.587	441.88
320.816	473.88
321.046	475.88
321.275	456.88
321.504	456.88
321.733	479.88
321.962	488.88
322.191	480.88
322.42	476.88
322.649	469.88
322.878	477.88
323.108	456.88
323.337	451.88
323.566	486.88
323.795	488.88
324.024	464.88
324.253	490.88
324.482	480.88
324.71	487.88
324.939	500.88
325.168	481.88
325.397	492.88
325.626	497.88
325.855	519.88
326.084	508.88
326.313	525.88
326.542	511.88
326.77	514.88
326.999	521.88
327.228	498.88
327.457	514.88
327.686	505.88
327.914	525.88
328.143	542.88
328.372	519.88
328.6	508.88
328.829	512.88
329.058	518.88
329.287	517.88
329.515	518.88
329.744	517.88
329.972	521.88
330.201	543.88
330.43	509.88
330.658	518.88
330.887	519.88
331.115	527.88
331.344	553.88
331.572	550.88
331.801	565.88
332.03	573.88
332.258	576.88
332.486	595.88
332.715	639.88
332.943	663.88
333.172	655.88
333.4	685.88
333.629	704.88
333.857	689.88
334.085	681.88
334.314	665.88
334.542	664.88
334.771	650.88
334.999	649.88
335.227	619.88
335.455	629.88
335.684	639.88
335.912	643.88
336.14	616.88
336.369	600.88
336.597	618.88
336.825	622.88
337.053	642.88
337.281	613.88
337.51	588.88
337.738	583.88
337.966	579.88
338.194	583.88
338.422	574.88
338.65	556.88
338.878	563.88
339.106	567.88
339.334	559.88
339.562	554.88
339.79	544.88
340.018	547.88
340.246	525.88
340.474	537.88
340.702	532.88
340.93	539.88
341.158	531.88
341.386	548.88
341.614	562.88
341.842	555.88
342.07	507.88
342.298	504.88
342.526	541.88
342.754	538.88
342.981	535.88
343.209	554.88
343.437	592.88
343.665	630.88
343.893	644.88
344.12	683.88
344.348	633.88
344.576	612.88
344.804	575.88
345.031	574.88
345.259	549.88
345.487	547.88
345.714	552.88
345.942	544.88
346.17	533.88
346.397	565.88
346.625	531.88
346.853	514.88
347.08	542.88
347.308	537.88
347.535	554.88
347.763	540.88
347.99	532.88
348.218	550.88
348.445	538.88
348.673	558.88
348.9	528.88
349.128	533.88
349.355	536.88
349.583	536.88
349.81	514.88
350.037	529.88
350.265	513.88
350.492	491.88
350.72	509.88
350.947	530.88
351.174	510.88
351.402	509.88
351.629	526.88
351.856	525.88
352.083	510.88
352.311	511.88
352.538	531.88
352.765	516.88
352.992	515.88
353.22	501.88
353.447	477.88
353.674	483.88
353.901	506.88
354.128	501.88
354.355	498.88
354.583	502.88
354.81	527.88
355.037	514.88
355.264	516.88
355.491	506.88
355.718	541.88
355.945	503.88
356.172	509.88
356.399	525.88
356.626	537.88
356.853	540.88
357.08	501.88
357.307	527.88
357.534	516.88
357.761	526.88
357.988	537.88
358.215	504.88
358.441	488.88
358.668	518.88
358.895	521.88
359.122	519.88
359.349	504.88
359.576	525.88
359.802	507.88
360.029	503.88
360.256	497.88
360.483	493.88
360.709	503.88
360.936	500.88
361.163	507.88
361.39	501.88
361.616	523.88
361.843	531.88
362.07	533.88
362.296	522.88
362.523	521.88
362.749	489.88
362.976	492.88
363.203	527.88
363.429	502.88
363.656	494.88
363.882	497.88
364.109	490.88
364.335	508.88
364.562	486.88
364.788	511.88
365.015	495.88
365.241	498.88
365.468	501.88
365.694	518.88
365.92	484.88
366.147	488.88
366.373	504.88
366.599	513.88
366.826	494.88
367.052	519.88
367.278	514.88
367.505	507.88
367.731	509.88
367.957	515.88
368.184	525.88
368.41	525.88
368.636	518.88
368.862	509.88
369.089	536.88
369.315	531.88
369.541	539.88
369.767	539.88
369.993	534.88
370.219	539.88
370.445	518.88
370.672	547.88
370.898	534.88
371.124	558.88
371.35	546.88
371.576	557.88
371.802	531.88
372.028	562.88
372.254	549.88
372.48	552.88
372.706	554.88
372.932	592.88
373.158	575.88
373.384	570.88
373.61	577.88
373.835	570.88
374.061	563.88
374.287	546.88
374.513	574.88
374.739	554.88
374.965	614.88
375.191	611.88
375.416	632.88
375.642	596.88
375.868	599.88
376.094	565.88
376.319	578.88
376.545	584.88
376.771	561.88
376.997	574.88
377.222	567.88
377.448	548.88
377.674	548.88
377.899	541.88
378.125	574.88
378.35	541.88
378.576	579.88
378.802	557.88
379.027	546.88
379.253	535.88
379.478	558.88
379.704	558.88
379.929	539.88
380.155	523.88
380.38	547.88
380.606	539.88
380.831	553.88
381.057	556.88
381.282	569.88
381.507	537.88
381.733	556.88
381.958	544.88
382.184	561.88
382.409	570.88
382.634	590.88
382.86	571.88
383.085	586.88
383.31	582.88
383.535	629.88
383.761	626.88
383.986	635.88
384.211	622.88
384.436	656.88
384.662	665.88
384.887	668.88
385.112	654.88
385.337	676.88
385.562	654.88
385.787	668.88
386.013	668.88
386.238	664.88
386.463	676.88
386.688	667.88
386.913	664.88
387.138	663.88
387.363	661.88
387.588	665.88
387.813	660.88
388.038	666.88
388.263	659.88
388.488	656.88
388.713	666.88
388.938	630.88
389.163	646.88
389.387	651.88
389.612	645.88
389.837	652.88
390.062	626.88
390.287	665.88
390.512	652.88
390.736	639.88
390.961	663.88
391.186	683.88
391.411	703.88
391.636	704.88
391.86	724.88
392.085	754.88
392.31	740.88
392.534	731.88
392.759	684.88
392.984	716.88
393.208	687.88
393.433	696.88
393.658	700.88
393.882	705.88
394.107	697.88
394.331	718.88
394.556	692.88
394.78	701.88
395.005	713.88
395.229	707.88
395.454	702.88
395.678	745.88
395.903	742.88
396.127	718.88
396.352	692.88
396.576	681.88
396.801	694.88
397.025	708.88
397.249	721.88
397.474	760.88
397.698	715.88
397.922	760.88
398.147	729.88
398.371	735.88
398.595	774.88
398.82	804.88
399.044	855.88
399.268	966.88
399.492	1147.88
399.717	1245.88
399.941	1233.88
400.165	1080.88
400.389	975.88
400.613	917.88
400.837	853.88
401.062	832.88
401.286	813.88
401.51	807.88
401.734	814.88
401.958	814.88
402.182	846.88
402.406	835.88
402.63	849.88
402.854	883.88
403.078	893.88
403.302	918.88
403.526	919.88
403.75	961.88
403.974	979.88
404.198	973.88
404.422	996.88
404.645	970.88
404.869	937.88
405.093	953.88
405.317	905.88
405.541	918.88
405.765	895.88
405.988	902.88
406.212	934.88
406.436	906.88
406.66	915.88
406.883	929.88
407.107	1011.88
407.331	1060.88
407.555	1098.88
407.778	1076.88
408.002	1068.88
408.226	1017.88
408.449	994.88
408.673	967.88
408.896	959.88
409.12	931.88
409.344	928.88
409.567	954.88
409.791	961.88
410.014	981.88
410.238	932.88
410.461	927.88
410.685	929.88
410.908	917.88
411.132	883.88
411.355	866.88
411.578	872.88
411.802	852.88
412.025	860.88
412.249	873.88
412.472	874.88
412.695	859.88
412.919	827.88
413.142	848.88
413.365	840.88
413.589	841.88
413.812	822.88
414.035	835.88
414.258	819.88
414.482	841.88
414.705	846.88
414.928	843.88
415.151	835.88
415.374	822.88
415.597	807.88
415.821	797.88
416.044	833.88
416.267	786.88
416.49	803.88
416.713	822.88
416.936	823.88
417.159	829.88
417.382	827.88
417.605	808.88
417.828	821.88
418.051	806.88
418.274	820.88
418.497	796.88
418.72	845.88
418.943	851.88
419.166	898.88
419.389	961.88
419.611	919.88
419.834	883.88
420.057	856.88
420.28	846.88
420.503	792.88
420.726	797.88
420.948	799.88
421.171	811.88
421.394	832.88
421.617	829.88
421.839	804.88
422.062	829.88
422.285	801.88
422.507	817.88
422.73	844.88
422.953	862.88
423.175	885.88
423.398	877.88
423.621	879.88
423.843	866.88
424.066	900.88
424.288	878.88
424.511	869.88
424.733	858.88
424.956	867.88
425.178	847.88
425.401	817.88
425.623	827.88
425.846	791.88
426.068	801.88
426.291	793.88
426.513	779.88
426.735	782.88
426.958	768.88
427.18	779.88
427.402	782.88
427.625	741.88
427.847	718.88
428.069	747.88
428.292	742.88
428.514	735.88
428.736	733.88
428.958	716.88
429.181	718.88
429.403	738.88
429.625	753.88
429.847	705.88
430.069	702.88
430.292	697.88
430.514	704.88
430.736	701.88
430.958	746.88
431.18	701.88
431.402	696.88
431.624	703.88
431.846	726.88
432.068	735.88
432.29	769.88
432.512	735.88
432.734	750.88
432.956	751.88
433.178	760.88
433.4	750.88
433.622	729.88
433.844	766.88
434.066	753.88
434.287	789.88
434.509	772.88
434.731	814.88
434.953	862.88
435.175	865.88
435.397	864.88
435.618	820.88
435.84	801.88
436.062	749.88
436.284	732.88
436.505	758.88
436.727	734.88
436.949	748.88
437.17	753.88
437.392	726.88
437.614	733.88
437.835	719.88
438.057	709.88
438.278	727.88
438.5	696.88
438.721	710.88
438.943	734.88
439.165	733.88
439.386	732.88
439.608	745.88
439.829	726.88
440.05	731.88
440.272	747.88
440.493	734.88
440.715	781.88
440.936	780.88
441.158	780.88
441.379	780.88
441.6	828.88
441.822	854.88
442.043	839.88
442.264	850.88
442.486	802.88
442.707	830.88
442.928	812.88
443.149	858.88
443.371	844.88
443.592	829.88
443.813	851.88
444.034	847.88
444.255	875.88
444.476	910.88
444.698	948.88
444.919	1025.88
445.14	1074.88
445.361	936.88
445.582	846.88
445.803	800.88
446.024	799.88
446.245	775.88
446.466	791.88
446.687	760.88
446.908	767.88
447.129	745.88
447.35	736.88
447.571	726.88
447.792	698.88
448.013	685.88
448.234	691.88
448.455	693.88
448.675	697.88
448.896	705.88
449.117	671.88
449.338	657.88
449.559	678.88
449.779	674.88
450	660.88
450.221	676.88
450.442	682.88
450.662	682.88
450.883	695.88
451.104	718.88
451.324	700.88
451.545	702.88
451.766	708.88
451.986	670.88
452.207	691.88
452.428	699.88
452.648	697.88
452.869	686.88
453.089	665.88
453.31	681.88
453.53	683.88
453.751	660.88
453.971	661.88
454.192	679.88
454.412	681.88
454.633	644.88
454.853	665.88
455.073	637.88
455.294	654.88
455.514	654.88
455.734	649.88
455.955	650.88
456.175	654.88
456.395	643.88
456.616	634.88
456.836	645.88
457.056	633.88
457.276	631.88
457.497	650.88
457.717	650.88
457.937	667.88
458.157	664.88
458.377	661.88
458.598	647.88
458.818	689.88
459.038	729.88
459.258	725.88
459.478	759.88
459.698	784.88
459.918	818.88
460.138	849.88
460.358	901.88
460.578	896.88
460.798	924.88
461.018	917.88
461.238	858.88
461.458	874.88
461.678	862.88
461.898	877.88
462.118	891.88
462.338	930.88
462.558	983.88
462.777	1031.88
462.997	1102.88
463.217	1217.88
463.437	1249.88
463.657	1092.88
463.876	1023.88
464.096	1037.88
464.316	1025.88
464.536	1047.88
464.755	996.88
464.975	940.88
465.195	935.88
465.414	856.88
465.634	801.88
465.854	771.88
466.073	754.88
466.293	737.88
466.512	723.88
466.732	709.88
466.951	689.88
467.171	706.88
467.391	705.88
467.61	721.88
467.829	734.88
468.049	696.88
468.268	716.88
468.488	710.88
468.707	661.88
468.927	668.88
469.146	698.88
469.365	712.88
469.585	691.88
469.804	715.88
470.023	732.88
470.243	742.88
470.462	731.88
470.681	733.88
470.901	761.88
471.12	729.88
471.339	703.88
471.558	678.88
471.777	711.88
471.997	701.88
472.216	693.88
472.435	663.88
472.654	704.88
472.873	673.88
473.092	680.88
473.311	664.88
473.53	661.88
473.749	661.88
473.968	687.88
474.187	642.88
474.406	664.88
474.625	642.88
474.844	695.88
475.063	685.88
475.282	681.88
475.501	685.88
475.72	690.88
475.939	700.88
476.158	722.88
476.377	711.88
476.596	691.88
476.814	731.88
477.033	709.88
477.252	727.88
477.471	741.88
477.69	764.88
477.908	779.88
478.127	763.88
478.346	834.88
478.564	825.88
478.783	809.88
479.002	860.88
479.22	866.88
479.439	857.88
479.658	824.88
479.876	853.88
480.095	879.88
480.313	893.88
480.532	925.88
480.751	915.88
480.969	899.88
481.188	861.88
481.406	834.88
481.624	827.88
481.843	813.88
482.061	787.88
482.28	779.88
482.498	790.88
482.717	790.88
482.935	793.88
483.153	780.88
483.372	814.88
483.59	827.88
483.808	783.88
484.027	781.88
484.245	804.88
484.463	843.88
484.681	838.88
484.9	819.88
485.118	838.88
485.336	811.88
485.554	853.88
485.772	860.88
485.99	855.88
486.209	876.88
486.427	867.88
486.645	851.88
486.863	868.88
487.081	857.88
487.299	877.88
487.517	839.88
487.735	843.88
487.953	868.88
488.171	881.88
488.389	823.88
488.607	817.88
488.825	847.88
489.043	810.88
489.261	828.88
489.479	815.88
489.696	832.88
489.914	835.88
490.132	825.88
490.35	822.88
490.568	826.88
490.786	823.88
491.003	827.88
491.221	850.88
491.439	813.88
491.657	854.88
491.874	842.88
492.092	840.88
492.31	842.88
492.527	821.88
492.745	830.88
492.963	851.88
493.18	843.88
493.398	866.88
493.615	844.88
493.833	853.88
494.05	865.88
494.268	879.88
494.485	862.88
494.703	882.88
494.92	874.88
495.138	877.88
495.355	843.88
495.573	861.88
495.79	874.88
496.008	913.88
496.225	859.88
496.442	890.88
496.66	890.88
496.877	868.88
497.094	911.88
497.312	923.88
497.529	934.88
497.746	949.88
497.963	981.88
498.181	1021.88
498.398	1065.88
498.615	1155.88
498.832	1221.88
499.049	1313.88
499.267	1386.88
499.484	1532.88
499.701	1675.88
499.918	1843.88
500.135	2205.88
500.352	2482.88
500.569	2637.88
500.786	2663.88
501.003	2397.88
