Data from Ni(NO3)2@0.25M.TitratingCurve.Agarose3%dH2O.NegLispCup.LampEnergy10.LIBS07252019_HRD10591_18-03-23-565.txt Node
Date: Thu Jul 25 18:03:23 EDT 2019
User: cochatt
Spectrometer: HR+D1059
Trigger mode: 1
Integration Time (sec): 1.000000E-1
Scans to average: 1
Electric dark correction enabled: true
Nonlinearity correction enabled: false
Boxcar width: 0
XAxis mode: Wavelengths
Number of Pixels in Spectrum: 2048
>>>>>Begin Spectral Data<<<<<
223.165	-11.56
223.4	-11.56
223.635	-11.56
223.869	-24.56
224.104	-24.56
224.338	-22.56
224.573	3.44
224.808	-10.56
225.042	-17.56
225.277	-9.56
225.511	-4.56
225.746	10.44
225.98	3.44
226.215	-2.56
226.449	15.44
226.683	34.44
226.918	38.44
227.152	22.44
227.387	44.44
227.621	45.44
227.856	53.44
228.09	58.44
228.324	33.44
228.559	53.44
228.793	60.44
229.027	98.44
229.262	95.44
229.496	93.44
229.73	91.44
229.964	114.44
230.199	122.44
230.433	111.44
230.667	121.44
230.901	121.44
231.136	128.44
231.37	123.44
231.604	125.44
231.838	141.44
232.072	143.44
232.306	120.44
232.541	146.44
232.775	138.44
233.009	134.44
233.243	144.44
233.477	129.44
233.711	128.44
233.945	135.44
234.179	132.44
234.413	146.44
234.647	131.44
234.881	122.44
235.115	117.44
235.349	126.44
235.583	130.44
235.817	152.44
236.051	135.44
236.285	133.44
236.519	137.44
236.753	126.44
236.987	138.44
237.221	129.44
237.455	157.44
237.689	139.44
237.922	130.44
238.156	135.44
238.39	121.44
238.624	129.44
238.858	135.44
239.091	152.44
239.325	144.44
239.559	156.44
239.793	142.44
240.027	152.44
240.26	143.44
240.494	143.44
240.728	140.44
240.961	145.44
241.195	134.44
241.429	159.44
241.662	137.44
241.896	135.44
242.13	155.44
242.363	165.44
242.597	164.44
242.83	157.44
243.064	179.44
243.298	166.44
243.531	169.44
243.765	141.44
243.998	167.44
244.232	161.44
244.465	166.44
244.699	158.44
244.932	173.44
245.166	190.44
245.399	179.44
245.633	168.44
245.866	168.44
246.099	185.44
246.333	171.44
246.566	170.44
246.8	191.44
247.033	178.44
247.266	175.44
247.5	174.44
247.733	183.44
247.966	188.44
248.2	175.44
248.433	190.44
248.666	198.44
248.899	226.44
249.133	189.44
249.366	204.44
249.599	215.44
249.832	205.44
250.066	200.44
250.299	205.44
250.532	225.44
250.765	241.44
250.998	223.44
251.231	226.44
251.465	215.44
251.698	228.44
251.931	225.44
252.164	225.44
252.397	248.44
252.63	252.44
252.863	267.44
253.096	244.44
253.329	249.44
253.562	264.44
253.795	252.44
254.028	262.44
254.261	281.44
254.494	281.44
254.727	261.44
254.96	286.44
255.193	265.44
255.426	275.44
255.659	259.44
255.892	282.44
256.124	286.44
256.357	289.44
256.59	280.44
256.823	256.44
257.056	295.44
257.289	287.44
257.521	297.44
257.754	300.44
257.987	287.44
258.22	277.44
258.452	303.44
258.685	290.44
258.918	305.44
259.151	290.44
259.383	311.44
259.616	304.44
259.849	292.44
260.081	323.44
260.314	320.44
260.547	320.44
260.779	315.44
261.012	335.44
261.244	331.44
261.477	335.44
261.71	333.44
261.942	330.44
262.175	320.44
262.407	326.44
262.64	325.44
262.872	349.44
263.105	330.44
263.337	345.44
263.57	332.44
263.802	341.44
264.035	352.44
264.267	340.44
264.499	338.44
264.732	336.44
264.964	346.44
265.197	353.44
265.429	339.44
265.661	350.44
265.894	353.44
266.126	370.44
266.358	365.44
266.591	357.44
266.823	372.44
267.055	369.44
267.287	357.44
267.52	375.44
267.752	371.44
267.984	375.44
268.216	364.44
268.448	375.44
268.681	375.44
268.913	370.44
269.145	371.44
269.377	356.44
269.609	363.44
269.841	373.44
270.073	369.44
270.306	367.44
270.538	381.44
270.77	371.44
271.002	407.44
271.234	364.44
271.466	393.44
271.698	373.44
271.93	390.44
272.162	395.44
272.394	376.44
272.626	372.44
272.858	382.44
273.09	402.44
273.322	391.44
273.553	398.44
273.785	399.44
274.017	389.44
274.249	407.44
274.481	396.44
274.713	391.44
274.945	389.44
275.176	413.44
275.408	407.44
275.64	403.44
275.872	380.44
276.104	398.44
276.335	403.44
276.567	398.44
276.799	395.44
277.031	413.44
277.262	389.44
277.494	408.44
277.726	430.44
277.957	414.44
278.189	406.44
278.421	413.44
278.652	412.44
278.884	403.44
279.115	422.44
279.347	425.44
279.579	435.44
279.81	417.44
280.042	419.44
280.273	431.44
280.505	419.44
280.736	409.44
280.968	447.44
281.199	417.44
281.431	430.44
281.662	430.44
281.894	427.44
282.125	443.44
282.356	426.44
282.588	468.44
282.819	430.44
283.051	436.44
283.282	439.44
283.513	439.44
283.745	454.44
283.976	455.44
284.207	429.44
284.439	457.44
284.67	452.44
284.901	407.44
285.132	441.44
285.364	421.44
285.595	450.44
285.826	451.44
286.057	458.44
286.288	456.44
286.52	449.44
286.751	438.44
286.982	438.44
287.213	438.44
287.444	446.44
287.675	454.44
287.906	452.44
288.138	463.44
288.369	447.44
288.6	465.44
288.831	450.44
289.062	450.44
289.293	459.44
289.524	442.44
289.755	450.44
289.986	459.44
290.217	457.44
290.448	452.44
290.679	456.44
290.91	474.44
291.141	461.44
291.371	452.44
291.602	455.44
291.833	485.44
292.064	453.44
292.295	466.44
292.526	466.44
292.757	462.44
292.987	464.44
293.218	467.44
293.449	473.44
293.68	472.44
293.91	475.44
294.141	456.44
294.372	460.44
294.603	465.44
294.833	466.44
295.064	491.44
295.295	468.44
295.525	456.44
295.756	461.44
295.987	455.44
296.217	466.44
296.448	454.44
296.679	476.44
296.909	474.44
297.14	489.44
297.37	464.44
297.601	467.44
297.831	485.44
298.062	482.44
298.292	489.44
298.523	475.44
298.753	490.44
298.984	477.44
299.214	485.44
299.445	480.44
299.675	486.44
299.905	514.44
300.136	493.44
300.366	513.44
300.597	500.44
300.827	513.44
301.057	518.44
301.288	536.44
301.518	516.44
301.748	521.44
301.979	528.44
302.209	511.44
302.439	549.44
302.669	537.44
302.9	505.44
303.13	496.44
303.36	515.44
303.59	505.44
303.82	524.44
304.051	530.44
304.281	552.44
304.511	504.44
304.741	527.44
304.971	530.44
305.201	553.44
305.431	539.44
305.661	525.44
305.891	504.44
306.121	521.44
306.352	530.44
306.582	520.44
306.812	521.44
307.042	519.44
307.272	528.44
307.502	520.44
307.731	534.44
307.961	519.44
308.191	534.44
308.421	522.44
308.651	545.44
308.881	519.44
309.111	523.44
309.341	518.44
309.571	529.44
309.8	540.44
310.03	550.44
310.26	565.44
310.49	554.44
310.72	524.44
310.949	546.44
311.179	554.44
311.409	533.44
311.639	572.44
311.868	553.44
312.098	579.44
312.328	574.44
312.557	561.44
312.787	557.44
313.017	574.44
313.246	577.44
313.476	573.44
313.706	595.44
313.935	611.44
314.165	600.44
314.394	591.44
314.624	585.44
314.853	580.44
315.083	591.44
315.312	591.44
315.542	613.44
315.771	585.44
316.001	602.44
316.23	605.44
316.46	593.44
316.689	610.44
316.919	636.44
317.148	618.44
317.377	621.44
317.607	622.44
317.836	612.44
318.065	625.44
318.295	635.44
318.524	623.44
318.753	629.44
318.983	641.44
319.212	641.44
319.441	652.44
319.67	631.44
319.9	659.44
320.129	638.44
320.358	627.44
320.587	649.44
320.816	627.44
321.046	651.44
321.275	674.44
321.504	670.44
321.733	665.44
321.962	659.44
322.191	674.44
322.42	686.44
322.649	673.44
322.878	720.44
323.108	706.44
323.337	718.44
323.566	720.44
323.795	709.44
324.024	723.44
324.253	716.44
324.482	742.44
324.71	721.44
324.939	735.44
325.168	746.44
325.397	733.44
325.626	764.44
325.855	750.44
326.084	777.44
326.313	775.44
326.542	780.44
326.77	774.44
326.999	799.44
327.228	782.44
327.457	786.44
327.686	794.44
327.914	808.44
328.143	799.44
328.372	783.44
328.6	796.44
328.829	787.44
329.058	821.44
329.287	829.44
329.515	833.44
329.744	829.44
329.972	812.44
330.201	836.44
330.43	847.44
330.658	824.44
330.887	846.44
331.115	858.44
331.344	872.44
331.572	884.44
331.801	857.44
332.03	896.44
332.258	926.44
332.486	940.44
332.715	938.44
332.943	961.44
333.172	971.44
333.4	1012.44
333.629	1031.44
333.857	1033.44
334.085	1046.44
334.314	1018.44
334.542	1037.44
334.771	1074.44
334.999	1029.44
335.227	1026.44
335.455	1022.44
335.684	1015.44
335.912	1046.44
336.14	994.44
336.369	980.44
336.597	1010.44
336.825	1007.44
337.053	978.44
337.281	978.44
337.51	970.44
337.738	984.44
337.966	940.44
338.194	967.44
338.422	956.44
338.65	934.44
338.878	935.44
339.106	920.44
339.334	923.44
339.562	923.44
339.79	916.44
340.018	896.44
340.246	917.44
340.474	909.44
340.702	921.44
340.93	931.44
341.158	936.44
341.386	948.44
341.614	923.44
341.842	927.44
342.07	899.44
342.298	928.44
342.526	911.44
342.754	903.44
342.981	914.44
343.209	926.44
343.437	952.44
343.665	998.44
343.893	1038.44
344.12	1061.44
344.348	1057.44
344.576	1027.44
344.804	1024.44
345.031	997.44
345.259	947.44
345.487	921.44
345.714	941.44
345.942	921.44
346.17	925.44
346.397	916.44
346.625	908.44
346.853	881.44
347.08	888.44
347.308	891.44
347.535	873.44
347.763	885.44
347.99	860.44
348.218	897.44
348.445	884.44
348.673	877.44
348.9	869.44
349.128	885.44
349.355	883.44
349.583	871.44
349.81	886.44
350.037	859.44
350.265	873.44
350.492	883.44
350.72	893.44
350.947	876.44
351.174	877.44
351.402	869.44
351.629	882.44
351.856	846.44
352.083	889.44
352.311	868.44
352.538	865.44
352.765	852.44
352.992	858.44
353.22	848.44
353.447	845.44
353.674	859.44
353.901	845.44
354.128	847.44
354.355	855.44
354.583	845.44
354.81	837.44
355.037	837.44
355.264	843.44
355.491	872.44
355.718	850.44
355.945	849.44
356.172	852.44
356.399	851.44
356.626	838.44
356.853	889.44
357.08	859.44
357.307	847.44
357.534	836.44
357.761	855.44
357.988	856.44
358.215	837.44
358.441	848.44
358.668	839.44
358.895	842.44
359.122	844.44
359.349	833.44
359.576	836.44
359.802	815.44
360.029	823.44
360.256	843.44
360.483	846.44
360.709	833.44
360.936	842.44
361.163	868.44
361.39	846.44
361.616	833.44
361.843	874.44
362.07	862.44
362.296	841.44
362.523	804.44
362.749	845.44
362.976	843.44
363.203	855.44
363.429	828.44
363.656	848.44
363.882	853.44
364.109	817.44
364.335	839.44
364.562	846.44
364.788	844.44
365.015	828.44
365.241	801.44
365.468	862.44
365.694	852.44
365.92	830.44
366.147	821.44
366.373	834.44
366.599	840.44
366.826	819.44
367.052	855.44
367.278	839.44
367.505	846.44
367.731	837.44
367.957	802.44
368.184	817.44
368.41	843.44
368.636	871.44
368.862	847.44
369.089	840.44
369.315	867.44
369.541	851.44
369.767	831.44
369.993	842.44
370.219	849.44
370.445	846.44
370.672	843.44
370.898	849.44
371.124	851.44
371.35	860.44
371.576	868.44
371.802	886.44
372.028	856.44
372.254	866.44
372.48	871.44
372.706	908.44
372.932	893.44
373.158	867.44
373.384	883.44
373.61	889.44
373.835	873.44
374.061	866.44
374.287	866.44
374.513	866.44
374.739	887.44
374.965	919.44
375.191	909.44
375.416	924.44
375.642	885.44
375.868	885.44
376.094	882.44
376.319	854.44
376.545	882.44
376.771	878.44
376.997	841.44
377.222	833.44
377.448	851.44
377.674	862.44
377.899	853.44
378.125	842.44
378.35	841.44
378.576	837.44
378.802	843.44
379.027	831.44
379.253	856.44
379.478	838.44
379.704	815.44
379.929	826.44
380.155	811.44
380.38	814.44
380.606	833.44
380.831	820.44
381.057	812.44
381.282	843.44
381.507	841.44
381.733	829.44
381.958	845.44
382.184	837.44
382.409	828.44
382.634	851.44
382.86	836.44
383.085	855.44
383.31	877.44
383.535	891.44
383.761	874.44
383.986	903.44
384.211	883.44
384.436	900.44
384.662	910.44
384.887	926.44
385.112	975.44
385.337	963.44
385.562	948.44
385.787	952.44
386.013	946.44
386.238	927.44
386.463	948.44
386.688	961.44
386.913	964.44
387.138	954.44
387.363	943.44
387.588	960.44
387.813	975.44
388.038	966.44
388.263	966.44
388.488	946.44
388.713	964.44
388.938	963.44
389.163	953.44
389.387	965.44
389.612	938.44
389.837	951.44
390.062	939.44
390.287	941.44
390.512	949.44
390.736	964.44
390.961	981.44
391.186	988.44
391.411	1013.44
391.636	1039.44
391.86	1048.44
392.085	1043.44
392.31	1057.44
392.534	1039.44
392.759	1004.44
392.984	991.44
393.208	1018.44
393.433	993.44
393.658	983.44
393.882	996.44
394.107	988.44
394.331	987.44
394.556	1003.44
394.78	998.44
395.005	1033.44
395.229	1036.44
395.454	1040.44
395.678	1057.44
395.903	1037.44
396.127	1039.44
396.352	1033.44
396.576	1027.44
396.801	1000.44
397.025	1065.44
397.249	1039.44
397.474	1075.44
397.698	1075.44
397.922	1091.44
398.147	1100.44
398.371	1103.44
398.595	1122.44
398.82	1224.44
399.044	1242.44
399.268	1349.44
399.492	1490.44
399.717	1531.44
399.941	1565.44
400.165	1493.44
400.389	1364.44
400.613	1310.44
400.837	1274.44
401.062	1202.44
401.286	1234.44
401.51	1217.44
401.734	1229.44
401.958	1208.44
402.182	1218.44
402.406	1223.44
402.63	1235.44
402.854	1197.44
403.078	1235.44
403.302	1283.44
403.526	1258.44
403.75	1270.44
403.974	1284.44
404.198	1238.44
404.422	1315.44
404.645	1318.44
404.869	1279.44
405.093	1310.44
405.317	1294.44
405.541	1294.44
405.765	1243.44
405.988	1266.44
406.212	1293.44
406.436	1310.44
406.66	1336.44
406.883	1311.44
407.107	1370.44
407.331	1416.44
407.555	1464.44
407.778	1444.44
408.002	1421.44
408.226	1387.44
408.449	1380.44
408.673	1355.44
408.896	1306.44
409.12	1307.44
409.344	1315.44
409.567	1339.44
409.791	1335.44
410.014	1321.44
410.238	1292.44
410.461	1314.44
410.685	1269.44
410.908	1289.44
411.132	1269.44
411.355	1254.44
411.578	1259.44
411.802	1261.44
412.025	1257.44
412.249	1300.44
412.472	1259.44
412.695	1226.44
412.919	1235.44
413.142	1226.44
413.365	1243.44
413.589	1237.44
413.812	1234.44
414.035	1215.44
414.258	1203.44
414.482	1241.44
414.705	1212.44
414.928	1219.44
415.151	1223.44
415.374	1217.44
415.597	1256.44
415.821	1195.44
416.044	1202.44
416.267	1186.44
416.49	1201.44
416.713	1215.44
416.936	1204.44
417.159	1219.44
417.382	1187.44
417.605	1202.44
417.828	1193.44
418.051	1215.44
418.274	1224.44
418.497	1215.44
418.72	1237.44
418.943	1246.44
419.166	1324.44
419.389	1373.44
419.611	1349.44
419.834	1299.44
420.057	1287.44
420.28	1249.44
420.503	1218.44
420.726	1254.44
420.948	1217.44
421.171	1256.44
421.394	1288.44
421.617	1212.44
421.839	1260.44
422.062	1229.44
422.285	1227.44
422.507	1251.44
422.73	1238.44
422.953	1223.44
423.175	1305.44
423.398	1284.44
423.621	1268.44
423.843	1271.44
424.066	1295.44
424.288	1263.44
424.511	1266.44
424.733	1253.44
424.956	1283.44
425.178	1231.44
425.401	1218.44
425.623	1262.44
425.846	1202.44
426.068	1234.44
426.291	1203.44
426.513	1237.44
426.735	1198.44
426.958	1188.44
427.18	1153.44
427.402	1177.44
427.625	1193.44
427.847	1174.44
428.069	1173.44
428.292	1170.44
428.514	1126.44
428.736	1132.44
428.958	1183.44
429.181	1149.44
429.403	1149.44
429.625	1165.44
429.847	1148.44
430.069	1149.44
430.292	1166.44
430.514	1155.44
430.736	1152.44
430.958	1160.44
431.18	1116.44
431.402	1137.44
431.624	1168.44
431.846	1171.44
432.068	1161.44
432.29	1165.44
432.512	1149.44
432.734	1165.44
432.956	1170.44
433.178	1162.44
433.4	1181.44
433.622	1179.44
433.844	1193.44
434.066	1173.44
434.287	1184.44
434.509	1211.44
434.731	1243.44
434.953	1245.44
435.175	1254.44
435.397	1256.44
435.618	1239.44
435.84	1213.44
436.062	1166.44
436.284	1217.44
436.505	1166.44
436.727	1180.44
436.949	1198.44
437.17	1169.44
437.392	1188.44
437.614	1147.44
437.835	1113.44
438.057	1151.44
438.278	1125.44
438.5	1137.44
438.721	1141.44
438.943	1150.44
439.165	1149.44
439.386	1164.44
439.608	1161.44
439.829	1176.44
440.05	1162.44
440.272	1179.44
440.493	1203.44
440.715	1202.44
440.936	1237.44
441.158	1223.44
441.379	1252.44
441.6	1287.44
441.822	1315.44
442.043	1307.44
442.264	1256.44
442.486	1251.44
442.707	1258.44
442.928	1277.44
443.149	1297.44
443.371	1295.44
443.592	1295.44
443.813	1284.44
444.034	1295.44
444.255	1317.44
444.476	1341.44
444.698	1394.44
444.919	1433.44
445.14	1462.44
445.361	1382.44
445.582	1349.44
445.803	1251.44
446.024	1235.44
446.245	1224.44
446.466	1243.44
446.687	1178.44
446.908	1188.44
447.129	1207.44
447.35	1185.44
447.571	1142.44
447.792	1106.44
448.013	1100.44
448.234	1109.44
448.455	1105.44
448.675	1102.44
448.896	1090.44
449.117	1080.44
449.338	1066.44
449.559	1107.44
449.779	1061.44
450	1099.44
450.221	1087.44
450.442	1090.44
450.662	1095.44
450.883	1093.44
451.104	1110.44
451.324	1104.44
451.545	1109.44
451.766	1077.44
451.986	1032.44
452.207	1087.44
452.428	1088.44
452.648	1049.44
452.869	1046.44
453.089	1033.44
453.31	1058.44
453.53	1054.44
453.751	1036.44
453.971	1061.44
454.192	1042.44
454.412	1013.44
454.633	1021.44
454.853	1042.44
455.073	1032.44
455.294	1059.44
455.514	998.44
455.734	1003.44
455.955	1007.44
456.175	1007.44
456.395	1004.44
456.616	1013.44
456.836	1019.44
457.056	987.44
457.276	986.44
457.497	1016.44
457.717	1015.44
457.937	1027.44
458.157	1053.44
458.377	1078.44
458.598	1110.44
458.818	1083.44
459.038	1119.44
459.258	1134.44
459.478	1169.44
459.698	1187.44
459.918	1233.44
460.138	1255.44
460.358	1259.44
460.578	1303.44
460.798	1309.44
461.018	1305.44
461.238	1319.44
461.458	1338.44
461.678	1330.44
461.898	1355.44
462.118	1371.44
462.338	1428.44
462.558	1429.44
462.777	1498.44
462.997	1555.44
463.217	1626.44
463.437	1613.44
463.657	1548.44
463.876	1514.44
464.096	1515.44
464.316	1470.44
464.536	1490.44
464.755	1473.44
464.975	1404.44
465.195	1361.44
465.414	1316.44
465.634	1265.44
465.854	1229.44
466.073	1183.44
466.293	1173.44
466.512	1157.44
466.732	1142.44
466.951	1178.44
467.171	1174.44
467.391	1113.44
467.61	1112.44
467.829	1131.44
468.049	1122.44
468.268	1126.44
468.488	1091.44
468.707	1110.44
468.927	1134.44
469.146	1100.44
469.365	1145.44
469.585	1128.44
469.804	1135.44
470.023	1174.44
470.243	1171.44
470.462	1166.44
470.681	1192.44
470.901	1165.44
471.12	1143.44
471.339	1185.44
471.558	1134.44
471.777	1146.44
471.997	1143.44
472.216	1142.44
472.435	1117.44
472.654	1078.44
472.873	1071.44
473.092	1081.44
473.311	1105.44
473.53	1126.44
473.749	1101.44
473.968	1109.44
474.187	1100.44
474.406	1097.44
474.625	1077.44
474.844	1117.44
475.063	1156.44
475.282	1133.44
475.501	1149.44
475.72	1137.44
475.939	1127.44
476.158	1145.44
476.377	1145.44
476.596	1178.44
476.814	1179.44
477.033	1151.44
477.252	1154.44
477.471	1208.44
477.69	1245.44
477.908	1256.44
478.127	1242.44
478.346	1285.44
478.564	1313.44
478.783	1319.44
479.002	1377.44
479.22	1360.44
479.439	1361.44
479.658	1364.44
479.876	1314.44
480.095	1343.44
480.313	1383.44
480.532	1389.44
480.751	1382.44
480.969	1338.44
481.188	1343.44
481.406	1329.44
481.624	1312.44
481.843	1300.44
482.061	1292.44
482.28	1301.44
482.498	1252.44
482.717	1251.44
482.935	1247.44
483.153	1284.44
483.372	1331.44
483.59	1279.44
483.808	1297.44
484.027	1292.44
484.245	1267.44
484.463	1275.44
484.681	1330.44
484.9	1304.44
485.118	1317.44
485.336	1310.44
485.554	1304.44
485.772	1314.44
485.99	1318.44
486.209	1318.44
486.427	1299.44
486.645	1310.44
486.863	1311.44
487.081	1304.44
487.299	1321.44
487.517	1327.44
487.735	1324.44
487.953	1371.44
488.171	1354.44
488.389	1310.44
488.607	1335.44
488.825	1341.44
489.043	1305.44
489.261	1325.44
489.479	1329.44
489.696	1324.44
489.914	1315.44
490.132	1336.44
490.35	1332.44
490.568	1338.44
490.786	1339.44
491.003	1354.44
491.221	1387.44
491.439	1415.44
491.657	1397.44
491.874	1377.44
492.092	1401.44
492.31	1413.44
492.527	1399.44
492.745	1415.44
492.963	1389.44
493.18	1421.44
493.398	1379.44
493.615	1395.44
493.833	1413.44
494.05	1427.44
494.268	1422.44
494.485	1445.44
494.703	1437.44
494.92	1437.44
495.138	1450.44
