Data from Ni(NO3)2Standard.Agarose3%.GreenCap.LampEnergy5.5.E.O_HRD10591_14-42-30-188.txt Node
Date: Mon Jul 22 14:42:30 EDT 2019
User: cochatt
Spectrometer: HR+D1059
Trigger mode: 1
Integration Time (sec): 1.000000E-1
Scans to average: 1
Electric dark correction enabled: true
Nonlinearity correction enabled: false
Boxcar width: 0
XAxis mode: Wavelengths
Number of Pixels in Spectrum: 2048
>>>>>Begin Spectral Data<<<<<
223.165	-25.38
223.4	-25.38
223.635	-25.38
223.869	-19.38
224.104	-32.38
224.338	-25.38
224.573	-11.38
224.808	1.62
225.042	-4.38
225.277	18.62
225.511	-7.38
225.746	2.62
225.98	10.62
226.215	15.62
226.449	14.62
226.683	5.62
226.918	20.62
227.152	35.62
227.387	36.62
227.621	39.62
227.856	44.62
228.09	54.62
228.324	52.62
228.559	47.62
228.793	63.62
229.027	60.62
229.262	60.62
229.496	56.62
229.73	69.62
229.964	75.62
230.199	73.62
230.433	68.62
230.667	68.62
230.901	75.62
231.136	70.62
231.37	83.62
231.604	79.62
231.838	74.62
232.072	78.62
232.306	79.62
232.541	86.62
232.775	79.62
233.009	82.62
233.243	99.62
233.477	83.62
233.711	89.62
233.945	75.62
234.179	74.62
234.413	71.62
234.647	80.62
234.881	72.62
235.115	79.62
235.349	80.62
235.583	73.62
235.817	86.62
236.051	77.62
236.285	78.62
236.519	77.62
236.753	84.62
236.987	80.62
237.221	77.62
237.455	86.62
237.689	83.62
237.922	83.62
238.156	68.62
238.39	79.62
238.624	78.62
238.858	73.62
239.091	73.62
239.325	76.62
239.559	81.62
239.793	68.62
240.027	72.62
240.26	82.62
240.494	77.62
240.728	70.62
240.961	67.62
241.195	67.62
241.429	80.62
241.662	76.62
241.896	70.62
242.13	59.62
242.363	72.62
242.597	62.62
242.83	84.62
243.064	77.62
243.298	70.62
243.531	77.62
243.765	84.62
243.998	90.62
244.232	78.62
244.465	80.62
244.699	80.62
244.932	77.62
245.166	74.62
245.399	80.62
245.633	79.62
245.866	87.62
246.099	68.62
246.333	80.62
246.566	78.62
246.8	73.62
247.033	81.62
247.266	74.62
247.5	78.62
247.733	83.62
247.966	76.62
248.2	78.62
248.433	84.62
248.666	80.62
248.899	68.62
249.133	73.62
249.366	92.62
249.599	71.62
249.832	79.62
250.066	83.62
250.299	80.62
250.532	84.62
250.765	68.62
250.998	76.62
251.231	76.62
251.465	86.62
251.698	80.62
251.931	70.62
252.164	80.62
252.397	82.62
252.63	90.62
252.863	82.62
253.096	75.62
253.329	86.62
253.562	90.62
253.795	84.62
254.028	73.62
254.261	83.62
254.494	80.62
254.727	76.62
254.96	96.62
255.193	90.62
255.426	85.62
255.659	79.62
255.892	75.62
256.124	84.62
256.357	97.62
256.59	76.62
256.823	89.62
257.056	70.62
257.289	74.62
257.521	81.62
257.754	90.62
257.987	80.62
258.22	87.62
258.452	83.62
258.685	75.62
258.918	72.62
259.151	77.62
259.383	85.62
259.616	79.62
259.849	87.62
260.081	88.62
260.314	81.62
260.547	74.62
260.779	81.62
261.012	84.62
261.244	81.62
261.477	68.62
261.71	72.62
261.942	84.62
262.175	84.62
262.407	87.62
262.64	81.62
262.872	85.62
263.105	80.62
263.337	80.62
263.57	83.62
263.802	73.62
264.035	76.62
264.267	79.62
264.499	73.62
264.732	82.62
264.964	76.62
265.197	81.62
265.429	91.62
265.661	89.62
265.894	77.62
266.126	82.62
266.358	77.62
266.591	78.62
266.823	96.62
267.055	74.62
267.287	71.62
267.52	88.62
267.752	80.62
267.984	75.62
268.216	88.62
268.448	87.62
268.681	87.62
268.913	98.62
269.145	72.62
269.377	75.62
269.609	79.62
269.841	93.62
270.073	88.62
270.306	76.62
270.538	84.62
270.77	74.62
271.002	87.62
271.234	66.62
271.466	87.62
271.698	73.62
271.93	85.62
272.162	80.62
272.394	80.62
272.626	88.62
272.858	75.62
273.09	89.62
273.322	79.62
273.553	71.62
273.785	72.62
274.017	77.62
274.249	88.62
274.481	87.62
274.713	84.62
274.945	79.62
275.176	86.62
275.408	86.62
275.64	82.62
275.872	88.62
276.104	72.62
276.335	77.62
276.567	88.62
276.799	95.62
277.031	83.62
277.262	82.62
277.494	85.62
277.726	73.62
277.957	75.62
278.189	82.62
278.421	94.62
278.652	71.62
278.884	91.62
279.115	85.62
279.347	79.62
279.579	69.62
279.81	82.62
280.042	73.62
280.273	73.62
280.505	76.62
280.736	68.62
280.968	81.62
281.199	93.62
281.431	90.62
281.662	99.62
281.894	92.62
282.125	83.62
282.356	79.62
282.588	92.62
282.819	81.62
283.051	98.62
283.282	76.62
283.513	75.62
283.745	76.62
283.976	65.62
284.207	94.62
284.439	91.62
284.67	72.62
284.901	83.62
285.132	82.62
285.364	92.62
285.595	88.62
285.826	94.62
286.057	59.62
286.288	84.62
286.52	91.62
286.751	84.62
286.982	83.62
287.213	82.62
287.444	93.62
287.675	86.62
287.906	90.62
288.138	85.62
288.369	89.62
288.6	84.62
288.831	89.62
289.062	84.62
289.293	69.62
289.524	82.62
289.755	78.62
289.986	90.62
290.217	79.62
290.448	88.62
290.679	90.62
290.91	92.62
291.141	80.62
291.371	92.62
291.602	81.62
291.833	86.62
292.064	84.62
292.295	89.62
292.526	73.62
292.757	95.62
292.987	75.62
293.218	80.62
293.449	84.62
293.68	70.62
293.91	71.62
294.141	90.62
294.372	84.62
294.603	88.62
294.833	90.62
295.064	87.62
295.295	82.62
295.525	89.62
295.756	90.62
295.987	75.62
296.217	70.62
296.448	85.62
296.679	73.62
296.909	95.62
297.14	79.62
297.37	97.62
297.601	96.62
297.831	84.62
298.062	75.62
298.292	80.62
298.523	85.62
298.753	81.62
298.984	80.62
299.214	88.62
299.445	83.62
299.675	76.62
299.905	90.62
300.136	85.62
300.366	79.62
300.597	81.62
300.827	93.62
301.057	82.62
301.288	81.62
301.518	73.62
301.748	98.62
301.979	91.62
302.209	86.62
302.439	85.62
302.669	87.62
302.9	85.62
303.13	93.62
303.36	86.62
303.59	88.62
303.82	80.62
304.051	82.62
304.281	87.62
304.511	105.62
304.741	80.62
304.971	91.62
305.201	83.62
305.431	74.62
305.661	82.62
305.891	104.62
306.121	104.62
306.352	92.62
306.582	84.62
306.812	84.62
307.042	98.62
307.272	94.62
307.502	81.62
307.731	81.62
307.961	81.62
308.191	86.62
308.421	63.62
308.651	89.62
308.881	84.62
309.111	69.62
309.341	91.62
309.571	88.62
309.8	87.62
310.03	89.62
310.26	83.62
310.49	81.62
310.72	74.62
310.949	84.62
311.179	79.62
311.409	86.62
311.639	83.62
311.868	86.62
312.098	76.62
312.328	71.62
312.557	78.62
312.787	69.62
313.017	80.62
313.246	79.62
313.476	84.62
313.706	98.62
313.935	83.62
314.165	72.62
314.394	88.62
314.624	84.62
314.853	88.62
315.083	79.62
315.312	78.62
315.542	83.62
315.771	97.62
316.001	86.62
316.23	90.62
316.46	90.62
316.689	82.62
316.919	90.62
317.148	88.62
317.377	92.62
317.607	84.62
317.836	72.62
318.065	94.62
318.295	100.62
318.524	84.62
318.753	79.62
318.983	95.62
319.212	84.62
319.441	80.62
319.67	82.62
319.9	72.62
320.129	91.62
320.358	92.62
320.587	80.62
320.816	83.62
321.046	75.62
321.275	99.62
321.504	83.62
321.733	77.62
321.962	83.62
322.191	83.62
322.42	97.62
322.649	90.62
322.878	77.62
323.108	84.62
323.337	86.62
323.566	94.62
323.795	85.62
324.024	86.62
324.253	80.62
324.482	85.62
324.71	79.62
324.939	74.62
325.168	93.62
325.397	86.62
325.626	86.62
325.855	76.62
326.084	75.62
326.313	85.62
326.542	91.62
326.77	102.62
326.999	90.62
327.228	76.62
327.457	76.62
327.686	90.62
327.914	76.62
328.143	81.62
328.372	95.62
328.6	90.62
328.829	80.62
329.058	90.62
329.287	81.62
329.515	77.62
329.744	87.62
329.972	91.62
330.201	92.62
330.43	81.62
330.658	78.62
330.887	74.62
331.115	81.62
331.344	79.62
331.572	96.62
331.801	97.62
332.03	78.62
332.258	83.62
332.486	72.62
332.715	89.62
332.943	75.62
333.172	81.62
333.4	84.62
333.629	56.62
333.857	98.62
334.085	72.62
334.314	88.62
334.542	75.62
334.771	77.62
334.999	96.62
335.227	105.62
335.455	92.62
335.684	89.62
335.912	81.62
336.14	73.62
336.369	86.62
336.597	90.62
336.825	71.62
337.053	87.62
337.281	91.62
337.51	82.62
337.738	97.62
337.966	87.62
338.194	86.62
338.422	88.62
338.65	84.62
338.878	91.62
339.106	86.62
339.334	88.62
339.562	81.62
339.79	82.62
340.018	94.62
340.246	100.62
340.474	76.62
340.702	76.62
340.93	90.62
341.158	82.62
341.386	74.62
341.614	74.62
341.842	100.62
342.07	85.62
342.298	80.62
342.526	77.62
342.754	83.62
342.981	72.62
343.209	87.62
343.437	87.62
343.665	87.62
343.893	92.62
344.12	86.62
344.348	97.62
344.576	95.62
344.804	83.62
345.031	74.62
345.259	83.62
345.487	79.62
345.714	76.62
345.942	89.62
346.17	90.62
346.397	82.62
346.625	76.62
346.853	76.62
347.08	75.62
347.308	83.62
347.535	81.62
347.763	90.62
347.99	98.62
348.218	92.62
348.445	80.62
348.673	99.62
348.9	73.62
349.128	102.62
349.355	90.62
349.583	90.62
349.81	90.62
350.037	87.62
350.265	86.62
350.492	91.62
350.72	86.62
350.947	98.62
351.174	94.62
351.402	85.62
351.629	79.62
351.856	82.62
352.083	84.62
352.311	99.62
352.538	84.62
352.765	84.62
352.992	88.62
353.22	74.62
353.447	92.62
353.674	95.62
353.901	88.62
354.128	87.62
354.355	86.62
354.583	80.62
354.81	83.62
355.037	88.62
355.264	86.62
355.491	83.62
355.718	87.62
355.945	89.62
356.172	86.62
356.399	81.62
356.626	91.62
356.853	84.62
357.08	100.62
357.307	91.62
357.534	91.62
357.761	85.62
357.988	91.62
358.215	78.62
358.441	87.62
358.668	94.62
358.895	85.62
359.122	88.62
359.349	79.62
359.576	81.62
359.802	86.62
360.029	77.62
360.256	88.62
360.483	75.62
360.709	85.62
360.936	93.62
361.163	91.62
361.39	79.62
361.616	86.62
361.843	86.62
362.07	88.62
362.296	85.62
362.523	90.62
362.749	84.62
362.976	83.62
363.203	95.62
363.429	78.62
363.656	80.62
363.882	81.62
364.109	93.62
364.335	73.62
364.562	87.62
364.788	75.62
365.015	75.62
365.241	87.62
365.468	87.62
365.694	83.62
365.92	101.62
366.147	96.62
366.373	92.62
366.599	89.62
366.826	89.62
367.052	87.62
367.278	98.62
367.505	88.62
367.731	79.62
367.957	87.62
368.184	80.62
368.41	86.62
368.636	81.62
368.862	102.62
369.089	55.62
369.315	69.62
369.541	76.62
369.767	89.62
369.993	84.62
370.219	76.62
370.445	87.62
370.672	86.62
370.898	77.62
371.124	96.62
371.35	84.62
371.576	91.62
371.802	67.62
372.028	94.62
372.254	86.62
372.48	85.62
372.706	84.62
372.932	88.62
373.158	63.62
373.384	75.62
373.61	76.62
373.835	82.62
374.061	87.62
374.287	90.62
374.513	76.62
374.739	80.62
374.965	83.62
375.191	73.62
375.416	106.62
375.642	92.62
375.868	98.62
376.094	76.62
376.319	92.62
376.545	78.62
376.771	83.62
376.997	87.62
377.222	80.62
377.448	67.62
377.674	84.62
377.899	77.62
378.125	96.62
378.35	85.62
378.576	74.62
378.802	76.62
379.027	70.62
379.253	67.62
379.478	89.62
379.704	66.62
379.929	83.62
380.155	81.62
380.38	94.62
380.606	73.62
380.831	79.62
381.057	98.62
381.282	82.62
381.507	79.62
381.733	90.62
381.958	89.62
382.184	92.62
382.409	90.62
382.634	94.62
382.86	77.62
383.085	91.62
383.31	83.62
383.535	82.62
383.761	91.62
383.986	97.62
384.211	108.62
384.436	75.62
384.662	70.62
384.887	81.62
385.112	87.62
385.337	91.62
385.562	74.62
385.787	78.62
386.013	91.62
386.238	87.62
386.463	66.62
386.688	80.62
386.913	67.62
387.138	92.62
387.363	79.62
387.588	101.62
387.813	83.62
388.038	82.62
388.263	90.62
388.488	80.62
388.713	90.62
388.938	81.62
389.163	88.62
389.387	78.62
389.612	75.62
389.837	82.62
390.062	87.62
390.287	79.62
390.512	91.62
390.736	79.62
390.961	86.62
391.186	92.62
391.411	98.62
391.636	88.62
391.86	73.62
392.085	92.62
392.31	86.62
392.534	91.62
392.759	84.62
392.984	87.62
393.208	73.62
393.433	86.62
393.658	79.62
393.882	81.62
394.107	95.62
394.331	81.62
394.556	105.62
394.78	87.62
395.005	77.62
395.229	94.62
395.454	87.62
395.678	85.62
395.903	83.62
396.127	91.62
396.352	90.62
396.576	97.62
396.801	80.62
397.025	82.62
397.249	91.62
397.474	111.62
397.698	81.62
397.922	84.62
398.147	82.62
398.371	73.62
398.595	87.62
398.82	88.62
399.044	82.62
399.268	100.62
399.492	91.62
399.717	96.62
399.941	84.62
400.165	95.62
400.389	86.62
400.613	82.62
400.837	87.62
401.062	96.62
401.286	95.62
401.51	80.62
401.734	84.62
401.958	74.62
402.182	98.62
402.406	99.62
402.63	83.62
402.854	83.62
403.078	84.62
403.302	85.62
403.526	91.62
403.75	91.62
403.974	89.62
404.198	87.62
404.422	92.62
404.645	68.62
404.869	86.62
405.093	75.62
405.317	82.62
405.541	74.62
405.765	68.62
405.988	85.62
406.212	80.62
406.436	90.62
406.66	91.62
406.883	81.62
407.107	86.62
407.331	95.62
407.555	83.62
407.778	77.62
408.002	74.62
408.226	75.62
408.449	76.62
408.673	75.62
408.896	76.62
409.12	80.62
409.344	95.62
409.567	80.62
409.791	81.62
410.014	89.62
410.238	85.62
410.461	75.62
410.685	75.62
410.908	71.62
411.132	83.62
411.355	82.62
411.578	89.62
411.802	88.62
412.025	88.62
412.249	102.62
412.472	83.62
412.695	75.62
412.919	89.62
413.142	82.62
413.365	76.62
413.589	81.62
413.812	86.62
414.035	88.62
414.258	96.62
414.482	75.62
414.705	86.62
414.928	85.62
415.151	89.62
415.374	86.62
415.597	83.62
415.821	76.62
416.044	93.62
416.267	83.62
416.49	80.62
416.713	88.62
416.936	83.62
417.159	86.62
417.382	91.62
417.605	91.62
417.828	80.62
418.051	89.62
418.274	75.62
418.497	100.62
418.72	84.62
418.943	85.62
419.166	91.62
419.389	99.62
419.611	89.62
419.834	82.62
420.057	82.62
420.28	70.62
420.503	84.62
420.726	80.62
420.948	76.62
421.171	98.62
421.394	75.62
421.617	75.62
421.839	79.62
422.062	78.62
422.285	81.62
422.507	70.62
422.73	81.62
422.953	76.62
423.175	90.62
423.398	89.62
423.621	85.62
423.843	92.62
424.066	68.62
424.288	99.62
424.511	95.62
424.733	77.62
424.956	80.62
425.178	75.62
425.401	80.62
425.623	87.62
425.846	77.62
426.068	88.62
426.291	88.62
426.513	72.62
426.735	80.62
426.958	86.62
427.18	76.62
427.402	91.62
427.625	83.62
427.847	93.62
428.069	83.62
428.292	87.62
428.514	88.62
428.736	97.62
428.958	80.62
429.181	79.62
429.403	92.62
429.625	68.62
429.847	80.62
430.069	79.62
430.292	85.62
430.514	102.62
430.736	84.62
430.958	81.62
431.18	84.62
431.402	86.62
431.624	79.62
431.846	80.62
432.068	88.62
432.29	78.62
432.512	103.62
432.734	87.62
432.956	91.62
433.178	84.62
433.4	93.62
433.622	96.62
433.844	96.62
434.066	85.62
434.287	91.62
434.509	85.62
434.731	88.62
434.953	84.62
435.175	79.62
435.397	90.62
435.618	90.62
435.84	93.62
436.062	73.62
436.284	81.62
436.505	74.62
436.727	83.62
436.949	85.62
437.17	80.62
437.392	77.62
437.614	93.62
437.835	78.62
438.057	81.62
438.278	87.62
438.5	82.62
438.721	92.62
438.943	86.62
439.165	87.62
439.386	80.62
439.608	89.62
439.829	82.62
440.05	82.62
440.272	97.62
440.493	76.62
440.715	82.62
440.936	76.62
441.158	68.62
441.379	85.62
441.6	101.62
441.822	85.62
442.043	86.62
442.264	84.62
442.486	83.62
442.707	80.62
442.928	75.62
443.149	81.62
443.371	76.62
443.592	75.62
443.813	94.62
444.034	103.62
444.255	84.62
444.476	87.62
444.698	81.62
444.919	82.62
445.14	199.62
445.361	142.62
445.582	73.62
445.803	84.62
446.024	88.62
446.245	78.62
446.466	88.62
446.687	77.62
446.908	89.62
447.129	96.62
447.35	86.62
447.571	98.62
447.792	83.62
448.013	96.62
448.234	84.62
448.455	86.62
448.675	89.62
448.896	67.62
449.117	96.62
449.338	86.62
449.559	93.62
449.779	71.62
450	97.62
450.221	70.62
450.442	88.62
450.662	91.62
450.883	76.62
451.104	101.62
451.324	78.62
451.545	87.62
451.766	70.62
451.986	89.62
452.207	84.62
452.428	81.62
452.648	90.62
452.869	75.62
453.089	79.62
453.31	80.62
453.53	83.62
453.751	74.62
453.971	90.62
454.192	83.62
454.412	76.62
454.633	71.62
454.853	79.62
455.073	90.62
455.294	92.62
455.514	92.62
455.734	95.62
455.955	74.62
456.175	89.62
456.395	83.62
456.616	72.62
456.836	73.62
457.056	76.62
457.276	76.62
457.497	89.62
457.717	95.62
457.937	78.62
458.157	82.62
458.377	76.62
458.598	78.62
458.818	86.62
459.038	77.62
459.258	88.62
459.478	79.62
459.698	77.62
459.918	100.62
460.138	90.62
460.358	86.62
460.578	76.62
460.798	89.62
461.018	83.62
461.238	95.62
461.458	89.62
461.678	80.62
461.898	89.62
462.118	76.62
462.338	87.62
462.558	88.62
462.777	87.62
462.997	105.62
463.217	88.62
463.437	79.62
463.657	84.62
463.876	93.62
464.096	86.62
464.316	92.62
464.536	90.62
464.755	89.62
464.975	80.62
465.195	86.62
465.414	87.62
465.634	85.62
465.854	85.62
466.073	90.62
466.293	95.62
466.512	90.62
466.732	84.62
466.951	81.62
467.171	90.62
467.391	79.62
467.61	89.62
467.829	89.62
468.049	78.62
468.268	90.62
468.488	90.62
468.707	84.62
468.927	79.62
469.146	83.62
469.365	84.62
469.585	88.62
469.804	96.62
470.023	84.62
470.243	82.62
470.462	77.62
470.681	83.62
470.901	79.62
471.12	88.62
471.339	96.62
471.558	96.62
471.777	87.62
471.997	80.62
472.216	81.62
472.435	96.62
472.654	90.62
472.873	94.62
473.092	87.62
473.311	84.62
473.53	101.62
473.749	96.62
473.968	69.62
474.187	83.62
474.406	78.62
474.625	86.62
474.844	81.62
475.063	76.62
475.282	90.62
475.501	82.62
475.72	95.62
475.939	76.62
476.158	79.62
476.377	95.62
476.596	82.62
476.814	78.62
477.033	87.62
477.252	82.62
477.471	81.62
477.69	76.62
477.908	84.62
478.127	95.62
478.346	93.62
478.564	89.62
478.783	95.62
479.002	88.62
479.22	88.62
479.439	86.62
479.658	88.62
479.876	86.62
480.095	101.62
480.313	94.62
480.532	92.62
480.751	79.62
480.969	91.62
481.188	74.62
481.406	78.62
481.624	93.62
481.843	78.62
482.061	73.62
482.28	79.62
482.498	92.62
482.717	101.62
482.935	91.62
483.153	96.62
483.372	110.62
483.59	86.62
483.808	81.62
484.027	86.62
484.245	101.62
484.463	83.62
484.681	77.62
484.9	91.62
485.118	77.62
485.336	90.62
485.554	102.62
485.772	91.62
485.99	93.62
486.209	89.62
486.427	99.62
486.645	97.62
486.863	89.62
487.081	90.62
487.299	74.62
487.517	83.62
487.735	84.62
487.953	77.62
488.171	86.62
488.389	98.62
488.607	100.62
488.825	101.62
489.043	79.62
489.261	104.62
489.479	100.62
489.696	75.62
489.914	90.62
490.132	99.62
490.35	106.62
490.568	88.62
490.786	107.62
491.003	96.62
491.221	97.62
491.439	81.62
491.657	96.62
491.874	94.62
492.092	93.62
492.31	97.62
492.527	93.62
492.745	94.62
492.963	82.62
493.18	110.62
493.398	88.62
493.615	90.62
493.833	86.62
494.05	95.62
494.268	81.62
494.485	102.62
494.703	98.62
494.92	97.62
495.138	106.62
495.355	102.62
495.573	110.62
495.79	98.62
496.008	104.62
496.225	91.62
496.442	91.62
496.66	92.62
496.877	106.62
497.094	79.62
497.312	98.62
497.529	96.62
497.746	95.62
497.963	95.62
498.181	91.62
498.398	92.62
498.615	102.62
498.832	79.62
499.049	89.62
499.267	85.62
499.484	97.62
499.701	93.62
499.918	123.62
500.135	112.62
500.352	127.62
500.569	117.62
500.786	110.62
501.003	113.62
501.22	116.62
501.437	115.62
501.654	99.62
501.871	111.62
502.088	97.62
502.305	102.62
502.522	107.62
502.739	99.62
502.956	88.62
503.172	89.62
503.389	76.62
503.606	90.62
503.823	82.62
504.04	101.62
504.256	94.62
504.473	98.62
504.69	86.62
504.907	105.62
505.123	94.62
505.34	102.62
505.557	81.62
505.773	110.62
505.99	91.62
506.207	89.62
506.423	102.62
506.64	87.62
506.856	82.62
507.073	83.62
507.289	96.62
507.506	99.62
507.722	76.62
507.939	106.62
508.155	113.62
508.372	88.62
508.588	102.62
508.805	102.62
509.021	92.62
509.238	88.62
509.454	82.62
509.67	90.62
509.887	96.62
510.103	95.62
510.319	84.62
510.536	99.62
510.752	85.62
510.968	73.62
511.184	81.62
511.401	94.62
511.617	76.62
511.833	80.62
512.049	96.62
512.265	77.62
512.481	69.62
512.698	87.62
512.914	91.62
513.13	91.62
513.346	83.62
513.562	90.62
513.778	98.62
513.994	87.62
514.21	81.62
514.426	82.62
514.642	92.62
514.858	98.62
515.074	88.62
515.29	97.62
515.506	94.62
515.721	83.62
515.937	95.62
516.153	96.62
516.369	91.62
516.585	98.62
516.801	90.62
517.016	92.62
517.232	78.62
517.448	90.62
517.664	95.62
517.879	99.62
518.095	89.62
518.311	96.62
518.527	87.62
