Data from Ni(NO3)2@0.125M.TitratingCurve.Agarose3%dH2O.NegLispCup.LampEnergy10.LIBS07252019_HRD10591_18-08-52-567.txt Node
Date: Thu Jul 25 18:08:52 EDT 2019
User: cochatt
Spectrometer: HR+D1059
Trigger mode: 1
Integration Time (sec): 1.000000E-1
Scans to average: 1
Electric dark correction enabled: true
Nonlinearity correction enabled: false
Boxcar width: 0
XAxis mode: Wavelengths
Number of Pixels in Spectrum: 2048
>>>>>Begin Spectral Data<<<<<
223.165	-21.56
223.4	-21.56
223.635	-21.56
223.869	-24.56
224.104	-1.56
224.338	-18.56
224.573	-16.56
224.808	-16.56
225.042	-9.56
225.277	0.44
225.511	7.44
225.746	2.44
225.98	20.44
226.215	7.44
226.449	20.44
226.683	5.44
226.918	31.44
227.152	13.44
227.387	38.44
227.621	25.44
227.856	47.44
228.09	42.44
228.324	49.44
228.559	60.44
228.793	70.44
229.027	107.44
229.262	114.44
229.496	108.44
229.73	111.44
229.964	125.44
230.199	120.44
230.433	123.44
230.667	124.44
230.901	115.44
231.136	126.44
231.37	131.44
231.604	134.44
231.838	131.44
232.072	136.44
232.306	137.44
232.541	145.44
232.775	137.44
233.009	148.44
233.243	129.44
233.477	128.44
233.711	132.44
233.945	141.44
234.179	134.44
234.413	139.44
234.647	143.44
234.881	135.44
235.115	125.44
235.349	151.44
235.583	150.44
235.817	148.44
236.051	147.44
236.285	143.44
236.519	141.44
236.753	147.44
236.987	130.44
237.221	132.44
237.455	139.44
237.689	159.44
237.922	160.44
238.156	137.44
238.39	150.44
238.624	153.44
238.858	161.44
239.091	150.44
239.325	151.44
239.559	168.44
239.793	149.44
240.027	181.44
240.26	163.44
240.494	164.44
240.728	171.44
240.961	174.44
241.195	163.44
241.429	158.44
241.662	179.44
241.896	170.44
242.13	156.44
242.363	184.44
242.597	182.44
242.83	183.44
243.064	184.44
243.298	173.44
243.531	183.44
243.765	192.44
243.998	209.44
244.232	193.44
244.465	189.44
244.699	179.44
244.932	209.44
245.166	187.44
245.399	200.44
245.633	199.44
245.866	188.44
246.099	194.44
246.333	189.44
246.566	200.44
246.8	214.44
247.033	199.44
247.266	206.44
247.5	198.44
247.733	204.44
247.966	214.44
248.2	218.44
248.433	231.44
248.666	212.44
248.899	242.44
249.133	213.44
249.366	203.44
249.599	229.44
249.832	231.44
250.066	230.44
250.299	219.44
250.532	230.44
250.765	246.44
250.998	222.44
251.231	246.44
251.465	220.44
251.698	240.44
251.931	251.44
252.164	244.44
252.397	235.44
252.63	239.44
252.863	244.44
253.096	235.44
253.329	242.44
253.562	260.44
253.795	240.44
254.028	256.44
254.261	259.44
254.494	256.44
254.727	239.44
254.96	249.44
255.193	256.44
255.426	253.44
255.659	270.44
255.892	267.44
256.124	261.44
256.357	266.44
256.59	285.44
256.823	278.44
257.056	279.44
257.289	268.44
257.521	284.44
257.754	280.44
257.987	259.44
258.22	262.44
258.452	268.44
258.685	277.44
258.918	272.44
259.151	283.44
259.383	301.44
259.616	282.44
259.849	291.44
260.081	299.44
260.314	288.44
260.547	299.44
260.779	290.44
261.012	290.44
261.244	300.44
261.477	297.44
261.71	299.44
261.942	316.44
262.175	291.44
262.407	294.44
262.64	298.44
262.872	295.44
263.105	294.44
263.337	282.44
263.57	332.44
263.802	322.44
264.035	293.44
264.267	308.44
264.499	308.44
264.732	303.44
264.964	318.44
265.197	332.44
265.429	330.44
265.661	316.44
265.894	336.44
266.126	329.44
266.358	327.44
266.591	319.44
266.823	325.44
267.055	310.44
267.287	335.44
267.52	331.44
267.752	331.44
267.984	349.44
268.216	324.44
268.448	342.44
268.681	337.44
268.913	343.44
269.145	344.44
269.377	316.44
269.609	335.44
269.841	343.44
270.073	338.44
270.306	354.44
270.538	331.44
270.77	325.44
271.002	350.44
271.234	354.44
271.466	332.44
271.698	350.44
271.93	348.44
272.162	352.44
272.394	350.44
272.626	360.44
272.858	331.44
273.09	365.44
273.322	352.44
273.553	351.44
273.785	361.44
274.017	370.44
274.249	387.44
274.481	351.44
274.713	366.44
274.945	378.44
275.176	378.44
275.408	360.44
275.64	377.44
275.872	364.44
276.104	382.44
276.335	371.44
276.567	378.44
276.799	379.44
277.031	385.44
277.262	376.44
277.494	372.44
277.726	399.44
277.957	376.44
278.189	382.44
278.421	380.44
278.652	386.44
278.884	396.44
279.115	380.44
279.347	397.44
279.579	398.44
279.81	398.44
280.042	405.44
280.273	414.44
280.505	391.44
280.736	398.44
280.968	395.44
281.199	412.44
281.431	406.44
281.662	411.44
281.894	396.44
282.125	413.44
282.356	407.44
282.588	429.44
282.819	423.44
283.051	420.44
283.282	400.44
283.513	408.44
283.745	416.44
283.976	418.44
284.207	427.44
284.439	425.44
284.67	419.44
284.901	420.44
285.132	439.44
285.364	439.44
285.595	431.44
285.826	431.44
286.057	433.44
286.288	426.44
286.52	435.44
286.751	446.44
286.982	446.44
287.213	453.44
287.444	428.44
287.675	446.44
287.906	442.44
288.138	460.44
288.369	426.44
288.6	444.44
288.831	450.44
289.062	447.44
289.293	461.44
289.524	451.44
289.755	465.44
289.986	456.44
290.217	476.44
290.448	474.44
290.679	457.44
290.91	458.44
291.141	454.44
291.371	459.44
291.602	467.44
291.833	464.44
292.064	464.44
292.295	457.44
292.526	452.44
292.757	467.44
292.987	457.44
293.218	479.44
293.449	452.44
293.68	477.44
293.91	474.44
294.141	456.44
294.372	463.44
294.603	459.44
294.833	456.44
295.064	486.44
295.295	485.44
295.525	473.44
295.756	486.44
295.987	445.44
296.217	471.44
296.448	472.44
296.679	472.44
296.909	467.44
297.14	479.44
297.37	503.44
297.601	518.44
297.831	495.44
298.062	522.44
298.292	500.44
298.523	528.44
298.753	504.44
298.984	494.44
299.214	526.44
299.445	515.44
299.675	504.44
299.905	520.44
300.136	506.44
300.366	511.44
300.597	494.44
300.827	506.44
301.057	535.44
301.288	546.44
301.518	537.44
301.748	548.44
301.979	527.44
302.209	540.44
302.439	533.44
302.669	534.44
302.9	546.44
303.13	534.44
303.36	502.44
303.59	490.44
303.82	524.44
304.051	538.44
304.281	544.44
304.511	547.44
304.741	536.44
304.971	521.44
305.201	500.44
305.431	514.44
305.661	524.44
305.891	494.44
306.121	514.44
306.352	512.44
306.582	516.44
306.812	530.44
307.042	503.44
307.272	496.44
307.502	516.44
307.731	520.44
307.961	508.44
308.191	500.44
308.421	495.44
308.651	496.44
308.881	507.44
309.111	518.44
309.341	492.44
309.571	531.44
309.8	526.44
310.03	522.44
310.26	513.44
310.49	524.44
310.72	533.44
310.949	539.44
311.179	521.44
311.409	527.44
311.639	525.44
311.868	525.44
312.098	513.44
312.328	509.44
312.557	547.44
312.787	546.44
313.017	541.44
313.246	564.44
313.476	570.44
313.706	538.44
313.935	550.44
314.165	566.44
314.394	534.44
314.624	549.44
314.853	552.44
315.083	539.44
315.312	551.44
315.542	562.44
315.771	559.44
316.001	552.44
316.23	551.44
316.46	549.44
316.689	545.44
316.919	550.44
317.148	529.44
317.377	554.44
317.607	538.44
317.836	528.44
318.065	547.44
318.295	564.44
318.524	554.44
318.753	556.44
318.983	534.44
319.212	541.44
319.441	559.44
319.67	515.44
319.9	538.44
320.129	542.44
320.358	541.44
320.587	551.44
320.816	562.44
321.046	539.44
321.275	534.44
321.504	561.44
321.733	558.44
321.962	560.44
322.191	544.44
322.42	565.44
322.649	566.44
322.878	567.44
323.108	560.44
323.337	574.44
323.566	561.44
323.795	563.44
324.024	539.44
324.253	573.44
324.482	574.44
324.71	563.44
324.939	587.44
325.168	591.44
325.397	573.44
325.626	599.44
325.855	588.44
326.084	618.44
326.313	613.44
326.542	636.44
326.77	631.44
326.999	616.44
327.228	580.44
327.457	609.44
327.686	608.44
327.914	598.44
328.143	612.44
328.372	614.44
328.6	603.44
328.829	597.44
329.058	603.44
329.287	619.44
329.515	646.44
329.744	616.44
329.972	610.44
330.201	632.44
330.43	636.44
330.658	630.44
330.887	640.44
331.115	629.44
331.344	651.44
331.572	621.44
331.801	630.44
332.03	654.44
332.258	676.44
332.486	729.44
332.715	741.44
332.943	756.44
333.172	797.44
333.4	840.44
333.629	844.44
333.857	860.44
334.085	791.44
334.314	834.44
334.542	790.44
334.771	786.44
334.999	764.44
335.227	772.44
335.455	759.44
335.684	757.44
335.912	767.44
336.14	744.44
336.369	744.44
336.597	736.44
336.825	754.44
337.053	726.44
337.281	725.44
337.51	728.44
337.738	724.44
337.966	697.44
338.194	678.44
338.422	678.44
338.65	663.44
338.878	685.44
339.106	655.44
339.334	685.44
339.562	665.44
339.79	613.44
340.018	657.44
340.246	642.44
340.474	656.44
340.702	650.44
340.93	648.44
341.158	650.44
341.386	640.44
341.614	651.44
341.842	644.44
342.07	624.44
342.298	640.44
342.526	643.44
342.754	656.44
342.981	650.44
343.209	656.44
343.437	688.44
343.665	720.44
343.893	791.44
344.12	840.44
344.348	758.44
344.576	711.44
344.804	702.44
345.031	681.44
345.259	651.44
345.487	617.44
345.714	646.44
345.942	628.44
346.17	638.44
346.397	674.44
346.625	611.44
346.853	637.44
347.08	622.44
347.308	606.44
347.535	636.44
347.763	645.44
347.99	634.44
348.218	638.44
348.445	643.44
348.673	630.44
348.9	637.44
349.128	630.44
349.355	614.44
349.583	615.44
349.81	612.44
350.037	619.44
350.265	621.44
350.492	596.44
350.72	618.44
350.947	614.44
351.174	585.44
351.402	614.44
351.629	601.44
351.856	602.44
352.083	606.44
352.311	615.44
352.538	581.44
352.765	582.44
352.992	598.44
353.22	589.44
353.447	586.44
353.674	606.44
353.901	594.44
354.128	582.44
354.355	598.44
354.583	599.44
354.81	587.44
355.037	597.44
355.264	587.44
355.491	616.44
355.718	621.44
355.945	604.44
356.172	606.44
356.399	610.44
356.626	627.44
356.853	606.44
357.08	613.44
357.307	599.44
357.534	598.44
357.761	613.44
357.988	619.44
358.215	596.44
358.441	592.44
358.668	595.44
358.895	598.44
359.122	603.44
359.349	611.44
359.576	609.44
359.802	607.44
360.029	607.44
360.256	597.44
360.483	602.44
360.709	591.44
360.936	588.44
361.163	614.44
361.39	593.44
361.616	612.44
361.843	606.44
362.07	598.44
362.296	579.44
362.523	597.44
362.749	614.44
362.976	583.44
363.203	604.44
363.429	578.44
363.656	595.44
363.882	614.44
364.109	578.44
364.335	613.44
364.562	588.44
364.788	584.44
365.015	596.44
365.241	605.44
365.468	580.44
365.694	586.44
365.92	591.44
366.147	581.44
366.373	597.44
366.599	610.44
366.826	602.44
367.052	604.44
367.278	616.44
367.505	575.44
367.731	601.44
367.957	585.44
368.184	615.44
368.41	602.44
368.636	600.44
368.862	602.44
369.089	624.44
369.315	605.44
369.541	643.44
369.767	637.44
369.993	612.44
370.219	602.44
370.445	611.44
370.672	662.44
370.898	614.44
371.124	636.44
371.35	662.44
371.576	652.44
371.802	647.44
372.028	664.44
372.254	644.44
372.48	652.44
372.706	671.44
372.932	668.44
373.158	666.44
373.384	685.44
373.61	647.44
373.835	645.44
374.061	652.44
374.287	659.44
374.513	690.44
374.739	698.44
374.965	698.44
375.191	718.44
375.416	712.44
375.642	710.44
375.868	683.44
376.094	694.44
376.319	646.44
376.545	674.44
376.771	673.44
376.997	656.44
377.222	638.44
377.448	650.44
377.674	659.44
377.899	653.44
378.125	642.44
378.35	647.44
378.576	639.44
378.802	612.44
379.027	629.44
379.253	635.44
379.478	618.44
379.704	642.44
379.929	654.44
380.155	646.44
380.38	615.44
380.606	650.44
380.831	664.44
381.057	667.44
381.282	632.44
381.507	636.44
381.733	664.44
381.958	656.44
382.184	651.44
382.409	674.44
382.634	670.44
382.86	680.44
383.085	688.44
383.31	696.44
383.535	702.44
383.761	709.44
383.986	746.44
384.211	752.44
384.436	749.44
384.662	760.44
384.887	780.44
385.112	766.44
385.337	797.44
385.562	775.44
385.787	765.44
386.013	783.44
386.238	779.44
386.463	768.44
386.688	783.44
386.913	751.44
387.138	784.44
387.363	749.44
387.588	765.44
387.813	751.44
388.038	751.44
388.263	756.44
388.488	774.44
388.713	794.44
388.938	736.44
389.163	725.44
389.387	748.44
389.612	730.44
389.837	740.44
390.062	740.44
390.287	755.44
390.512	731.44
390.736	727.44
390.961	781.44
391.186	799.44
391.411	813.44
391.636	844.44
391.86	849.44
392.085	857.44
392.31	858.44
392.534	847.44
392.759	856.44
392.984	781.44
393.208	810.44
393.433	852.44
393.658	805.44
393.882	823.44
394.107	824.44
394.331	823.44
394.556	807.44
394.78	834.44
395.005	818.44
395.229	826.44
395.454	855.44
395.678	868.44
395.903	872.44
396.127	852.44
396.352	805.44
396.576	784.44
396.801	807.44
397.025	826.44
397.249	818.44
397.474	831.44
397.698	846.44
397.922	872.44
398.147	843.44
398.371	878.44
398.595	890.44
398.82	928.44
399.044	1001.44
399.268	1100.44
399.492	1299.44
399.717	1478.44
399.941	1495.44
400.165	1284.44
400.389	1138.44
400.613	1071.44
400.837	995.44
401.062	991.44
401.286	960.44
401.51	954.44
401.734	962.44
401.958	965.44
402.182	974.44
402.406	990.44
402.63	988.44
402.854	1039.44
403.078	1030.44
403.302	1094.44
403.526	1125.44
403.75	1113.44
403.974	1147.44
404.198	1148.44
404.422	1131.44
404.645	1125.44
404.869	1107.44
405.093	1094.44
405.317	1089.44
405.541	1044.44
405.765	1064.44
405.988	1023.44
406.212	1047.44
406.436	1061.44
406.66	1078.44
406.883	1088.44
407.107	1169.44
407.331	1218.44
407.555	1272.44
407.778	1280.44
408.002	1221.44
408.226	1198.44
408.449	1150.44
408.673	1150.44
408.896	1106.44
409.12	1111.44
409.344	1116.44
409.567	1095.44
409.791	1124.44
410.014	1110.44
410.238	1078.44
410.461	1083.44
410.685	1065.44
410.908	1077.44
411.132	1059.44
411.355	1024.44
411.578	1003.44
411.802	1001.44
412.025	1013.44
412.249	1031.44
412.472	1029.44
412.695	981.44
412.919	946.44
413.142	951.44
413.365	953.44
413.589	976.44
413.812	959.44
414.035	978.44
414.258	965.44
414.482	974.44
414.705	983.44
414.928	1002.44
415.151	968.44
415.374	962.44
415.597	975.44
415.821	942.44
416.044	943.44
416.267	959.44
416.49	943.44
416.713	930.44
416.936	964.44
417.159	959.44
417.382	931.44
417.605	951.44
417.828	952.44
418.051	968.44
418.274	985.44
418.497	1000.44
418.72	982.44
418.943	971.44
419.166	1068.44
419.389	1152.44
419.611	1101.44
419.834	1044.44
420.057	997.44
420.28	969.44
420.503	983.44
420.726	948.44
420.948	960.44
421.171	972.44
421.394	959.44
421.617	988.44
421.839	975.44
422.062	953.44
422.285	970.44
422.507	1020.44
422.73	972.44
422.953	1016.44
423.175	1006.44
423.398	1028.44
423.621	1033.44
423.843	1054.44
424.066	1061.44
424.288	1035.44
424.511	1027.44
424.733	1006.44
424.956	1022.44
425.178	981.44
425.401	952.44
425.623	982.44
425.846	960.44
426.068	930.44
426.291	924.44
426.513	910.44
426.735	904.44
426.958	886.44
427.18	897.44
427.402	882.44
427.625	887.44
427.847	852.44
428.069	871.44
428.292	885.44
428.514	842.44
428.736	848.44
428.958	853.44
429.181	844.44
429.403	845.44
429.625	827.44
429.847	838.44
430.069	840.44
430.292	877.44
430.514	858.44
430.736	832.44
430.958	828.44
431.18	846.44
431.402	856.44
431.624	846.44
431.846	874.44
432.068	859.44
432.29	882.44
432.512	874.44
432.734	891.44
432.956	886.44
433.178	885.44
433.4	848.44
433.622	866.44
433.844	866.44
434.066	883.44
434.287	906.44
434.509	913.44
434.731	973.44
434.953	974.44
435.175	994.44
435.397	975.44
435.618	904.44
435.84	894.44
436.062	869.44
436.284	874.44
436.505	872.44
436.727	893.44
436.949	884.44
437.17	876.44
437.392	854.44
437.614	837.44
437.835	815.44
438.057	842.44
438.278	808.44
438.5	824.44
438.721	823.44
438.943	844.44
439.165	835.44
439.386	866.44
439.608	893.44
439.829	875.44
440.05	851.44
440.272	880.44
440.493	884.44
440.715	859.44
440.936	911.44
441.158	928.44
441.379	953.44
441.6	979.44
441.822	1017.44
442.043	1003.44
442.264	972.44
442.486	962.44
442.707	971.44
442.928	966.44
443.149	978.44
443.371	950.44
443.592	1002.44
443.813	988.44
444.034	1003.44
444.255	1062.44
444.476	1066.44
444.698	1142.44
444.919	1226.44
445.14	1249.44
445.361	1130.44
445.582	992.44
445.803	981.44
446.024	920.44
446.245	934.44
446.466	919.44
446.687	875.44
446.908	883.44
447.129	892.44
447.35	864.44
447.571	837.44
447.792	834.44
448.013	824.44
448.234	819.44
448.455	826.44
448.675	823.44
448.896	818.44
449.117	795.44
449.338	771.44
449.559	824.44
449.779	771.44
450	808.44
450.221	831.44
450.442	819.44
450.662	816.44
450.883	838.44
451.104	844.44
451.324	864.44
451.545	817.44
451.766	831.44
451.986	835.44
452.207	837.44
452.428	789.44
452.648	791.44
452.869	790.44
453.089	787.44
453.31	796.44
453.53	770.44
453.751	764.44
453.971	790.44
454.192	766.44
454.412	752.44
454.633	744.44
454.853	768.44
455.073	759.44
455.294	780.44
455.514	770.44
455.734	766.44
455.955	729.44
456.175	751.44
456.395	768.44
456.616	726.44
456.836	758.44
457.056	747.44
457.276	727.44
457.497	754.44
457.717	729.44
457.937	754.44
458.157	758.44
458.377	751.44
458.598	765.44
458.818	787.44
459.038	822.44
459.258	857.44
459.478	855.44
459.698	911.44
459.918	918.44
460.138	976.44
460.358	1026.44
460.578	1052.44
460.798	1029.44
461.018	1052.44
461.238	1018.44
461.458	1028.44
461.678	1031.44
461.898	1018.44
462.118	1039.44
462.338	1102.44
462.558	1141.44
462.777	1172.44
462.997	1306.44
463.217	1429.44
463.437	1430.44
463.657	1286.44
463.876	1220.44
464.096	1196.44
464.316	1198.44
464.536	1245.44
464.755	1194.44
464.975	1116.44
465.195	1071.44
465.414	1000.44
465.634	920.44
465.854	919.44
466.073	891.44
466.293	841.44
466.512	875.44
466.732	840.44
466.951	864.44
467.171	826.44
467.391	835.44
467.61	822.44
467.829	824.44
468.049	825.44
468.268	821.44
468.488	791.44
468.707	794.44
468.927	804.44
469.146	819.44
469.365	799.44
469.585	796.44
469.804	820.44
470.023	840.44
470.243	858.44
470.462	871.44
470.681	871.44
470.901	889.44
471.12	889.44
471.339	822.44
471.558	820.44
471.777	821.44
471.997	793.44
472.216	793.44
472.435	804.44
472.654	782.44
472.873	779.44
473.092	796.44
473.311	779.44
473.53	760.44
473.749	782.44
473.968	771.44
474.187	794.44
474.406	775.44
474.625	785.44
474.844	803.44
475.063	780.44
475.282	776.44
475.501	794.44
475.72	796.44
475.939	791.44
476.158	818.44
476.377	796.44
476.596	816.44
476.814	814.44
477.033	811.44
477.252	828.44
477.471	860.44
477.69	869.44
477.908	898.44
478.127	926.44
478.346	949.44
478.564	948.44
478.783	940.44
479.002	981.44
479.22	1000.44
479.439	974.44
479.658	986.44
479.876	980.44
480.095	970.44
480.313	1016.44
480.532	1068.44
480.751	1035.44
480.969	997.44
481.188	962.44
481.406	926.44
481.624	894.44
481.843	903.44
482.061	892.44
482.28	894.44
482.498	861.44
482.717	855.44
482.935	895.44
483.153	904.44
483.372	860.44
483.59	904.44
483.808	872.44
484.027	865.44
484.245	874.44
484.463	923.44
484.681	913.44
484.9	911.44
485.118	929.44
485.336	918.44
485.554	924.44
485.772	948.44
485.99	958.44
486.209	972.44
486.427	954.44
486.645	917.44
486.863	960.44
487.081	956.44
487.299	934.44
487.517	950.44
487.735	913.44
487.953	970.44
488.171	950.44
488.389	916.44
488.607	913.44
488.825	930.44
489.043	900.44
489.261	903.44
489.479	922.44
489.696	930.44
489.914	956.44
490.132	912.44
490.35	941.44
490.568	916.44
490.786	934.44
491.003	958.44
491.221	940.44
491.439	971.44
491.657	974.44
491.874	940.44
492.092	971.44
492.31	962.44
492.527	963.44
492.745	945.44
492.963	950.44
493.18	964.44
493.398	1003.44
493.615	1006.44
493.833	978.44
494.05	982.44
494.268	1005.44
494.485	965.44
494.703	996.44
494.92	986.44
495.138	986.44
495.355	1010.44
495.573	984.44
495.79	999.44
496.008	1012.44
496.225	1038.44
496.442	1016.44
496.66	1015.44
496.877	1014.44
497.094	1021.44
497.312	1067.44
497.529	1120.44
497.746	1148.44
497.963	1147.44
498.181	1190.44
498.398	1214.44
498.615	1315.44
498.832	1382.44
499.049	1525.44
499.267	1620.44
499.484	1796.44
499.701	1992.44
499.918	2184.44
