Data from Ni(NO3)2@0.0625M.TitratingCurve.Agarose3%dH2O.NegLispCup.LampEnergy10.LIBS07252019_HRD10591_18-15-19-570.txt Node
Date: Thu Jul 25 18:15:19 EDT 2019
User: cochatt
Spectrometer: HR+D1059
Trigger mode: 1
Integration Time (sec): 1.000000E-1
Scans to average: 1
Electric dark correction enabled: true
Nonlinearity correction enabled: false
Boxcar width: 0
XAxis mode: Wavelengths
Number of Pixels in Spectrum: 2048
>>>>>Begin Spectral Data<<<<<
223.165	-10.5
223.4	-10.5
223.635	-10.5
223.869	-27.5
224.104	-9.5
224.338	-12.5
224.573	-6.5
224.808	-21.5
225.042	-11.5
225.277	-4.5
225.511	5.5
225.746	-9.5
225.98	3.5
226.215	21.5
226.449	23.5
226.683	13.5
226.918	13.5
227.152	32.5
227.387	40.5
227.621	44.5
227.856	53.5
228.09	46.5
228.324	45.5
228.559	52.5
228.793	66.5
229.027	112.5
229.262	113.5
229.496	108.5
229.73	121.5
229.964	117.5
230.199	113.5
230.433	120.5
230.667	137.5
230.901	124.5
231.136	131.5
231.37	124.5
231.604	129.5
231.838	132.5
232.072	116.5
232.306	136.5
232.541	142.5
232.775	135.5
233.009	131.5
233.243	146.5
233.477	140.5
233.711	141.5
233.945	149.5
234.179	135.5
234.413	130.5
234.647	132.5
234.881	134.5
235.115	135.5
235.349	136.5
235.583	138.5
235.817	120.5
236.051	131.5
236.285	132.5
236.519	139.5
236.753	145.5
236.987	135.5
237.221	145.5
237.455	137.5
237.689	139.5
237.922	131.5
238.156	152.5
238.39	136.5
238.624	151.5
238.858	131.5
239.091	151.5
239.325	152.5
239.559	157.5
239.793	159.5
240.027	164.5
240.26	148.5
240.494	151.5
240.728	155.5
240.961	171.5
241.195	154.5
241.429	159.5
241.662	165.5
241.896	176.5
242.13	172.5
242.363	168.5
242.597	179.5
242.83	170.5
243.064	191.5
243.298	166.5
243.531	172.5
243.765	164.5
243.998	181.5
244.232	170.5
244.465	180.5
244.699	185.5
244.932	199.5
245.166	190.5
245.399	195.5
245.633	191.5
245.866	201.5
246.099	184.5
246.333	184.5
246.566	185.5
246.8	210.5
247.033	203.5
247.266	199.5
247.5	194.5
247.733	199.5
247.966	213.5
248.2	191.5
248.433	214.5
248.666	224.5
248.899	201.5
249.133	207.5
249.366	222.5
249.599	211.5
249.832	198.5
250.066	218.5
250.299	226.5
250.532	224.5
250.765	216.5
250.998	214.5
251.231	234.5
251.465	226.5
251.698	220.5
251.931	226.5
252.164	224.5
252.397	235.5
252.63	240.5
252.863	233.5
253.096	234.5
253.329	243.5
253.562	233.5
253.795	243.5
254.028	240.5
254.261	229.5
254.494	255.5
254.727	234.5
254.96	226.5
255.193	223.5
255.426	243.5
255.659	236.5
255.892	256.5
256.124	234.5
256.357	261.5
256.59	261.5
256.823	257.5
257.056	247.5
257.289	271.5
257.521	270.5
257.754	264.5
257.987	241.5
258.22	269.5
258.452	277.5
258.685	254.5
258.918	259.5
259.151	273.5
259.383	254.5
259.616	261.5
259.849	269.5
260.081	267.5
260.314	269.5
260.547	281.5
260.779	262.5
261.012	274.5
261.244	264.5
261.477	285.5
261.71	265.5
261.942	295.5
262.175	295.5
262.407	288.5
262.64	267.5
262.872	281.5
263.105	260.5
263.337	288.5
263.57	275.5
263.802	281.5
264.035	292.5
264.267	272.5
264.499	294.5
264.732	290.5
264.964	293.5
265.197	287.5
265.429	285.5
265.661	295.5
265.894	294.5
266.126	320.5
266.358	304.5
266.591	305.5
266.823	315.5
267.055	307.5
267.287	313.5
267.52	309.5
267.752	309.5
267.984	297.5
268.216	316.5
268.448	315.5
268.681	306.5
268.913	327.5
269.145	302.5
269.377	325.5
269.609	327.5
269.841	316.5
270.073	311.5
270.306	324.5
270.538	297.5
270.77	314.5
271.002	318.5
271.234	322.5
271.466	310.5
271.698	344.5
271.93	338.5
272.162	324.5
272.394	314.5
272.626	324.5
272.858	319.5
273.09	345.5
273.322	326.5
273.553	338.5
273.785	325.5
274.017	326.5
274.249	345.5
274.481	344.5
274.713	372.5
274.945	339.5
275.176	351.5
275.408	341.5
275.64	341.5
275.872	335.5
276.104	355.5
276.335	371.5
276.567	362.5
276.799	357.5
277.031	365.5
277.262	352.5
277.494	360.5
277.726	371.5
277.957	351.5
278.189	370.5
278.421	330.5
278.652	363.5
278.884	360.5
279.115	354.5
279.347	379.5
279.579	364.5
279.81	358.5
280.042	355.5
280.273	367.5
280.505	386.5
280.736	371.5
280.968	379.5
281.199	384.5
281.431	371.5
281.662	369.5
281.894	377.5
282.125	362.5
282.356	397.5
282.588	391.5
282.819	394.5
283.051	403.5
283.282	392.5
283.513	407.5
283.745	406.5
283.976	404.5
284.207	421.5
284.439	402.5
284.67	391.5
284.901	400.5
285.132	403.5
285.364	413.5
285.595	401.5
285.826	398.5
286.057	401.5
286.288	421.5
286.52	407.5
286.751	403.5
286.982	420.5
287.213	425.5
287.444	407.5
287.675	418.5
287.906	407.5
288.138	421.5
288.369	420.5
288.6	427.5
288.831	431.5
289.062	436.5
289.293	443.5
289.524	426.5
289.755	422.5
289.986	434.5
290.217	421.5
290.448	417.5
290.679	431.5
290.91	450.5
291.141	418.5
291.371	461.5
291.602	420.5
291.833	444.5
292.064	436.5
292.295	422.5
292.526	433.5
292.757	428.5
292.987	440.5
293.218	431.5
293.449	455.5
293.68	464.5
293.91	426.5
294.141	427.5
294.372	422.5
294.603	456.5
294.833	447.5
295.064	428.5
295.295	435.5
295.525	425.5
295.756	454.5
295.987	442.5
296.217	454.5
296.448	471.5
296.679	473.5
296.909	466.5
297.14	461.5
297.37	460.5
297.601	479.5
297.831	487.5
298.062	483.5
298.292	471.5
298.523	500.5
298.753	492.5
298.984	503.5
299.214	486.5
299.445	497.5
299.675	476.5
299.905	496.5
300.136	474.5
300.366	475.5
300.597	485.5
300.827	498.5
301.057	492.5
301.288	505.5
301.518	506.5
301.748	521.5
301.979	511.5
302.209	502.5
302.439	508.5
302.669	496.5
302.9	503.5
303.13	479.5
303.36	494.5
303.59	486.5
303.82	472.5
304.051	470.5
304.281	479.5
304.511	481.5
304.741	473.5
304.971	502.5
305.201	502.5
305.431	477.5
305.661	492.5
305.891	489.5
306.121	487.5
306.352	475.5
306.582	473.5
306.812	483.5
307.042	464.5
307.272	468.5
307.502	462.5
307.731	482.5
307.961	460.5
308.191	479.5
308.421	463.5
308.651	484.5
308.881	480.5
309.111	501.5
309.341	465.5
309.571	456.5
309.8	497.5
310.03	476.5
310.26	484.5
310.49	474.5
310.72	478.5
310.949	480.5
311.179	476.5
311.409	477.5
311.639	483.5
311.868	483.5
312.098	500.5
312.328	519.5
312.557	484.5
312.787	491.5
313.017	491.5
313.246	512.5
313.476	521.5
313.706	523.5
313.935	527.5
314.165	516.5
314.394	530.5
314.624	531.5
314.853	508.5
315.083	504.5
315.312	473.5
315.542	509.5
315.771	521.5
316.001	517.5
316.23	514.5
316.46	489.5
316.689	515.5
316.919	497.5
317.148	497.5
317.377	529.5
317.607	515.5
317.836	498.5
318.065	499.5
318.295	504.5
318.524	504.5
318.753	491.5
318.983	501.5
319.212	491.5
319.441	492.5
319.67	517.5
319.9	526.5
320.129	497.5
320.358	511.5
320.587	511.5
320.816	516.5
321.046	493.5
321.275	491.5
321.504	503.5
321.733	510.5
321.962	505.5
322.191	515.5
322.42	493.5
322.649	507.5
322.878	515.5
323.108	474.5
323.337	525.5
323.566	522.5
323.795	488.5
324.024	491.5
324.253	512.5
324.482	510.5
324.71	533.5
324.939	544.5
325.168	526.5
325.397	536.5
325.626	527.5
325.855	554.5
326.084	554.5
326.313	567.5
326.542	535.5
326.77	570.5
326.999	563.5
327.228	555.5
327.457	532.5
327.686	547.5
327.914	543.5
328.143	545.5
328.372	549.5
328.6	540.5
328.829	536.5
329.058	555.5
329.287	553.5
329.515	539.5
329.744	550.5
329.972	561.5
330.201	566.5
330.43	566.5
330.658	531.5
330.887	552.5
331.115	575.5
331.344	581.5
331.572	573.5
331.801	596.5
332.03	611.5
332.258	621.5
332.486	645.5
332.715	651.5
332.943	677.5
333.172	707.5
333.4	759.5
333.629	767.5
333.857	748.5
334.085	739.5
334.314	730.5
334.542	699.5
334.771	679.5
334.999	685.5
335.227	693.5
335.455	712.5
335.684	680.5
335.912	675.5
336.14	651.5
336.369	649.5
336.597	635.5
336.825	657.5
337.053	661.5
337.281	662.5
337.51	650.5
337.738	619.5
337.966	623.5
338.194	606.5
338.422	599.5
338.65	625.5
338.878	588.5
339.106	589.5
339.334	599.5
339.562	593.5
339.79	572.5
340.018	591.5
340.246	577.5
340.474	582.5
340.702	592.5
340.93	590.5
341.158	575.5
341.386	581.5
341.614	601.5
341.842	593.5
342.07	583.5
342.298	573.5
342.526	552.5
342.754	584.5
342.981	561.5
343.209	586.5
343.437	604.5
343.665	640.5
343.893	703.5
344.12	725.5
344.348	683.5
344.576	647.5
344.804	629.5
345.031	602.5
345.259	597.5
345.487	590.5
345.714	595.5
345.942	574.5
346.17	589.5
346.397	601.5
346.625	569.5
346.853	579.5
347.08	572.5
347.308	565.5
347.535	575.5
347.763	589.5
347.99	610.5
348.218	584.5
348.445	575.5
348.673	585.5
348.9	566.5
349.128	578.5
349.355	575.5
349.583	570.5
349.81	561.5
350.037	560.5
350.265	559.5
350.492	534.5
350.72	530.5
350.947	556.5
351.174	539.5
351.402	549.5
351.629	553.5
351.856	564.5
352.083	561.5
352.311	567.5
352.538	549.5
352.765	521.5
352.992	549.5
353.22	546.5
353.447	538.5
353.674	537.5
353.901	541.5
354.128	529.5
354.355	537.5
354.583	556.5
354.81	549.5
355.037	560.5
355.264	548.5
355.491	559.5
355.718	566.5
355.945	533.5
356.172	525.5
356.399	551.5
356.626	547.5
356.853	534.5
357.08	545.5
357.307	540.5
357.534	530.5
357.761	553.5
357.988	537.5
358.215	561.5
358.441	536.5
358.668	566.5
358.895	533.5
359.122	541.5
359.349	529.5
359.576	540.5
359.802	543.5
360.029	553.5
360.256	542.5
360.483	533.5
360.709	538.5
360.936	521.5
361.163	563.5
361.39	532.5
361.616	568.5
361.843	536.5
362.07	541.5
362.296	544.5
362.523	538.5
362.749	534.5
362.976	529.5
363.203	535.5
363.429	536.5
363.656	544.5
363.882	536.5
364.109	547.5
364.335	565.5
364.562	540.5
364.788	515.5
365.015	547.5
365.241	525.5
365.468	537.5
365.694	540.5
365.92	538.5
366.147	540.5
366.373	543.5
366.599	543.5
366.826	533.5
367.052	558.5
367.278	540.5
367.505	566.5
367.731	559.5
367.957	529.5
368.184	553.5
368.41	550.5
368.636	546.5
368.862	556.5
369.089	560.5
369.315	549.5
369.541	564.5
369.767	573.5
369.993	569.5
370.219	577.5
370.445	577.5
370.672	586.5
370.898	576.5
371.124	569.5
371.35	591.5
371.576	611.5
371.802	612.5
372.028	575.5
372.254	578.5
372.48	589.5
372.706	609.5
372.932	619.5
373.158	618.5
373.384	610.5
373.61	568.5
373.835	610.5
374.061	593.5
374.287	589.5
374.513	605.5
374.739	611.5
374.965	647.5
375.191	681.5
375.416	654.5
375.642	646.5
375.868	629.5
376.094	626.5
376.319	591.5
376.545	608.5
376.771	599.5
376.997	584.5
377.222	612.5
377.448	604.5
377.674	579.5
377.899	583.5
378.125	587.5
378.35	585.5
378.576	627.5
378.802	580.5
379.027	575.5
379.253	581.5
379.478	571.5
379.704	584.5
379.929	567.5
380.155	578.5
380.38	585.5
380.606	584.5
380.831	598.5
381.057	582.5
381.282	596.5
381.507	579.5
381.733	613.5
381.958	569.5
382.184	612.5
382.409	618.5
382.634	658.5
382.86	627.5
383.085	607.5
383.31	633.5
383.535	647.5
383.761	635.5
383.986	661.5
384.211	708.5
384.436	698.5
384.662	705.5
384.887	708.5
385.112	685.5
385.337	713.5
385.562	710.5
385.787	735.5
386.013	727.5
386.238	738.5
386.463	722.5
386.688	716.5
386.913	700.5
387.138	700.5
387.363	677.5
387.588	695.5
387.813	682.5
388.038	715.5
388.263	714.5
388.488	703.5
388.713	704.5
388.938	673.5
389.163	680.5
389.387	679.5
389.612	672.5
389.837	681.5
390.062	665.5
390.287	704.5
390.512	703.5
390.736	706.5
390.961	695.5
391.186	697.5
391.411	725.5
391.636	753.5
391.86	770.5
392.085	813.5
392.31	796.5
392.534	757.5
392.759	744.5
392.984	778.5
393.208	746.5
393.433	727.5
393.658	751.5
393.882	764.5
394.107	769.5
394.331	741.5
394.556	752.5
394.78	732.5
395.005	748.5
395.229	773.5
395.454	773.5
395.678	800.5
395.903	798.5
396.127	764.5
396.352	775.5
396.576	745.5
396.801	746.5
397.025	725.5
397.249	760.5
397.474	782.5
397.698	779.5
397.922	781.5
398.147	796.5
398.371	812.5
398.595	812.5
398.82	854.5
399.044	909.5
399.268	994.5
399.492	1149.5
399.717	1349.5
399.941	1360.5
400.165	1201.5
400.389	1048.5
400.613	979.5
400.837	908.5
401.062	893.5
401.286	860.5
401.51	874.5
401.734	875.5
401.958	873.5
402.182	921.5
402.406	901.5
402.63	905.5
402.854	955.5
403.078	964.5
403.302	985.5
403.526	1015.5
403.75	1027.5
403.974	1027.5
404.198	1049.5
404.422	1028.5
404.645	1014.5
404.869	988.5
405.093	1015.5
405.317	970.5
405.541	993.5
405.765	981.5
405.988	935.5
406.212	956.5
406.436	963.5
406.66	990.5
406.883	1015.5
407.107	1055.5
407.331	1110.5
407.555	1169.5
407.778	1152.5
408.002	1118.5
408.226	1091.5
408.449	1044.5
408.673	1015.5
408.896	1009.5
409.12	976.5
409.344	1021.5
409.567	1024.5
409.791	1042.5
410.014	1026.5
410.238	1036.5
410.461	1015.5
410.685	992.5
410.908	981.5
411.132	945.5
411.355	929.5
411.578	911.5
411.802	921.5
412.025	921.5
412.249	934.5
412.472	948.5
412.695	895.5
412.919	899.5
413.142	854.5
413.365	872.5
413.589	891.5
413.812	873.5
414.035	858.5
414.258	899.5
414.482	861.5
414.705	911.5
414.928	913.5
415.151	895.5
415.374	895.5
415.597	908.5
415.821	860.5
416.044	828.5
416.267	852.5
416.49	845.5
416.713	825.5
416.936	826.5
417.159	867.5
417.382	872.5
417.605	869.5
417.828	875.5
418.051	881.5
418.274	883.5
418.497	880.5
418.72	909.5
418.943	912.5
419.166	967.5
419.389	1038.5
419.611	999.5
419.834	966.5
420.057	942.5
420.28	900.5
420.503	875.5
420.726	841.5
420.948	844.5
421.171	877.5
421.394	853.5
421.617	855.5
421.839	881.5
422.062	868.5
422.285	854.5
422.507	895.5
422.73	899.5
422.953	888.5
423.175	901.5
423.398	933.5
423.621	926.5
423.843	972.5
424.066	950.5
424.288	945.5
424.511	925.5
424.733	912.5
424.956	882.5
425.178	869.5
425.401	895.5
425.623	874.5
425.846	838.5
426.068	854.5
426.291	834.5
426.513	859.5
426.735	823.5
426.958	827.5
427.18	820.5
427.402	804.5
427.625	785.5
427.847	783.5
428.069	757.5
428.292	789.5
428.514	761.5
428.736	789.5
428.958	781.5
429.181	787.5
429.403	775.5
429.625	759.5
429.847	781.5
430.069	763.5
430.292	770.5
430.514	733.5
430.736	769.5
430.958	737.5
431.18	752.5
431.402	792.5
431.624	776.5
431.846	802.5
432.068	801.5
432.29	825.5
432.512	807.5
432.734	767.5
432.956	769.5
433.178	771.5
433.4	775.5
433.622	799.5
433.844	817.5
434.066	804.5
434.287	804.5
434.509	834.5
434.731	853.5
434.953	893.5
435.175	899.5
435.397	883.5
435.618	833.5
435.84	837.5
436.062	792.5
436.284	801.5
436.505	786.5
436.727	787.5
436.949	812.5
437.17	792.5
437.392	780.5
437.614	757.5
437.835	719.5
438.057	765.5
438.278	747.5
438.5	761.5
438.721	764.5
438.943	780.5
439.165	767.5
439.386	758.5
439.608	754.5
439.829	784.5
440.05	809.5
440.272	807.5
440.493	789.5
440.715	808.5
440.936	814.5
441.158	834.5
441.379	865.5
441.6	900.5
441.822	885.5
442.043	898.5
442.264	873.5
442.486	846.5
442.707	888.5
442.928	860.5
443.149	871.5
443.371	851.5
443.592	855.5
443.813	871.5
444.034	888.5
444.255	933.5
444.476	973.5
444.698	1043.5
444.919	1119.5
445.14	1120.5
445.361	1030.5
445.582	913.5
445.803	863.5
446.024	840.5
446.245	844.5
446.466	808.5
446.687	800.5
446.908	796.5
447.129	785.5
447.35	778.5
447.571	738.5
447.792	735.5
448.013	749.5
448.234	756.5
448.455	740.5
448.675	746.5
448.896	741.5
449.117	715.5
449.338	730.5
449.559	711.5
449.779	698.5
450	708.5
450.221	717.5
450.442	732.5
450.662	725.5
450.883	754.5
451.104	775.5
451.324	757.5
451.545	781.5
451.766	756.5
451.986	769.5
452.207	730.5
452.428	724.5
452.648	725.5
452.869	709.5
453.089	718.5
453.31	716.5
453.53	723.5
453.751	709.5
453.971	731.5
454.192	702.5
454.412	709.5
454.633	720.5
454.853	716.5
455.073	708.5
455.294	698.5
455.514	679.5
455.734	663.5
455.955	662.5
456.175	682.5
456.395	680.5
456.616	665.5
456.836	685.5
457.056	657.5
457.276	659.5
457.497	664.5
457.717	660.5
457.937	676.5
458.157	679.5
458.377	683.5
458.598	690.5
458.818	728.5
459.038	744.5
459.258	781.5
459.478	819.5
459.698	811.5
459.918	858.5
460.138	868.5
460.358	945.5
460.578	945.5
460.798	949.5
461.018	951.5
461.238	907.5
461.458	930.5
461.678	925.5
461.898	943.5
462.118	935.5
462.338	988.5
462.558	1009.5
462.777	1040.5
462.997	1152.5
463.217	1280.5
463.437	1300.5
463.657	1181.5
463.876	1112.5
464.096	1091.5
464.316	1103.5
464.536	1119.5
464.755	1039.5
464.975	1045.5
465.195	954.5
465.414	915.5
465.634	872.5
465.854	851.5
466.073	781.5
466.293	787.5
466.512	789.5
466.732	801.5
466.951	781.5
467.171	743.5
467.391	753.5
467.61	769.5
467.829	785.5
468.049	772.5
468.268	737.5
468.488	724.5
468.707	728.5
468.927	716.5
469.146	726.5
469.365	740.5
469.585	742.5
469.804	781.5
470.023	763.5
470.243	789.5
470.462	816.5
470.681	786.5
470.901	802.5
471.12	767.5
471.339	746.5
471.558	759.5
471.777	737.5
471.997	732.5
472.216	723.5
472.435	723.5
472.654	684.5
472.873	708.5
473.092	697.5
473.311	709.5
473.53	712.5
473.749	716.5
473.968	722.5
474.187	715.5
474.406	704.5
474.625	695.5
474.844	721.5
475.063	715.5
475.282	736.5
475.501	713.5
475.72	704.5
475.939	718.5
476.158	717.5
476.377	739.5
476.596	756.5
476.814	777.5
477.033	757.5
477.252	772.5
477.471	795.5
477.69	821.5
477.908	821.5
478.127	836.5
478.346	864.5
478.564	846.5
478.783	895.5
479.002	881.5
479.22	903.5
479.439	890.5
479.658	907.5
479.876	890.5
480.095	891.5
480.313	935.5
480.532	975.5
480.751	961.5
480.969	887.5
481.188	899.5
481.406	887.5
481.624	866.5
481.843	813.5
482.061	824.5
482.28	821.5
482.498	840.5
482.717	794.5
482.935	813.5
483.153	834.5
483.372	810.5
483.59	859.5
483.808	848.5
484.027	807.5
484.245	815.5
484.463	828.5
484.681	866.5
484.9	841.5
485.118	837.5
485.336	845.5
485.554	865.5
485.772	873.5
485.99	875.5
486.209	891.5
486.427	897.5
486.645	917.5
486.863	912.5
487.081	885.5
487.299	863.5
487.517	866.5
487.735	870.5
487.953	864.5
488.171	885.5
488.389	837.5
488.607	823.5
488.825	846.5
489.043	838.5
489.261	848.5
489.479	852.5
489.696	883.5
489.914	869.5
490.132	831.5
490.35	847.5
490.568	867.5
490.786	859.5
491.003	870.5
491.221	855.5
491.439	874.5
491.657	839.5
491.874	862.5
492.092	863.5
492.31	882.5
492.527	843.5
492.745	872.5
492.963	888.5
493.18	861.5
493.398	901.5
493.615	904.5
493.833	889.5
494.05	880.5
494.268	865.5
494.485	886.5
494.703	892.5
494.92	894.5
495.138	896.5
495.355	928.5
495.573	896.5
495.79	895.5
496.008	901.5
496.225	904.5
496.442	905.5
496.66	932.5
496.877	947.5
497.094	945.5
497.312	996.5
497.529	979.5
497.746	1021.5
497.963	996.5
498.181	1067.5
498.398	1115.5
498.615	1151.5
498.832	1232.5
499.049	1340.5
499.267	1479.5
499.484	1624.5
499.701	1775.5
499.918	1947.5
500.135	2287.5
500.352	2649.5
500.569	2794.5
500.786	2759.5
501.003	2607.5
501.22	2266.5
501.437	1942.5
501.654	1747.5
501.871	1563.5
502.088	1416.5
502.305	1345.5
502.522	1302.5
502.739	1217.5
502.956	1173.5
503.172	1122.5
503.389	1074.5
503.606	1057.5
503.823	1011.5
504.04	988.5
504.256	1005.5
504.473	1054.5
504.69	1097.5
504.907	1079.5
505.123	1015.5
505.34	936.5
505.557	872.5
505.773	858.5
505.99	860.5
506.207	849.5
506.423	829.5
506.64	819.5
506.856	825.5
507.073	786.5
507.289	795.5
507.506	779.5
507.722	787.5
507.939	783.5
508.155	783.5
508.372	747.5
508.588	771.5
508.805	783.5
509.021	773.5
509.238	761.5
509.454	727.5
509.67	757.5
509.887	763.5
510.103	763.5
510.319	745.5
510.536	745.5
510.752	724.5
510.968	729.5
511.184	739.5
511.401	732.5
511.617	755.5
511.833	756.5
512.049	733.5
512.265	758.5
512.481	740.5
512.698	743.5
512.914	736.5
513.13	710.5
513.346	734.5
513.562	697.5
513.778	726.5
513.994	725.5
514.21	751.5
514.426	737.5
514.642	731.5
514.858	742.5
515.074	737.5
515.29	767.5
515.506	768.5
515.721	795.5
515.937	802.5
516.153	821.5
516.369	825.5
516.585	835.5
516.801	872.5
517.016	893.5
517.232	921.5
517.448	996.5
517.664	1021.5
517.879	1041.5
518.095	1022.5
518.311	1007.5
