Data from Ni(NO3)2@0.125M.TitratingCurve.Agarose3%dH2O.NegLispCup.LampEnergy10.LIBS07252019_HRD10591_18-09-55-568.txt Node
Date: Thu Jul 25 18:09:55 EDT 2019
User: cochatt
Spectrometer: HR+D1059
Trigger mode: 1
Integration Time (sec): 1.000000E-1
Scans to average: 1
Electric dark correction enabled: true
Nonlinearity correction enabled: false
Boxcar width: 0
XAxis mode: Wavelengths
Number of Pixels in Spectrum: 2048
>>>>>Begin Spectral Data<<<<<
223.165	-10.69
223.4	-10.69
223.635	-10.69
223.869	-21.69
224.104	-2.69
224.338	-2.69
224.573	-25.69
224.808	-16.69
225.042	-2.69
225.277	-9.69
225.511	-1.69
225.746	7.31
225.98	-9.69
226.215	16.31
226.449	12.31
226.683	23.31
226.918	22.31
227.152	22.31
227.387	35.31
227.621	49.31
227.856	59.31
228.09	51.31
228.324	58.31
228.559	45.31
228.793	92.31
229.027	99.31
229.262	106.31
229.496	104.31
229.73	113.31
229.964	115.31
230.199	109.31
230.433	123.31
230.667	135.31
230.901	121.31
231.136	137.31
231.37	125.31
231.604	131.31
231.838	121.31
232.072	129.31
232.306	142.31
232.541	128.31
232.775	129.31
233.009	135.31
233.243	128.31
233.477	121.31
233.711	134.31
233.945	145.31
234.179	141.31
234.413	135.31
234.647	135.31
234.881	140.31
235.115	135.31
235.349	138.31
235.583	133.31
235.817	151.31
236.051	133.31
236.285	158.31
236.519	139.31
236.753	151.31
236.987	156.31
237.221	155.31
237.455	142.31
237.689	154.31
237.922	146.31
238.156	156.31
238.39	147.31
238.624	157.31
238.858	149.31
239.091	152.31
239.325	144.31
239.559	147.31
239.793	176.31
240.027	173.31
240.26	166.31
240.494	168.31
240.728	143.31
240.961	146.31
241.195	171.31
241.429	174.31
241.662	176.31
241.896	162.31
242.13	187.31
242.363	180.31
242.597	186.31
242.83	179.31
243.064	181.31
243.298	169.31
243.531	177.31
243.765	194.31
243.998	195.31
244.232	196.31
244.465	199.31
244.699	199.31
244.932	178.31
245.166	183.31
245.399	208.31
245.633	192.31
245.866	207.31
246.099	207.31
246.333	191.31
246.566	211.31
246.8	202.31
247.033	191.31
247.266	205.31
247.5	210.31
247.733	212.31
247.966	211.31
248.2	218.31
248.433	218.31
248.666	211.31
248.899	221.31
249.133	230.31
249.366	210.31
249.599	215.31
249.832	222.31
250.066	218.31
250.299	234.31
250.532	221.31
250.765	222.31
250.998	231.31
251.231	236.31
251.465	242.31
251.698	236.31
251.931	246.31
252.164	241.31
252.397	236.31
252.63	246.31
252.863	253.31
253.096	241.31
253.329	255.31
253.562	246.31
253.795	241.31
254.028	235.31
254.261	244.31
254.494	249.31
254.727	226.31
254.96	251.31
255.193	254.31
255.426	242.31
255.659	264.31
255.892	268.31
256.124	238.31
256.357	271.31
256.59	266.31
256.823	273.31
257.056	270.31
257.289	253.31
257.521	266.31
257.754	259.31
257.987	276.31
258.22	282.31
258.452	265.31
258.685	279.31
258.918	279.31
259.151	273.31
259.383	273.31
259.616	277.31
259.849	291.31
260.081	293.31
260.314	284.31
260.547	275.31
260.779	283.31
261.012	297.31
261.244	298.31
261.477	289.31
261.71	275.31
261.942	314.31
262.175	298.31
262.407	287.31
262.64	293.31
262.872	301.31
263.105	300.31
263.337	299.31
263.57	315.31
263.802	305.31
264.035	315.31
264.267	294.31
264.499	287.31
264.732	310.31
264.964	311.31
265.197	307.31
265.429	322.31
265.661	332.31
265.894	334.31
266.126	322.31
266.358	323.31
266.591	321.31
266.823	312.31
267.055	318.31
267.287	355.31
267.52	329.31
267.752	318.31
267.984	337.31
268.216	309.31
268.448	342.31
268.681	363.31
268.913	343.31
269.145	343.31
269.377	343.31
269.609	333.31
269.841	347.31
270.073	339.31
270.306	342.31
270.538	331.31
270.77	344.31
271.002	318.31
271.234	343.31
271.466	356.31
271.698	340.31
271.93	341.31
272.162	354.31
272.394	369.31
272.626	359.31
272.858	367.31
273.09	367.31
273.322	353.31
273.553	355.31
273.785	356.31
274.017	352.31
274.249	365.31
274.481	365.31
274.713	353.31
274.945	372.31
275.176	347.31
275.408	371.31
275.64	368.31
275.872	366.31
276.104	371.31
276.335	374.31
276.567	357.31
276.799	376.31
277.031	389.31
277.262	373.31
277.494	387.31
277.726	381.31
277.957	376.31
278.189	377.31
278.421	388.31
278.652	402.31
278.884	394.31
279.115	385.31
279.347	402.31
279.579	393.31
279.81	404.31
280.042	399.31
280.273	395.31
280.505	412.31
280.736	407.31
280.968	419.31
281.199	405.31
281.431	400.31
281.662	422.31
281.894	403.31
282.125	417.31
282.356	427.31
282.588	418.31
282.819	432.31
283.051	435.31
283.282	442.31
283.513	439.31
283.745	435.31
283.976	417.31
284.207	436.31
284.439	423.31
284.67	442.31
284.901	433.31
285.132	438.31
285.364	424.31
285.595	457.31
285.826	442.31
286.057	444.31
286.288	455.31
286.52	448.31
286.751	471.31
286.982	437.31
287.213	457.31
287.444	461.31
287.675	450.31
287.906	463.31
288.138	458.31
288.369	482.31
288.6	465.31
288.831	443.31
289.062	466.31
289.293	461.31
289.524	466.31
289.755	455.31
289.986	479.31
290.217	463.31
290.448	484.31
290.679	467.31
290.91	461.31
291.141	469.31
291.371	481.31
291.602	471.31
291.833	462.31
292.064	475.31
292.295	465.31
292.526	478.31
292.757	468.31
292.987	483.31
293.218	466.31
293.449	500.31
293.68	459.31
293.91	507.31
294.141	479.31
294.372	491.31
294.603	489.31
294.833	472.31
295.064	478.31
295.295	470.31
295.525	478.31
295.756	503.31
295.987	505.31
296.217	483.31
296.448	491.31
296.679	504.31
296.909	491.31
297.14	492.31
297.37	506.31
297.601	518.31
297.831	500.31
298.062	504.31
298.292	504.31
298.523	545.31
298.753	529.31
298.984	527.31
299.214	531.31
299.445	514.31
299.675	502.31
299.905	522.31
300.136	498.31
300.366	531.31
300.597	526.31
300.827	519.31
301.057	533.31
301.288	547.31
301.518	557.31
301.748	548.31
301.979	550.31
302.209	560.31
302.439	561.31
302.669	540.31
302.9	535.31
303.13	537.31
303.36	522.31
303.59	554.31
303.82	540.31
304.051	547.31
304.281	565.31
304.511	536.31
304.741	546.31
304.971	569.31
305.201	535.31
305.431	536.31
305.661	530.31
305.891	509.31
306.121	529.31
306.352	545.31
306.582	539.31
306.812	524.31
307.042	542.31
307.272	522.31
307.502	524.31
307.731	531.31
307.961	520.31
308.191	529.31
308.421	542.31
308.651	549.31
308.881	518.31
309.111	518.31
309.341	517.31
309.571	552.31
309.8	524.31
310.03	535.31
310.26	525.31
310.49	521.31
310.72	511.31
310.949	518.31
311.179	542.31
311.409	516.31
311.639	559.31
311.868	547.31
312.098	545.31
312.328	558.31
312.557	547.31
312.787	561.31
313.017	576.31
313.246	590.31
313.476	581.31
313.706	589.31
313.935	605.31
314.165	585.31
314.394	559.31
314.624	566.31
314.853	566.31
315.083	572.31
315.312	577.31
315.542	588.31
315.771	580.31
316.001	565.31
316.23	564.31
316.46	557.31
316.689	571.31
316.919	544.31
317.148	562.31
317.377	551.31
317.607	551.31
317.836	553.31
318.065	562.31
318.295	570.31
318.524	586.31
318.753	578.31
318.983	561.31
319.212	546.31
319.441	566.31
319.67	563.31
319.9	571.31
320.129	565.31
320.358	561.31
320.587	550.31
320.816	575.31
321.046	571.31
321.275	561.31
321.504	563.31
321.733	568.31
321.962	576.31
322.191	594.31
322.42	582.31
322.649	563.31
322.878	582.31
323.108	567.31
323.337	586.31
323.566	602.31
323.795	600.31
324.024	598.31
324.253	601.31
324.482	599.31
324.71	600.31
324.939	576.31
325.168	598.31
325.397	581.31
325.626	611.31
325.855	602.31
326.084	639.31
326.313	618.31
326.542	621.31
326.77	639.31
326.999	652.31
327.228	611.31
327.457	597.31
327.686	640.31
327.914	621.31
328.143	632.31
328.372	639.31
328.6	635.31
328.829	639.31
329.058	630.31
329.287	662.31
329.515	634.31
329.744	652.31
329.972	625.31
330.201	627.31
330.43	641.31
330.658	649.31
330.887	666.31
331.115	641.31
331.344	653.31
331.572	678.31
331.801	695.31
332.03	716.31
332.258	732.31
332.486	755.31
332.715	765.31
332.943	812.31
333.172	828.31
333.4	866.31
333.629	877.31
333.857	888.31
334.085	877.31
334.314	847.31
334.542	839.31
334.771	832.31
334.999	799.31
335.227	780.31
335.455	796.31
335.684	821.31
335.912	743.31
336.14	755.31
336.369	767.31
336.597	778.31
336.825	744.31
337.053	753.31
337.281	752.31
337.51	729.31
337.738	733.31
337.966	711.31
338.194	695.31
338.422	698.31
338.65	686.31
338.878	683.31
339.106	694.31
339.334	705.31
339.562	677.31
339.79	679.31
340.018	665.31
340.246	663.31
340.474	689.31
340.702	665.31
340.93	681.31
341.158	660.31
341.386	670.31
341.614	691.31
341.842	655.31
342.07	663.31
342.298	676.31
342.526	676.31
342.754	654.31
342.981	658.31
343.209	663.31
343.437	718.31
343.665	763.31
343.893	852.31
344.12	825.31
344.348	797.31
344.576	759.31
344.804	715.31
345.031	691.31
345.259	681.31
345.487	665.31
345.714	638.31
345.942	647.31
346.17	649.31
346.397	651.31
346.625	670.31
346.853	639.31
347.08	647.31
347.308	646.31
347.535	639.31
347.763	645.31
347.99	673.31
348.218	655.31
348.445	650.31
348.673	607.31
348.9	643.31
349.128	642.31
349.355	639.31
349.583	618.31
349.81	635.31
350.037	631.31
350.265	628.31
350.492	642.31
350.72	647.31
350.947	631.31
351.174	626.31
351.402	620.31
351.629	625.31
351.856	612.31
352.083	629.31
352.311	640.31
352.538	649.31
352.765	607.31
352.992	620.31
353.22	623.31
353.447	621.31
353.674	606.31
353.901	605.31
354.128	618.31
354.355	612.31
354.583	629.31
354.81	628.31
355.037	608.31
355.264	611.31
355.491	615.31
355.718	632.31
355.945	629.31
356.172	643.31
356.399	627.31
356.626	655.31
356.853	641.31
357.08	629.31
357.307	605.31
357.534	614.31
357.761	623.31
357.988	619.31
358.215	643.31
358.441	631.31
358.668	625.31
358.895	622.31
359.122	642.31
359.349	613.31
359.576	600.31
359.802	610.31
360.029	632.31
360.256	637.31
360.483	628.31
360.709	638.31
360.936	637.31
361.163	634.31
361.39	645.31
361.616	623.31
361.843	647.31
362.07	630.31
362.296	620.31
362.523	612.31
362.749	631.31
362.976	614.31
363.203	636.31
363.429	605.31
363.656	633.31
363.882	615.31
364.109	604.31
364.335	649.31
364.562	631.31
364.788	621.31
365.015	636.31
365.241	616.31
365.468	616.31
365.694	607.31
365.92	635.31
366.147	597.31
366.373	631.31
366.599	636.31
366.826	599.31
367.052	638.31
367.278	619.31
367.505	631.31
367.731	665.31
367.957	616.31
368.184	628.31
368.41	639.31
368.636	632.31
368.862	630.31
369.089	645.31
369.315	636.31
369.541	637.31
369.767	658.31
369.993	639.31
370.219	638.31
370.445	664.31
370.672	656.31
370.898	674.31
371.124	686.31
371.35	687.31
371.576	708.31
371.802	686.31
372.028	677.31
372.254	672.31
372.48	664.31
372.706	696.31
372.932	710.31
373.158	723.31
373.384	709.31
373.61	677.31
373.835	693.31
374.061	686.31
374.287	711.31
374.513	699.31
374.739	705.31
374.965	736.31
375.191	770.31
375.416	725.31
375.642	711.31
375.868	703.31
376.094	715.31
376.319	703.31
376.545	691.31
376.771	686.31
376.997	675.31
377.222	666.31
377.448	692.31
377.674	684.31
377.899	686.31
378.125	670.31
378.35	665.31
378.576	683.31
378.802	669.31
379.027	682.31
379.253	678.31
379.478	646.31
379.704	655.31
379.929	657.31
380.155	641.31
380.38	675.31
380.606	673.31
380.831	662.31
381.057	680.31
381.282	685.31
381.507	660.31
381.733	677.31
381.958	698.31
382.184	703.31
382.409	698.31
382.634	706.31
382.86	694.31
383.085	721.31
383.31	719.31
383.535	715.31
383.761	753.31
383.986	763.31
384.211	790.31
384.436	797.31
384.662	819.31
384.887	830.31
385.112	800.31
385.337	823.31
385.562	813.31
385.787	826.31
386.013	820.31
386.238	825.31
386.463	818.31
386.688	803.31
386.913	803.31
387.138	836.31
387.363	830.31
387.588	773.31
387.813	814.31
388.038	806.31
388.263	793.31
388.488	833.31
388.713	808.31
388.938	791.31
389.163	789.31
389.387	810.31
389.612	784.31
389.837	778.31
390.062	793.31
390.287	799.31
390.512	787.31
390.736	798.31
390.961	822.31
391.186	820.31
391.411	889.31
391.636	891.31
391.86	917.31
392.085	909.31
392.31	920.31
392.534	889.31
392.759	868.31
392.984	843.31
393.208	855.31
393.433	844.31
393.658	861.31
393.882	861.31
394.107	875.31
394.331	868.31
394.556	862.31
394.78	883.31
395.005	889.31
395.229	884.31
395.454	872.31
395.678	927.31
395.903	926.31
396.127	892.31
396.352	865.31
396.576	851.31
396.801	858.31
397.025	872.31
397.249	877.31
397.474	899.31
397.698	889.31
397.922	908.31
398.147	899.31
398.371	944.31
398.595	933.31
398.82	983.31
399.044	1071.31
399.268	1198.31
399.492	1425.31
399.717	1632.31
399.941	1577.31
400.165	1347.31
400.389	1220.31
400.613	1106.31
400.837	1061.31
401.062	1039.31
401.286	1027.31
401.51	1000.31
401.734	1015.31
401.958	1018.31
402.182	1029.31
402.406	1042.31
402.63	1089.31
402.854	1093.31
403.078	1125.31
403.302	1145.31
403.526	1193.31
403.75	1212.31
403.974	1220.31
404.198	1205.31
404.422	1205.31
404.645	1190.31
404.869	1163.31
405.093	1173.31
405.317	1151.31
405.541	1150.31
405.765	1098.31
405.988	1113.31
406.212	1110.31
406.436	1123.31
406.66	1149.31
406.883	1170.31
407.107	1237.31
407.331	1261.31
407.555	1324.31
407.778	1313.31
408.002	1294.31
408.226	1249.31
408.449	1223.31
408.673	1191.31
408.896	1154.31
409.12	1161.31
409.344	1157.31
409.567	1149.31
409.791	1158.31
410.014	1151.31
410.238	1140.31
410.461	1155.31
410.685	1118.31
410.908	1107.31
411.132	1094.31
411.355	1044.31
411.578	1058.31
411.802	1046.31
412.025	1053.31
412.249	1086.31
412.472	1073.31
412.695	1026.31
412.919	1019.31
413.142	1015.31
413.365	990.31
413.589	1017.31
413.812	1001.31
414.035	1031.31
414.258	1001.31
414.482	1033.31
414.705	1045.31
414.928	1023.31
415.151	1064.31
415.374	1018.31
415.597	1009.31
415.821	1001.31
416.044	1007.31
416.267	999.31
416.49	968.31
416.713	985.31
416.936	1010.31
417.159	998.31
417.382	1031.31
417.605	981.31
417.828	1001.31
418.051	1027.31
418.274	1037.31
418.497	1022.31
418.72	1068.31
418.943	1018.31
419.166	1127.31
419.389	1139.31
419.611	1130.31
419.834	1099.31
420.057	1040.31
420.28	1032.31
420.503	1019.31
420.726	1007.31
420.948	994.31
421.171	1018.31
421.394	1010.31
421.617	981.31
421.839	995.31
422.062	1044.31
422.285	1043.31
422.507	1051.31
422.73	1053.31
422.953	1076.31
423.175	1065.31
423.398	1107.31
423.621	1081.31
423.843	1130.31
424.066	1107.31
424.288	1093.31
424.511	1086.31
424.733	1077.31
424.956	1054.31
425.178	1013.31
425.401	1025.31
425.623	1000.31
425.846	974.31
426.068	971.31
426.291	939.31
426.513	971.31
426.735	940.31
426.958	961.31
427.18	917.31
427.402	911.31
427.625	919.31
427.847	901.31
428.069	889.31
428.292	897.31
428.514	881.31
428.736	909.31
428.958	909.31
429.181	875.31
429.403	871.31
429.625	866.31
429.847	870.31
430.069	870.31
430.292	859.31
430.514	870.31
430.736	899.31
430.958	867.31
431.18	885.31
431.402	889.31
431.624	884.31
431.846	921.31
432.068	895.31
432.29	925.31
432.512	885.31
432.734	903.31
432.956	896.31
433.178	913.31
433.4	896.31
433.622	905.31
433.844	920.31
434.066	911.31
434.287	903.31
434.509	950.31
434.731	982.31
434.953	1042.31
435.175	994.31
435.397	1006.31
435.618	928.31
435.84	955.31
436.062	915.31
436.284	893.31
436.505	901.31
436.727	903.31
436.949	876.31
437.17	891.31
437.392	872.31
437.614	875.31
437.835	877.31
438.057	858.31
438.278	826.31
438.5	853.31
438.721	839.31
438.943	876.31
439.165	865.31
439.386	869.31
439.608	875.31
439.829	899.31
440.05	906.31
440.272	913.31
440.493	922.31
440.715	948.31
440.936	947.31
441.158	955.31
441.379	979.31
441.6	1054.31
441.822	1017.31
442.043	1035.31
442.264	1036.31
442.486	993.31
442.707	1015.31
442.928	1001.31
443.149	1029.31
443.371	994.31
443.592	983.31
443.813	1023.31
444.034	1031.31
444.255	1082.31
444.476	1138.31
444.698	1177.31
444.919	1251.31
445.14	1283.31
445.361	1157.31
445.582	1020.31
445.803	982.31
446.024	977.31
446.245	953.31
446.466	939.31
446.687	927.31
446.908	905.31
447.129	847.31
447.35	877.31
447.571	884.31
447.792	851.31
448.013	850.31
448.234	850.31
448.455	859.31
448.675	855.31
448.896	846.31
449.117	793.31
449.338	801.31
449.559	810.31
449.779	841.31
450	827.31
450.221	841.31
450.442	854.31
450.662	825.31
450.883	849.31
451.104	842.31
451.324	853.31
451.545	847.31
451.766	845.31
451.986	855.31
452.207	843.31
452.428	833.31
452.648	836.31
452.869	814.31
453.089	803.31
453.31	812.31
453.53	825.31
453.751	804.31
453.971	780.31
454.192	803.31
454.412	775.31
454.633	791.31
454.853	793.31
455.073	775.31
455.294	793.31
455.514	791.31
455.734	774.31
455.955	763.31
456.175	761.31
456.395	784.31
456.616	778.31
456.836	779.31
457.056	740.31
457.276	744.31
457.497	763.31
457.717	767.31
457.937	782.31
458.157	791.31
458.377	797.31
458.598	775.31
458.818	837.31
459.038	840.31
459.258	868.31
459.478	885.31
459.698	934.31
459.918	963.31
460.138	1041.31
460.358	1069.31
460.578	1059.31
460.798	1110.31
461.018	1089.31
461.238	1091.31
461.458	1062.31
461.678	1062.31
461.898	1070.31
462.118	1085.31
462.338	1168.31
462.558	1173.31
462.777	1221.31
462.997	1355.31
463.217	1478.31
463.437	1491.31
463.657	1315.31
463.876	1266.31
464.096	1250.31
464.316	1240.31
464.536	1267.31
464.755	1184.31
464.975	1165.31
465.195	1080.31
465.414	987.31
465.634	948.31
465.854	967.31
466.073	917.31
466.293	894.31
466.512	877.31
466.732	842.31
466.951	844.31
467.171	861.31
467.391	885.31
467.61	872.31
467.829	864.31
468.049	862.31
468.268	833.31
468.488	829.31
468.707	858.31
468.927	838.31
469.146	847.31
469.365	851.31
469.585	826.31
469.804	863.31
470.023	905.31
470.243	865.31
470.462	893.31
470.681	915.31
470.901	899.31
471.12	882.31
471.339	865.31
471.558	830.31
471.777	842.31
471.997	814.31
472.216	824.31
472.435	829.31
472.654	801.31
472.873	807.31
473.092	788.31
473.311	805.31
473.53	810.31
473.749	757.31
473.968	805.31
474.187	792.31
474.406	761.31
474.625	774.31
474.844	773.31
475.063	805.31
475.282	800.31
475.501	808.31
475.72	836.31
475.939	827.31
476.158	832.31
476.377	832.31
476.596	853.31
476.814	841.31
477.033	844.31
477.252	849.31
477.471	874.31
477.69	883.31
477.908	910.31
478.127	975.31
478.346	965.31
478.564	957.31
478.783	991.31
479.002	1040.31
479.22	1008.31
479.439	997.31
479.658	993.31
479.876	988.31
480.095	1013.31
480.313	1069.31
480.532	1110.31
480.751	1096.31
480.969	1044.31
481.188	1004.31
481.406	970.31
481.624	946.31
481.843	922.31
482.061	931.31
482.28	899.31
482.498	919.31
482.717	932.31
482.935	895.31
483.153	895.31
483.372	889.31
483.59	905.31
483.808	881.31
484.027	918.31
484.245	930.31
484.463	921.31
484.681	954.31
484.9	955.31
485.118	940.31
485.336	920.31
485.554	980.31
485.772	983.31
485.99	940.31
486.209	971.31
486.427	947.31
486.645	947.31
486.863	973.31
487.081	957.31
487.299	924.31
487.517	979.31
487.735	938.31
487.953	965.31
488.171	965.31
488.389	943.31
488.607	926.31
488.825	904.31
489.043	932.31
489.261	923.31
489.479	947.31
489.696	947.31
489.914	907.31
490.132	946.31
490.35	957.31
490.568	962.31
490.786	957.31
491.003	952.31
491.221	943.31
491.439	981.31
491.657	946.31
491.874	962.31
492.092	941.31
492.31	1000.31
492.527	986.31
492.745	1000.31
492.963	979.31
493.18	989.31
493.398	968.31
493.615	1015.31
493.833	991.31
494.05	989.31
494.268	1026.31
494.485	1000.31
494.703	1027.31
494.92	997.31
495.138	1000.31
495.355	1004.31
495.573	1034.31
495.79	989.31
496.008	1027.31
496.225	1050.31
496.442	1034.31
496.66	1043.31
496.877	1068.31
497.094	1066.31
497.312	1111.31
497.529	1130.31
497.746	1157.31
497.963	1167.31
498.181	1235.31
498.398	1292.31
498.615	1389.31
498.832	1466.31
499.049	1593.31
