Data from Ni(NO3)2Standard.Agarose3%.GreenCap.LampEnergy5.5.E.O_HRD10591_14-39-54-188.txt Node
Date: Mon Jul 22 14:39:54 EDT 2019
User: cochatt
Spectrometer: HR+D1059
Trigger mode: 1
Integration Time (sec): 1.000000E-1
Scans to average: 1
Electric dark correction enabled: true
Nonlinearity correction enabled: false
Boxcar width: 0
XAxis mode: Wavelengths
Number of Pixels in Spectrum: 2048
>>>>>Begin Spectral Data<<<<<
223.165	-10.12
223.4	-10.12
223.635	-10.12
223.869	-20.12
224.104	-23.12
224.338	-18.12
224.573	0.88
224.808	-16.12
225.042	-14.12
225.277	0.88
225.511	0.88
225.746	-1.12
225.98	4.88
226.215	13.88
226.449	12.88
226.683	17.88
226.918	22.88
227.152	27.88
227.387	26.88
227.621	29.88
227.856	74.88
228.09	59.88
228.324	47.88
228.559	53.88
228.793	51.88
229.027	63.88
229.262	58.88
229.496	49.88
229.73	62.88
229.964	69.88
230.199	78.88
230.433	64.88
230.667	61.88
230.901	84.88
231.136	72.88
231.37	87.88
231.604	74.88
231.838	74.88
232.072	89.88
232.306	90.88
232.541	71.88
232.775	74.88
233.009	85.88
233.243	84.88
233.477	69.88
233.711	80.88
233.945	70.88
234.179	87.88
234.413	77.88
234.647	82.88
234.881	75.88
235.115	78.88
235.349	74.88
235.583	67.88
235.817	81.88
236.051	70.88
236.285	85.88
236.519	74.88
236.753	68.88
236.987	72.88
237.221	70.88
237.455	76.88
237.689	67.88
237.922	103.88
238.156	80.88
238.39	65.88
238.624	70.88
238.858	70.88
239.091	77.88
239.325	76.88
239.559	71.88
239.793	81.88
240.027	85.88
240.26	90.88
240.494	76.88
240.728	83.88
240.961	66.88
241.195	73.88
241.429	82.88
241.662	83.88
241.896	90.88
242.13	62.88
242.363	85.88
242.597	77.88
242.83	81.88
243.064	79.88
243.298	85.88
243.531	75.88
243.765	82.88
243.998	81.88
244.232	84.88
244.465	72.88
244.699	66.88
244.932	81.88
245.166	72.88
245.399	76.88
245.633	75.88
245.866	83.88
246.099	85.88
246.333	92.88
246.566	86.88
246.8	66.88
247.033	76.88
247.266	85.88
247.5	70.88
247.733	63.88
247.966	77.88
248.2	88.88
248.433	72.88
248.666	76.88
248.899	63.88
249.133	83.88
249.366	72.88
249.599	86.88
249.832	88.88
250.066	90.88
250.299	88.88
250.532	91.88
250.765	83.88
250.998	86.88
251.231	79.88
251.465	88.88
251.698	88.88
251.931	86.88
252.164	90.88
252.397	89.88
252.63	78.88
252.863	76.88
253.096	74.88
253.329	84.88
253.562	97.88
253.795	78.88
254.028	89.88
254.261	77.88
254.494	85.88
254.727	85.88
254.96	85.88
255.193	76.88
255.426	78.88
255.659	72.88
255.892	84.88
256.124	81.88
256.357	89.88
256.59	72.88
256.823	87.88
257.056	88.88
257.289	88.88
257.521	85.88
257.754	82.88
257.987	98.88
258.22	96.88
258.452	75.88
258.685	72.88
258.918	78.88
259.151	85.88
259.383	93.88
259.616	84.88
259.849	80.88
260.081	69.88
260.314	68.88
260.547	81.88
260.779	87.88
261.012	77.88
261.244	87.88
261.477	82.88
261.71	79.88
261.942	75.88
262.175	73.88
262.407	95.88
262.64	96.88
262.872	79.88
263.105	84.88
263.337	85.88
263.57	70.88
263.802	73.88
264.035	77.88
264.267	73.88
264.499	66.88
264.732	81.88
264.964	93.88
265.197	93.88
265.429	75.88
265.661	91.88
265.894	87.88
266.126	100.88
266.358	98.88
266.591	86.88
266.823	85.88
267.055	98.88
267.287	91.88
267.52	78.88
267.752	92.88
267.984	91.88
268.216	82.88
268.448	96.88
268.681	72.88
268.913	78.88
269.145	73.88
269.377	92.88
269.609	85.88
269.841	84.88
270.073	87.88
270.306	94.88
270.538	85.88
270.77	84.88
271.002	75.88
271.234	86.88
271.466	94.88
271.698	76.88
271.93	81.88
272.162	79.88
272.394	76.88
272.626	87.88
272.858	78.88
273.09	76.88
273.322	87.88
273.553	90.88
273.785	96.88
274.017	77.88
274.249	91.88
274.481	87.88
274.713	87.88
274.945	81.88
275.176	85.88
275.408	83.88
275.64	85.88
275.872	96.88
276.104	89.88
276.335	87.88
276.567	80.88
276.799	84.88
277.031	70.88
277.262	102.88
277.494	82.88
277.726	89.88
277.957	91.88
278.189	82.88
278.421	85.88
278.652	86.88
278.884	88.88
279.115	82.88
279.347	89.88
279.579	84.88
279.81	90.88
280.042	87.88
280.273	80.88
280.505	80.88
280.736	75.88
280.968	78.88
281.199	91.88
281.431	93.88
281.662	87.88
281.894	89.88
282.125	109.88
282.356	75.88
282.588	88.88
282.819	75.88
283.051	82.88
283.282	78.88
283.513	96.88
283.745	79.88
283.976	83.88
284.207	85.88
284.439	90.88
284.67	76.88
284.901	93.88
285.132	79.88
285.364	83.88
285.595	79.88
285.826	76.88
286.057	89.88
286.288	94.88
286.52	81.88
286.751	96.88
286.982	83.88
287.213	92.88
287.444	100.88
287.675	94.88
287.906	92.88
288.138	73.88
288.369	90.88
288.6	75.88
288.831	87.88
289.062	89.88
289.293	87.88
289.524	92.88
289.755	80.88
289.986	89.88
290.217	85.88
290.448	75.88
290.679	90.88
290.91	80.88
291.141	90.88
291.371	85.88
291.602	85.88
291.833	89.88
292.064	76.88
292.295	93.88
292.526	87.88
292.757	87.88
292.987	85.88
293.218	79.88
293.449	91.88
293.68	88.88
293.91	94.88
294.141	86.88
294.372	81.88
294.603	80.88
294.833	92.88
295.064	91.88
295.295	78.88
295.525	96.88
295.756	93.88
295.987	88.88
296.217	81.88
296.448	98.88
296.679	85.88
296.909	69.88
297.14	78.88
297.37	103.88
297.601	88.88
297.831	86.88
298.062	100.88
298.292	83.88
298.523	93.88
298.753	90.88
298.984	77.88
299.214	95.88
299.445	96.88
299.675	91.88
299.905	92.88
300.136	109.88
300.366	97.88
300.597	74.88
300.827	89.88
301.057	89.88
301.288	85.88
301.518	95.88
301.748	98.88
301.979	86.88
302.209	97.88
302.439	83.88
302.669	89.88
302.9	91.88
303.13	79.88
303.36	85.88
303.59	100.88
303.82	98.88
304.051	92.88
304.281	78.88
304.511	90.88
304.741	98.88
304.971	81.88
305.201	92.88
305.431	86.88
305.661	103.88
305.891	89.88
306.121	89.88
306.352	79.88
306.582	92.88
306.812	86.88
307.042	93.88
307.272	95.88
307.502	73.88
307.731	83.88
307.961	95.88
308.191	85.88
308.421	95.88
308.651	103.88
308.881	83.88
309.111	100.88
309.341	93.88
309.571	86.88
309.8	87.88
310.03	74.88
310.26	94.88
310.49	84.88
310.72	94.88
310.949	89.88
311.179	88.88
311.409	81.88
311.639	98.88
311.868	85.88
312.098	93.88
312.328	82.88
312.557	97.88
312.787	94.88
313.017	85.88
313.246	76.88
313.476	101.88
313.706	102.88
313.935	84.88
314.165	101.88
314.394	84.88
314.624	96.88
314.853	100.88
315.083	93.88
315.312	88.88
315.542	76.88
315.771	86.88
316.001	84.88
316.23	90.88
316.46	89.88
316.689	83.88
316.919	93.88
317.148	90.88
317.377	106.88
317.607	92.88
317.836	85.88
318.065	85.88
318.295	101.88
318.524	83.88
318.753	85.88
318.983	93.88
319.212	88.88
319.441	90.88
319.67	83.88
319.9	93.88
320.129	95.88
320.358	97.88
320.587	87.88
320.816	80.88
321.046	92.88
321.275	87.88
321.504	91.88
321.733	89.88
321.962	84.88
322.191	91.88
322.42	92.88
322.649	90.88
322.878	93.88
323.108	80.88
323.337	88.88
323.566	81.88
323.795	82.88
324.024	106.88
324.253	92.88
324.482	92.88
324.71	77.88
324.939	92.88
325.168	97.88
325.397	100.88
325.626	76.88
325.855	71.88
326.084	99.88
326.313	88.88
326.542	102.88
326.77	108.88
326.999	92.88
327.228	78.88
327.457	81.88
327.686	87.88
327.914	96.88
328.143	102.88
328.372	88.88
328.6	84.88
328.829	84.88
329.058	91.88
329.287	80.88
329.515	94.88
329.744	88.88
329.972	91.88
330.201	82.88
330.43	76.88
330.658	85.88
330.887	85.88
331.115	86.88
331.344	93.88
331.572	87.88
331.801	87.88
332.03	93.88
332.258	85.88
332.486	86.88
332.715	93.88
332.943	77.88
333.172	96.88
333.4	86.88
333.629	90.88
333.857	80.88
334.085	91.88
334.314	86.88
334.542	83.88
334.771	70.88
334.999	100.88
335.227	103.88
335.455	93.88
335.684	83.88
335.912	108.88
336.14	89.88
336.369	101.88
336.597	100.88
336.825	89.88
337.053	90.88
337.281	88.88
337.51	81.88
337.738	87.88
337.966	86.88
338.194	78.88
338.422	86.88
338.65	86.88
338.878	93.88
339.106	94.88
339.334	106.88
339.562	98.88
339.79	76.88
340.018	84.88
340.246	79.88
340.474	87.88
340.702	97.88
340.93	80.88
341.158	86.88
341.386	92.88
341.614	76.88
341.842	83.88
342.07	96.88
342.298	87.88
342.526	91.88
342.754	89.88
342.981	97.88
343.209	81.88
343.437	90.88
343.665	98.88
343.893	85.88
344.12	80.88
344.348	105.88
344.576	89.88
344.804	99.88
345.031	100.88
345.259	84.88
345.487	77.88
345.714	80.88
345.942	85.88
346.17	88.88
346.397	81.88
346.625	85.88
346.853	97.88
347.08	102.88
347.308	84.88
347.535	86.88
347.763	97.88
347.99	93.88
348.218	84.88
348.445	85.88
348.673	100.88
348.9	89.88
349.128	75.88
349.355	91.88
349.583	92.88
349.81	85.88
350.037	93.88
350.265	97.88
350.492	92.88
350.72	90.88
350.947	86.88
351.174	101.88
351.402	77.88
351.629	89.88
351.856	84.88
352.083	93.88
352.311	89.88
352.538	74.88
352.765	96.88
352.992	91.88
353.22	80.88
353.447	78.88
353.674	92.88
353.901	84.88
354.128	88.88
354.355	99.88
354.583	102.88
354.81	86.88
355.037	84.88
355.264	106.88
355.491	93.88
355.718	84.88
355.945	93.88
356.172	94.88
356.399	91.88
356.626	79.88
356.853	84.88
357.08	83.88
357.307	101.88
357.534	98.88
357.761	91.88
357.988	81.88
358.215	86.88
358.441	89.88
358.668	92.88
358.895	105.88
359.122	71.88
359.349	86.88
359.576	90.88
359.802	75.88
360.029	82.88
360.256	86.88
360.483	85.88
360.709	80.88
360.936	94.88
361.163	77.88
361.39	92.88
361.616	88.88
361.843	94.88
362.07	79.88
362.296	87.88
362.523	79.88
362.749	87.88
362.976	83.88
363.203	88.88
363.429	85.88
363.656	81.88
363.882	92.88
364.109	87.88
364.335	99.88
364.562	87.88
364.788	84.88
365.015	77.88
365.241	97.88
365.468	90.88
365.694	85.88
365.92	74.88
366.147	88.88
366.373	83.88
366.599	92.88
366.826	81.88
367.052	93.88
367.278	93.88
367.505	84.88
367.731	102.88
367.957	93.88
368.184	80.88
368.41	94.88
368.636	78.88
368.862	84.88
369.089	100.88
369.315	89.88
369.541	92.88
369.767	81.88
369.993	82.88
370.219	101.88
370.445	89.88
370.672	89.88
370.898	91.88
371.124	76.88
371.35	81.88
371.576	83.88
371.802	92.88
372.028	90.88
372.254	91.88
372.48	117.88
372.706	86.88
372.932	88.88
373.158	82.88
373.384	92.88
373.61	101.88
373.835	78.88
374.061	85.88
374.287	77.88
374.513	83.88
374.739	106.88
374.965	81.88
375.191	86.88
375.416	89.88
375.642	81.88
375.868	90.88
376.094	79.88
376.319	94.88
376.545	85.88
376.771	83.88
376.997	90.88
377.222	94.88
377.448	76.88
377.674	73.88
377.899	80.88
378.125	92.88
378.35	101.88
378.576	77.88
378.802	90.88
379.027	78.88
379.253	83.88
379.478	89.88
379.704	76.88
379.929	96.88
380.155	100.88
380.38	76.88
380.606	78.88
380.831	85.88
381.057	103.88
381.282	92.88
381.507	94.88
381.733	93.88
381.958	93.88
382.184	71.88
382.409	92.88
382.634	105.88
382.86	92.88
383.085	93.88
383.31	91.88
383.535	91.88
383.761	89.88
383.986	93.88
384.211	81.88
384.436	81.88
384.662	88.88
384.887	89.88
385.112	90.88
385.337	92.88
385.562	91.88
385.787	77.88
386.013	103.88
386.238	80.88
386.463	85.88
386.688	78.88
386.913	84.88
387.138	82.88
387.363	86.88
387.588	91.88
387.813	80.88
388.038	97.88
388.263	71.88
388.488	85.88
388.713	74.88
388.938	92.88
389.163	88.88
389.387	77.88
389.612	89.88
389.837	63.88
390.062	83.88
390.287	86.88
390.512	84.88
390.736	91.88
390.961	87.88
391.186	92.88
391.411	85.88
391.636	84.88
391.86	99.88
392.085	87.88
392.31	85.88
392.534	98.88
392.759	91.88
392.984	99.88
393.208	65.88
393.433	67.88
393.658	77.88
393.882	83.88
394.107	100.88
394.331	99.88
394.556	93.88
394.78	94.88
395.005	81.88
395.229	74.88
395.454	95.88
395.678	95.88
395.903	82.88
396.127	105.88
396.352	86.88
396.576	90.88
396.801	74.88
397.025	92.88
397.249	84.88
397.474	84.88
397.698	87.88
397.922	80.88
398.147	76.88
398.371	94.88
398.595	89.88
398.82	84.88
399.044	89.88
399.268	96.88
399.492	81.88
399.717	101.88
399.941	93.88
400.165	77.88
400.389	81.88
400.613	88.88
400.837	92.88
401.062	96.88
401.286	92.88
401.51	92.88
401.734	77.88
401.958	86.88
402.182	90.88
402.406	85.88
402.63	77.88
402.854	74.88
403.078	98.88
403.302	85.88
403.526	91.88
403.75	86.88
403.974	75.88
404.198	82.88
404.422	95.88
404.645	98.88
404.869	91.88
405.093	86.88
405.317	104.88
405.541	84.88
405.765	93.88
405.988	107.88
406.212	80.88
406.436	93.88
406.66	84.88
406.883	102.88
407.107	93.88
407.331	88.88
407.555	84.88
407.778	97.88
408.002	83.88
408.226	95.88
408.449	78.88
408.673	88.88
408.896	97.88
409.12	91.88
409.344	97.88
409.567	87.88
409.791	91.88
410.014	90.88
410.238	82.88
410.461	93.88
410.685	88.88
410.908	75.88
411.132	91.88
411.355	89.88
411.578	88.88
411.802	87.88
412.025	87.88
412.249	86.88
412.472	82.88
412.695	77.88
412.919	85.88
413.142	87.88
413.365	89.88
413.589	75.88
413.812	82.88
414.035	87.88
414.258	94.88
414.482	91.88
414.705	90.88
414.928	97.88
415.151	96.88
415.374	78.88
415.597	86.88
415.821	82.88
416.044	88.88
416.267	89.88
416.49	75.88
416.713	88.88
416.936	101.88
417.159	85.88
417.382	79.88
417.605	79.88
417.828	89.88
418.051	84.88
418.274	92.88
418.497	88.88
418.72	92.88
418.943	80.88
419.166	94.88
419.389	96.88
419.611	101.88
419.834	85.88
420.057	96.88
420.28	85.88
420.503	87.88
420.726	90.88
420.948	85.88
421.171	93.88
421.394	97.88
421.617	81.88
421.839	84.88
422.062	91.88
422.285	85.88
422.507	94.88
422.73	72.88
422.953	101.88
423.175	90.88
423.398	88.88
423.621	75.88
423.843	90.88
424.066	85.88
424.288	82.88
424.511	80.88
424.733	94.88
424.956	87.88
425.178	82.88
425.401	86.88
425.623	84.88
425.846	85.88
426.068	82.88
426.291	104.88
426.513	93.88
426.735	90.88
426.958	88.88
427.18	87.88
427.402	79.88
427.625	78.88
427.847	73.88
428.069	85.88
428.292	78.88
428.514	79.88
428.736	82.88
428.958	78.88
429.181	80.88
429.403	91.88
429.625	90.88
429.847	83.88
430.069	74.88
430.292	93.88
430.514	92.88
430.736	85.88
430.958	84.88
431.18	82.88
431.402	99.88
431.624	90.88
431.846	83.88
432.068	86.88
432.29	106.88
432.512	89.88
432.734	83.88
432.956	88.88
433.178	76.88
433.4	93.88
433.622	83.88
433.844	65.88
434.066	73.88
434.287	83.88
434.509	89.88
434.731	94.88
434.953	84.88
435.175	78.88
435.397	82.88
435.618	81.88
435.84	89.88
436.062	87.88
436.284	85.88
436.505	91.88
436.727	89.88
436.949	91.88
437.17	85.88
437.392	91.88
437.614	86.88
437.835	95.88
438.057	89.88
438.278	79.88
438.5	79.88
438.721	85.88
438.943	87.88
439.165	89.88
439.386	84.88
439.608	98.88
439.829	85.88
440.05	66.88
440.272	104.88
440.493	92.88
440.715	88.88
440.936	88.88
441.158	85.88
441.379	87.88
441.6	76.88
441.822	81.88
442.043	81.88
442.264	83.88
442.486	87.88
442.707	92.88
442.928	93.88
443.149	99.88
443.371	107.88
443.592	90.88
443.813	78.88
444.034	85.88
444.255	78.88
444.476	87.88
444.698	97.88
444.919	89.88
445.14	204.88
445.361	141.88
445.582	96.88
445.803	86.88
446.024	96.88
446.245	86.88
446.466	94.88
446.687	77.88
446.908	91.88
447.129	90.88
447.35	86.88
447.571	76.88
447.792	76.88
448.013	85.88
448.234	90.88
448.455	81.88
448.675	86.88
448.896	89.88
449.117	87.88
449.338	88.88
449.559	91.88
449.779	86.88
450	90.88
450.221	83.88
450.442	78.88
450.662	89.88
450.883	83.88
451.104	69.88
451.324	83.88
451.545	89.88
451.766	91.88
451.986	80.88
452.207	100.88
452.428	89.88
452.648	79.88
452.869	75.88
453.089	89.88
453.31	98.88
453.53	85.88
453.751	81.88
453.971	78.88
454.192	76.88
454.412	92.88
454.633	90.88
454.853	93.88
455.073	86.88
455.294	77.88
455.514	93.88
455.734	102.88
455.955	76.88
456.175	85.88
456.395	96.88
456.616	90.88
456.836	97.88
457.056	75.88
457.276	80.88
457.497	110.88
457.717	107.88
457.937	95.88
458.157	97.88
458.377	100.88
458.598	88.88
458.818	98.88
459.038	73.88
459.258	79.88
459.478	98.88
459.698	90.88
459.918	74.88
460.138	89.88
460.358	85.88
460.578	90.88
460.798	92.88
461.018	98.88
461.238	96.88
461.458	81.88
461.678	85.88
461.898	91.88
462.118	96.88
462.338	101.88
462.558	88.88
462.777	108.88
462.997	98.88
463.217	80.88
463.437	90.88
463.657	84.88
463.876	79.88
464.096	82.88
464.316	94.88
464.536	103.88
464.755	86.88
464.975	83.88
465.195	92.88
465.414	89.88
465.634	99.88
465.854	96.88
466.073	90.88
466.293	92.88
466.512	96.88
466.732	97.88
466.951	85.88
467.171	88.88
467.391	79.88
467.61	102.88
467.829	91.88
468.049	85.88
468.268	72.88
468.488	82.88
468.707	90.88
468.927	96.88
469.146	96.88
469.365	102.88
469.585	103.88
469.804	76.88
470.023	87.88
470.243	92.88
470.462	80.88
470.681	101.88
470.901	95.88
471.12	93.88
471.339	99.88
471.558	75.88
471.777	93.88
471.997	90.88
472.216	84.88
472.435	89.88
472.654	80.88
472.873	91.88
473.092	81.88
473.311	77.88
473.53	85.88
473.749	99.88
473.968	88.88
474.187	88.88
474.406	87.88
474.625	83.88
474.844	87.88
475.063	75.88
475.282	96.88
475.501	99.88
475.72	101.88
475.939	98.88
476.158	96.88
476.377	85.88
476.596	86.88
476.814	90.88
477.033	90.88
477.252	82.88
477.471	95.88
477.69	88.88
477.908	95.88
478.127	92.88
478.346	96.88
478.564	87.88
478.783	99.88
479.002	72.88
479.22	96.88
479.439	86.88
479.658	108.88
479.876	98.88
480.095	89.88
480.313	78.88
480.532	93.88
480.751	90.88
480.969	90.88
481.188	81.88
481.406	97.88
481.624	100.88
481.843	102.88
482.061	103.88
482.28	90.88
482.498	96.88
482.717	90.88
482.935	81.88
483.153	97.88
483.372	87.88
483.59	99.88
483.808	86.88
484.027	92.88
484.245	74.88
484.463	89.88
484.681	97.88
484.9	92.88
485.118	81.88
485.336	94.88
485.554	82.88
485.772	85.88
485.99	101.88
486.209	88.88
486.427	77.88
486.645	90.88
486.863	80.88
487.081	94.88
487.299	89.88
487.517	89.88
487.735	96.88
487.953	93.88
488.171	96.88
488.389	78.88
488.607	88.88
488.825	85.88
489.043	104.88
489.261	99.88
489.479	91.88
489.696	93.88
489.914	84.88
490.132	92.88
490.35	103.88
490.568	95.88
490.786	95.88
491.003	100.88
491.221	101.88
491.439	113.88
491.657	89.88
491.874	93.88
492.092	83.88
492.31	97.88
492.527	96.88
492.745	85.88
492.963	88.88
493.18	92.88
493.398	104.88
493.615	93.88
493.833	110.88
494.05	100.88
494.268	82.88
494.485	97.88
494.703	91.88
494.92	97.88
495.138	101.88
495.355	108.88
495.573	98.88
495.79	93.88
496.008	105.88
496.225	104.88
496.442	97.88
496.66	94.88
496.877	99.88
497.094	96.88
497.312	90.88
497.529	93.88
497.746	111.88
497.963	99.88
498.181	99.88
498.398	98.88
498.615	100.88
498.832	98.88
499.049	97.88
499.267	104.88
499.484	99.88
499.701	104.88
499.918	83.88
500.135	109.88
500.352	103.88
500.569	97.88
500.786	108.88
501.003	114.88
501.22	96.88
501.437	104.88
501.654	95.88
501.871	113.88
502.088	105.88
502.305	99.88
502.522	99.88
502.739	104.88
502.956	105.88
503.172	92.88
503.389	96.88
503.606	99.88
503.823	107.88
504.04	90.88
504.256	87.88
504.473	103.88
504.69	109.88
504.907	103.88
505.123	97.88
505.34	100.88
505.557	96.88
505.773	92.88
505.99	90.88
506.207	96.88
506.423	106.88
506.64	84.88
506.856	88.88
507.073	92.88
507.289	88.88
507.506	92.88
507.722	92.88
507.939	86.88
508.155	97.88
508.372	91.88
508.588	91.88
508.805	89.88
509.021	89.88
509.238	90.88
509.454	90.88
509.67	87.88
509.887	85.88
510.103	97.88
510.319	93.88
510.536	90.88
510.752	104.88
510.968	105.88
511.184	83.88
511.401	89.88
511.617	78.88
511.833	85.88
512.049	109.88
512.265	86.88
512.481	89.88
512.698	102.88
512.914	91.88
513.13	89.88
513.346	104.88
513.562	89.88
513.778	89.88
513.994	98.88
514.21	96.88
514.426	100.88
514.642	104.88
514.858	93.88
515.074	92.88
515.29	88.88
515.506	104.88
515.721	93.88
515.937	80.88
516.153	88.88
516.369	86.88
516.585	89.88
516.801	88.88
517.016	96.88
517.232	98.88
517.448	85.88
517.664	104.88
