Data from Ni(NO3)2@0.0625M.TitratingCurve.Agarose3%dH2O.NegLispCup.LampEnergy10.LIBS07252019_HRD10591_18-15-49-570.txt Node
Date: Thu Jul 25 18:15:49 EDT 2019
User: cochatt
Spectrometer: HR+D1059
Trigger mode: 1
Integration Time (sec): 1.000000E-1
Scans to average: 1
Electric dark correction enabled: true
Nonlinearity correction enabled: false
Boxcar width: 0
XAxis mode: Wavelengths
Number of Pixels in Spectrum: 2048
>>>>>Begin Spectral Data<<<<<
223.165	-13.69
223.4	-13.69
223.635	-13.69
223.869	-26.69
224.104	-16.69
224.338	-5.69
224.573	-21.69
224.808	-18.69
225.042	-10.69
225.277	-9.69
225.511	-0.69
225.746	10.31
225.98	-2.69
226.215	13.31
226.449	18.31
226.683	20.31
226.918	35.31
227.152	29.31
227.387	38.31
227.621	37.31
227.856	44.31
228.09	40.31
228.324	45.31
228.559	50.31
228.793	82.31
229.027	93.31
229.262	84.31
229.496	106.31
229.73	118.31
229.964	103.31
230.199	121.31
230.433	120.31
230.667	111.31
230.901	124.31
231.136	119.31
231.37	126.31
231.604	137.31
231.838	134.31
232.072	134.31
232.306	134.31
232.541	121.31
232.775	143.31
233.009	130.31
233.243	125.31
233.477	131.31
233.711	148.31
233.945	140.31
234.179	139.31
234.413	126.31
234.647	127.31
234.881	154.31
235.115	131.31
235.349	127.31
235.583	141.31
235.817	135.31
236.051	137.31
236.285	152.31
236.519	152.31
236.753	127.31
236.987	142.31
237.221	130.31
237.455	136.31
237.689	153.31
237.922	141.31
238.156	142.31
238.39	127.31
238.624	152.31
238.858	141.31
239.091	155.31
239.325	154.31
239.559	149.31
239.793	157.31
240.027	167.31
240.26	155.31
240.494	164.31
240.728	158.31
240.961	147.31
241.195	182.31
241.429	164.31
241.662	156.31
241.896	157.31
242.13	150.31
242.363	168.31
242.597	158.31
242.83	164.31
243.064	157.31
243.298	182.31
243.531	163.31
243.765	173.31
243.998	152.31
244.232	187.31
244.465	187.31
244.699	184.31
244.932	185.31
245.166	185.31
245.399	192.31
245.633	185.31
245.866	184.31
246.099	182.31
246.333	185.31
246.566	187.31
246.8	178.31
247.033	180.31
247.266	176.31
247.5	187.31
247.733	201.31
247.966	191.31
248.2	212.31
248.433	197.31
248.666	207.31
248.899	207.31
249.133	219.31
249.366	212.31
249.599	179.31
249.832	187.31
250.066	210.31
250.299	194.31
250.532	198.31
250.765	189.31
250.998	203.31
251.231	202.31
251.465	212.31
251.698	212.31
251.931	211.31
252.164	203.31
252.397	220.31
252.63	208.31
252.863	226.31
253.096	217.31
253.329	226.31
253.562	221.31
253.795	229.31
254.028	211.31
254.261	216.31
254.494	233.31
254.727	226.31
254.96	227.31
255.193	228.31
255.426	230.31
255.659	212.31
255.892	232.31
256.124	246.31
256.357	223.31
256.59	239.31
256.823	226.31
257.056	246.31
257.289	243.31
257.521	256.31
257.754	232.31
257.987	237.31
258.22	246.31
258.452	254.31
258.685	246.31
258.918	239.31
259.151	249.31
259.383	245.31
259.616	266.31
259.849	252.31
260.081	282.31
260.314	267.31
260.547	260.31
260.779	253.31
261.012	262.31
261.244	259.31
261.477	259.31
261.71	244.31
261.942	257.31
262.175	277.31
262.407	245.31
262.64	264.31
262.872	264.31
263.105	264.31
263.337	272.31
263.57	262.31
263.802	267.31
264.035	268.31
264.267	289.31
264.499	280.31
264.732	280.31
264.964	258.31
265.197	292.31
265.429	296.31
265.661	277.31
265.894	295.31
266.126	283.31
266.358	298.31
266.591	306.31
266.823	293.31
267.055	293.31
267.287	285.31
267.52	287.31
267.752	287.31
267.984	303.31
268.216	293.31
268.448	297.31
268.681	308.31
268.913	283.31
269.145	282.31
269.377	291.31
269.609	306.31
269.841	286.31
270.073	304.31
270.306	301.31
270.538	311.31
270.77	295.31
271.002	294.31
271.234	303.31
271.466	303.31
271.698	307.31
271.93	306.31
272.162	331.31
272.394	303.31
272.626	311.31
272.858	310.31
273.09	300.31
273.322	320.31
273.553	325.31
273.785	310.31
274.017	322.31
274.249	330.31
274.481	319.31
274.713	328.31
274.945	337.31
275.176	328.31
275.408	338.31
275.64	332.31
275.872	339.31
276.104	323.31
276.335	333.31
276.567	314.31
276.799	330.31
277.031	321.31
277.262	355.31
277.494	342.31
277.726	358.31
277.957	332.31
278.189	328.31
278.421	335.31
278.652	359.31
278.884	346.31
279.115	353.31
279.347	350.31
279.579	350.31
279.81	342.31
280.042	367.31
280.273	361.31
280.505	346.31
280.736	377.31
280.968	356.31
281.199	363.31
281.431	367.31
281.662	357.31
281.894	360.31
282.125	359.31
282.356	391.31
282.588	374.31
282.819	362.31
283.051	376.31
283.282	384.31
283.513	381.31
283.745	384.31
283.976	376.31
284.207	386.31
284.439	376.31
284.67	372.31
284.901	380.31
285.132	376.31
285.364	364.31
285.595	396.31
285.826	386.31
286.057	385.31
286.288	397.31
286.52	401.31
286.751	388.31
286.982	398.31
287.213	407.31
287.444	394.31
287.675	408.31
287.906	392.31
288.138	395.31
288.369	402.31
288.6	399.31
288.831	421.31
289.062	435.31
289.293	408.31
289.524	404.31
289.755	389.31
289.986	403.31
290.217	414.31
290.448	429.31
290.679	420.31
290.91	409.31
291.141	409.31
291.371	422.31
291.602	417.31
291.833	406.31
292.064	427.31
292.295	429.31
292.526	425.31
292.757	438.31
292.987	418.31
293.218	407.31
293.449	428.31
293.68	432.31
293.91	419.31
294.141	418.31
294.372	405.31
294.603	425.31
294.833	427.31
295.064	427.31
295.295	422.31
295.525	424.31
295.756	428.31
295.987	435.31
296.217	434.31
296.448	440.31
296.679	435.31
296.909	432.31
297.14	453.31
297.37	455.31
297.601	457.31
297.831	476.31
298.062	467.31
298.292	472.31
298.523	463.31
298.753	477.31
298.984	436.31
299.214	452.31
299.445	473.31
299.675	448.31
299.905	472.31
300.136	467.31
300.366	463.31
300.597	468.31
300.827	470.31
301.057	475.31
301.288	493.31
301.518	471.31
301.748	502.31
301.979	474.31
302.209	494.31
302.439	483.31
302.669	467.31
302.9	448.31
303.13	474.31
303.36	493.31
303.59	466.31
303.82	485.31
304.051	477.31
304.281	482.31
304.511	472.31
304.741	483.31
304.971	474.31
305.201	494.31
305.431	480.31
305.661	471.31
305.891	456.31
306.121	468.31
306.352	471.31
306.582	470.31
306.812	454.31
307.042	461.31
307.272	473.31
307.502	463.31
307.731	443.31
307.961	437.31
308.191	465.31
308.421	455.31
308.651	458.31
308.881	461.31
309.111	461.31
309.341	442.31
309.571	460.31
309.8	466.31
310.03	446.31
310.26	454.31
310.49	463.31
310.72	486.31
310.949	457.31
311.179	461.31
311.409	471.31
311.639	464.31
311.868	468.31
312.098	467.31
312.328	485.31
312.557	501.31
312.787	488.31
313.017	479.31
313.246	494.31
313.476	501.31
313.706	503.31
313.935	504.31
314.165	504.31
314.394	494.31
314.624	505.31
314.853	487.31
315.083	492.31
315.312	487.31
315.542	498.31
315.771	487.31
316.001	483.31
316.23	497.31
316.46	477.31
316.689	495.31
316.919	479.31
317.148	499.31
317.377	498.31
317.607	478.31
317.836	476.31
318.065	478.31
318.295	489.31
318.524	469.31
318.753	487.31
318.983	491.31
319.212	477.31
319.441	469.31
319.67	495.31
319.9	492.31
320.129	490.31
320.358	475.31
320.587	472.31
320.816	483.31
321.046	460.31
321.275	502.31
321.504	462.31
321.733	499.31
321.962	490.31
322.191	473.31
322.42	494.31
322.649	502.31
322.878	493.31
323.108	478.31
323.337	493.31
323.566	490.31
323.795	519.31
324.024	481.31
324.253	491.31
324.482	480.31
324.71	510.31
324.939	515.31
325.168	514.31
325.397	503.31
325.626	511.31
325.855	527.31
326.084	534.31
326.313	551.31
326.542	533.31
326.77	556.31
326.999	532.31
327.228	544.31
327.457	517.31
327.686	527.31
327.914	528.31
328.143	530.31
328.372	543.31
328.6	534.31
328.829	532.31
329.058	534.31
329.287	529.31
329.515	519.31
329.744	537.31
329.972	546.31
330.201	548.31
330.43	545.31
330.658	527.31
330.887	540.31
331.115	542.31
331.344	557.31
331.572	567.31
331.801	574.31
332.03	562.31
332.258	602.31
332.486	628.31
332.715	637.31
332.943	670.31
333.172	709.31
333.4	708.31
333.629	713.31
333.857	734.31
334.085	735.31
334.314	695.31
334.542	680.31
334.771	699.31
334.999	656.31
335.227	669.31
335.455	690.31
335.684	644.31
335.912	636.31
336.14	657.31
336.369	646.31
336.597	653.31
336.825	629.31
337.053	620.31
337.281	631.31
337.51	624.31
337.738	628.31
337.966	610.31
338.194	589.31
338.422	575.31
338.65	571.31
338.878	578.31
339.106	597.31
339.334	607.31
339.562	575.31
339.79	548.31
340.018	544.31
340.246	535.31
340.474	529.31
340.702	552.31
340.93	579.31
341.158	564.31
341.386	589.31
341.614	582.31
341.842	577.31
342.07	529.31
342.298	541.31
342.526	528.31
342.754	545.31
342.981	533.31
343.209	550.31
343.437	606.31
343.665	624.31
343.893	661.31
344.12	679.31
344.348	668.31
344.576	622.31
344.804	616.31
345.031	569.31
345.259	564.31
345.487	547.31
345.714	584.31
345.942	580.31
346.17	559.31
346.397	528.31
346.625	529.31
346.853	551.31
347.08	553.31
347.308	542.31
347.535	581.31
347.763	539.31
347.99	551.31
348.218	559.31
348.445	557.31
348.673	579.31
348.9	523.31
349.128	544.31
349.355	551.31
349.583	544.31
349.81	522.31
350.037	538.31
350.265	528.31
350.492	527.31
350.72	541.31
350.947	526.31
351.174	534.31
351.402	534.31
351.629	550.31
351.856	523.31
352.083	532.31
352.311	548.31
352.538	528.31
352.765	553.31
352.992	508.31
353.22	527.31
353.447	508.31
353.674	516.31
353.901	514.31
354.128	526.31
354.355	520.31
354.583	529.31
354.81	542.31
355.037	517.31
355.264	525.31
355.491	517.31
355.718	525.31
355.945	527.31
356.172	553.31
356.399	540.31
356.626	527.31
356.853	541.31
357.08	538.31
357.307	546.31
357.534	540.31
357.761	525.31
357.988	522.31
358.215	529.31
358.441	547.31
358.668	507.31
358.895	534.31
359.122	526.31
359.349	512.31
359.576	509.31
359.802	546.31
360.029	520.31
360.256	528.31
360.483	525.31
360.709	516.31
360.936	536.31
361.163	527.31
361.39	517.31
361.616	538.31
361.843	533.31
362.07	542.31
362.296	558.31
362.523	533.31
362.749	539.31
362.976	539.31
363.203	513.31
363.429	521.31
363.656	529.31
363.882	537.31
364.109	563.31
364.335	519.31
364.562	501.31
364.788	483.31
365.015	508.31
365.241	524.31
365.468	512.31
365.694	526.31
365.92	512.31
366.147	527.31
366.373	533.31
366.599	523.31
366.826	522.31
367.052	511.31
367.278	516.31
367.505	517.31
367.731	526.31
367.957	514.31
368.184	511.31
368.41	531.31
368.636	544.31
368.862	542.31
369.089	542.31
369.315	533.31
369.541	537.31
369.767	538.31
369.993	543.31
370.219	527.31
370.445	542.31
370.672	553.31
370.898	543.31
371.124	569.31
371.35	559.31
371.576	579.31
371.802	578.31
372.028	566.31
372.254	564.31
372.48	575.31
372.706	604.31
372.932	594.31
373.158	600.31
373.384	601.31
373.61	559.31
373.835	567.31
374.061	582.31
374.287	588.31
374.513	584.31
374.739	599.31
374.965	597.31
375.191	659.31
375.416	634.31
375.642	619.31
375.868	623.31
376.094	592.31
376.319	602.31
376.545	613.31
376.771	589.31
376.997	582.31
377.222	583.31
377.448	573.31
377.674	579.31
377.899	572.31
378.125	574.31
378.35	556.31
378.576	570.31
378.802	568.31
379.027	579.31
379.253	571.31
379.478	558.31
379.704	546.31
379.929	571.31
380.155	574.31
380.38	580.31
380.606	579.31
380.831	555.31
381.057	564.31
381.282	583.31
381.507	588.31
381.733	565.31
381.958	583.31
382.184	578.31
382.409	574.31
382.634	622.31
382.86	581.31
383.085	597.31
383.31	615.31
383.535	599.31
383.761	632.31
383.986	665.31
384.211	692.31
384.436	682.31
384.662	683.31
384.887	691.31
385.112	683.31
385.337	698.31
385.562	673.31
385.787	671.31
386.013	708.31
386.238	687.31
386.463	698.31
386.688	687.31
386.913	669.31
387.138	677.31
387.363	662.31
387.588	658.31
387.813	661.31
388.038	687.31
388.263	671.31
388.488	656.31
388.713	688.31
388.938	675.31
389.163	655.31
389.387	656.31
389.612	671.31
389.837	666.31
390.062	671.31
390.287	656.31
390.512	655.31
390.736	679.31
390.961	676.31
391.186	699.31
391.411	714.31
391.636	735.31
391.86	764.31
392.085	788.31
392.31	766.31
392.534	742.31
392.759	745.31
392.984	724.31
393.208	720.31
393.433	711.31
393.658	697.31
393.882	738.31
394.107	746.31
394.331	713.31
394.556	748.31
394.78	747.31
395.005	734.31
395.229	712.31
395.454	752.31
395.678	798.31
395.903	799.31
396.127	744.31
396.352	733.31
396.576	736.31
396.801	711.31
397.025	726.31
397.249	731.31
397.474	758.31
397.698	746.31
397.922	750.31
398.147	748.31
398.371	736.31
398.595	809.31
398.82	826.31
399.044	889.31
399.268	998.31
399.492	1123.31
399.717	1301.31
399.941	1326.31
400.165	1182.31
400.389	1029.31
400.613	932.31
400.837	857.31
401.062	857.31
401.286	851.31
401.51	819.31
401.734	862.31
401.958	854.31
402.182	867.31
402.406	870.31
402.63	891.31
402.854	925.31
403.078	917.31
403.302	933.31
403.526	966.31
403.75	993.31
403.974	1016.31
404.198	992.31
404.422	1016.31
404.645	1012.31
404.869	980.31
405.093	952.31
405.317	949.31
405.541	943.31
405.765	904.31
405.988	922.31
406.212	924.31
406.436	951.31
406.66	966.31
406.883	938.31
407.107	1053.31
407.331	1085.31
407.555	1113.31
407.778	1135.31
408.002	1122.31
408.226	1055.31
408.449	1039.31
408.673	994.31
408.896	1005.31
409.12	975.31
409.344	963.31
409.567	957.31
409.791	1007.31
410.014	1007.31
410.238	991.31
410.461	979.31
410.685	934.31
410.908	924.31
411.132	897.31
411.355	894.31
411.578	887.31
411.802	879.31
412.025	902.31
412.249	901.31
412.472	887.31
412.695	860.31
412.919	849.31
413.142	828.31
413.365	848.31
413.589	852.31
413.812	829.31
414.035	832.31
414.258	843.31
414.482	860.31
414.705	890.31
414.928	864.31
415.151	851.31
415.374	879.31
415.597	875.31
415.821	858.31
416.044	824.31
416.267	840.31
416.49	795.31
416.713	815.31
416.936	819.31
417.159	828.31
417.382	807.31
417.605	833.31
417.828	849.31
418.051	859.31
418.274	860.31
418.497	869.31
418.72	860.31
418.943	874.31
419.166	926.31
419.389	986.31
419.611	940.31
419.834	926.31
420.057	911.31
420.28	843.31
420.503	858.31
420.726	850.31
420.948	840.31
421.171	835.31
421.394	843.31
421.617	831.31
421.839	860.31
422.062	825.31
422.285	829.31
422.507	867.31
422.73	854.31
422.953	904.31
423.175	895.31
423.398	923.31
423.621	912.31
423.843	924.31
424.066	946.31
424.288	916.31
424.511	903.31
424.733	885.31
424.956	859.31
425.178	834.31
425.401	821.31
425.623	853.31
425.846	820.31
426.068	824.31
426.291	811.31
426.513	803.31
426.735	800.31
426.958	814.31
427.18	780.31
427.402	779.31
427.625	770.31
427.847	758.31
428.069	763.31
428.292	763.31
428.514	747.31
428.736	750.31
428.958	749.31
429.181	755.31
429.403	738.31
429.625	745.31
429.847	730.31
430.069	725.31
430.292	741.31
430.514	739.31
430.736	764.31
430.958	738.31
431.18	731.31
431.402	752.31
431.624	743.31
431.846	775.31
432.068	787.31
432.29	775.31
432.512	755.31
432.734	771.31
432.956	725.31
433.178	754.31
433.4	753.31
433.622	747.31
433.844	760.31
434.066	766.31
434.287	774.31
434.509	811.31
434.731	840.31
434.953	868.31
435.175	882.31
435.397	887.31
435.618	804.31
435.84	795.31
436.062	789.31
436.284	757.31
436.505	749.31
436.727	747.31
436.949	775.31
437.17	761.31
437.392	743.31
437.614	743.31
437.835	719.31
438.057	746.31
438.278	713.31
438.5	749.31
438.721	742.31
438.943	751.31
439.165	736.31
439.386	745.31
439.608	762.31
439.829	778.31
440.05	747.31
440.272	767.31
440.493	786.31
440.715	771.31
440.936	812.31
441.158	828.31
441.379	832.31
441.6	855.31
441.822	891.31
442.043	879.31
442.264	872.31
442.486	842.31
442.707	870.31
442.928	856.31
443.149	878.31
443.371	856.31
443.592	858.31
443.813	853.31
444.034	840.31
444.255	856.31
444.476	920.31
444.698	984.31
444.919	1061.31
445.14	1090.31
445.361	990.31
445.582	889.31
445.803	830.31
446.024	826.31
446.245	826.31
446.466	789.31
446.687	770.31
446.908	787.31
447.129	774.31
447.35	756.31
447.571	762.31
447.792	717.31
448.013	720.31
448.234	696.31
448.455	720.31
448.675	668.31
448.896	725.31
449.117	692.31
449.338	698.31
449.559	708.31
449.779	703.31
450	699.31
450.221	732.31
450.442	715.31
450.662	702.31
450.883	722.31
451.104	772.31
451.324	746.31
451.545	745.31
451.766	734.31
451.986	712.31
452.207	724.31
452.428	711.31
452.648	712.31
452.869	700.31
453.089	691.31
453.31	683.31
453.53	688.31
453.751	711.31
453.971	687.31
454.192	708.31
454.412	656.31
454.633	668.31
454.853	669.31
455.073	660.31
455.294	652.31
455.514	676.31
455.734	642.31
455.955	664.31
456.175	675.31
456.395	664.31
456.616	673.31
456.836	672.31
457.056	652.31
457.276	639.31
457.497	667.31
457.717	655.31
457.937	651.31
458.157	672.31
458.377	652.31
458.598	672.31
458.818	716.31
459.038	719.31
459.258	748.31
459.478	764.31
459.698	815.31
459.918	830.31
460.138	836.31
460.358	887.31
460.578	940.31
460.798	925.31
461.018	922.31
461.238	908.31
461.458	913.31
461.678	880.31
461.898	866.31
462.118	917.31
462.338	974.31
462.558	982.31
462.777	1027.31
462.997	1156.31
463.217	1247.31
463.437	1241.31
463.657	1130.31
463.876	1078.31
464.096	1087.31
464.316	1064.31
464.536	1078.31
464.755	1056.31
464.975	1017.31
465.195	962.31
465.414	900.31
465.634	853.31
465.854	822.31
466.073	760.31
466.293	775.31
466.512	747.31
466.732	743.31
466.951	745.31
467.171	745.31
467.391	759.31
467.61	743.31
467.829	747.31
468.049	738.31
468.268	702.31
468.488	696.31
468.707	703.31
468.927	715.31
469.146	709.31
469.365	710.31
469.585	703.31
469.804	741.31
470.023	770.31
470.243	755.31
470.462	760.31
470.681	789.31
470.901	762.31
471.12	745.31
471.339	745.31
471.558	743.31
471.777	709.31
471.997	704.31
472.216	696.31
472.435	716.31
472.654	698.31
472.873	698.31
473.092	711.31
473.311	667.31
473.53	690.31
473.749	707.31
473.968	686.31
474.187	680.31
474.406	687.31
474.625	693.31
474.844	692.31
475.063	690.31
475.282	682.31
475.501	698.31
475.72	711.31
475.939	725.31
476.158	729.31
476.377	718.31
476.596	715.31
476.814	735.31
477.033	740.31
477.252	749.31
477.471	758.31
477.69	772.31
477.908	784.31
478.127	802.31
478.346	828.31
478.564	843.31
478.783	835.31
479.002	863.31
479.22	889.31
479.439	852.31
479.658	840.31
479.876	856.31
480.095	859.31
480.313	904.31
480.532	922.31
480.751	916.31
480.969	869.31
481.188	868.31
481.406	852.31
481.624	842.31
481.843	813.31
482.061	796.31
482.28	810.31
482.498	774.31
482.717	789.31
482.935	798.31
483.153	788.31
483.372	771.31
483.59	807.31
483.808	804.31
484.027	808.31
484.245	816.31
484.463	824.31
484.681	808.31
484.9	819.31
485.118	842.31
485.336	821.31
485.554	837.31
485.772	871.31
485.99	876.31
486.209	864.31
486.427	862.31
486.645	860.31
486.863	852.31
487.081	854.31
487.299	847.31
487.517	835.31
487.735	852.31
487.953	843.31
488.171	805.31
488.389	854.31
488.607	798.31
488.825	818.31
489.043	837.31
489.261	829.31
489.479	841.31
489.696	830.31
489.914	828.31
490.132	837.31
490.35	808.31
490.568	819.31
490.786	852.31
491.003	828.31
491.221	838.31
491.439	849.31
491.657	847.31
491.874	814.31
492.092	840.31
492.31	845.31
492.527	826.31
492.745	839.31
492.963	848.31
493.18	827.31
493.398	878.31
493.615	866.31
493.833	877.31
494.05	875.31
494.268	854.31
494.485	858.31
494.703	893.31
494.92	856.31
495.138	850.31
495.355	861.31
495.573	891.31
495.79	868.31
496.008	906.31
496.225	879.31
496.442	892.31
496.66	912.31
496.877	912.31
497.094	910.31
497.312	918.31
497.529	955.31
497.746	990.31
497.963	1034.31
498.181	1048.31
498.398	1100.31
498.615	1152.31
498.832	1209.31
499.049	1308.31
499.267	1415.31
499.484	1545.31
499.701	1750.31
499.918	1908.31
500.135	2261.31
500.352	2656.31
500.569	2743.31
500.786	2705.31
501.003	2484.31
