Data from Ni(NO3)2@0.5M.TitratingCurve.Agarose3%dH2O.NegLispCup.LampEnergy10.LIBS07252019_HRD10591_17-58-10-564.txt Node
Date: Thu Jul 25 17:58:10 EDT 2019
User: cochatt
Spectrometer: HR+D1059
Trigger mode: 1
Integration Time (sec): 1.000000E-1
Scans to average: 1
Electric dark correction enabled: true
Nonlinearity correction enabled: false
Boxcar width: 0
XAxis mode: Wavelengths
Number of Pixels in Spectrum: 2048
>>>>>Begin Spectral Data<<<<<
223.165	-15.5
223.4	-15.5
223.635	-15.5
223.869	-21.5
224.104	-12.5
224.338	-6.5
224.573	-5.5
224.808	-25.5
225.042	-9.5
225.277	-10.5
225.511	-13.5
225.746	-3.5
225.98	26.5
226.215	9.5
226.449	14.5
226.683	21.5
226.918	22.5
227.152	29.5
227.387	34.5
227.621	38.5
227.856	27.5
228.09	43.5
228.324	39.5
228.559	60.5
228.793	64.5
229.027	99.5
229.262	113.5
229.496	92.5
229.73	88.5
229.964	120.5
230.199	123.5
230.433	123.5
230.667	118.5
230.901	150.5
231.136	122.5
231.37	120.5
231.604	126.5
231.838	124.5
232.072	123.5
232.306	137.5
232.541	125.5
232.775	114.5
233.009	122.5
233.243	136.5
233.477	122.5
233.711	121.5
233.945	124.5
234.179	132.5
234.413	128.5
234.647	127.5
234.881	133.5
235.115	119.5
235.349	135.5
235.583	117.5
235.817	114.5
236.051	108.5
236.285	117.5
236.519	109.5
236.753	120.5
236.987	127.5
237.221	123.5
237.455	120.5
237.689	128.5
237.922	133.5
238.156	117.5
238.39	115.5
238.624	129.5
238.858	125.5
239.091	132.5
239.325	142.5
239.559	140.5
239.793	143.5
240.027	152.5
240.26	139.5
240.494	131.5
240.728	134.5
240.961	139.5
241.195	125.5
241.429	133.5
241.662	154.5
241.896	133.5
242.13	151.5
242.363	135.5
242.597	137.5
242.83	141.5
243.064	152.5
243.298	163.5
243.531	151.5
243.765	144.5
243.998	143.5
244.232	155.5
244.465	150.5
244.699	157.5
244.932	148.5
245.166	165.5
245.399	149.5
245.633	155.5
245.866	149.5
246.099	152.5
246.333	154.5
246.566	157.5
246.8	146.5
247.033	163.5
247.266	183.5
247.5	161.5
247.733	160.5
247.966	178.5
248.2	161.5
248.433	177.5
248.666	182.5
248.899	165.5
249.133	171.5
249.366	166.5
249.599	171.5
249.832	198.5
250.066	179.5
250.299	183.5
250.532	173.5
250.765	179.5
250.998	192.5
251.231	193.5
251.465	218.5
251.698	211.5
251.931	185.5
252.164	198.5
252.397	212.5
252.63	189.5
252.863	211.5
253.096	187.5
253.329	205.5
253.562	205.5
253.795	208.5
254.028	211.5
254.261	189.5
254.494	217.5
254.727	217.5
254.96	214.5
255.193	215.5
255.426	232.5
255.659	208.5
255.892	225.5
256.124	200.5
256.357	205.5
256.59	220.5
256.823	216.5
257.056	219.5
257.289	223.5
257.521	223.5
257.754	221.5
257.987	237.5
258.22	241.5
258.452	247.5
258.685	227.5
258.918	236.5
259.151	223.5
259.383	230.5
259.616	246.5
259.849	259.5
260.081	243.5
260.314	261.5
260.547	251.5
260.779	254.5
261.012	255.5
261.244	240.5
261.477	231.5
261.71	250.5
261.942	244.5
262.175	261.5
262.407	239.5
262.64	264.5
262.872	260.5
263.105	240.5
263.337	252.5
263.57	257.5
263.802	263.5
264.035	250.5
264.267	258.5
264.499	275.5
264.732	268.5
264.964	282.5
265.197	268.5
265.429	268.5
265.661	282.5
265.894	260.5
266.126	279.5
266.358	269.5
266.591	255.5
266.823	277.5
267.055	269.5
267.287	284.5
267.52	283.5
267.752	280.5
267.984	313.5
268.216	285.5
268.448	291.5
268.681	290.5
268.913	282.5
269.145	295.5
269.377	294.5
269.609	284.5
269.841	290.5
270.073	285.5
270.306	296.5
270.538	291.5
270.77	301.5
271.002	303.5
271.234	291.5
271.466	308.5
271.698	300.5
271.93	292.5
272.162	300.5
272.394	304.5
272.626	309.5
272.858	316.5
273.09	300.5
273.322	283.5
273.553	296.5
273.785	308.5
274.017	310.5
274.249	320.5
274.481	306.5
274.713	314.5
274.945	312.5
275.176	312.5
275.408	316.5
275.64	334.5
275.872	312.5
276.104	323.5
276.335	340.5
276.567	340.5
276.799	325.5
277.031	319.5
277.262	321.5
277.494	328.5
277.726	324.5
277.957	331.5
278.189	332.5
278.421	331.5
278.652	354.5
278.884	334.5
279.115	327.5
279.347	339.5
279.579	323.5
279.81	344.5
280.042	314.5
280.273	348.5
280.505	338.5
280.736	351.5
280.968	339.5
281.199	339.5
281.431	358.5
281.662	338.5
281.894	349.5
282.125	323.5
282.356	330.5
282.588	333.5
282.819	346.5
283.051	359.5
283.282	335.5
283.513	361.5
283.745	363.5
283.976	347.5
284.207	364.5
284.439	345.5
284.67	352.5
284.901	352.5
285.132	362.5
285.364	376.5
285.595	354.5
285.826	359.5
286.057	376.5
286.288	359.5
286.52	376.5
286.751	362.5
286.982	343.5
287.213	373.5
287.444	368.5
287.675	361.5
287.906	348.5
288.138	359.5
288.369	372.5
288.6	377.5
288.831	388.5
289.062	368.5
289.293	356.5
289.524	346.5
289.755	377.5
289.986	364.5
290.217	365.5
290.448	363.5
290.679	351.5
290.91	355.5
291.141	377.5
291.371	385.5
291.602	377.5
291.833	369.5
292.064	372.5
292.295	380.5
292.526	371.5
292.757	387.5
292.987	387.5
293.218	388.5
293.449	394.5
293.68	377.5
293.91	392.5
294.141	389.5
294.372	381.5
294.603	375.5
294.833	374.5
295.064	368.5
295.295	380.5
295.525	389.5
295.756	378.5
295.987	371.5
296.217	380.5
296.448	381.5
296.679	380.5
296.909	400.5
297.14	404.5
297.37	386.5
297.601	402.5
297.831	391.5
298.062	391.5
298.292	400.5
298.523	396.5
298.753	386.5
298.984	398.5
299.214	403.5
299.445	392.5
299.675	377.5
299.905	406.5
300.136	412.5
300.366	416.5
300.597	420.5
300.827	417.5
301.057	404.5
301.288	439.5
301.518	413.5
301.748	422.5
301.979	433.5
302.209	437.5
302.439	426.5
302.669	409.5
302.9	405.5
303.13	416.5
303.36	424.5
303.59	421.5
303.82	429.5
304.051	433.5
304.281	438.5
304.511	434.5
304.741	439.5
304.971	457.5
305.201	440.5
305.431	443.5
305.661	449.5
305.891	447.5
306.121	424.5
306.352	421.5
306.582	425.5
306.812	445.5
307.042	437.5
307.272	437.5
307.502	435.5
307.731	437.5
307.961	422.5
308.191	452.5
308.421	429.5
308.651	439.5
308.881	441.5
309.111	442.5
309.341	451.5
309.571	467.5
309.8	446.5
310.03	458.5
310.26	455.5
310.49	479.5
310.72	461.5
310.949	460.5
311.179	448.5
311.409	432.5
311.639	449.5
311.868	456.5
312.098	438.5
312.328	475.5
312.557	458.5
312.787	459.5
313.017	454.5
313.246	473.5
313.476	477.5
313.706	468.5
313.935	487.5
314.165	465.5
314.394	473.5
314.624	458.5
314.853	459.5
315.083	485.5
315.312	481.5
315.542	491.5
315.771	487.5
316.001	462.5
316.23	484.5
316.46	491.5
316.689	488.5
316.919	484.5
317.148	498.5
317.377	514.5
317.607	488.5
317.836	509.5
318.065	471.5
318.295	489.5
318.524	526.5
318.753	509.5
318.983	490.5
319.212	505.5
319.441	501.5
319.67	492.5
319.9	518.5
320.129	499.5
320.358	524.5
320.587	526.5
320.816	515.5
321.046	511.5
321.275	543.5
321.504	515.5
321.733	516.5
321.962	528.5
322.191	523.5
322.42	510.5
322.649	530.5
322.878	534.5
323.108	515.5
323.337	515.5
323.566	530.5
323.795	564.5
324.024	562.5
324.253	513.5
324.482	543.5
324.71	550.5
324.939	557.5
325.168	547.5
325.397	539.5
325.626	543.5
325.855	572.5
326.084	567.5
326.313	559.5
326.542	561.5
326.77	570.5
326.999	547.5
327.228	562.5
327.457	571.5
327.686	571.5
327.914	567.5
328.143	589.5
328.372	578.5
328.6	583.5
328.829	572.5
329.058	569.5
329.287	573.5
329.515	565.5
329.744	589.5
329.972	584.5
330.201	588.5
330.43	588.5
330.658	573.5
330.887	572.5
331.115	587.5
331.344	590.5
331.572	611.5
331.801	579.5
332.03	603.5
332.258	610.5
332.486	620.5
332.715	621.5
332.943	616.5
333.172	626.5
333.4	667.5
333.629	671.5
333.857	657.5
334.085	649.5
334.314	680.5
334.542	668.5
334.771	667.5
334.999	649.5
335.227	653.5
335.455	656.5
335.684	669.5
335.912	676.5
336.14	675.5
336.369	637.5
336.597	674.5
336.825	689.5
337.053	669.5
337.281	670.5
337.51	654.5
337.738	676.5
337.966	674.5
338.194	669.5
338.422	653.5
338.65	650.5
338.878	626.5
339.106	665.5
339.334	651.5
339.562	653.5
339.79	638.5
340.018	633.5
340.246	627.5
340.474	635.5
340.702	641.5
340.93	621.5
341.158	656.5
341.386	679.5
341.614	669.5
341.842	661.5
342.07	656.5
342.298	643.5
342.526	645.5
342.754	624.5
342.981	635.5
343.209	668.5
343.437	651.5
343.665	671.5
343.893	671.5
344.12	665.5
344.348	678.5
344.576	671.5
344.804	687.5
345.031	647.5
345.259	660.5
345.487	652.5
345.714	673.5
345.942	663.5
346.17	667.5
346.397	665.5
346.625	610.5
346.853	616.5
347.08	618.5
347.308	628.5
347.535	643.5
347.763	627.5
347.99	608.5
348.218	634.5
348.445	621.5
348.673	627.5
348.9	613.5
349.128	625.5
349.355	639.5
349.583	660.5
349.81	626.5
350.037	624.5
350.265	610.5
350.492	628.5
350.72	612.5
350.947	618.5
351.174	639.5
351.402	645.5
351.629	657.5
351.856	651.5
352.083	629.5
352.311	650.5
352.538	649.5
352.765	618.5
352.992	600.5
353.22	583.5
353.447	615.5
353.674	588.5
353.901	602.5
354.128	601.5
354.355	598.5
354.583	597.5
354.81	599.5
355.037	594.5
355.264	606.5
355.491	597.5
355.718	605.5
355.945	609.5
356.172	618.5
356.399	631.5
356.626	639.5
356.853	608.5
357.08	614.5
357.307	623.5
357.534	600.5
357.761	599.5
357.988	601.5
358.215	595.5
358.441	600.5
358.668	579.5
358.895	603.5
359.122	558.5
359.349	597.5
359.576	604.5
359.802	626.5
360.029	620.5
360.256	618.5
360.483	600.5
360.709	583.5
360.936	601.5
361.163	610.5
361.39	616.5
361.616	616.5
361.843	602.5
362.07	638.5
362.296	633.5
362.523	625.5
362.749	612.5
362.976	624.5
363.203	600.5
363.429	620.5
363.656	601.5
363.882	604.5
364.109	592.5
364.335	590.5
364.562	606.5
364.788	593.5
365.015	602.5
365.241	603.5
365.468	613.5
365.694	592.5
365.92	613.5
366.147	614.5
366.373	612.5
366.599	624.5
366.826	583.5
367.052	607.5
367.278	620.5
367.505	613.5
367.731	638.5
367.957	621.5
368.184	606.5
368.41	616.5
368.636	612.5
368.862	627.5
369.089	606.5
369.315	597.5
369.541	600.5
369.767	636.5
369.993	623.5
370.219	639.5
370.445	619.5
370.672	642.5
370.898	664.5
371.124	610.5
371.35	635.5
371.576	639.5
371.802	613.5
372.028	631.5
372.254	651.5
372.48	639.5
372.706	633.5
372.932	652.5
373.158	625.5
373.384	631.5
373.61	634.5
373.835	634.5
374.061	637.5
374.287	653.5
374.513	646.5
374.739	664.5
374.965	672.5
375.191	668.5
375.416	656.5
375.642	644.5
375.868	656.5
376.094	652.5
376.319	645.5
376.545	628.5
376.771	632.5
376.997	635.5
377.222	632.5
377.448	613.5
377.674	620.5
377.899	637.5
378.125	606.5
378.35	636.5
378.576	607.5
378.802	617.5
379.027	657.5
379.253	619.5
379.478	620.5
379.704	641.5
379.929	615.5
380.155	613.5
380.38	610.5
380.606	624.5
380.831	645.5
381.057	627.5
381.282	628.5
381.507	635.5
381.733	621.5
381.958	611.5
382.184	646.5
382.409	635.5
382.634	653.5
382.86	658.5
383.085	666.5
383.31	636.5
383.535	654.5
383.761	647.5
383.986	675.5
384.211	659.5
384.436	653.5
384.662	662.5
384.887	667.5
385.112	683.5
385.337	681.5
385.562	704.5
385.787	692.5
386.013	716.5
386.238	712.5
386.463	706.5
386.688	713.5
386.913	669.5
387.138	705.5
387.363	707.5
387.588	711.5
387.813	683.5
388.038	699.5
388.263	703.5
388.488	705.5
388.713	714.5
388.938	695.5
389.163	708.5
389.387	725.5
389.612	695.5
389.837	717.5
390.062	698.5
390.287	707.5
390.512	706.5
390.736	698.5
390.961	694.5
391.186	717.5
391.411	726.5
391.636	731.5
391.86	727.5
392.085	732.5
392.31	726.5
392.534	752.5
392.759	716.5
392.984	731.5
393.208	749.5
393.433	733.5
393.658	729.5
393.882	717.5
394.107	720.5
394.331	724.5
394.556	716.5
394.78	735.5
395.005	738.5
395.229	744.5
395.454	755.5
395.678	735.5
395.903	760.5
396.127	761.5
396.352	719.5
396.576	740.5
396.801	739.5
397.025	766.5
397.249	738.5
397.474	757.5
397.698	756.5
397.922	788.5
398.147	760.5
398.371	803.5
398.595	802.5
398.82	827.5
399.044	835.5
399.268	881.5
399.492	927.5
399.717	962.5
399.941	960.5
400.165	929.5
400.389	911.5
400.613	860.5
400.837	868.5
401.062	852.5
401.286	812.5
401.51	844.5
401.734	802.5
401.958	817.5
402.182	815.5
402.406	826.5
402.63	830.5
402.854	836.5
403.078	808.5
403.302	808.5
403.526	819.5
403.75	838.5
403.974	853.5
404.198	821.5
404.422	852.5
404.645	807.5
404.869	831.5
405.093	841.5
405.317	837.5
405.541	870.5
405.765	881.5
405.988	865.5
406.212	908.5
406.436	869.5
406.66	877.5
406.883	854.5
407.107	906.5
407.331	909.5
407.555	934.5
407.778	932.5
408.002	913.5
408.226	947.5
408.449	927.5
408.673	907.5
408.896	897.5
409.12	889.5
409.344	920.5
409.567	866.5
409.791	875.5
410.014	859.5
410.238	856.5
410.461	849.5
410.685	859.5
410.908	869.5
411.132	860.5
411.355	844.5
411.578	843.5
411.802	863.5
412.025	831.5
412.249	825.5
412.472	844.5
412.695	821.5
412.919	830.5
413.142	851.5
413.365	844.5
413.589	844.5
413.812	845.5
414.035	835.5
414.258	837.5
414.482	848.5
414.705	819.5
414.928	801.5
415.151	825.5
415.374	813.5
415.597	824.5
415.821	811.5
416.044	809.5
416.267	783.5
416.49	788.5
416.713	827.5
416.936	803.5
417.159	820.5
417.382	796.5
417.605	809.5
417.828	808.5
418.051	776.5
418.274	823.5
418.497	796.5
418.72	823.5
418.943	799.5
419.166	857.5
419.389	880.5
419.611	887.5
419.834	886.5
420.057	810.5
420.28	829.5
420.503	804.5
420.726	789.5
420.948	799.5
421.171	792.5
421.394	781.5
421.617	804.5
421.839	811.5
422.062	825.5
422.285	807.5
422.507	815.5
422.73	797.5
422.953	815.5
423.175	809.5
423.398	823.5
423.621	809.5
423.843	831.5
424.066	827.5
424.288	819.5
424.511	829.5
424.733	809.5
424.956	808.5
425.178	792.5
425.401	823.5
425.623	826.5
425.846	782.5
426.068	775.5
426.291	816.5
426.513	802.5
426.735	805.5
426.958	801.5
427.18	776.5
427.402	789.5
427.625	795.5
427.847	769.5
428.069	798.5
428.292	797.5
428.514	791.5
428.736	761.5
428.958	778.5
429.181	775.5
429.403	772.5
429.625	778.5
429.847	768.5
430.069	780.5
430.292	771.5
430.514	760.5
430.736	793.5
430.958	807.5
431.18	777.5
431.402	785.5
431.624	772.5
431.846	747.5
432.068	790.5
432.29	772.5
432.512	747.5
432.734	796.5
432.956	765.5
433.178	801.5
433.4	842.5
433.622	807.5
433.844	792.5
434.066	803.5
434.287	791.5
434.509	803.5
434.731	813.5
434.953	822.5
435.175	805.5
435.397	818.5
435.618	782.5
435.84	801.5
436.062	797.5
436.284	769.5
436.505	792.5
436.727	779.5
436.949	770.5
437.17	770.5
437.392	771.5
437.614	773.5
437.835	756.5
438.057	767.5
438.278	743.5
438.5	757.5
438.721	793.5
438.943	756.5
439.165	769.5
439.386	775.5
439.608	775.5
439.829	804.5
440.05	784.5
440.272	785.5
440.493	782.5
440.715	792.5
440.936	790.5
441.158	807.5
441.379	808.5
441.6	846.5
441.822	843.5
442.043	832.5
442.264	840.5
442.486	817.5
442.707	833.5
442.928	820.5
443.149	824.5
443.371	804.5
443.592	834.5
443.813	863.5
444.034	838.5
444.255	849.5
444.476	845.5
444.698	865.5
444.919	893.5
445.14	949.5
445.361	893.5
445.582	867.5
445.803	837.5
446.024	807.5
446.245	800.5
446.466	801.5
446.687	796.5
446.908	770.5
447.129	797.5
447.35	789.5
447.571	780.5
447.792	782.5
448.013	753.5
448.234	768.5
448.455	769.5
448.675	712.5
448.896	741.5
449.117	711.5
449.338	725.5
449.559	770.5
449.779	704.5
450	733.5
450.221	721.5
450.442	744.5
450.662	744.5
450.883	724.5
451.104	738.5
451.324	735.5
451.545	728.5
451.766	727.5
451.986	701.5
452.207	720.5
452.428	739.5
452.648	717.5
452.869	682.5
453.089	727.5
453.31	736.5
453.53	725.5
453.751	691.5
453.971	701.5
454.192	704.5
454.412	683.5
454.633	707.5
454.853	707.5
455.073	703.5
455.294	721.5
455.514	681.5
455.734	710.5
455.955	720.5
456.175	688.5
456.395	692.5
456.616	702.5
456.836	707.5
457.056	667.5
457.276	691.5
457.497	699.5
457.717	715.5
457.937	721.5
458.157	692.5
458.377	716.5
458.598	700.5
458.818	724.5
459.038	724.5
459.258	770.5
459.478	795.5
459.698	809.5
459.918	773.5
460.138	801.5
460.358	834.5
460.578	800.5
460.798	823.5
461.018	851.5
461.238	854.5
461.458	835.5
461.678	833.5
461.898	807.5
462.118	823.5
462.338	871.5
462.558	896.5
462.777	903.5
462.997	924.5
463.217	940.5
463.437	977.5
463.657	947.5
463.876	918.5
464.096	933.5
464.316	911.5
464.536	907.5
464.755	893.5
464.975	858.5
465.195	851.5
465.414	860.5
465.634	851.5
465.854	792.5
466.073	786.5
466.293	804.5
466.512	755.5
466.732	800.5
466.951	777.5
467.171	753.5
467.391	760.5
467.61	729.5
467.829	752.5
468.049	751.5
468.268	749.5
468.488	756.5
468.707	743.5
468.927	743.5
469.146	745.5
469.365	774.5
469.585	762.5
469.804	762.5
470.023	788.5
470.243	742.5
470.462	770.5
470.681	765.5
470.901	760.5
471.12	763.5
471.339	777.5
471.558	764.5
471.777	772.5
471.997	760.5
472.216	759.5
472.435	733.5
472.654	743.5
472.873	728.5
473.092	740.5
473.311	747.5
473.53	745.5
473.749	713.5
473.968	717.5
474.187	748.5
474.406	731.5
474.625	775.5
474.844	760.5
475.063	744.5
475.282	767.5
475.501	770.5
475.72	777.5
475.939	771.5
476.158	781.5
476.377	758.5
476.596	778.5
476.814	789.5
477.033	777.5
477.252	775.5
477.471	823.5
477.69	837.5
477.908	832.5
478.127	823.5
478.346	817.5
478.564	855.5
478.783	835.5
479.002	871.5
479.22	883.5
479.439	887.5
479.658	872.5
479.876	880.5
480.095	867.5
480.313	890.5
480.532	887.5
480.751	868.5
480.969	889.5
481.188	873.5
481.406	865.5
481.624	866.5
481.843	859.5
482.061	839.5
482.28	866.5
482.498	873.5
482.717	837.5
482.935	852.5
483.153	840.5
483.372	854.5
483.59	891.5
483.808	862.5
484.027	846.5
484.245	866.5
484.463	867.5
484.681	865.5
484.9	869.5
485.118	881.5
485.336	853.5
485.554	895.5
485.772	860.5
485.99	887.5
486.209	883.5
486.427	885.5
486.645	865.5
486.863	875.5
487.081	891.5
487.299	869.5
487.517	897.5
487.735	915.5
487.953	930.5
488.171	932.5
488.389	908.5
488.607	926.5
488.825	867.5
489.043	889.5
489.261	880.5
489.479	893.5
489.696	899.5
489.914	889.5
490.132	888.5
490.35	893.5
490.568	888.5
490.786	910.5
491.003	890.5
491.221	926.5
491.439	931.5
491.657	941.5
491.874	928.5
492.092	930.5
492.31	963.5
492.527	943.5
492.745	956.5
492.963	941.5
493.18	964.5
493.398	934.5
493.615	928.5
493.833	959.5
494.05	957.5
494.268	964.5
494.485	980.5
494.703	936.5
494.92	956.5
495.138	935.5
495.355	994.5
495.573	946.5
495.79	971.5
496.008	968.5
496.225	1003.5
496.442	947.5
496.66	989.5
496.877	1023.5
497.094	1048.5
497.312	1043.5
497.529	1059.5
497.746	1032.5
497.963	1055.5
498.181	1126.5
498.398	1123.5
498.615	1121.5
498.832	1207.5
499.049	1250.5
499.267	1257.5
499.484	1311.5
499.701	1401.5
499.918	1437.5
500.135	1524.5
500.352	1572.5
500.569	1591.5
500.786	1593.5
501.003	1544.5
501.22	1543.5
501.437	1424.5
501.654	1339.5
501.871	1315.5
502.088	1259.5
502.305	1215.5
502.522	1188.5
502.739	1155.5
502.956	1139.5
503.172	1073.5
503.389	1119.5
503.606	1041.5
503.823	1028.5
504.04	1025.5
504.256	1020.5
504.473	1009.5
504.69	1007.5
504.907	990.5
505.123	959.5
505.34	930.5
505.557	923.5
505.773	934.5
505.99	894.5
506.207	876.5
506.423	872.5
506.64	876.5
506.856	860.5
507.073	874.5
507.289	839.5
507.506	883.5
507.722	876.5
507.939	856.5
508.155	859.5
508.372	828.5
508.588	843.5
508.805	831.5
509.021	810.5
509.238	826.5
509.454	801.5
509.67	816.5
509.887	816.5
510.103	821.5
510.319	794.5
510.536	795.5
510.752	769.5
510.968	797.5
511.184	791.5
511.401	762.5
511.617	777.5
511.833	797.5
512.049	783.5
512.265	778.5
512.481	776.5
512.698	782.5
512.914	780.5
513.13	767.5
513.346	791.5
513.562	742.5
513.778	801.5
513.994	756.5
514.21	775.5
514.426	786.5
514.642	769.5
514.858	786.5
515.074	800.5
515.29	817.5
515.506	799.5
515.721	805.5
515.937	802.5
516.153	785.5
516.369	823.5
516.585	822.5
516.801	826.5
517.016	872.5
517.232	869.5
517.448	862.5
517.664	870.5
517.879	886.5
518.095	857.5
518.311	869.5
518.527	850.5
518.742	855.5
518.958	831.5
