Data from Ni(NO3)2@0.25M.TitratingCurve.Agarose3%dH2O.NegLispCup.LampEnergy10.LIBS07252019_HRD10591_18-03-43-566.txt Node
Date: Thu Jul 25 18:03:43 EDT 2019
User: cochatt
Spectrometer: HR+D1059
Trigger mode: 1
Integration Time (sec): 1.000000E-1
Scans to average: 1
Electric dark correction enabled: true
Nonlinearity correction enabled: false
Boxcar width: 0
XAxis mode: Wavelengths
Number of Pixels in Spectrum: 2048
>>>>>Begin Spectral Data<<<<<
223.165	1.44
223.4	1.44
223.635	1.44
223.869	-12.56
224.104	-40.56
224.338	-16.56
224.573	-20.56
224.808	-15.56
225.042	-13.56
225.277	-13.56
225.511	-1.56
225.746	14.44
225.98	4.44
226.215	19.44
226.449	9.44
226.683	17.44
226.918	26.44
227.152	41.44
227.387	45.44
227.621	42.44
227.856	47.44
228.09	40.44
228.324	42.44
228.559	41.44
228.793	59.44
229.027	79.44
229.262	87.44
229.496	78.44
229.73	78.44
229.964	80.44
230.199	82.44
230.433	98.44
230.667	94.44
230.901	87.44
231.136	107.44
231.37	106.44
231.604	90.44
231.838	92.44
232.072	100.44
232.306	96.44
232.541	90.44
232.775	94.44
233.009	92.44
233.243	101.44
233.477	95.44
233.711	98.44
233.945	105.44
234.179	99.44
234.413	87.44
234.647	97.44
234.881	95.44
235.115	104.44
235.349	95.44
235.583	91.44
235.817	101.44
236.051	95.44
236.285	96.44
236.519	91.44
236.753	101.44
236.987	103.44
237.221	106.44
237.455	102.44
237.689	95.44
237.922	93.44
238.156	95.44
238.39	100.44
238.624	123.44
238.858	97.44
239.091	101.44
239.325	103.44
239.559	94.44
239.793	106.44
240.027	103.44
240.26	109.44
240.494	119.44
240.728	107.44
240.961	111.44
241.195	108.44
241.429	90.44
241.662	111.44
241.896	125.44
242.13	109.44
242.363	105.44
242.597	108.44
242.83	98.44
243.064	117.44
243.298	99.44
243.531	101.44
243.765	102.44
243.998	111.44
244.232	106.44
244.465	106.44
244.699	101.44
244.932	115.44
245.166	98.44
245.399	112.44
245.633	130.44
245.866	104.44
246.099	110.44
246.333	117.44
246.566	108.44
246.8	102.44
247.033	118.44
247.266	134.44
247.5	115.44
247.733	124.44
247.966	126.44
248.2	134.44
248.433	136.44
248.666	127.44
248.899	126.44
249.133	143.44
249.366	129.44
249.599	136.44
249.832	158.44
250.066	141.44
250.299	142.44
250.532	149.44
250.765	150.44
250.998	131.44
251.231	130.44
251.465	156.44
251.698	166.44
251.931	152.44
252.164	138.44
252.397	159.44
252.63	155.44
252.863	165.44
253.096	152.44
253.329	159.44
253.562	162.44
253.795	163.44
254.028	170.44
254.261	178.44
254.494	179.44
254.727	179.44
254.96	170.44
255.193	173.44
255.426	183.44
255.659	188.44
255.892	183.44
256.124	195.44
256.357	182.44
256.59	182.44
256.823	201.44
257.056	185.44
257.289	203.44
257.521	200.44
257.754	215.44
257.987	189.44
258.22	216.44
258.452	194.44
258.685	193.44
258.918	214.44
259.151	211.44
259.383	217.44
259.616	219.44
259.849	222.44
260.081	221.44
260.314	218.44
260.547	234.44
260.779	211.44
261.012	227.44
261.244	238.44
261.477	229.44
261.71	212.44
261.942	216.44
262.175	236.44
262.407	244.44
262.64	234.44
262.872	238.44
263.105	229.44
263.337	213.44
263.57	237.44
263.802	234.44
264.035	246.44
264.267	239.44
264.499	242.44
264.732	242.44
264.964	251.44
265.197	252.44
265.429	239.44
265.661	245.44
265.894	246.44
266.126	255.44
266.358	239.44
266.591	256.44
266.823	253.44
267.055	237.44
267.287	264.44
267.52	231.44
267.752	242.44
267.984	245.44
268.216	247.44
268.448	246.44
268.681	249.44
268.913	246.44
269.145	225.44
269.377	256.44
269.609	251.44
269.841	243.44
270.073	245.44
270.306	260.44
270.538	246.44
270.77	246.44
271.002	275.44
271.234	256.44
271.466	244.44
271.698	265.44
271.93	241.44
272.162	261.44
272.394	261.44
272.626	262.44
272.858	275.44
273.09	256.44
273.322	236.44
273.553	251.44
273.785	248.44
274.017	249.44
274.249	261.44
274.481	260.44
274.713	248.44
274.945	254.44
275.176	270.44
275.408	250.44
275.64	256.44
275.872	265.44
276.104	271.44
276.335	261.44
276.567	260.44
276.799	267.44
277.031	261.44
277.262	253.44
277.494	261.44
277.726	278.44
277.957	283.44
278.189	270.44
278.421	269.44
278.652	259.44
278.884	261.44
279.115	266.44
279.347	276.44
279.579	272.44
279.81	274.44
280.042	261.44
280.273	272.44
280.505	275.44
280.736	273.44
280.968	263.44
281.199	261.44
281.431	265.44
281.662	268.44
281.894	277.44
282.125	280.44
282.356	277.44
282.588	278.44
282.819	276.44
283.051	278.44
283.282	263.44
283.513	272.44
283.745	265.44
283.976	283.44
284.207	262.44
284.439	267.44
284.67	272.44
284.901	252.44
285.132	259.44
285.364	270.44
285.595	267.44
285.826	284.44
286.057	275.44
286.288	286.44
286.52	277.44
286.751	272.44
286.982	271.44
287.213	251.44
287.444	285.44
287.675	260.44
287.906	274.44
288.138	265.44
288.369	275.44
288.6	274.44
288.831	271.44
289.062	279.44
289.293	279.44
289.524	290.44
289.755	270.44
289.986	252.44
290.217	259.44
290.448	280.44
290.679	272.44
290.91	266.44
291.141	271.44
291.371	262.44
291.602	290.44
291.833	269.44
292.064	276.44
292.295	267.44
292.526	280.44
292.757	267.44
292.987	264.44
293.218	261.44
293.449	276.44
293.68	275.44
293.91	280.44
294.141	286.44
294.372	269.44
294.603	232.44
294.833	278.44
295.064	276.44
295.295	273.44
295.525	276.44
295.756	266.44
295.987	265.44
296.217	281.44
296.448	293.44
296.679	287.44
296.909	268.44
297.14	248.44
297.37	282.44
297.601	282.44
297.831	280.44
298.062	292.44
298.292	294.44
298.523	293.44
298.753	291.44
298.984	296.44
299.214	281.44
299.445	286.44
299.675	274.44
299.905	273.44
300.136	277.44
300.366	284.44
300.597	298.44
300.827	295.44
301.057	296.44
301.288	293.44
301.518	298.44
301.748	314.44
301.979	308.44
302.209	295.44
302.439	288.44
302.669	292.44
302.9	310.44
303.13	300.44
303.36	310.44
303.59	323.44
303.82	292.44
304.051	278.44
304.281	299.44
304.511	296.44
304.741	299.44
304.971	311.44
305.201	326.44
305.431	315.44
305.661	317.44
305.891	315.44
306.121	304.44
306.352	303.44
306.582	307.44
306.812	292.44
307.042	328.44
307.272	307.44
307.502	306.44
307.731	322.44
307.961	309.44
308.191	294.44
308.421	306.44
308.651	317.44
308.881	314.44
309.111	308.44
309.341	313.44
309.571	328.44
309.8	320.44
310.03	303.44
310.26	316.44
310.49	340.44
310.72	327.44
310.949	326.44
311.179	337.44
311.409	333.44
311.639	355.44
311.868	345.44
312.098	340.44
312.328	328.44
312.557	332.44
312.787	350.44
313.017	357.44
313.246	370.44
313.476	374.44
313.706	374.44
313.935	371.44
314.165	374.44
314.394	376.44
314.624	355.44
314.853	376.44
315.083	372.44
315.312	370.44
315.542	392.44
315.771	377.44
316.001	394.44
316.23	388.44
316.46	386.44
316.689	396.44
316.919	400.44
317.148	418.44
317.377	392.44
317.607	394.44
317.836	398.44
318.065	422.44
318.295	407.44
318.524	402.44
318.753	412.44
318.983	410.44
319.212	403.44
319.441	412.44
319.67	440.44
319.9	422.44
320.129	432.44
320.358	440.44
320.587	427.44
320.816	426.44
321.046	448.44
321.275	454.44
321.504	442.44
321.733	467.44
321.962	446.44
322.191	464.44
322.42	463.44
322.649	462.44
322.878	481.44
323.108	468.44
323.337	471.44
323.566	472.44
323.795	495.44
324.024	495.44
324.253	485.44
324.482	505.44
324.71	500.44
324.939	503.44
325.168	525.44
325.397	518.44
325.626	529.44
325.855	536.44
326.084	557.44
326.313	523.44
326.542	548.44
326.77	564.44
326.999	545.44
327.228	535.44
327.457	538.44
327.686	534.44
327.914	543.44
328.143	559.44
328.372	562.44
328.6	590.44
328.829	555.44
329.058	565.44
329.287	568.44
329.515	592.44
329.744	603.44
329.972	591.44
330.201	583.44
330.43	594.44
330.658	594.44
330.887	605.44
331.115	603.44
331.344	644.44
331.572	600.44
331.801	615.44
332.03	656.44
332.258	652.44
332.486	634.44
332.715	664.44
332.943	661.44
333.172	673.44
333.4	683.44
333.629	701.44
333.857	706.44
334.085	718.44
334.314	720.44
334.542	714.44
334.771	746.44
334.999	706.44
335.227	700.44
335.455	708.44
335.684	723.44
335.912	743.44
336.14	719.44
336.369	710.44
336.597	677.44
336.825	719.44
337.053	711.44
337.281	694.44
337.51	696.44
337.738	691.44
337.966	704.44
338.194	680.44
338.422	686.44
338.65	682.44
338.878	680.44
339.106	679.44
339.334	667.44
339.562	683.44
339.79	663.44
340.018	667.44
340.246	634.44
340.474	663.44
340.702	655.44
340.93	656.44
341.158	678.44
341.386	674.44
341.614	697.44
341.842	656.44
342.07	648.44
342.298	678.44
342.526	666.44
342.754	684.44
342.981	679.44
343.209	678.44
343.437	693.44
343.665	721.44
343.893	750.44
344.12	730.44
344.348	736.44
344.576	730.44
344.804	716.44
345.031	686.44
345.259	712.44
345.487	686.44
345.714	687.44
345.942	673.44
346.17	684.44
346.397	677.44
346.625	680.44
346.853	663.44
347.08	653.44
347.308	668.44
347.535	664.44
347.763	675.44
347.99	678.44
348.218	650.44
348.445	676.44
348.673	668.44
348.9	647.44
349.128	666.44
349.355	670.44
349.583	659.44
349.81	634.44
350.037	656.44
350.265	663.44
350.492	650.44
350.72	638.44
350.947	635.44
351.174	639.44
351.402	643.44
351.629	642.44
351.856	636.44
352.083	650.44
352.311	657.44
352.538	636.44
352.765	632.44
352.992	637.44
353.22	644.44
353.447	658.44
353.674	640.44
353.901	663.44
354.128	646.44
354.355	639.44
354.583	640.44
354.81	650.44
355.037	664.44
355.264	626.44
355.491	639.44
355.718	642.44
355.945	658.44
356.172	622.44
356.399	630.44
356.626	656.44
356.853	653.44
357.08	630.44
357.307	637.44
357.534	650.44
357.761	633.44
357.988	633.44
358.215	630.44
358.441	630.44
358.668	614.44
358.895	644.44
359.122	628.44
359.349	635.44
359.576	634.44
359.802	658.44
360.029	619.44
360.256	644.44
360.483	636.44
360.709	602.44
360.936	627.44
361.163	634.44
361.39	638.44
361.616	644.44
361.843	628.44
362.07	616.44
362.296	648.44
362.523	628.44
362.749	608.44
362.976	635.44
363.203	630.44
363.429	616.44
363.656	612.44
363.882	624.44
364.109	628.44
364.335	638.44
364.562	600.44
364.788	594.44
365.015	612.44
365.241	633.44
365.468	630.44
365.694	615.44
365.92	632.44
366.147	612.44
366.373	611.44
366.599	605.44
366.826	615.44
367.052	614.44
367.278	624.44
367.505	613.44
367.731	627.44
367.957	630.44
368.184	610.44
368.41	610.44
368.636	622.44
368.862	627.44
369.089	626.44
369.315	629.44
369.541	627.44
369.767	636.44
369.993	619.44
370.219	617.44
370.445	616.44
370.672	634.44
370.898	617.44
371.124	613.44
371.35	634.44
371.576	620.44
371.802	642.44
372.028	614.44
372.254	611.44
372.48	632.44
372.706	646.44
372.932	646.44
373.158	618.44
373.384	612.44
373.61	633.44
373.835	616.44
374.061	603.44
374.287	619.44
374.513	623.44
374.739	642.44
374.965	655.44
375.191	644.44
375.416	654.44
375.642	640.44
375.868	645.44
376.094	612.44
376.319	610.44
376.545	619.44
376.771	634.44
376.997	594.44
377.222	608.44
377.448	611.44
377.674	584.44
377.899	604.44
378.125	594.44
378.35	612.44
378.576	632.44
378.802	582.44
379.027	600.44
379.253	592.44
379.478	575.44
379.704	597.44
379.929	576.44
380.155	571.44
380.38	561.44
380.606	571.44
380.831	579.44
381.057	590.44
381.282	582.44
381.507	587.44
381.733	613.44
381.958	606.44
382.184	588.44
382.409	569.44
382.634	623.44
382.86	600.44
383.085	619.44
383.31	603.44
383.535	611.44
383.761	640.44
383.986	602.44
384.211	628.44
384.436	630.44
384.662	629.44
384.887	615.44
385.112	625.44
385.337	638.44
385.562	643.44
385.787	656.44
386.013	663.44
386.238	656.44
386.463	631.44
386.688	644.44
386.913	639.44
387.138	650.44
387.363	648.44
387.588	644.44
387.813	626.44
388.038	619.44
388.263	644.44
388.488	638.44
388.713	610.44
388.938	626.44
389.163	612.44
389.387	619.44
389.612	621.44
389.837	640.44
390.062	632.44
390.287	646.44
390.512	651.44
390.736	645.44
390.961	655.44
391.186	637.44
391.411	637.44
391.636	642.44
391.86	641.44
392.085	681.44
392.31	692.44
392.534	672.44
392.759	660.44
392.984	652.44
393.208	684.44
393.433	653.44
393.658	660.44
393.882	656.44
394.107	656.44
394.331	667.44
394.556	668.44
394.78	674.44
395.005	669.44
395.229	656.44
395.454	680.44
395.678	678.44
395.903	674.44
396.127	684.44
396.352	661.44
396.576	663.44
396.801	656.44
397.025	679.44
397.249	687.44
397.474	698.44
397.698	708.44
397.922	703.44
398.147	700.44
398.371	720.44
398.595	749.44
398.82	731.44
399.044	782.44
399.268	822.44
399.492	879.44
399.717	891.44
399.941	900.44
400.165	842.44
400.389	832.44
400.613	775.44
400.837	774.44
401.062	765.44
401.286	755.44
401.51	751.44
401.734	762.44
401.958	767.44
402.182	742.44
402.406	772.44
402.63	756.44
402.854	795.44
403.078	790.44
403.302	788.44
403.526	797.44
403.75	802.44
403.974	824.44
404.198	790.44
404.422	828.44
404.645	798.44
404.869	827.44
405.093	813.44
405.317	802.44
405.541	831.44
405.765	837.44
405.988	839.44
406.212	819.44
406.436	829.44
406.66	836.44
406.883	807.44
407.107	886.44
407.331	874.44
407.555	928.44
407.778	908.44
408.002	889.44
408.226	886.44
408.449	876.44
408.673	838.44
408.896	861.44
409.12	863.44
409.344	857.44
409.567	848.44
409.791	868.44
410.014	871.44
410.238	869.44
410.461	843.44
410.685	839.44
410.908	852.44
411.132	818.44
411.355	836.44
411.578	832.44
411.802	849.44
412.025	824.44
412.249	794.44
412.472	850.44
412.695	822.44
412.919	803.44
413.142	815.44
413.365	827.44
413.589	829.44
413.812	825.44
414.035	802.44
414.258	808.44
414.482	801.44
414.705	845.44
414.928	831.44
415.151	818.44
415.374	794.44
415.597	803.44
415.821	806.44
416.044	834.44
416.267	803.44
416.49	799.44
416.713	834.44
416.936	833.44
417.159	783.44
417.382	805.44
417.605	800.44
417.828	833.44
418.051	816.44
418.274	808.44
418.497	839.44
418.72	847.44
418.943	820.44
419.166	858.44
419.389	934.44
419.611	906.44
419.834	876.44
420.057	848.44
420.28	831.44
420.503	794.44
420.726	818.44
420.948	815.44
421.171	811.44
421.394	824.44
421.617	834.44
421.839	825.44
422.062	824.44
422.285	827.44
422.507	840.44
422.73	862.44
422.953	862.44
423.175	838.44
423.398	850.44
423.621	866.44
423.843	876.44
424.066	865.44
424.288	839.44
424.511	870.44
424.733	846.44
424.956	839.44
425.178	847.44
425.401	848.44
425.623	863.44
425.846	851.44
426.068	858.44
426.291	849.44
426.513	807.44
426.735	829.44
426.958	853.44
427.18	829.44
427.402	842.44
427.625	820.44
427.847	832.44
428.069	851.44
428.292	826.44
428.514	806.44
428.736	835.44
428.958	840.44
429.181	808.44
429.403	811.44
429.625	812.44
429.847	813.44
430.069	813.44
430.292	825.44
430.514	822.44
430.736	842.44
430.958	835.44
431.18	807.44
431.402	832.44
431.624	844.44
431.846	822.44
432.068	826.44
432.29	845.44
432.512	847.44
432.734	824.44
432.956	852.44
433.178	828.44
433.4	852.44
433.622	876.44
433.844	852.44
434.066	853.44
434.287	856.44
434.509	875.44
434.731	866.44
434.953	891.44
435.175	873.44
435.397	877.44
435.618	885.44
435.84	870.44
436.062	853.44
436.284	849.44
436.505	844.44
436.727	843.44
436.949	842.44
437.17	825.44
437.392	829.44
437.614	868.44
437.835	808.44
438.057	835.44
438.278	807.44
438.5	837.44
438.721	837.44
438.943	827.44
439.165	822.44
439.386	861.44
439.608	874.44
439.829	854.44
440.05	859.44
440.272	870.44
440.493	856.44
440.715	852.44
440.936	830.44
441.158	868.44
441.379	883.44
441.6	919.44
441.822	896.44
442.043	907.44
442.264	895.44
442.486	903.44
442.707	889.44
442.928	881.44
443.149	896.44
443.371	905.44
443.592	870.44
443.813	897.44
444.034	896.44
444.255	891.44
444.476	930.44
444.698	928.44
444.919	980.44
445.14	1060.44
445.361	947.44
445.582	896.44
445.803	904.44
446.024	891.44
446.245	882.44
446.466	847.44
446.687	864.44
446.908	864.44
447.129	857.44
447.35	838.44
447.571	846.44
447.792	840.44
448.013	824.44
448.234	812.44
448.455	804.44
448.675	826.44
448.896	825.44
449.117	783.44
449.338	798.44
449.559	819.44
449.779	793.44
450	804.44
450.221	794.44
450.442	806.44
450.662	806.44
450.883	811.44
451.104	805.44
451.324	808.44
451.545	810.44
451.766	835.44
451.986	797.44
452.207	794.44
452.428	797.44
452.648	790.44
452.869	800.44
453.089	755.44
453.31	773.44
453.53	795.44
453.751	780.44
453.971	749.44
454.192	776.44
454.412	751.44
454.633	781.44
454.853	762.44
455.073	759.44
455.294	779.44
455.514	783.44
455.734	756.44
455.955	747.44
456.175	750.44
456.395	754.44
456.616	770.44
456.836	804.44
457.056	783.44
457.276	757.44
457.497	780.44
457.717	766.44
457.937	772.44
458.157	778.44
458.377	748.44
458.598	763.44
458.818	794.44
459.038	780.44
459.258	806.44
459.478	830.44
459.698	838.44
459.918	842.44
460.138	864.44
460.358	920.44
460.578	922.44
460.798	922.44
461.018	912.44
461.238	904.44
461.458	903.44
461.678	885.44
461.898	920.44
462.118	908.44
462.338	950.44
462.558	940.44
462.777	991.44
462.997	1045.44
463.217	1056.44
463.437	1064.44
463.657	1025.44
463.876	971.44
464.096	988.44
464.316	972.44
464.536	965.44
464.755	965.44
464.975	950.44
465.195	937.44
465.414	911.44
465.634	883.44
465.854	846.44
466.073	854.44
466.293	869.44
466.512	853.44
466.732	830.44
466.951	850.44
467.171	821.44
467.391	850.44
467.61	829.44
467.829	842.44
468.049	826.44
468.268	811.44
468.488	827.44
468.707	828.44
468.927	848.44
469.146	806.44
469.365	818.44
469.585	827.44
469.804	864.44
470.023	881.44
470.243	841.44
470.462	866.44
470.681	875.44
470.901	872.44
471.12	847.44
471.339	873.44
471.558	834.44
471.777	873.44
471.997	846.44
472.216	842.44
472.435	801.44
472.654	811.44
472.873	814.44
473.092	823.44
473.311	818.44
473.53	843.44
473.749	820.44
473.968	857.44
474.187	844.44
474.406	843.44
474.625	845.44
474.844	853.44
475.063	840.44
475.282	832.44
475.501	850.44
475.72	846.44
475.939	845.44
476.158	869.44
476.377	850.44
476.596	866.44
476.814	867.44
477.033	879.44
477.252	891.44
477.471	912.44
477.69	920.44
477.908	918.44
478.127	944.44
478.346	940.44
478.564	955.44
478.783	962.44
479.002	996.44
479.22	981.44
479.439	996.44
479.658	964.44
479.876	967.44
480.095	991.44
480.313	1023.44
480.532	1010.44
480.751	1004.44
480.969	990.44
481.188	992.44
481.406	979.44
481.624	955.44
481.843	941.44
482.061	951.44
482.28	952.44
482.498	947.44
482.717	942.44
482.935	934.44
483.153	973.44
483.372	998.44
483.59	991.44
483.808	964.44
484.027	998.44
484.245	969.44
484.463	985.44
484.681	979.44
484.9	972.44
485.118	977.44
485.336	980.44
485.554	1006.44
485.772	985.44
485.99	986.44
486.209	1006.44
486.427	960.44
486.645	995.44
486.863	1007.44
487.081	989.44
487.299	1012.44
487.517	976.44
487.735	1022.44
487.953	1034.44
488.171	1046.44
488.389	1032.44
488.607	1031.44
488.825	1001.44
489.043	974.44
489.261	1010.44
489.479	992.44
489.696	999.44
489.914	1003.44
490.132	1013.44
490.35	1044.44
490.568	1036.44
490.786	1067.44
491.003	1021.44
491.221	1047.44
491.439	1035.44
491.657	1027.44
491.874	1068.44
492.092	1093.44
492.31	1078.44
492.527	1107.44
492.745	1081.44
492.963	1093.44
493.18	1086.44
493.398	1084.44
493.615	1087.44
493.833	1072.44
494.05	1088.44
494.268	1085.44
494.485	1080.44
494.703	1094.44
494.92	1096.44
495.138	1105.44
495.355	1106.44
495.573	1099.44
495.79	1084.44
496.008	1128.44
496.225	1132.44
496.442	1143.44
496.66	1133.44
496.877	1125.44
497.094	1181.44
497.312	1148.44
497.529	1174.44
497.746	1190.44
497.963	1199.44
498.181	1218.44
498.398	1258.44
498.615	1292.44
498.832	1340.44
499.049	1384.44
499.267	1406.44
499.484	1464.44
499.701	1599.44
499.918	1679.44
500.135	1813.44
500.352	1857.44
500.569	1908.44
500.786	1887.44
501.003	1839.44
501.22	1709.44
