Data from Ni(NO3)2@0.5M.TitratingCurve.Agarose3%dH2O.NegLispCup.LampEnergy10.LIBS07252019_HRD10591_17-58-28-564.txt Node
Date: Thu Jul 25 17:58:28 EDT 2019
User: cochatt
Spectrometer: HR+D1059
Trigger mode: 1
Integration Time (sec): 1.000000E-1
Scans to average: 1
Electric dark correction enabled: true
Nonlinearity correction enabled: false
Boxcar width: 0
XAxis mode: Wavelengths
Number of Pixels in Spectrum: 2048
>>>>>Begin Spectral Data<<<<<
223.165	-8.81
223.4	-8.81
223.635	-8.81
223.869	-25.81
224.104	-21.81
224.338	-0.81
224.573	-21.81
224.808	-24.81
225.042	-11.81
225.277	15.19
225.511	2.19
225.746	11.19
225.98	14.19
226.215	6.19
226.449	6.19
226.683	7.19
226.918	22.19
227.152	31.19
227.387	32.19
227.621	53.19
227.856	28.19
228.09	56.19
228.324	58.19
228.559	60.19
228.793	70.19
229.027	122.19
229.262	151.19
229.496	136.19
229.73	145.19
229.964	178.19
230.199	222.19
230.433	215.19
230.667	207.19
230.901	194.19
231.136	180.19
231.37	168.19
231.604	182.19
231.838	217.19
232.072	244.19
232.306	212.19
232.541	204.19
232.775	180.19
233.009	164.19
233.243	172.19
233.477	158.19
233.711	172.19
233.945	181.19
234.179	178.19
234.413	194.19
234.647	187.19
234.881	200.19
235.115	189.19
235.349	158.19
235.583	169.19
235.817	162.19
236.051	181.19
236.285	168.19
236.519	198.19
236.753	175.19
236.987	174.19
237.221	165.19
237.455	174.19
237.689	174.19
237.922	197.19
238.156	195.19
238.39	189.19
238.624	186.19
238.858	188.19
239.091	186.19
239.325	189.19
239.559	208.19
239.793	221.19
240.027	225.19
240.26	203.19
240.494	200.19
240.728	202.19
240.961	202.19
241.195	203.19
241.429	205.19
241.662	243.19
241.896	236.19
242.13	250.19
242.363	226.19
242.597	208.19
242.83	197.19
243.064	208.19
243.298	218.19
243.531	232.19
243.765	222.19
243.998	230.19
244.232	232.19
244.465	235.19
244.699	233.19
244.932	227.19
245.166	233.19
245.399	229.19
245.633	242.19
245.866	239.19
246.099	235.19
246.333	242.19
246.566	244.19
246.8	232.19
247.033	226.19
247.266	254.19
247.5	255.19
247.733	248.19
247.966	247.19
248.2	257.19
248.433	261.19
248.666	256.19
248.899	277.19
249.133	247.19
249.366	270.19
249.599	274.19
249.832	289.19
250.066	273.19
250.299	283.19
250.532	281.19
250.765	269.19
250.998	265.19
251.231	301.19
251.465	311.19
251.698	322.19
251.931	293.19
252.164	296.19
252.397	299.19
252.63	306.19
252.863	308.19
253.096	296.19
253.329	309.19
253.562	315.19
253.795	304.19
254.028	306.19
254.261	311.19
254.494	329.19
254.727	330.19
254.96	322.19
255.193	326.19
255.426	319.19
255.659	311.19
255.892	321.19
256.124	320.19
256.357	328.19
256.59	344.19
256.823	325.19
257.056	313.19
257.289	337.19
257.521	340.19
257.754	343.19
257.987	335.19
258.22	343.19
258.452	362.19
258.685	349.19
258.918	325.19
259.151	347.19
259.383	352.19
259.616	364.19
259.849	366.19
260.081	368.19
260.314	377.19
260.547	373.19
260.779	371.19
261.012	366.19
261.244	382.19
261.477	380.19
261.71	385.19
261.942	384.19
262.175	382.19
262.407	382.19
262.64	374.19
262.872	375.19
263.105	377.19
263.337	389.19
263.57	384.19
263.802	394.19
264.035	386.19
264.267	387.19
264.499	417.19
264.732	394.19
264.964	396.19
265.197	410.19
265.429	397.19
265.661	402.19
265.894	397.19
266.126	427.19
266.358	438.19
266.591	407.19
266.823	416.19
267.055	430.19
267.287	428.19
267.52	438.19
267.752	428.19
267.984	426.19
268.216	429.19
268.448	432.19
268.681	437.19
268.913	429.19
269.145	446.19
269.377	446.19
269.609	445.19
269.841	426.19
270.073	424.19
270.306	435.19
270.538	450.19
270.77	439.19
271.002	453.19
271.234	462.19
271.466	443.19
271.698	431.19
271.93	435.19
272.162	454.19
272.394	463.19
272.626	441.19
272.858	470.19
273.09	450.19
273.322	462.19
273.553	460.19
273.785	461.19
274.017	463.19
274.249	484.19
274.481	472.19
274.713	447.19
274.945	471.19
275.176	484.19
275.408	489.19
275.64	494.19
275.872	483.19
276.104	493.19
276.335	505.19
276.567	489.19
276.799	483.19
277.031	504.19
277.262	528.19
277.494	502.19
277.726	518.19
277.957	505.19
278.189	480.19
278.421	500.19
278.652	507.19
278.884	504.19
279.115	505.19
279.347	519.19
279.579	527.19
279.81	514.19
280.042	517.19
280.273	517.19
280.505	533.19
280.736	536.19
280.968	524.19
281.199	503.19
281.431	547.19
281.662	532.19
281.894	542.19
282.125	526.19
282.356	535.19
282.588	551.19
282.819	520.19
283.051	537.19
283.282	530.19
283.513	546.19
283.745	556.19
283.976	577.19
284.207	553.19
284.439	530.19
284.67	567.19
284.901	570.19
285.132	571.19
285.364	556.19
285.595	557.19
285.826	550.19
286.057	552.19
286.288	550.19
286.52	554.19
286.751	580.19
286.982	572.19
287.213	573.19
287.444	563.19
287.675	567.19
287.906	592.19
288.138	556.19
288.369	545.19
288.6	585.19
288.831	589.19
289.062	578.19
289.293	577.19
289.524	557.19
289.755	590.19
289.986	578.19
290.217	591.19
290.448	563.19
290.679	574.19
290.91	589.19
291.141	580.19
291.371	584.19
291.602	598.19
291.833	597.19
292.064	587.19
292.295	591.19
292.526	575.19
292.757	591.19
292.987	598.19
293.218	572.19
293.449	598.19
293.68	591.19
293.91	599.19
294.141	601.19
294.372	580.19
294.603	582.19
294.833	595.19
295.064	598.19
295.295	608.19
295.525	592.19
295.756	601.19
295.987	577.19
296.217	636.19
296.448	606.19
296.679	611.19
296.909	628.19
297.14	625.19
297.37	637.19
297.601	643.19
297.831	630.19
298.062	621.19
298.292	638.19
298.523	650.19
298.753	653.19
298.984	628.19
299.214	618.19
299.445	643.19
299.675	660.19
299.905	668.19
300.136	670.19
300.366	700.19
300.597	709.19
300.827	706.19
301.057	661.19
301.288	686.19
301.518	671.19
301.748	675.19
301.979	664.19
302.209	663.19
302.439	691.19
302.669	670.19
302.9	662.19
303.13	663.19
303.36	678.19
303.59	669.19
303.82	696.19
304.051	691.19
304.281	704.19
304.511	675.19
304.741	703.19
304.971	707.19
305.201	733.19
305.431	756.19
305.661	734.19
305.891	723.19
306.121	728.19
306.352	690.19
306.582	683.19
306.812	685.19
307.042	706.19
307.272	681.19
307.502	695.19
307.731	680.19
307.961	670.19
308.191	710.19
308.421	704.19
308.651	692.19
308.881	703.19
309.111	671.19
309.341	699.19
309.571	704.19
309.8	704.19
310.03	725.19
310.26	776.19
310.49	774.19
310.72	738.19
310.949	733.19
311.179	715.19
311.409	691.19
311.639	736.19
311.868	707.19
312.098	734.19
312.328	739.19
312.557	734.19
312.787	716.19
313.017	729.19
313.246	751.19
313.476	746.19
313.706	774.19
313.935	751.19
314.165	738.19
314.394	755.19
314.624	757.19
314.853	756.19
315.083	731.19
315.312	744.19
315.542	787.19
315.771	746.19
316.001	730.19
316.23	750.19
316.46	778.19
316.689	743.19
316.919	778.19
317.148	788.19
317.377	790.19
317.607	774.19
317.836	782.19
318.065	792.19
318.295	785.19
318.524	774.19
318.753	769.19
318.983	814.19
319.212	762.19
319.441	802.19
319.67	792.19
319.9	791.19
320.129	785.19
320.358	799.19
320.587	822.19
320.816	789.19
321.046	792.19
321.275	820.19
321.504	807.19
321.733	816.19
321.962	815.19
322.191	835.19
322.42	822.19
322.649	820.19
322.878	824.19
323.108	826.19
323.337	846.19
323.566	842.19
323.795	854.19
324.024	845.19
324.253	852.19
324.482	847.19
324.71	848.19
324.939	836.19
325.168	813.19
325.397	870.19
325.626	871.19
325.855	869.19
326.084	867.19
326.313	881.19
326.542	862.19
326.77	878.19
326.999	864.19
327.228	891.19
327.457	860.19
327.686	856.19
327.914	892.19
328.143	878.19
328.372	893.19
328.6	900.19
328.829	864.19
329.058	895.19
329.287	850.19
329.515	900.19
329.744	894.19
329.972	884.19
330.201	899.19
330.43	899.19
330.658	890.19
330.887	900.19
331.115	912.19
331.344	905.19
331.572	900.19
331.801	934.19
332.03	959.19
332.258	933.19
332.486	946.19
332.715	940.19
332.943	950.19
333.172	982.19
333.4	967.19
333.629	977.19
333.857	976.19
334.085	989.19
334.314	966.19
334.542	966.19
334.771	992.19
334.999	1004.19
335.227	1016.19
335.455	1023.19
335.684	1012.19
335.912	1042.19
336.14	1021.19
336.369	1036.19
336.597	1038.19
336.825	1048.19
337.053	1054.19
337.281	1052.19
337.51	1035.19
337.738	1040.19
337.966	1046.19
338.194	1048.19
338.422	1052.19
338.65	1021.19
338.878	1007.19
339.106	1025.19
339.334	1016.19
339.562	1031.19
339.79	999.19
340.018	990.19
340.246	988.19
340.474	983.19
340.702	965.19
340.93	985.19
341.158	975.19
341.386	1030.19
341.614	1064.19
341.842	1047.19
342.07	981.19
342.298	985.19
342.526	996.19
342.754	991.19
342.981	974.19
343.209	1000.19
343.437	1041.19
343.665	996.19
343.893	1012.19
344.12	1012.19
344.348	996.19
344.576	1028.19
344.804	1044.19
345.031	1013.19
345.259	995.19
345.487	1034.19
345.714	1024.19
345.942	1044.19
346.17	1055.19
346.397	1026.19
346.625	1013.19
346.853	977.19
347.08	948.19
347.308	981.19
347.535	947.19
347.763	942.19
347.99	958.19
348.218	933.19
348.445	941.19
348.673	933.19
348.9	946.19
349.128	963.19
349.355	1013.19
349.583	999.19
349.81	966.19
350.037	973.19
350.265	967.19
350.492	939.19
350.72	931.19
350.947	933.19
351.174	947.19
351.402	1028.19
351.629	1044.19
351.856	972.19
352.083	987.19
352.311	993.19
352.538	1023.19
352.765	1023.19
352.992	951.19
353.22	896.19
353.447	903.19
353.674	916.19
353.901	937.19
354.128	966.19
354.355	934.19
354.583	891.19
354.81	927.19
355.037	910.19
355.264	915.19
355.491	900.19
355.718	902.19
355.945	922.19
356.172	919.19
356.399	946.19
356.626	948.19
356.853	990.19
357.08	938.19
357.307	931.19
357.534	919.19
357.761	921.19
357.988	937.19
358.215	931.19
358.441	899.19
358.668	923.19
358.895	924.19
359.122	913.19
359.349	944.19
359.576	936.19
359.802	946.19
360.029	922.19
360.256	934.19
360.483	913.19
360.709	908.19
360.936	935.19
361.163	946.19
361.39	951.19
361.616	964.19
361.843	969.19
362.07	1004.19
362.296	991.19
362.523	938.19
362.749	918.19
362.976	922.19
363.203	906.19
363.429	923.19
363.656	938.19
363.882	968.19
364.109	932.19
364.335	936.19
364.562	927.19
364.788	940.19
365.015	951.19
365.241	941.19
365.468	936.19
365.694	930.19
365.92	941.19
366.147	944.19
366.373	906.19
366.599	972.19
366.826	964.19
367.052	936.19
367.278	931.19
367.505	943.19
367.731	960.19
367.957	920.19
368.184	966.19
368.41	964.19
368.636	944.19
368.862	938.19
369.089	954.19
369.315	942.19
369.541	979.19
369.767	934.19
369.993	971.19
370.219	957.19
370.445	979.19
370.672	982.19
370.898	1013.19
371.124	976.19
371.35	976.19
371.576	954.19
371.802	970.19
372.028	981.19
372.254	991.19
372.48	976.19
372.706	997.19
372.932	987.19
373.158	982.19
373.384	998.19
373.61	1005.19
373.835	1014.19
374.061	964.19
374.287	972.19
374.513	959.19
374.739	1011.19
374.965	998.19
375.191	991.19
375.416	1034.19
375.642	997.19
375.868	1024.19
376.094	997.19
376.319	1014.19
376.545	1010.19
376.771	996.19
376.997	976.19
377.222	967.19
377.448	957.19
377.674	976.19
377.899	978.19
378.125	971.19
378.35	988.19
378.576	1000.19
378.802	964.19
379.027	991.19
379.253	984.19
379.478	985.19
379.704	941.19
379.929	988.19
380.155	975.19
380.38	985.19
380.606	974.19
380.831	991.19
381.057	1016.19
381.282	969.19
381.507	977.19
381.733	957.19
381.958	1004.19
382.184	998.19
382.409	1017.19
382.634	1005.19
382.86	994.19
383.085	991.19
383.31	1007.19
383.535	1026.19
383.761	1001.19
383.986	1017.19
384.211	1002.19
384.436	1032.19
384.662	1070.19
384.887	1048.19
385.112	1031.19
385.337	1030.19
385.562	1026.19
385.787	1066.19
386.013	1102.19
386.238	1082.19
386.463	1075.19
386.688	1103.19
386.913	1038.19
387.138	1094.19
387.363	1099.19
387.588	1076.19
387.813	1086.19
388.038	1090.19
388.263	1103.19
388.488	1076.19
388.713	1080.19
388.938	1082.19
389.163	1096.19
389.387	1085.19
389.612	1093.19
389.837	1093.19
390.062	1118.19
390.287	1074.19
390.512	1104.19
390.736	1113.19
390.961	1110.19
391.186	1108.19
391.411	1102.19
391.636	1076.19
391.86	1121.19
392.085	1108.19
392.31	1103.19
392.534	1124.19
392.759	1125.19
392.984	1140.19
393.208	1142.19
393.433	1143.19
393.658	1118.19
393.882	1150.19
394.107	1147.19
394.331	1093.19
394.556	1123.19
394.78	1148.19
395.005	1158.19
395.229	1150.19
395.454	1148.19
395.678	1146.19
395.903	1146.19
396.127	1146.19
396.352	1173.19
396.576	1148.19
396.801	1172.19
397.025	1158.19
397.249	1173.19
397.474	1189.19
397.698	1207.19
397.922	1183.19
398.147	1191.19
398.371	1211.19
398.595	1214.19
398.82	1228.19
399.044	1277.19
399.268	1274.19
399.492	1321.19
399.717	1343.19
399.941	1369.19
400.165	1322.19
400.389	1327.19
400.613	1316.19
400.837	1322.19
401.062	1304.19
401.286	1265.19
401.51	1302.19
401.734	1296.19
401.958	1242.19
402.182	1260.19
402.406	1259.19
402.63	1260.19
402.854	1247.19
403.078	1257.19
403.302	1248.19
403.526	1242.19
403.75	1243.19
403.974	1291.19
404.198	1242.19
404.422	1245.19
404.645	1251.19
404.869	1272.19
405.093	1268.19
405.317	1263.19
405.541	1303.19
405.765	1299.19
405.988	1281.19
406.212	1322.19
406.436	1273.19
406.66	1363.19
406.883	1339.19
407.107	1344.19
407.331	1355.19
407.555	1361.19
407.778	1318.19
408.002	1368.19
408.226	1382.19
408.449	1406.19
408.673	1368.19
408.896	1370.19
409.12	1332.19
409.344	1394.19
409.567	1358.19
409.791	1332.19
410.014	1340.19
410.238	1317.19
410.461	1369.19
410.685	1359.19
410.908	1302.19
411.132	1332.19
411.355	1308.19
411.578	1314.19
411.802	1300.19
412.025	1304.19
412.249	1294.19
412.472	1292.19
412.695	1284.19
412.919	1247.19
413.142	1266.19
413.365	1267.19
413.589	1268.19
413.812	1295.19
414.035	1277.19
414.258	1260.19
414.482	1255.19
414.705	1260.19
414.928	1239.19
415.151	1287.19
415.374	1233.19
415.597	1267.19
415.821	1233.19
416.044	1230.19
416.267	1232.19
416.49	1205.19
416.713	1214.19
416.936	1194.19
417.159	1214.19
417.382	1225.19
417.605	1212.19
417.828	1170.19
418.051	1233.19
418.274	1208.19
418.497	1220.19
418.72	1211.19
418.943	1190.19
419.166	1276.19
419.389	1315.19
419.611	1311.19
419.834	1268.19
420.057	1250.19
420.28	1231.19
420.503	1220.19
420.726	1183.19
420.948	1189.19
421.171	1174.19
421.394	1204.19
421.617	1188.19
421.839	1184.19
422.062	1218.19
422.285	1171.19
422.507	1212.19
422.73	1206.19
422.953	1200.19
423.175	1204.19
423.398	1207.19
423.621	1202.19
423.843	1191.19
424.066	1205.19
424.288	1184.19
424.511	1177.19
424.733	1211.19
424.956	1204.19
425.178	1191.19
425.401	1199.19
425.623	1199.19
425.846	1164.19
426.068	1179.19
426.291	1179.19
426.513	1229.19
426.735	1184.19
426.958	1202.19
427.18	1181.19
427.402	1212.19
427.625	1212.19
427.847	1191.19
428.069	1176.19
428.292	1179.19
428.514	1152.19
428.736	1168.19
428.958	1196.19
429.181	1210.19
429.403	1148.19
429.625	1188.19
429.847	1186.19
430.069	1163.19
430.292	1174.19
430.514	1161.19
430.736	1182.19
430.958	1200.19
431.18	1164.19
431.402	1183.19
431.624	1168.19
431.846	1174.19
432.068	1176.19
432.29	1190.19
432.512	1179.19
432.734	1197.19
432.956	1184.19
433.178	1236.19
433.4	1240.19
433.622	1241.19
433.844	1223.19
434.066	1230.19
434.287	1216.19
434.509	1216.19
434.731	1223.19
434.953	1204.19
435.175	1253.19
435.397	1291.19
435.618	1231.19
435.84	1191.19
436.062	1218.19
436.284	1232.19
436.505	1178.19
436.727	1182.19
436.949	1177.19
437.17	1191.19
437.392	1212.19
437.614	1225.19
437.835	1152.19
438.057	1166.19
438.278	1151.19
438.5	1133.19
438.721	1152.19
438.943	1175.19
439.165	1138.19
439.386	1175.19
439.608	1178.19
439.829	1184.19
440.05	1166.19
440.272	1213.19
440.493	1228.19
440.715	1232.19
440.936	1218.19
441.158	1203.19
441.379	1207.19
441.6	1237.19
441.822	1248.19
442.043	1224.19
442.264	1200.19
442.486	1244.19
442.707	1244.19
442.928	1238.19
443.149	1269.19
443.371	1275.19
443.592	1326.19
443.813	1318.19
444.034	1245.19
444.255	1255.19
444.476	1279.19
444.698	1275.19
444.919	1276.19
445.14	1373.19
445.361	1302.19
445.582	1254.19
445.803	1216.19
446.024	1215.19
446.245	1234.19
446.466	1186.19
446.687	1177.19
446.908	1178.19
447.129	1153.19
447.35	1155.19
447.571	1123.19
447.792	1126.19
448.013	1150.19
448.234	1127.19
448.455	1145.19
448.675	1124.19
448.896	1102.19
449.117	1101.19
449.338	1110.19
449.559	1133.19
449.779	1106.19
450	1085.19
450.221	1096.19
450.442	1087.19
450.662	1094.19
450.883	1119.19
451.104	1147.19
451.324	1103.19
451.545	1101.19
451.766	1077.19
451.986	1053.19
452.207	1065.19
452.428	1076.19
452.648	1102.19
452.869	1058.19
453.089	1086.19
453.31	1112.19
453.53	1060.19
453.751	1089.19
453.971	1049.19
454.192	1111.19
454.412	1105.19
454.633	1105.19
454.853	1081.19
455.073	1079.19
455.294	1089.19
455.514	1080.19
455.734	1093.19
455.955	1120.19
456.175	1103.19
456.395	1099.19
456.616	1070.19
456.836	1054.19
457.056	1055.19
457.276	1054.19
457.497	1078.19
457.717	1116.19
457.937	1109.19
458.157	1120.19
458.377	1113.19
458.598	1094.19
458.818	1110.19
459.038	1090.19
459.258	1161.19
459.478	1238.19
459.698	1314.19
459.918	1306.19
460.138	1286.19
460.358	1257.19
460.578	1270.19
460.798	1320.19
461.018	1296.19
461.238	1251.19
461.458	1273.19
461.678	1254.19
461.898	1283.19
462.118	1262.19
462.338	1321.19
462.558	1349.19
462.777	1376.19
462.997	1398.19
463.217	1404.19
463.437	1476.19
463.657	1416.19
463.876	1394.19
464.096	1400.19
464.316	1364.19
464.536	1301.19
464.755	1307.19
464.975	1269.19
465.195	1250.19
465.414	1258.19
465.634	1234.19
465.854	1222.19
466.073	1180.19
466.293	1152.19
466.512	1162.19
466.732	1169.19
466.951	1198.19
467.171	1134.19
467.391	1193.19
467.61	1174.19
467.829	1154.19
468.049	1138.19
468.268	1139.19
468.488	1119.19
468.707	1146.19
468.927	1189.19
469.146	1140.19
469.365	1188.19
469.585	1165.19
469.804	1184.19
470.023	1140.19
470.243	1147.19
470.462	1148.19
470.681	1138.19
470.901	1150.19
471.12	1151.19
471.339	1152.19
471.558	1166.19
471.777	1161.19
471.997	1170.19
472.216	1181.19
472.435	1149.19
472.654	1120.19
472.873	1114.19
473.092	1167.19
473.311	1148.19
473.53	1151.19
473.749	1141.19
473.968	1123.19
474.187	1154.19
474.406	1141.19
474.625	1162.19
474.844	1170.19
475.063	1161.19
475.282	1151.19
475.501	1198.19
475.72	1148.19
475.939	1192.19
476.158	1199.19
476.377	1216.19
476.596	1198.19
476.814	1187.19
477.033	1207.19
477.252	1243.19
477.471	1259.19
477.69	1267.19
477.908	1286.19
478.127	1298.19
478.346	1289.19
478.564	1314.19
478.783	1310.19
479.002	1382.19
479.22	1420.19
479.439	1422.19
479.658	1317.19
479.876	1341.19
480.095	1315.19
480.313	1332.19
480.532	1373.19
480.751	1367.19
480.969	1358.19
481.188	1320.19
481.406	1325.19
481.624	1346.19
481.843	1344.19
482.061	1337.19
482.28	1359.19
482.498	1322.19
482.717	1342.19
482.935	1385.19
483.153	1402.19
483.372	1398.19
483.59	1462.19
483.808	1385.19
484.027	1368.19
484.245	1386.19
484.463	1389.19
484.681	1391.19
484.9	1372.19
485.118	1372.19
485.336	1381.19
485.554	1394.19
485.772	1368.19
485.99	1390.19
486.209	1387.19
486.427	1374.19
486.645	1421.19
486.863	1392.19
487.081	1414.19
487.299	1408.19
487.517	1401.19
487.735	1439.19
487.953	1431.19
488.171	1415.19
488.389	1405.19
488.607	1424.19
488.825	1372.19
489.043	1395.19
489.261	1396.19
489.479	1365.19
489.696	1367.19
489.914	1398.19
490.132	1414.19
490.35	1408.19
490.568	1438.19
490.786	1426.19
491.003	1434.19
491.221	1442.19
491.439	1418.19
491.657	1437.19
491.874	1448.19
492.092	1476.19
492.31	1464.19
492.527	1465.19
492.745	1477.19
492.963	1443.19
493.18	1426.19
493.398	1467.19
493.615	1450.19
493.833	1452.19
494.05	1501.19
