Data from Ni(NO3)2@0.0625M.TitratingCurve.Agarose3%dH2O.NegLispCup.LampEnergy10.LIBS07252019_HRD10591_18-14-14-569.txt Node
Date: Thu Jul 25 18:14:14 EDT 2019
User: cochatt
Spectrometer: HR+D1059
Trigger mode: 1
Integration Time (sec): 1.000000E-1
Scans to average: 1
Electric dark correction enabled: true
Nonlinearity correction enabled: false
Boxcar width: 0
XAxis mode: Wavelengths
Number of Pixels in Spectrum: 2048
>>>>>Begin Spectral Data<<<<<
223.165	-10.25
223.4	-10.25
223.635	-10.25
223.869	-6.25
224.104	-21.25
224.338	-15.25
224.573	-14.25
224.808	-18.25
225.042	-10.25
225.277	-0.25
225.511	2.75
225.746	7.75
225.98	9.75
226.215	9.75
226.449	9.75
226.683	9.75
226.918	27.75
227.152	18.75
227.387	47.75
227.621	32.75
227.856	51.75
228.09	49.75
228.324	51.75
228.559	55.75
228.793	72.75
229.027	121.75
229.262	118.75
229.496	110.75
229.73	124.75
229.964	129.75
230.199	139.75
230.433	143.75
230.667	159.75
230.901	150.75
231.136	133.75
231.37	128.75
231.604	136.75
231.838	149.75
232.072	155.75
232.306	159.75
232.541	157.75
232.775	157.75
233.009	159.75
233.243	153.75
233.477	150.75
233.711	163.75
233.945	157.75
234.179	153.75
234.413	150.75
234.647	148.75
234.881	151.75
235.115	149.75
235.349	163.75
235.583	158.75
235.817	162.75
236.051	155.75
236.285	159.75
236.519	157.75
236.753	174.75
236.987	181.75
237.221	181.75
237.455	167.75
237.689	174.75
237.922	173.75
238.156	180.75
238.39	175.75
238.624	179.75
238.858	171.75
239.091	175.75
239.325	172.75
239.559	171.75
239.793	203.75
240.027	200.75
240.26	195.75
240.494	201.75
240.728	193.75
240.961	185.75
241.195	184.75
241.429	193.75
241.662	206.75
241.896	179.75
242.13	201.75
242.363	207.75
242.597	211.75
242.83	229.75
243.064	206.75
243.298	199.75
243.531	191.75
243.765	203.75
243.998	215.75
244.232	213.75
244.465	224.75
244.699	214.75
244.932	226.75
245.166	237.75
245.399	226.75
245.633	228.75
245.866	246.75
246.099	226.75
246.333	225.75
246.566	231.75
246.8	234.75
247.033	244.75
247.266	242.75
247.5	229.75
247.733	228.75
247.966	260.75
248.2	263.75
248.433	277.75
248.666	257.75
248.899	266.75
249.133	246.75
249.366	274.75
249.599	256.75
249.832	254.75
250.066	263.75
250.299	268.75
250.532	301.75
250.765	275.75
250.998	268.75
251.231	264.75
251.465	266.75
251.698	265.75
251.931	277.75
252.164	279.75
252.397	278.75
252.63	290.75
252.863	291.75
253.096	282.75
253.329	292.75
253.562	276.75
253.795	299.75
254.028	302.75
254.261	293.75
254.494	300.75
254.727	286.75
254.96	296.75
255.193	289.75
255.426	301.75
255.659	300.75
255.892	301.75
256.124	318.75
256.357	306.75
256.59	308.75
256.823	322.75
257.056	303.75
257.289	306.75
257.521	325.75
257.754	317.75
257.987	309.75
258.22	322.75
258.452	300.75
258.685	326.75
258.918	321.75
259.151	328.75
259.383	334.75
259.616	323.75
259.849	328.75
260.081	317.75
260.314	333.75
260.547	317.75
260.779	350.75
261.012	338.75
261.244	334.75
261.477	335.75
261.71	330.75
261.942	319.75
262.175	335.75
262.407	358.75
262.64	332.75
262.872	347.75
263.105	368.75
263.337	356.75
263.57	343.75
263.802	353.75
264.035	363.75
264.267	356.75
264.499	343.75
264.732	374.75
264.964	376.75
265.197	366.75
265.429	382.75
265.661	384.75
265.894	382.75
266.126	379.75
266.358	365.75
266.591	381.75
266.823	391.75
267.055	386.75
267.287	374.75
267.52	395.75
267.752	383.75
267.984	372.75
268.216	381.75
268.448	399.75
268.681	392.75
268.913	380.75
269.145	387.75
269.377	401.75
269.609	401.75
269.841	404.75
270.073	379.75
270.306	414.75
270.538	394.75
270.77	397.75
271.002	410.75
271.234	397.75
271.466	395.75
271.698	409.75
271.93	397.75
272.162	405.75
272.394	389.75
272.626	411.75
272.858	411.75
273.09	426.75
273.322	439.75
273.553	416.75
273.785	423.75
274.017	433.75
274.249	437.75
274.481	441.75
274.713	428.75
274.945	441.75
275.176	433.75
275.408	444.75
275.64	416.75
275.872	437.75
276.104	461.75
276.335	459.75
276.567	434.75
276.799	422.75
277.031	446.75
277.262	451.75
277.494	463.75
277.726	466.75
277.957	457.75
278.189	453.75
278.421	458.75
278.652	468.75
278.884	465.75
279.115	475.75
279.347	480.75
279.579	501.75
279.81	460.75
280.042	478.75
280.273	494.75
280.505	474.75
280.736	472.75
280.968	490.75
281.199	507.75
281.431	476.75
281.662	495.75
281.894	484.75
282.125	498.75
282.356	479.75
282.588	487.75
282.819	510.75
283.051	497.75
283.282	485.75
283.513	497.75
283.745	486.75
283.976	507.75
284.207	523.75
284.439	494.75
284.67	524.75
284.901	513.75
285.132	525.75
285.364	499.75
285.595	526.75
285.826	502.75
286.057	515.75
286.288	524.75
286.52	533.75
286.751	529.75
286.982	533.75
287.213	512.75
287.444	540.75
287.675	543.75
287.906	525.75
288.138	512.75
288.369	522.75
288.6	555.75
288.831	536.75
289.062	530.75
289.293	549.75
289.524	543.75
289.755	549.75
289.986	551.75
290.217	563.75
290.448	554.75
290.679	570.75
290.91	560.75
291.141	566.75
291.371	561.75
291.602	548.75
291.833	527.75
292.064	564.75
292.295	555.75
292.526	557.75
292.757	565.75
292.987	563.75
293.218	561.75
293.449	569.75
293.68	559.75
293.91	580.75
294.141	557.75
294.372	578.75
294.603	567.75
294.833	552.75
295.064	535.75
295.295	568.75
295.525	554.75
295.756	590.75
295.987	575.75
296.217	579.75
296.448	590.75
296.679	579.75
296.909	578.75
297.14	588.75
297.37	593.75
297.601	600.75
297.831	627.75
298.062	605.75
298.292	599.75
298.523	642.75
298.753	617.75
298.984	625.75
299.214	608.75
299.445	622.75
299.675	627.75
299.905	617.75
300.136	619.75
300.366	626.75
300.597	633.75
300.827	611.75
301.057	651.75
301.288	645.75
301.518	630.75
301.748	646.75
301.979	658.75
302.209	638.75
302.439	625.75
302.669	615.75
302.9	617.75
303.13	615.75
303.36	625.75
303.59	629.75
303.82	614.75
304.051	642.75
304.281	621.75
304.511	625.75
304.741	619.75
304.971	638.75
305.201	638.75
305.431	605.75
305.661	645.75
305.891	610.75
306.121	614.75
306.352	639.75
306.582	626.75
306.812	613.75
307.042	623.75
307.272	615.75
307.502	606.75
307.731	615.75
307.961	616.75
308.191	629.75
308.421	623.75
308.651	609.75
308.881	604.75
309.111	600.75
309.341	618.75
309.571	620.75
309.8	588.75
310.03	622.75
310.26	626.75
310.49	615.75
310.72	615.75
310.949	612.75
311.179	601.75
311.409	627.75
311.639	641.75
311.868	637.75
312.098	609.75
312.328	642.75
312.557	647.75
312.787	653.75
313.017	652.75
313.246	647.75
313.476	652.75
313.706	647.75
313.935	651.75
314.165	652.75
314.394	665.75
314.624	677.75
314.853	634.75
315.083	649.75
315.312	645.75
315.542	641.75
315.771	646.75
316.001	633.75
316.23	625.75
316.46	630.75
316.689	653.75
316.919	638.75
317.148	643.75
317.377	635.75
317.607	634.75
317.836	630.75
318.065	609.75
318.295	643.75
318.524	620.75
318.753	630.75
318.983	651.75
319.212	627.75
319.441	645.75
319.67	637.75
319.9	655.75
320.129	623.75
320.358	635.75
320.587	664.75
320.816	639.75
321.046	653.75
321.275	636.75
321.504	658.75
321.733	638.75
321.962	629.75
322.191	663.75
322.42	655.75
322.649	649.75
322.878	651.75
323.108	669.75
323.337	666.75
323.566	653.75
323.795	650.75
324.024	655.75
324.253	655.75
324.482	678.75
324.71	643.75
324.939	681.75
325.168	664.75
325.397	661.75
325.626	683.75
325.855	697.75
326.084	693.75
326.313	667.75
326.542	696.75
326.77	730.75
326.999	730.75
327.228	691.75
327.457	705.75
327.686	692.75
327.914	697.75
328.143	700.75
328.372	705.75
328.6	733.75
328.829	689.75
329.058	706.75
329.287	708.75
329.515	710.75
329.744	719.75
329.972	733.75
330.201	698.75
330.43	723.75
330.658	725.75
330.887	741.75
331.115	757.75
331.344	723.75
331.572	713.75
331.801	759.75
332.03	785.75
332.258	822.75
332.486	820.75
332.715	867.75
332.943	891.75
333.172	943.75
333.4	959.75
333.629	964.75
333.857	985.75
334.085	957.75
334.314	947.75
334.542	935.75
334.771	915.75
334.999	883.75
335.227	889.75
335.455	872.75
335.684	853.75
335.912	857.75
336.14	847.75
336.369	837.75
336.597	859.75
336.825	843.75
337.053	857.75
337.281	845.75
337.51	827.75
337.738	781.75
337.966	794.75
338.194	811.75
338.422	791.75
338.65	789.75
338.878	784.75
339.106	782.75
339.334	804.75
339.562	759.75
339.79	771.75
340.018	745.75
340.246	723.75
340.474	732.75
340.702	719.75
340.93	733.75
341.158	759.75
341.386	713.75
341.614	747.75
341.842	749.75
342.07	733.75
342.298	740.75
342.526	747.75
342.754	738.75
342.981	738.75
343.209	743.75
343.437	793.75
343.665	818.75
343.893	890.75
344.12	937.75
344.348	905.75
344.576	833.75
344.804	803.75
345.031	770.75
345.259	761.75
345.487	757.75
345.714	755.75
345.942	742.75
346.17	714.75
346.397	725.75
346.625	701.75
346.853	733.75
347.08	740.75
347.308	724.75
347.535	725.75
347.763	735.75
347.99	742.75
348.218	746.75
348.445	725.75
348.673	734.75
348.9	713.75
349.128	701.75
349.355	719.75
349.583	714.75
349.81	712.75
350.037	699.75
350.265	697.75
350.492	685.75
350.72	701.75
350.947	689.75
351.174	689.75
351.402	711.75
351.629	718.75
351.856	692.75
352.083	680.75
352.311	682.75
352.538	689.75
352.765	689.75
352.992	686.75
353.22	677.75
353.447	675.75
353.674	686.75
353.901	675.75
354.128	698.75
354.355	703.75
354.583	681.75
354.81	668.75
355.037	689.75
355.264	697.75
355.491	687.75
355.718	681.75
355.945	678.75
356.172	695.75
356.399	683.75
356.626	706.75
356.853	719.75
357.08	705.75
357.307	701.75
357.534	705.75
357.761	684.75
357.988	696.75
358.215	699.75
358.441	679.75
358.668	686.75
358.895	699.75
359.122	703.75
359.349	702.75
359.576	691.75
359.802	659.75
360.029	699.75
360.256	682.75
360.483	693.75
360.709	683.75
360.936	716.75
361.163	691.75
361.39	695.75
361.616	697.75
361.843	697.75
362.07	687.75
362.296	692.75
362.523	687.75
362.749	676.75
362.976	680.75
363.203	684.75
363.429	656.75
363.656	678.75
363.882	664.75
364.109	665.75
364.335	666.75
364.562	693.75
364.788	697.75
365.015	675.75
365.241	699.75
365.468	701.75
365.694	693.75
365.92	697.75
366.147	693.75
366.373	700.75
366.599	681.75
366.826	661.75
367.052	677.75
367.278	708.75
367.505	689.75
367.731	692.75
367.957	682.75
368.184	695.75
368.41	708.75
368.636	697.75
368.862	706.75
369.089	695.75
369.315	680.75
369.541	712.75
369.767	679.75
369.993	704.75
370.219	695.75
370.445	712.75
370.672	725.75
370.898	718.75
371.124	750.75
371.35	748.75
371.576	751.75
371.802	770.75
372.028	755.75
372.254	745.75
372.48	753.75
372.706	779.75
372.932	800.75
373.158	766.75
373.384	769.75
373.61	725.75
373.835	741.75
374.061	753.75
374.287	758.75
374.513	747.75
374.739	777.75
374.965	823.75
375.191	833.75
375.416	842.75
375.642	823.75
375.868	791.75
376.094	779.75
376.319	785.75
376.545	768.75
376.771	762.75
376.997	779.75
377.222	765.75
377.448	750.75
377.674	755.75
377.899	737.75
378.125	732.75
378.35	752.75
378.576	743.75
378.802	742.75
379.027	766.75
379.253	744.75
379.478	757.75
379.704	747.75
379.929	731.75
380.155	732.75
380.38	727.75
380.606	762.75
380.831	742.75
381.057	743.75
381.282	767.75
381.507	733.75
381.733	747.75
381.958	757.75
382.184	774.75
382.409	759.75
382.634	793.75
382.86	793.75
383.085	802.75
383.31	809.75
383.535	840.75
383.761	840.75
383.986	836.75
384.211	892.75
384.436	880.75
384.662	898.75
384.887	923.75
385.112	914.75
385.337	923.75
385.562	920.75
385.787	899.75
386.013	939.75
386.238	962.75
386.463	935.75
386.688	919.75
386.913	928.75
387.138	920.75
387.363	911.75
387.588	871.75
387.813	878.75
388.038	902.75
388.263	907.75
388.488	899.75
388.713	882.75
388.938	902.75
389.163	895.75
389.387	890.75
389.612	871.75
389.837	875.75
390.062	855.75
390.287	877.75
390.512	886.75
390.736	907.75
390.961	905.75
391.186	930.75
391.411	965.75
391.636	987.75
391.86	987.75
392.085	1047.75
392.31	1010.75
392.534	972.75
392.759	955.75
392.984	968.75
393.208	971.75
393.433	933.75
393.658	947.75
393.882	967.75
394.107	991.75
394.331	963.75
394.556	950.75
394.78	969.75
395.005	965.75
395.229	981.75
395.454	1032.75
395.678	1043.75
395.903	1006.75
396.127	998.75
396.352	960.75
396.576	965.75
396.801	975.75
397.025	983.75
397.249	999.75
397.474	992.75
397.698	1002.75
397.922	1004.75
398.147	993.75
398.371	1025.75
398.595	1057.75
398.82	1110.75
399.044	1191.75
399.268	1303.75
399.492	1530.75
399.717	1787.75
399.941	1813.75
400.165	1557.75
400.389	1409.75
400.613	1226.75
400.837	1195.75
401.062	1175.75
401.286	1137.75
401.51	1117.75
401.734	1127.75
401.958	1155.75
402.182	1150.75
402.406	1163.75
402.63	1177.75
402.854	1228.75
403.078	1244.75
403.302	1256.75
403.526	1298.75
403.75	1365.75
403.974	1365.75
404.198	1348.75
404.422	1420.75
404.645	1373.75
404.869	1321.75
405.093	1316.75
405.317	1263.75
405.541	1291.75
405.765	1276.75
405.988	1235.75
406.212	1225.75
406.436	1223.75
406.66	1273.75
406.883	1263.75
407.107	1388.75
407.331	1436.75
407.555	1505.75
407.778	1492.75
408.002	1461.75
408.226	1444.75
408.449	1379.75
408.673	1322.75
408.896	1270.75
409.12	1277.75
409.344	1323.75
409.567	1294.75
409.791	1330.75
410.014	1305.75
410.238	1288.75
410.461	1303.75
410.685	1254.75
410.908	1215.75
411.132	1234.75
411.355	1194.75
411.578	1210.75
411.802	1157.75
412.025	1205.75
412.249	1207.75
412.472	1230.75
412.695	1167.75
412.919	1123.75
413.142	1129.75
413.365	1126.75
413.589	1179.75
413.812	1142.75
414.035	1132.75
414.258	1115.75
414.482	1180.75
414.705	1173.75
414.928	1167.75
415.151	1173.75
415.374	1119.75
415.597	1127.75
415.821	1117.75
416.044	1094.75
416.267	1101.75
416.49	1107.75
416.713	1098.75
416.936	1127.75
417.159	1113.75
417.382	1132.75
417.605	1129.75
417.828	1153.75
418.051	1119.75
418.274	1126.75
418.497	1111.75
418.72	1153.75
418.943	1170.75
419.166	1238.75
419.389	1361.75
419.611	1253.75
419.834	1209.75
420.057	1190.75
420.28	1157.75
420.503	1119.75
420.726	1098.75
420.948	1105.75
421.171	1104.75
421.394	1110.75
421.617	1111.75
421.839	1129.75
422.062	1132.75
422.285	1107.75
422.507	1184.75
422.73	1153.75
422.953	1159.75
423.175	1216.75
423.398	1231.75
423.621	1190.75
423.843	1221.75
424.066	1218.75
424.288	1203.75
424.511	1212.75
424.733	1169.75
424.956	1183.75
425.178	1151.75
425.401	1149.75
425.623	1113.75
425.846	1120.75
426.068	1094.75
426.291	1089.75
426.513	1046.75
426.735	1045.75
426.958	1076.75
427.18	1013.75
427.402	995.75
427.625	1022.75
427.847	1013.75
428.069	1013.75
428.292	993.75
428.514	981.75
428.736	991.75
428.958	980.75
429.181	970.75
429.403	992.75
429.625	954.75
429.847	983.75
430.069	969.75
430.292	975.75
430.514	966.75
430.736	1003.75
430.958	978.75
431.18	975.75
431.402	977.75
431.624	973.75
431.846	1002.75
432.068	997.75
432.29	1033.75
432.512	1006.75
432.734	1004.75
432.956	1000.75
433.178	981.75
433.4	1004.75
433.622	1002.75
433.844	1018.75
434.066	1053.75
434.287	1016.75
434.509	1062.75
434.731	1105.75
434.953	1151.75
435.175	1155.75
435.397	1135.75
435.618	1057.75
435.84	1063.75
436.062	1050.75
436.284	996.75
436.505	1013.75
436.727	1005.75
436.949	1005.75
437.17	1004.75
437.392	986.75
437.614	974.75
437.835	949.75
438.057	951.75
438.278	964.75
438.5	964.75
438.721	941.75
438.943	986.75
439.165	971.75
439.386	970.75
439.608	1006.75
439.829	1006.75
440.05	988.75
440.272	1020.75
440.493	1039.75
440.715	1017.75
440.936	1029.75
441.158	1052.75
441.379	1083.75
441.6	1143.75
441.822	1134.75
442.043	1161.75
442.264	1125.75
442.486	1094.75
442.707	1110.75
442.928	1078.75
443.149	1137.75
443.371	1107.75
443.592	1094.75
443.813	1147.75
444.034	1149.75
444.255	1182.75
444.476	1237.75
444.698	1338.75
444.919	1388.75
445.14	1454.75
445.361	1293.75
445.582	1169.75
445.803	1104.75
446.024	1089.75
446.245	1060.75
446.466	1075.75
446.687	975.75
446.908	986.75
447.129	989.75
447.35	960.75
447.571	993.75
447.792	960.75
448.013	970.75
448.234	922.75
448.455	920.75
448.675	922.75
448.896	943.75
449.117	901.75
449.338	888.75
449.559	906.75
449.779	891.75
450	905.75
450.221	904.75
450.442	923.75
450.662	927.75
450.883	931.75
451.104	940.75
451.324	995.75
451.545	936.75
451.766	951.75
451.986	952.75
452.207	917.75
452.428	933.75
452.648	919.75
452.869	900.75
453.089	877.75
453.31	922.75
453.53	942.75
453.751	904.75
453.971	901.75
454.192	926.75
454.412	870.75
454.633	903.75
454.853	888.75
455.073	886.75
455.294	883.75
455.514	867.75
455.734	899.75
455.955	840.75
456.175	852.75
456.395	857.75
456.616	850.75
456.836	858.75
457.056	853.75
457.276	851.75
457.497	869.75
457.717	872.75
457.937	862.75
458.157	883.75
458.377	915.75
458.598	903.75
458.818	913.75
459.038	949.75
459.258	957.75
459.478	1012.75
459.698	1045.75
459.918	1085.75
460.138	1113.75
460.358	1191.75
460.578	1186.75
460.798	1194.75
461.018	1260.75
461.238	1190.75
461.458	1187.75
461.678	1161.75
461.898	1217.75
462.118	1207.75
462.338	1283.75
462.558	1295.75
462.777	1348.75
462.997	1503.75
463.217	1655.75
463.437	1641.75
463.657	1483.75
463.876	1414.75
464.096	1401.75
464.316	1422.75
464.536	1421.75
464.755	1357.75
464.975	1299.75
465.195	1207.75
465.414	1173.75
465.634	1077.75
465.854	1051.75
466.073	1051.75
466.293	1006.75
466.512	996.75
466.732	962.75
466.951	974.75
467.171	949.75
467.391	946.75
467.61	950.75
467.829	970.75
468.049	969.75
468.268	906.75
468.488	915.75
468.707	924.75
468.927	906.75
469.146	901.75
469.365	941.75
469.585	966.75
469.804	965.75
470.023	994.75
470.243	990.75
470.462	1004.75
470.681	1004.75
470.901	1012.75
471.12	1000.75
471.339	967.75
471.558	965.75
471.777	960.75
471.997	957.75
472.216	939.75
472.435	953.75
472.654	907.75
472.873	886.75
473.092	893.75
473.311	889.75
473.53	894.75
473.749	906.75
473.968	921.75
474.187	885.75
474.406	916.75
474.625	910.75
474.844	890.75
475.063	911.75
475.282	897.75
475.501	899.75
475.72	925.75
475.939	917.75
476.158	922.75
476.377	923.75
476.596	918.75
476.814	946.75
477.033	908.75
477.252	972.75
477.471	971.75
477.69	1007.75
477.908	1042.75
478.127	1054.75
478.346	1090.75
478.564	1060.75
478.783	1089.75
479.002	1144.75
479.22	1121.75
479.439	1101.75
479.658	1129.75
479.876	1125.75
480.095	1100.75
480.313	1189.75
480.532	1244.75
480.751	1218.75
480.969	1177.75
481.188	1111.75
481.406	1083.75
481.624	1070.75
481.843	1055.75
482.061	1056.75
482.28	1011.75
482.498	1009.75
482.717	1045.75
482.935	1031.75
483.153	993.75
483.372	1029.75
483.59	999.75
483.808	1015.75
484.027	1013.75
484.245	1012.75
484.463	1047.75
484.681	1053.75
484.9	1070.75
485.118	1053.75
485.336	1049.75
485.554	1077.75
485.772	1104.75
485.99	1084.75
486.209	1087.75
486.427	1104.75
486.645	1083.75
486.863	1085.75
487.081	1079.75
487.299	1084.75
487.517	1093.75
487.735	1076.75
487.953	1081.75
488.171	1101.75
488.389	1066.75
488.607	1034.75
488.825	1029.75
489.043	1032.75
489.261	1038.75
489.479	1060.75
489.696	1099.75
489.914	1085.75
490.132	1076.75
490.35	1053.75
490.568	1069.75
490.786	1078.75
491.003	1051.75
491.221	1061.75
491.439	1093.75
491.657	1083.75
491.874	1112.75
492.092	1085.75
492.31	1071.75
492.527	1080.75
492.745	1098.75
492.963	1083.75
493.18	1123.75
493.398	1095.75
493.615	1095.75
493.833	1111.75
494.05	1151.75
494.268	1141.75
494.485	1154.75
494.703	1164.75
494.92	1133.75
495.138	1108.75
495.355	1146.75
495.573	1148.75
495.79	1113.75
496.008	1148.75
496.225	1126.75
496.442	1182.75
496.66	1219.75
496.877	1197.75
497.094	1242.75
497.312	1256.75
