Data from Ni(NO3)2@0.25M.TitratingCurve.Agarose3%dH2O.NegLispCup.LampEnergy10.LIBS07252019_HRD10591_18-03-01-565.txt Node
Date: Thu Jul 25 18:03:01 EDT 2019
User: cochatt
Spectrometer: HR+D1059
Trigger mode: 1
Integration Time (sec): 1.000000E-1
Scans to average: 1
Electric dark correction enabled: true
Nonlinearity correction enabled: false
Boxcar width: 0
XAxis mode: Wavelengths
Number of Pixels in Spectrum: 2048
>>>>>Begin Spectral Data<<<<<
223.165	-3.38
223.4	-3.38
223.635	-3.38
223.869	-9.38
224.104	-24.38
224.338	9.62
224.573	-27.38
224.808	-15.38
225.042	-18.38
225.277	-17.38
225.511	-19.38
225.746	10.62
225.98	8.62
226.215	17.62
226.449	9.62
226.683	11.62
226.918	32.62
227.152	34.62
227.387	44.62
227.621	45.62
227.856	36.62
228.09	50.62
228.324	35.62
228.559	60.62
228.793	44.62
229.027	100.62
229.262	104.62
229.496	101.62
229.73	95.62
229.964	100.62
230.199	129.62
230.433	119.62
230.667	120.62
230.901	117.62
231.136	104.62
231.37	136.62
231.604	114.62
231.838	132.62
232.072	139.62
232.306	122.62
232.541	119.62
232.775	114.62
233.009	124.62
233.243	135.62
233.477	113.62
233.711	123.62
233.945	124.62
234.179	132.62
234.413	132.62
234.647	128.62
234.881	129.62
235.115	127.62
235.349	122.62
235.583	124.62
235.817	126.62
236.051	122.62
236.285	134.62
236.519	138.62
236.753	122.62
236.987	115.62
237.221	129.62
237.455	130.62
237.689	124.62
237.922	133.62
238.156	123.62
238.39	118.62
238.624	127.62
238.858	146.62
239.091	145.62
239.325	133.62
239.559	140.62
239.793	150.62
240.027	135.62
240.26	139.62
240.494	135.62
240.728	134.62
240.961	144.62
241.195	140.62
241.429	141.62
241.662	151.62
241.896	155.62
242.13	153.62
242.363	161.62
242.597	152.62
242.83	159.62
243.064	152.62
243.298	148.62
243.531	166.62
243.765	172.62
243.998	161.62
244.232	149.62
244.465	171.62
244.699	181.62
244.932	157.62
245.166	162.62
245.399	172.62
245.633	186.62
245.866	174.62
246.099	161.62
246.333	172.62
246.566	187.62
246.8	190.62
247.033	180.62
247.266	186.62
247.5	185.62
247.733	194.62
247.966	193.62
248.2	219.62
248.433	192.62
248.666	210.62
248.899	201.62
249.133	221.62
249.366	219.62
249.599	234.62
249.832	236.62
250.066	254.62
250.299	244.62
250.532	243.62
250.765	261.62
250.998	279.62
251.231	284.62
251.465	265.62
251.698	275.62
251.931	293.62
252.164	291.62
252.397	295.62
252.63	277.62
252.863	304.62
253.096	294.62
253.329	304.62
253.562	317.62
253.795	326.62
254.028	325.62
254.261	325.62
254.494	335.62
254.727	325.62
254.96	340.62
255.193	341.62
255.426	347.62
255.659	369.62
255.892	352.62
256.124	356.62
256.357	364.62
256.59	359.62
256.823	376.62
257.056	384.62
257.289	390.62
257.521	397.62
257.754	398.62
257.987	397.62
258.22	406.62
258.452	390.62
258.685	398.62
258.918	414.62
259.151	413.62
259.383	416.62
259.616	376.62
259.849	426.62
260.081	441.62
260.314	423.62
260.547	430.62
260.779	421.62
261.012	456.62
261.244	447.62
261.477	441.62
261.71	453.62
261.942	450.62
262.175	446.62
262.407	452.62
262.64	453.62
262.872	443.62
263.105	454.62
263.337	453.62
263.57	471.62
263.802	470.62
264.035	486.62
264.267	466.62
264.499	466.62
264.732	496.62
264.964	485.62
265.197	489.62
265.429	470.62
265.661	507.62
265.894	490.62
266.126	504.62
266.358	477.62
266.591	504.62
266.823	518.62
267.055	486.62
267.287	493.62
267.52	511.62
267.752	506.62
267.984	489.62
268.216	504.62
268.448	508.62
268.681	520.62
268.913	492.62
269.145	532.62
269.377	522.62
269.609	538.62
269.841	512.62
270.073	532.62
270.306	524.62
270.538	542.62
270.77	525.62
271.002	535.62
271.234	524.62
271.466	533.62
271.698	534.62
271.93	527.62
272.162	527.62
272.394	532.62
272.626	534.62
272.858	532.62
273.09	543.62
273.322	552.62
273.553	524.62
273.785	534.62
274.017	546.62
274.249	529.62
274.481	538.62
274.713	560.62
274.945	526.62
275.176	560.62
275.408	530.62
275.64	539.62
275.872	524.62
276.104	558.62
276.335	545.62
276.567	534.62
276.799	568.62
277.031	565.62
277.262	556.62
277.494	550.62
277.726	553.62
277.957	546.62
278.189	532.62
278.421	537.62
278.652	549.62
278.884	562.62
279.115	554.62
279.347	553.62
279.579	546.62
279.81	572.62
280.042	561.62
280.273	569.62
280.505	552.62
280.736	557.62
280.968	579.62
281.199	563.62
281.431	567.62
281.662	544.62
281.894	555.62
282.125	543.62
282.356	574.62
282.588	557.62
282.819	557.62
283.051	552.62
283.282	531.62
283.513	561.62
283.745	572.62
283.976	566.62
284.207	563.62
284.439	571.62
284.67	547.62
284.901	579.62
285.132	571.62
285.364	550.62
285.595	590.62
285.826	557.62
286.057	562.62
286.288	564.62
286.52	565.62
286.751	566.62
286.982	570.62
287.213	573.62
287.444	557.62
287.675	555.62
287.906	563.62
288.138	552.62
288.369	578.62
288.6	563.62
288.831	556.62
289.062	570.62
289.293	554.62
289.524	572.62
289.755	596.62
289.986	572.62
290.217	584.62
290.448	586.62
290.679	552.62
290.91	562.62
291.141	570.62
291.371	581.62
291.602	557.62
291.833	575.62
292.064	572.62
292.295	558.62
292.526	566.62
292.757	576.62
292.987	563.62
293.218	568.62
293.449	576.62
293.68	573.62
293.91	570.62
294.141	564.62
294.372	558.62
294.603	564.62
294.833	555.62
295.064	556.62
295.295	577.62
295.525	566.62
295.756	560.62
295.987	565.62
296.217	593.62
296.448	576.62
296.679	566.62
296.909	590.62
297.14	572.62
297.37	567.62
297.601	582.62
297.831	589.62
298.062	582.62
298.292	565.62
298.523	572.62
298.753	599.62
298.984	588.62
299.214	567.62
299.445	588.62
299.675	584.62
299.905	582.62
300.136	599.62
300.366	588.62
300.597	617.62
300.827	595.62
301.057	607.62
301.288	592.62
301.518	609.62
301.748	593.62
301.979	607.62
302.209	604.62
302.439	631.62
302.669	619.62
302.9	609.62
303.13	631.62
303.36	620.62
303.59	634.62
303.82	626.62
304.051	610.62
304.281	632.62
304.511	614.62
304.741	642.62
304.971	666.62
305.201	651.62
305.431	660.62
305.661	643.62
305.891	648.62
306.121	670.62
306.352	664.62
306.582	650.62
306.812	636.62
307.042	642.62
307.272	661.62
307.502	676.62
307.731	677.62
307.961	662.62
308.191	669.62
308.421	656.62
308.651	682.62
308.881	660.62
309.111	660.62
309.341	689.62
309.571	665.62
309.8	695.62
310.03	696.62
310.26	702.62
310.49	707.62
310.72	696.62
310.949	683.62
311.179	697.62
311.409	715.62
311.639	728.62
311.868	738.62
312.098	748.62
312.328	747.62
312.557	718.62
312.787	777.62
313.017	772.62
313.246	773.62
313.476	792.62
313.706	806.62
313.935	797.62
314.165	788.62
314.394	782.62
314.624	792.62
314.853	813.62
315.083	794.62
315.312	804.62
315.542	830.62
315.771	836.62
316.001	822.62
316.23	805.62
316.46	835.62
316.689	859.62
316.919	865.62
317.148	872.62
317.377	857.62
317.607	858.62
317.836	884.62
318.065	876.62
318.295	886.62
318.524	896.62
318.753	909.62
318.983	918.62
319.212	924.62
319.441	933.62
319.67	956.62
319.9	916.62
320.129	978.62
320.358	974.62
320.587	964.62
320.816	984.62
321.046	987.62
321.275	1020.62
321.504	1002.62
321.733	1006.62
321.962	1010.62
322.191	1010.62
322.42	1045.62
322.649	1033.62
322.878	1045.62
323.108	1055.62
323.337	1046.62
323.566	1068.62
323.795	1104.62
324.024	1121.62
324.253	1082.62
324.482	1081.62
324.71	1098.62
324.939	1094.62
325.168	1117.62
325.397	1104.62
325.626	1128.62
325.855	1153.62
326.084	1155.62
326.313	1146.62
326.542	1161.62
326.77	1164.62
326.999	1194.62
327.228	1178.62
327.457	1160.62
327.686	1177.62
327.914	1190.62
328.143	1212.62
328.372	1211.62
328.6	1234.62
328.829	1245.62
329.058	1229.62
329.287	1256.62
329.515	1284.62
329.744	1283.62
329.972	1264.62
330.201	1272.62
330.43	1257.62
330.658	1303.62
330.887	1294.62
331.115	1324.62
331.344	1276.62
331.572	1309.62
331.801	1345.62
332.03	1344.62
332.258	1317.62
332.486	1338.62
332.715	1330.62
332.943	1385.62
333.172	1372.62
333.4	1374.62
333.629	1397.62
333.857	1408.62
334.085	1408.62
334.314	1410.62
334.542	1420.62
334.771	1436.62
334.999	1406.62
335.227	1438.62
335.455	1457.62
335.684	1481.62
335.912	1434.62
336.14	1451.62
336.369	1458.62
336.597	1452.62
336.825	1454.62
337.053	1452.62
337.281	1438.62
337.51	1477.62
337.738	1473.62
337.966	1430.62
338.194	1445.62
338.422	1423.62
338.65	1428.62
338.878	1457.62
339.106	1458.62
339.334	1444.62
339.562	1435.62
339.79	1425.62
340.018	1445.62
340.246	1415.62
340.474	1446.62
340.702	1424.62
340.93	1442.62
341.158	1431.62
341.386	1432.62
341.614	1422.62
341.842	1420.62
342.07	1431.62
342.298	1436.62
342.526	1452.62
342.754	1459.62
342.981	1473.62
343.209	1432.62
343.437	1477.62
343.665	1491.62
343.893	1466.62
344.12	1492.62
344.348	1496.62
344.576	1472.62
344.804	1473.62
345.031	1449.62
345.259	1429.62
345.487	1469.62
345.714	1437.62
345.942	1460.62
346.17	1412.62
346.397	1432.62
346.625	1430.62
346.853	1404.62
347.08	1388.62
347.308	1403.62
347.535	1432.62
347.763	1401.62
347.99	1421.62
348.218	1429.62
348.445	1382.62
348.673	1396.62
348.9	1402.62
349.128	1422.62
349.355	1418.62
349.583	1412.62
349.81	1400.62
350.037	1371.62
350.265	1381.62
350.492	1402.62
350.72	1372.62
350.947	1412.62
351.174	1396.62
351.402	1412.62
351.629	1412.62
351.856	1415.62
352.083	1384.62
352.311	1360.62
352.538	1357.62
352.765	1380.62
352.992	1371.62
353.22	1394.62
353.447	1360.62
353.674	1381.62
353.901	1416.62
354.128	1378.62
354.355	1378.62
354.583	1392.62
354.81	1350.62
355.037	1374.62
355.264	1376.62
355.491	1334.62
355.718	1380.62
355.945	1367.62
356.172	1351.62
356.399	1362.62
356.626	1376.62
356.853	1415.62
357.08	1364.62
357.307	1388.62
357.534	1389.62
357.761	1400.62
357.988	1379.62
358.215	1398.62
358.441	1368.62
358.668	1361.62
358.895	1354.62
359.122	1363.62
359.349	1366.62
359.576	1343.62
359.802	1334.62
360.029	1334.62
360.256	1348.62
360.483	1351.62
360.709	1391.62
360.936	1348.62
361.163	1350.62
361.39	1382.62
361.616	1358.62
361.843	1365.62
362.07	1369.62
362.296	1355.62
362.523	1323.62
362.749	1352.62
362.976	1355.62
363.203	1370.62
363.429	1373.62
363.656	1344.62
363.882	1333.62
364.109	1325.62
364.335	1355.62
364.562	1373.62
364.788	1376.62
365.015	1370.62
365.241	1372.62
365.468	1355.62
365.694	1361.62
365.92	1385.62
366.147	1367.62
366.373	1376.62
366.599	1357.62
366.826	1347.62
367.052	1346.62
367.278	1357.62
367.505	1361.62
367.731	1342.62
367.957	1337.62
368.184	1348.62
368.41	1332.62
368.636	1345.62
368.862	1345.62
369.089	1350.62
369.315	1388.62
369.541	1379.62
369.767	1371.62
369.993	1388.62
370.219	1338.62
370.445	1367.62
370.672	1323.62
370.898	1353.62
371.124	1375.62
371.35	1370.62
371.576	1351.62
371.802	1315.62
372.028	1370.62
372.254	1342.62
372.48	1305.62
372.706	1327.62
372.932	1329.62
373.158	1314.62
373.384	1376.62
373.61	1326.62
373.835	1344.62
374.061	1328.62
374.287	1317.62
374.513	1340.62
374.739	1312.62
374.965	1371.62
375.191	1343.62
375.416	1338.62
375.642	1297.62
375.868	1327.62
376.094	1294.62
376.319	1282.62
376.545	1314.62
376.771	1293.62
376.997	1267.62
377.222	1290.62
377.448	1292.62
377.674	1312.62
377.899	1297.62
378.125	1277.62
378.35	1256.62
378.576	1237.62
378.802	1224.62
379.027	1266.62
379.253	1241.62
379.478	1222.62
379.704	1268.62
379.929	1215.62
380.155	1248.62
380.38	1253.62
380.606	1245.62
380.831	1260.62
381.057	1262.62
381.282	1251.62
381.507	1238.62
381.733	1232.62
381.958	1233.62
382.184	1244.62
382.409	1270.62
382.634	1246.62
382.86	1262.62
383.085	1246.62
383.31	1256.62
383.535	1301.62
383.761	1292.62
383.986	1246.62
384.211	1318.62
384.436	1261.62
384.662	1286.62
384.887	1325.62
385.112	1307.62
385.337	1290.62
385.562	1312.62
385.787	1318.62
386.013	1353.62
386.238	1288.62
386.463	1312.62
386.688	1321.62
386.913	1335.62
387.138	1307.62
387.363	1324.62
387.588	1310.62
387.813	1303.62
388.038	1298.62
388.263	1298.62
388.488	1318.62
388.713	1353.62
388.938	1336.62
389.163	1306.62
389.387	1338.62
389.612	1337.62
389.837	1332.62
390.062	1310.62
390.287	1315.62
390.512	1337.62
390.736	1338.62
390.961	1349.62
391.186	1323.62
391.411	1320.62
391.636	1328.62
391.86	1344.62
392.085	1318.62
392.31	1352.62
392.534	1338.62
392.759	1369.62
392.984	1347.62
393.208	1368.62
393.433	1341.62
393.658	1348.62
393.882	1316.62
394.107	1362.62
394.331	1336.62
394.556	1362.62
394.78	1331.62
395.005	1389.62
395.229	1370.62
395.454	1344.62
395.678	1353.62
395.903	1395.62
396.127	1340.62
396.352	1385.62
396.576	1390.62
396.801	1393.62
397.025	1408.62
397.249	1407.62
397.474	1392.62
397.698	1430.62
397.922	1443.62
398.147	1429.62
398.371	1445.62
398.595	1372.62
398.82	1492.62
399.044	1481.62
399.268	1502.62
399.492	1554.62
399.717	1525.62
399.941	1542.62
400.165	1567.62
400.389	1570.62
400.613	1525.62
400.837	1536.62
401.062	1496.62
401.286	1500.62
401.51	1504.62
401.734	1474.62
401.958	1463.62
402.182	1500.62
402.406	1460.62
402.63	1492.62
402.854	1505.62
403.078	1491.62
403.302	1513.62
403.526	1490.62
403.75	1512.62
403.974	1514.62
404.198	1440.62
404.422	1524.62
404.645	1508.62
404.869	1522.62
405.093	1508.62
405.317	1501.62
405.541	1539.62
405.765	1520.62
405.988	1502.62
406.212	1561.62
406.436	1511.62
406.66	1582.62
406.883	1551.62
407.107	1582.62
407.331	1592.62
407.555	1611.62
407.778	1617.62
408.002	1618.62
408.226	1645.62
408.449	1637.62
408.673	1612.62
408.896	1593.62
409.12	1626.62
409.344	1650.62
409.567	1611.62
409.791	1580.62
410.014	1612.62
410.238	1565.62
410.461	1596.62
410.685	1620.62
410.908	1598.62
411.132	1565.62
411.355	1560.62
411.578	1604.62
411.802	1589.62
412.025	1561.62
412.249	1589.62
412.472	1603.62
412.695	1526.62
412.919	1545.62
413.142	1573.62
413.365	1568.62
413.589	1558.62
413.812	1548.62
414.035	1520.62
414.258	1552.62
414.482	1572.62
414.705	1574.62
414.928	1567.62
415.151	1589.62
415.374	1550.62
415.597	1531.62
415.821	1521.62
416.044	1523.62
416.267	1565.62
416.49	1526.62
416.713	1532.62
416.936	1555.62
417.159	1518.62
417.382	1512.62
417.605	1547.62
417.828	1536.62
418.051	1585.62
418.274	1510.62
418.497	1480.62
418.72	1522.62
418.943	1449.62
419.166	1593.62
419.389	1727.62
419.611	1671.62
419.834	1668.62
420.057	1582.62
420.28	1548.62
420.503	1520.62
420.726	1543.62
420.948	1510.62
421.171	1505.62
421.394	1556.62
421.617	1564.62
421.839	1566.62
422.062	1557.62
422.285	1540.62
422.507	1568.62
422.73	1551.62
422.953	1553.62
423.175	1561.62
423.398	1576.62
423.621	1572.62
423.843	1609.62
424.066	1559.62
424.288	1549.62
424.511	1578.62
424.733	1573.62
424.956	1542.62
425.178	1555.62
425.401	1604.62
425.623	1556.62
425.846	1603.62
426.068	1600.62
426.291	1597.62
426.513	1582.62
426.735	1554.62
426.958	1590.62
427.18	1563.62
427.402	1588.62
427.625	1596.62
427.847	1610.62
428.069	1568.62
428.292	1589.62
428.514	1588.62
428.736	1596.62
428.958	1627.62
429.181	1561.62
429.403	1565.62
429.625	1565.62
429.847	1578.62
430.069	1634.62
430.292	1628.62
430.514	1559.62
430.736	1557.62
430.958	1609.62
431.18	1609.62
431.402	1628.62
431.624	1592.62
431.846	1618.62
432.068	1590.62
432.29	1635.62
432.512	1605.62
432.734	1620.62
432.956	1597.62
433.178	1633.62
433.4	1629.62
433.622	1650.62
433.844	1636.62
434.066	1656.62
434.287	1592.62
434.509	1603.62
434.731	1597.62
434.953	1645.62
435.175	1633.62
435.397	1660.62
435.618	1628.62
435.84	1618.62
436.062	1626.62
436.284	1651.62
436.505	1621.62
436.727	1620.62
436.949	1616.62
437.17	1605.62
437.392	1586.62
437.614	1607.62
437.835	1563.62
438.057	1558.62
438.278	1552.62
438.5	1573.62
438.721	1584.62
438.943	1626.62
439.165	1568.62
439.386	1588.62
439.608	1584.62
439.829	1599.62
440.05	1593.62
440.272	1637.62
440.493	1606.62
440.715	1625.62
440.936	1627.62
441.158	1613.62
441.379	1592.62
441.6	1630.62
441.822	1620.62
442.043	1640.62
442.264	1633.62
442.486	1629.62
442.707	1618.62
442.928	1614.62
443.149	1653.62
443.371	1641.62
443.592	1670.62
443.813	1685.62
444.034	1599.62
444.255	1633.62
444.476	1652.62
444.698	1660.62
444.919	1674.62
445.14	1801.62
445.361	1701.62
445.582	1610.62
445.803	1667.62
446.024	1613.62
446.245	1594.62
446.466	1600.62
446.687	1585.62
446.908	1603.62
447.129	1547.62
447.35	1570.62
447.571	1576.62
447.792	1549.62
448.013	1544.62
448.234	1522.62
448.455	1540.62
448.675	1542.62
448.896	1528.62
449.117	1464.62
449.338	1521.62
449.559	1514.62
449.779	1497.62
450	1508.62
450.221	1525.62
450.442	1538.62
450.662	1509.62
450.883	1534.62
451.104	1508.62
451.324	1472.62
451.545	1505.62
451.766	1496.62
451.986	1501.62
452.207	1489.62
452.428	1441.62
452.648	1471.62
452.869	1462.62
453.089	1488.62
453.31	1496.62
453.53	1473.62
453.751	1485.62
453.971	1472.62
454.192	1432.62
454.412	1456.62
454.633	1472.62
454.853	1469.62
455.073	1444.62
455.294	1454.62
455.514	1461.62
455.734	1444.62
455.955	1429.62
456.175	1451.62
456.395	1442.62
456.616	1422.62
456.836	1436.62
457.056	1465.62
457.276	1440.62
457.497	1501.62
457.717	1468.62
457.937	1468.62
458.157	1494.62
458.377	1488.62
458.598	1493.62
458.818	1493.62
459.038	1494.62
459.258	1532.62
459.478	1557.62
459.698	1545.62
459.918	1570.62
460.138	1586.62
460.358	1604.62
460.578	1566.62
460.798	1633.62
461.018	1617.62
461.238	1594.62
461.458	1621.62
461.678	1615.62
461.898	1625.62
462.118	1592.62
462.338	1657.62
462.558	1638.62
462.777	1654.62
462.997	1722.62
463.217	1712.62
463.437	1710.62
463.657	1680.62
463.876	1670.62
464.096	1698.62
464.316	1693.62
464.536	1672.62
464.755	1668.62
464.975	1681.62
465.195	1652.62
465.414	1627.62
465.634	1603.62
465.854	1593.62
466.073	1593.62
466.293	1585.62
466.512	1571.62
466.732	1594.62
466.951	1597.62
467.171	1560.62
467.391	1618.62
467.61	1569.62
467.829	1564.62
468.049	1533.62
468.268	1520.62
468.488	1548.62
468.707	1525.62
468.927	1569.62
469.146	1581.62
469.365	1589.62
469.585	1541.62
469.804	1550.62
470.023	1593.62
470.243	1563.62
470.462	1588.62
470.681	1597.62
470.901	1581.62
471.12	1593.62
471.339	1598.62
471.558	1597.62
471.777	1590.62
471.997	1642.62
472.216	1624.62
472.435	1599.62
472.654	1610.62
472.873	1589.62
473.092	1624.62
473.311	1635.62
473.53	1644.62
473.749	1623.62
473.968	1640.62
474.187	1626.62
474.406	1624.62
474.625	1645.62
474.844	1657.62
475.063	1658.62
475.282	1681.62
475.501	1681.62
475.72	1703.62
475.939	1684.62
476.158	1697.62
476.377	1749.62
476.596	1725.62
476.814	1710.62
477.033	1710.62
477.252	1698.62
477.471	1774.62
477.69	1760.62
477.908	1765.62
478.127	1790.62
478.346	1821.62
478.564	1821.62
478.783	1853.62
479.002	1878.62
479.22	1906.62
479.439	1914.62
479.658	1881.62
479.876	1894.62
480.095	1878.62
480.313	1883.62
480.532	1854.62
480.751	1902.62
480.969	1922.62
481.188	1896.62
481.406	1842.62
481.624	1918.62
481.843	1913.62
482.061	1940.62
482.28	1941.62
482.498	1897.62
482.717	1914.62
482.935	1955.62
483.153	1927.62
483.372	1963.62
483.59	1979.62
483.808	1950.62
484.027	1982.62
484.245	1926.62
484.463	1979.62
484.681	1988.62
484.9	1964.62
485.118	2010.62
485.336	2005.62
485.554	1986.62
485.772	1962.62
485.99	1947.62
486.209	1985.62
486.427	1998.62
486.645	2018.62
486.863	2016.62
487.081	1999.62
487.299	2048.62
487.517	2038.62
487.735	2023.62
487.953	2075.62
488.171	2012.62
488.389	2059.62
488.607	2032.62
488.825	2050.62
489.043	2014.62
489.261	1986.62
489.479	2036.62
489.696	2056.62
489.914	2014.62
490.132	2010.62
490.35	2064.62
490.568	2053.62
490.786	2059.62
491.003	2102.62
491.221	2114.62
