Data from Ni(NO3)2@0.125M.TitratingCurve.Agarose3%dH2O.NegLispCup.LampEnergy10.LIBS07252019_HRD10591_18-09-00-567.txt Node
Date: Thu Jul 25 18:09:00 EDT 2019
User: cochatt
Spectrometer: HR+D1059
Trigger mode: 1
Integration Time (sec): 1.000000E-1
Scans to average: 1
Electric dark correction enabled: true
Nonlinearity correction enabled: false
Boxcar width: 0
XAxis mode: Wavelengths
Number of Pixels in Spectrum: 2048
>>>>>Begin Spectral Data<<<<<
223.165	-17.69
223.4	-17.69
223.635	-17.69
223.869	-16.69
224.104	-28.69
224.338	-8.69
224.573	-10.69
224.808	-22.69
225.042	-7.69
225.277	-9.69
225.511	0.31
225.746	8.31
225.98	3.31
226.215	12.31
226.449	14.31
226.683	21.31
226.918	31.31
227.152	31.31
227.387	32.31
227.621	42.31
227.856	43.31
228.09	44.31
228.324	64.31
228.559	76.31
228.793	60.31
229.027	70.31
229.262	90.31
229.496	90.31
229.73	106.31
229.964	115.31
230.199	119.31
230.433	112.31
230.667	116.31
230.901	121.31
231.136	114.31
231.37	121.31
231.604	121.31
231.838	139.31
232.072	109.31
232.306	119.31
232.541	128.31
232.775	116.31
233.009	123.31
233.243	133.31
233.477	147.31
233.711	129.31
233.945	127.31
234.179	127.31
234.413	122.31
234.647	137.31
234.881	123.31
235.115	123.31
235.349	135.31
235.583	148.31
235.817	140.31
236.051	137.31
236.285	122.31
236.519	137.31
236.753	121.31
236.987	140.31
237.221	149.31
237.455	128.31
237.689	131.31
237.922	139.31
238.156	131.31
238.39	140.31
238.624	140.31
238.858	140.31
239.091	135.31
239.325	136.31
239.559	147.31
239.793	143.31
240.027	148.31
240.26	156.31
240.494	151.31
240.728	154.31
240.961	148.31
241.195	163.31
241.429	141.31
241.662	156.31
241.896	155.31
242.13	153.31
242.363	145.31
242.597	150.31
242.83	166.31
243.064	155.31
243.298	153.31
243.531	165.31
243.765	168.31
243.998	164.31
244.232	159.31
244.465	172.31
244.699	162.31
244.932	191.31
245.166	182.31
245.399	196.31
245.633	181.31
245.866	176.31
246.099	184.31
246.333	196.31
246.566	177.31
246.8	167.31
247.033	187.31
247.266	181.31
247.5	175.31
247.733	208.31
247.966	193.31
248.2	196.31
248.433	204.31
248.666	205.31
248.899	188.31
249.133	194.31
249.366	187.31
249.599	201.31
249.832	203.31
250.066	220.31
250.299	210.31
250.532	187.31
250.765	212.31
250.998	210.31
251.231	198.31
251.465	197.31
251.698	215.31
251.931	213.31
252.164	216.31
252.397	214.31
252.63	215.31
252.863	220.31
253.096	230.31
253.329	239.31
253.562	214.31
253.795	224.31
254.028	218.31
254.261	232.31
254.494	228.31
254.727	226.31
254.96	226.31
255.193	229.31
255.426	242.31
255.659	244.31
255.892	241.31
256.124	237.31
256.357	239.31
256.59	229.31
256.823	243.31
257.056	240.31
257.289	236.31
257.521	253.31
257.754	255.31
257.987	249.31
258.22	239.31
258.452	252.31
258.685	241.31
258.918	259.31
259.151	253.31
259.383	247.31
259.616	249.31
259.849	255.31
260.081	242.31
260.314	240.31
260.547	257.31
260.779	263.31
261.012	271.31
261.244	263.31
261.477	264.31
261.71	255.31
261.942	269.31
262.175	275.31
262.407	261.31
262.64	282.31
262.872	255.31
263.105	260.31
263.337	264.31
263.57	258.31
263.802	266.31
264.035	280.31
264.267	276.31
264.499	264.31
264.732	278.31
264.964	292.31
265.197	279.31
265.429	296.31
265.661	284.31
265.894	279.31
266.126	315.31
266.358	292.31
266.591	292.31
266.823	298.31
267.055	290.31
267.287	274.31
267.52	295.31
267.752	294.31
267.984	298.31
268.216	282.31
268.448	303.31
268.681	297.31
268.913	303.31
269.145	293.31
269.377	293.31
269.609	315.31
269.841	292.31
270.073	293.31
270.306	305.31
270.538	305.31
270.77	308.31
271.002	296.31
271.234	297.31
271.466	300.31
271.698	307.31
271.93	293.31
272.162	315.31
272.394	305.31
272.626	318.31
272.858	295.31
273.09	315.31
273.322	346.31
273.553	322.31
273.785	316.31
274.017	333.31
274.249	321.31
274.481	327.31
274.713	323.31
274.945	322.31
275.176	335.31
275.408	339.31
275.64	332.31
275.872	319.31
276.104	329.31
276.335	340.31
276.567	339.31
276.799	325.31
277.031	312.31
277.262	337.31
277.494	334.31
277.726	332.31
277.957	347.31
278.189	332.31
278.421	339.31
278.652	349.31
278.884	337.31
279.115	329.31
279.347	344.31
279.579	363.31
279.81	329.31
280.042	354.31
280.273	359.31
280.505	347.31
280.736	361.31
280.968	350.31
281.199	358.31
281.431	371.31
281.662	354.31
281.894	369.31
282.125	373.31
282.356	371.31
282.588	370.31
282.819	360.31
283.051	375.31
283.282	370.31
283.513	368.31
283.745	386.31
283.976	359.31
284.207	360.31
284.439	362.31
284.67	373.31
284.901	369.31
285.132	364.31
285.364	367.31
285.595	361.31
285.826	376.31
286.057	379.31
286.288	391.31
286.52	391.31
286.751	387.31
286.982	376.31
287.213	389.31
287.444	391.31
287.675	409.31
287.906	402.31
288.138	393.31
288.369	395.31
288.6	384.31
288.831	402.31
289.062	399.31
289.293	405.31
289.524	380.31
289.755	387.31
289.986	394.31
290.217	419.31
290.448	409.31
290.679	396.31
290.91	413.31
291.141	401.31
291.371	396.31
291.602	398.31
291.833	402.31
292.064	415.31
292.295	418.31
292.526	388.31
292.757	415.31
292.987	395.31
293.218	406.31
293.449	415.31
293.68	398.31
293.91	410.31
294.141	406.31
294.372	403.31
294.603	408.31
294.833	403.31
295.064	415.31
295.295	409.31
295.525	422.31
295.756	421.31
295.987	412.31
296.217	432.31
296.448	424.31
296.679	433.31
296.909	403.31
297.14	424.31
297.37	410.31
297.601	436.31
297.831	428.31
298.062	439.31
298.292	439.31
298.523	463.31
298.753	460.31
298.984	474.31
299.214	421.31
299.445	458.31
299.675	439.31
299.905	444.31
300.136	449.31
300.366	442.31
300.597	448.31
300.827	450.31
301.057	458.31
301.288	469.31
301.518	473.31
301.748	468.31
301.979	487.31
302.209	446.31
302.439	478.31
302.669	458.31
302.9	475.31
303.13	452.31
303.36	479.31
303.59	453.31
303.82	457.31
304.051	473.31
304.281	470.31
304.511	453.31
304.741	453.31
304.971	457.31
305.201	467.31
305.431	453.31
305.661	472.31
305.891	468.31
306.121	452.31
306.352	440.31
306.582	449.31
306.812	431.31
307.042	461.31
307.272	457.31
307.502	448.31
307.731	441.31
307.961	452.31
308.191	430.31
308.421	430.31
308.651	424.31
308.881	432.31
309.111	456.31
309.341	462.31
309.571	445.31
309.8	434.31
310.03	433.31
310.26	466.31
310.49	460.31
310.72	456.31
310.949	451.31
311.179	459.31
311.409	460.31
311.639	460.31
311.868	464.31
312.098	450.31
312.328	482.31
312.557	491.31
312.787	483.31
313.017	470.31
313.246	473.31
313.476	475.31
313.706	483.31
313.935	495.31
314.165	513.31
314.394	505.31
314.624	488.31
314.853	465.31
315.083	465.31
315.312	502.31
315.542	492.31
315.771	493.31
316.001	484.31
316.23	491.31
316.46	469.31
316.689	465.31
316.919	481.31
317.148	465.31
317.377	471.31
317.607	466.31
317.836	480.31
318.065	500.31
318.295	483.31
318.524	455.31
318.753	448.31
318.983	483.31
319.212	472.31
319.441	479.31
319.67	477.31
319.9	466.31
320.129	473.31
320.358	468.31
320.587	473.31
320.816	465.31
321.046	467.31
321.275	485.31
321.504	485.31
321.733	465.31
321.962	483.31
322.191	481.31
322.42	488.31
322.649	504.31
322.878	483.31
323.108	500.31
323.337	485.31
323.566	475.31
323.795	503.31
324.024	513.31
324.253	498.31
324.482	526.31
324.71	520.31
324.939	514.31
325.168	499.31
325.397	505.31
325.626	519.31
325.855	540.31
326.084	543.31
326.313	552.31
326.542	560.31
326.77	554.31
326.999	545.31
327.228	515.31
327.457	542.31
327.686	534.31
327.914	523.31
328.143	559.31
328.372	504.31
328.6	533.31
328.829	528.31
329.058	531.31
329.287	522.31
329.515	555.31
329.744	544.31
329.972	563.31
330.201	517.31
330.43	548.31
330.658	559.31
330.887	549.31
331.115	556.31
331.344	549.31
331.572	571.31
331.801	587.31
332.03	595.31
332.258	636.31
332.486	641.31
332.715	665.31
332.943	663.31
333.172	699.31
333.4	767.31
333.629	755.31
333.857	740.31
334.085	716.31
334.314	715.31
334.542	702.31
334.771	703.31
334.999	668.31
335.227	671.31
335.455	670.31
335.684	672.31
335.912	681.31
336.14	645.31
336.369	658.31
336.597	650.31
336.825	655.31
337.053	655.31
337.281	652.31
337.51	635.31
337.738	639.31
337.966	609.31
338.194	587.31
338.422	598.31
338.65	590.31
338.878	594.31
339.106	599.31
339.334	611.31
339.562	580.31
339.79	599.31
340.018	593.31
340.246	577.31
340.474	582.31
340.702	553.31
340.93	572.31
341.158	596.31
341.386	573.31
341.614	593.31
341.842	601.31
342.07	547.31
342.298	571.31
342.526	546.31
342.754	586.31
342.981	568.31
343.209	603.31
343.437	604.31
343.665	664.31
343.893	711.31
344.12	721.31
344.348	711.31
344.576	651.31
344.804	632.31
345.031	599.31
345.259	578.31
345.487	567.31
345.714	593.31
345.942	582.31
346.17	575.31
346.397	557.31
346.625	554.31
346.853	557.31
347.08	570.31
347.308	577.31
347.535	592.31
347.763	574.31
347.99	581.31
348.218	587.31
348.445	576.31
348.673	554.31
348.9	563.31
349.128	549.31
349.355	555.31
349.583	570.31
349.81	552.31
350.037	519.31
350.265	556.31
350.492	536.31
350.72	524.31
350.947	548.31
351.174	528.31
351.402	542.31
351.629	553.31
351.856	553.31
352.083	520.31
352.311	501.31
352.538	551.31
352.765	548.31
352.992	536.31
353.22	530.31
353.447	518.31
353.674	515.31
353.901	519.31
354.128	509.31
354.355	532.31
354.583	516.31
354.81	523.31
355.037	527.31
355.264	531.31
355.491	554.31
355.718	537.31
355.945	527.31
356.172	539.31
356.399	549.31
356.626	561.31
356.853	549.31
357.08	525.31
357.307	522.31
357.534	522.31
357.761	519.31
357.988	554.31
358.215	511.31
358.441	533.31
358.668	537.31
358.895	564.31
359.122	522.31
359.349	509.31
359.576	524.31
359.802	546.31
360.029	547.31
360.256	545.31
360.483	540.31
360.709	543.31
360.936	536.31
361.163	544.31
361.39	537.31
361.616	539.31
361.843	530.31
362.07	530.31
362.296	542.31
362.523	523.31
362.749	544.31
362.976	542.31
363.203	525.31
363.429	528.31
363.656	535.31
363.882	519.31
364.109	516.31
364.335	532.31
364.562	540.31
364.788	531.31
365.015	537.31
365.241	526.31
365.468	525.31
365.694	532.31
365.92	509.31
366.147	534.31
366.373	531.31
366.599	540.31
366.826	537.31
367.052	501.31
367.278	525.31
367.505	536.31
367.731	518.31
367.957	516.31
368.184	551.31
368.41	549.31
368.636	547.31
368.862	543.31
369.089	544.31
369.315	565.31
369.541	554.31
369.767	554.31
369.993	559.31
370.219	559.31
370.445	547.31
370.672	562.31
370.898	557.31
371.124	572.31
371.35	568.31
371.576	584.31
371.802	574.31
372.028	570.31
372.254	559.31
372.48	585.31
372.706	594.31
372.932	608.31
373.158	605.31
373.384	588.31
373.61	585.31
373.835	573.31
374.061	585.31
374.287	568.31
374.513	594.31
374.739	626.31
374.965	626.31
375.191	650.31
375.416	642.31
375.642	625.31
375.868	607.31
376.094	597.31
376.319	596.31
376.545	570.31
376.771	580.31
376.997	587.31
377.222	595.31
377.448	578.31
377.674	592.31
377.899	592.31
378.125	575.31
378.35	570.31
378.576	571.31
378.802	555.31
379.027	575.31
379.253	559.31
379.478	571.31
379.704	566.31
379.929	563.31
380.155	559.31
380.38	567.31
380.606	552.31
380.831	553.31
381.057	564.31
381.282	570.31
381.507	555.31
381.733	587.31
381.958	568.31
382.184	573.31
382.409	608.31
382.634	595.31
382.86	602.31
383.085	619.31
383.31	614.31
383.535	614.31
383.761	625.31
383.986	651.31
384.211	665.31
384.436	656.31
384.662	651.31
384.887	676.31
385.112	661.31
385.337	696.31
385.562	698.31
385.787	688.31
386.013	692.31
386.238	691.31
386.463	690.31
386.688	663.31
386.913	649.31
387.138	666.31
387.363	674.31
387.588	661.31
387.813	678.31
388.038	681.31
388.263	672.31
388.488	661.31
388.713	661.31
388.938	669.31
389.163	669.31
389.387	666.31
389.612	643.31
389.837	674.31
390.062	658.31
390.287	653.31
390.512	642.31
390.736	680.31
390.961	677.31
391.186	681.31
391.411	717.31
391.636	754.31
391.86	766.31
392.085	753.31
392.31	757.31
392.534	748.31
392.759	764.31
392.984	732.31
393.208	684.31
393.433	732.31
393.658	730.31
393.882	738.31
394.107	720.31
394.331	732.31
394.556	730.31
394.78	738.31
395.005	718.31
395.229	711.31
395.454	748.31
395.678	767.31
395.903	749.31
396.127	751.31
396.352	738.31
396.576	708.31
396.801	705.31
397.025	724.31
397.249	740.31
397.474	759.31
397.698	773.31
397.922	753.31
398.147	758.31
398.371	764.31
398.595	777.31
398.82	824.31
399.044	881.31
399.268	970.31
399.492	1139.31
399.717	1289.31
399.941	1272.31
400.165	1129.31
400.389	973.31
400.613	902.31
400.837	866.31
401.062	844.31
401.286	859.31
401.51	850.31
401.734	835.31
401.958	867.31
402.182	872.31
402.406	871.31
402.63	883.31
402.854	919.31
403.078	929.31
403.302	945.31
403.526	985.31
403.75	983.31
403.974	1000.31
404.198	967.31
404.422	1008.31
404.645	1000.31
404.869	965.31
405.093	960.31
405.317	933.31
405.541	957.31
405.765	947.31
405.988	896.31
406.212	955.31
406.436	935.31
406.66	945.31
406.883	946.31
407.107	1039.31
407.331	1074.31
407.555	1105.31
407.778	1113.31
408.002	1095.31
408.226	1040.31
408.449	1009.31
408.673	979.31
408.896	959.31
409.12	988.31
409.344	973.31
409.567	989.31
409.791	996.31
410.014	1016.31
410.238	1005.31
410.461	963.31
410.685	967.31
410.908	917.31
411.132	927.31
411.355	881.31
411.578	913.31
411.802	900.31
412.025	899.31
412.249	920.31
412.472	907.31
412.695	870.31
412.919	850.31
413.142	860.31
413.365	863.31
413.589	858.31
413.812	839.31
414.035	864.31
414.258	821.31
414.482	876.31
414.705	917.31
414.928	889.31
415.151	874.31
415.374	869.31
415.597	875.31
415.821	861.31
416.044	834.31
416.267	861.31
416.49	855.31
416.713	837.31
416.936	850.31
417.159	849.31
417.382	839.31
417.605	896.31
417.828	841.31
418.051	855.31
418.274	847.31
418.497	883.31
418.72	854.31
418.943	870.31
419.166	913.31
419.389	982.31
419.611	964.31
419.834	941.31
420.057	905.31
420.28	848.31
420.503	893.31
420.726	854.31
420.948	851.31
421.171	833.31
421.394	845.31
421.617	851.31
421.839	859.31
422.062	856.31
422.285	863.31
422.507	871.31
422.73	892.31
422.953	865.31
423.175	896.31
423.398	908.31
423.621	914.31
423.843	937.31
424.066	948.31
424.288	945.31
424.511	916.31
424.733	896.31
424.956	921.31
425.178	889.31
425.401	867.31
425.623	859.31
425.846	855.31
426.068	833.31
426.291	835.31
426.513	836.31
426.735	822.31
426.958	830.31
427.18	788.31
427.402	789.31
427.625	810.31
427.847	807.31
428.069	793.31
428.292	791.31
428.514	776.31
428.736	798.31
428.958	781.31
429.181	757.31
429.403	762.31
429.625	755.31
429.847	727.31
430.069	759.31
430.292	752.31
430.514	736.31
430.736	751.31
430.958	744.31
431.18	751.31
431.402	775.31
431.624	758.31
431.846	792.31
432.068	799.31
432.29	800.31
432.512	784.31
432.734	805.31
432.956	789.31
433.178	798.31
433.4	781.31
433.622	784.31
433.844	788.31
434.066	791.31
434.287	821.31
434.509	819.31
434.731	845.31
434.953	863.31
435.175	876.31
435.397	861.31
435.618	824.31
435.84	805.31
436.062	755.31
436.284	786.31
436.505	784.31
436.727	783.31
436.949	805.31
437.17	808.31
437.392	756.31
437.614	756.31
437.835	755.31
438.057	763.31
438.278	725.31
438.5	736.31
438.721	734.31
438.943	752.31
439.165	743.31
439.386	753.31
439.608	797.31
439.829	794.31
440.05	802.31
440.272	817.31
440.493	780.31
440.715	821.31
440.936	835.31
441.158	851.31
441.379	860.31
441.6	901.31
441.822	907.31
442.043	904.31
442.264	858.31
442.486	861.31
442.707	858.31
442.928	873.31
443.149	860.31
443.371	897.31
443.592	903.31
443.813	899.31
444.034	888.31
444.255	924.31
444.476	960.31
444.698	1036.31
444.919	1101.31
445.14	1194.31
445.361	1023.31
445.582	934.31
445.803	856.31
446.024	831.31
446.245	848.31
446.466	827.31
446.687	776.31
446.908	803.31
447.129	806.31
447.35	785.31
447.571	763.31
447.792	745.31
448.013	762.31
448.234	748.31
448.455	748.31
448.675	736.31
448.896	738.31
449.117	696.31
449.338	719.31
449.559	725.31
449.779	731.31
450	726.31
450.221	737.31
450.442	725.31
450.662	727.31
450.883	764.31
451.104	746.31
451.324	754.31
451.545	737.31
451.766	775.31
451.986	728.31
452.207	725.31
452.428	714.31
452.648	763.31
452.869	720.31
453.089	726.31
453.31	725.31
453.53	727.31
453.751	732.31
453.971	712.31
454.192	695.31
454.412	697.31
454.633	698.31
454.853	705.31
455.073	687.31
455.294	709.31
455.514	695.31
455.734	678.31
455.955	684.31
456.175	669.31
456.395	678.31
456.616	665.31
456.836	671.31
457.056	663.31
457.276	673.31
457.497	671.31
457.717	683.31
457.937	684.31
458.157	686.31
458.377	697.31
458.598	698.31
458.818	710.31
459.038	771.31
459.258	767.31
459.478	823.31
459.698	823.31
459.918	838.31
460.138	870.31
460.358	913.31
460.578	925.31
460.798	955.31
461.018	939.31
461.238	909.31
461.458	904.31
461.678	920.31
461.898	903.31
462.118	964.31
462.338	983.31
462.558	980.31
462.777	1023.31
462.997	1154.31
463.217	1230.31
463.437	1253.31
463.657	1162.31
463.876	1117.31
464.096	1081.31
464.316	1115.31
464.536	1103.31
464.755	1071.31
464.975	998.31
465.195	957.31
465.414	905.31
465.634	841.31
465.854	837.31
466.073	826.31
466.293	791.31
466.512	799.31
466.732	779.31
466.951	778.31
467.171	765.31
467.391	800.31
467.61	776.31
467.829	775.31
468.049	753.31
468.268	738.31
468.488	716.31
468.707	729.31
468.927	755.31
469.146	731.31
469.365	725.31
469.585	741.31
469.804	757.31
470.023	781.31
470.243	804.31
470.462	784.31
470.681	806.31
470.901	825.31
471.12	778.31
471.339	787.31
471.558	767.31
471.777	752.31
471.997	719.31
472.216	748.31
472.435	712.31
472.654	711.31
472.873	694.31
473.092	712.31
473.311	701.31
473.53	707.31
473.749	721.31
473.968	715.31
474.187	705.31
474.406	693.31
474.625	697.31
474.844	731.31
475.063	707.31
475.282	703.31
475.501	714.31
475.72	722.31
475.939	724.31
476.158	743.31
476.377	737.31
476.596	727.31
476.814	772.31
477.033	755.31
477.252	745.31
477.471	747.31
477.69	814.31
477.908	825.31
478.127	853.31
478.346	843.31
478.564	833.31
478.783	890.31
479.002	901.31
479.22	881.31
479.439	904.31
479.658	873.31
479.876	865.31
480.095	912.31
480.313	940.31
480.532	971.31
480.751	951.31
480.969	881.31
481.188	875.31
481.406	840.31
481.624	832.31
481.843	839.31
482.061	787.31
482.28	821.31
482.498	816.31
482.717	799.31
482.935	806.31
483.153	784.31
483.372	801.31
483.59	826.31
483.808	801.31
484.027	829.31
484.245	826.31
484.463	808.31
484.681	871.31
484.9	850.31
485.118	860.31
485.336	849.31
485.554	843.31
485.772	883.31
485.99	858.31
486.209	867.31
486.427	861.31
486.645	866.31
486.863	850.31
487.081	867.31
487.299	856.31
487.517	854.31
487.735	860.31
487.953	841.31
488.171	883.31
488.389	875.31
488.607	865.31
488.825	832.31
489.043	824.31
489.261	835.31
489.479	853.31
489.696	835.31
489.914	853.31
490.132	855.31
490.35	861.31
490.568	828.31
490.786	872.31
491.003	883.31
491.221	870.31
491.439	860.31
491.657	854.31
491.874	864.31
492.092	879.31
492.31	877.31
492.527	908.31
492.745	896.31
492.963	899.31
493.18	889.31
493.398	889.31
493.615	882.31
493.833	908.31
494.05	910.31
494.268	898.31
494.485	910.31
494.703	930.31
494.92	932.31
495.138	898.31
495.355	916.31
495.573	917.31
495.79	926.31
496.008	927.31
496.225	922.31
496.442	950.31
496.66	957.31
496.877	969.31
497.094	950.31
497.312	997.31
497.529	984.31
497.746	996.31
497.963	1044.31
498.181	1072.31
498.398	1110.31
498.615	1176.31
498.832	1241.31
499.049	1351.31
499.267	1466.31
499.484	1607.31
499.701	1813.31
499.918	1960.31
500.135	2317.31
500.352	2679.31
500.569	2823.31
500.786	2817.31
501.003	2536.31
