Data from Ni(NO3)2Standard.Agarose3%.GreenCap.LampEnergy5.5.E.O_HRD10591_14-41-31-188.txt Node
Date: Mon Jul 22 14:41:31 EDT 2019
User: cochatt
Spectrometer: HR+D1059
Trigger mode: 1
Integration Time (sec): 1.000000E-1
Scans to average: 1
Electric dark correction enabled: true
Nonlinearity correction enabled: false
Boxcar width: 0
XAxis mode: Wavelengths
Number of Pixels in Spectrum: 2048
>>>>>Begin Spectral Data<<<<<
223.165	-21.75
223.4	-21.75
223.635	-21.75
223.869	-8.75
224.104	-16.75
224.338	-4.75
224.573	-25.75
224.808	-9.75
225.042	-1.75
225.277	-6.75
225.511	9.25
225.746	8.25
225.98	-8.75
226.215	-4.75
226.449	12.25
226.683	27.25
226.918	29.25
227.152	23.25
227.387	25.25
227.621	53.25
227.856	43.25
228.09	42.25
228.324	57.25
228.559	59.25
228.793	61.25
229.027	76.25
229.262	63.25
229.496	66.25
229.73	72.25
229.964	79.25
230.199	80.25
230.433	74.25
230.667	77.25
230.901	90.25
231.136	88.25
231.37	72.25
231.604	94.25
231.838	70.25
232.072	80.25
232.306	92.25
232.541	87.25
232.775	80.25
233.009	69.25
233.243	79.25
233.477	84.25
233.711	86.25
233.945	89.25
234.179	87.25
234.413	85.25
234.647	73.25
234.881	73.25
235.115	89.25
235.349	76.25
235.583	74.25
235.817	89.25
236.051	72.25
236.285	72.25
236.519	79.25
236.753	82.25
236.987	76.25
237.221	76.25
237.455	78.25
237.689	101.25
237.922	84.25
238.156	86.25
238.39	68.25
238.624	78.25
238.858	85.25
239.091	61.25
239.325	78.25
239.559	67.25
239.793	69.25
240.027	76.25
240.26	72.25
240.494	76.25
240.728	71.25
240.961	62.25
241.195	83.25
241.429	79.25
241.662	87.25
241.896	90.25
242.13	89.25
242.363	83.25
242.597	77.25
242.83	76.25
243.064	82.25
243.298	78.25
243.531	80.25
243.765	91.25
243.998	74.25
244.232	78.25
244.465	81.25
244.699	84.25
244.932	83.25
245.166	75.25
245.399	78.25
245.633	76.25
245.866	84.25
246.099	75.25
246.333	80.25
246.566	70.25
246.8	76.25
247.033	82.25
247.266	66.25
247.5	86.25
247.733	81.25
247.966	79.25
248.2	86.25
248.433	70.25
248.666	77.25
248.899	70.25
249.133	89.25
249.366	85.25
249.599	81.25
249.832	84.25
250.066	82.25
250.299	78.25
250.532	85.25
250.765	78.25
250.998	86.25
251.231	73.25
251.465	83.25
251.698	73.25
251.931	81.25
252.164	82.25
252.397	78.25
252.63	88.25
252.863	95.25
253.096	83.25
253.329	93.25
253.562	78.25
253.795	92.25
254.028	91.25
254.261	89.25
254.494	79.25
254.727	88.25
254.96	99.25
255.193	84.25
255.426	93.25
255.659	85.25
255.892	89.25
256.124	84.25
256.357	95.25
256.59	76.25
256.823	78.25
257.056	86.25
257.289	95.25
257.521	81.25
257.754	101.25
257.987	81.25
258.22	83.25
258.452	79.25
258.685	74.25
258.918	71.25
259.151	81.25
259.383	86.25
259.616	80.25
259.849	80.25
260.081	92.25
260.314	85.25
260.547	84.25
260.779	90.25
261.012	90.25
261.244	97.25
261.477	76.25
261.71	87.25
261.942	96.25
262.175	81.25
262.407	80.25
262.64	86.25
262.872	94.25
263.105	84.25
263.337	89.25
263.57	84.25
263.802	94.25
264.035	83.25
264.267	87.25
264.499	92.25
264.732	86.25
264.964	100.25
265.197	89.25
265.429	75.25
265.661	74.25
265.894	94.25
266.126	104.25
266.358	91.25
266.591	80.25
266.823	83.25
267.055	90.25
267.287	69.25
267.52	80.25
267.752	88.25
267.984	92.25
268.216	82.25
268.448	87.25
268.681	72.25
268.913	99.25
269.145	94.25
269.377	91.25
269.609	72.25
269.841	83.25
270.073	88.25
270.306	87.25
270.538	95.25
270.77	68.25
271.002	76.25
271.234	79.25
271.466	79.25
271.698	85.25
271.93	103.25
272.162	83.25
272.394	74.25
272.626	103.25
272.858	92.25
273.09	80.25
273.322	84.25
273.553	84.25
273.785	86.25
274.017	94.25
274.249	100.25
274.481	83.25
274.713	90.25
274.945	86.25
275.176	87.25
275.408	87.25
275.64	79.25
275.872	72.25
276.104	84.25
276.335	95.25
276.567	74.25
276.799	95.25
277.031	73.25
277.262	102.25
277.494	83.25
277.726	100.25
277.957	93.25
278.189	83.25
278.421	87.25
278.652	99.25
278.884	88.25
279.115	93.25
279.347	92.25
279.579	80.25
279.81	82.25
280.042	89.25
280.273	87.25
280.505	85.25
280.736	78.25
280.968	96.25
281.199	88.25
281.431	87.25
281.662	96.25
281.894	94.25
282.125	83.25
282.356	88.25
282.588	87.25
282.819	87.25
283.051	79.25
283.282	83.25
283.513	88.25
283.745	86.25
283.976	87.25
284.207	88.25
284.439	88.25
284.67	90.25
284.901	86.25
285.132	89.25
285.364	79.25
285.595	92.25
285.826	67.25
286.057	90.25
286.288	99.25
286.52	68.25
286.751	80.25
286.982	83.25
287.213	69.25
287.444	92.25
287.675	81.25
287.906	79.25
288.138	80.25
288.369	86.25
288.6	99.25
288.831	81.25
289.062	101.25
289.293	80.25
289.524	79.25
289.755	95.25
289.986	78.25
290.217	82.25
290.448	83.25
290.679	75.25
290.91	85.25
291.141	91.25
291.371	92.25
291.602	79.25
291.833	88.25
292.064	70.25
292.295	80.25
292.526	85.25
292.757	88.25
292.987	79.25
293.218	91.25
293.449	94.25
293.68	82.25
293.91	73.25
294.141	74.25
294.372	80.25
294.603	92.25
294.833	94.25
295.064	95.25
295.295	87.25
295.525	91.25
295.756	89.25
295.987	86.25
296.217	99.25
296.448	86.25
296.679	80.25
296.909	92.25
297.14	87.25
297.37	95.25
297.601	80.25
297.831	85.25
298.062	92.25
298.292	95.25
298.523	83.25
298.753	76.25
298.984	91.25
299.214	93.25
299.445	97.25
299.675	97.25
299.905	86.25
300.136	77.25
300.366	76.25
300.597	94.25
300.827	72.25
301.057	93.25
301.288	75.25
301.518	91.25
301.748	91.25
301.979	87.25
302.209	90.25
302.439	92.25
302.669	90.25
302.9	97.25
303.13	92.25
303.36	80.25
303.59	97.25
303.82	82.25
304.051	84.25
304.281	97.25
304.511	94.25
304.741	84.25
304.971	93.25
305.201	82.25
305.431	87.25
305.661	97.25
305.891	82.25
306.121	83.25
306.352	73.25
306.582	78.25
306.812	92.25
307.042	77.25
307.272	91.25
307.502	80.25
307.731	79.25
307.961	92.25
308.191	84.25
308.421	106.25
308.651	95.25
308.881	79.25
309.111	95.25
309.341	88.25
309.571	80.25
309.8	95.25
310.03	90.25
310.26	96.25
310.49	76.25
310.72	85.25
310.949	88.25
311.179	95.25
311.409	96.25
311.639	81.25
311.868	91.25
312.098	82.25
312.328	92.25
312.557	88.25
312.787	78.25
313.017	102.25
313.246	80.25
313.476	93.25
313.706	83.25
313.935	82.25
314.165	91.25
314.394	88.25
314.624	95.25
314.853	87.25
315.083	96.25
315.312	95.25
315.542	88.25
315.771	93.25
316.001	78.25
316.23	90.25
316.46	92.25
316.689	88.25
316.919	87.25
317.148	100.25
317.377	106.25
317.607	94.25
317.836	94.25
318.065	90.25
318.295	76.25
318.524	80.25
318.753	95.25
318.983	93.25
319.212	98.25
319.441	93.25
319.67	95.25
319.9	91.25
320.129	99.25
320.358	104.25
320.587	91.25
320.816	91.25
321.046	85.25
321.275	90.25
321.504	91.25
321.733	88.25
321.962	82.25
322.191	89.25
322.42	80.25
322.649	91.25
322.878	88.25
323.108	94.25
323.337	83.25
323.566	102.25
323.795	83.25
324.024	80.25
324.253	91.25
324.482	67.25
324.71	94.25
324.939	80.25
325.168	86.25
325.397	91.25
325.626	81.25
325.855	98.25
326.084	72.25
326.313	90.25
326.542	81.25
326.77	84.25
326.999	95.25
327.228	89.25
327.457	95.25
327.686	79.25
327.914	83.25
328.143	87.25
328.372	86.25
328.6	87.25
328.829	79.25
329.058	89.25
329.287	89.25
329.515	99.25
329.744	90.25
329.972	93.25
330.201	77.25
330.43	78.25
330.658	96.25
330.887	107.25
331.115	87.25
331.344	85.25
331.572	95.25
331.801	92.25
332.03	102.25
332.258	95.25
332.486	102.25
332.715	90.25
332.943	81.25
333.172	84.25
333.4	86.25
333.629	88.25
333.857	87.25
334.085	91.25
334.314	105.25
334.542	79.25
334.771	92.25
334.999	91.25
335.227	88.25
335.455	81.25
335.684	84.25
335.912	100.25
336.14	92.25
336.369	90.25
336.597	81.25
336.825	84.25
337.053	87.25
337.281	95.25
337.51	87.25
337.738	89.25
337.966	85.25
338.194	84.25
338.422	74.25
338.65	86.25
338.878	89.25
339.106	88.25
339.334	88.25
339.562	100.25
339.79	88.25
340.018	87.25
340.246	82.25
340.474	89.25
340.702	88.25
340.93	87.25
341.158	76.25
341.386	80.25
341.614	90.25
341.842	79.25
342.07	97.25
342.298	91.25
342.526	96.25
342.754	91.25
342.981	92.25
343.209	97.25
343.437	95.25
343.665	75.25
343.893	85.25
344.12	100.25
344.348	83.25
344.576	93.25
344.804	71.25
345.031	93.25
345.259	94.25
345.487	87.25
345.714	103.25
345.942	102.25
346.17	95.25
346.397	83.25
346.625	83.25
346.853	76.25
347.08	98.25
347.308	78.25
347.535	91.25
347.763	94.25
347.99	83.25
348.218	98.25
348.445	84.25
348.673	82.25
348.9	87.25
349.128	99.25
349.355	84.25
349.583	98.25
349.81	89.25
350.037	87.25
350.265	89.25
350.492	90.25
350.72	108.25
350.947	92.25
351.174	93.25
351.402	89.25
351.629	94.25
351.856	88.25
352.083	96.25
352.311	83.25
352.538	92.25
352.765	86.25
352.992	91.25
353.22	77.25
353.447	103.25
353.674	94.25
353.901	95.25
354.128	79.25
354.355	94.25
354.583	90.25
354.81	93.25
355.037	95.25
355.264	82.25
355.491	85.25
355.718	84.25
355.945	81.25
356.172	87.25
356.399	94.25
356.626	81.25
356.853	81.25
357.08	87.25
357.307	92.25
357.534	94.25
357.761	83.25
357.988	91.25
358.215	90.25
358.441	96.25
358.668	96.25
358.895	85.25
359.122	82.25
359.349	108.25
359.576	83.25
359.802	91.25
360.029	84.25
360.256	103.25
360.483	77.25
360.709	92.25
360.936	106.25
361.163	83.25
361.39	101.25
361.616	84.25
361.843	96.25
362.07	91.25
362.296	93.25
362.523	87.25
362.749	73.25
362.976	90.25
363.203	95.25
363.429	82.25
363.656	87.25
363.882	83.25
364.109	100.25
364.335	90.25
364.562	83.25
364.788	85.25
365.015	101.25
365.241	92.25
365.468	80.25
365.694	106.25
365.92	97.25
366.147	77.25
366.373	88.25
366.599	97.25
366.826	78.25
367.052	84.25
367.278	90.25
367.505	90.25
367.731	100.25
367.957	89.25
368.184	84.25
368.41	102.25
368.636	92.25
368.862	74.25
369.089	87.25
369.315	90.25
369.541	84.25
369.767	95.25
369.993	88.25
370.219	89.25
370.445	88.25
370.672	71.25
370.898	94.25
371.124	84.25
371.35	88.25
371.576	97.25
371.802	84.25
372.028	78.25
372.254	89.25
372.48	84.25
372.706	95.25
372.932	101.25
373.158	95.25
373.384	75.25
373.61	91.25
373.835	95.25
374.061	88.25
374.287	98.25
374.513	81.25
374.739	83.25
374.965	79.25
375.191	85.25
375.416	78.25
375.642	94.25
375.868	102.25
376.094	82.25
376.319	92.25
376.545	86.25
376.771	92.25
376.997	96.25
377.222	76.25
377.448	92.25
377.674	76.25
377.899	77.25
378.125	101.25
378.35	83.25
378.576	85.25
378.802	80.25
379.027	96.25
379.253	90.25
379.478	97.25
379.704	82.25
379.929	102.25
380.155	97.25
380.38	91.25
380.606	90.25
380.831	85.25
381.057	93.25
381.282	79.25
381.507	85.25
381.733	96.25
381.958	90.25
382.184	89.25
382.409	83.25
382.634	86.25
382.86	96.25
383.085	87.25
383.31	79.25
383.535	81.25
383.761	100.25
383.986	93.25
384.211	84.25
384.436	84.25
384.662	83.25
384.887	81.25
385.112	82.25
385.337	88.25
385.562	90.25
385.787	90.25
386.013	91.25
386.238	85.25
386.463	95.25
386.688	90.25
386.913	81.25
387.138	76.25
387.363	92.25
387.588	99.25
387.813	75.25
388.038	99.25
388.263	91.25
388.488	84.25
388.713	92.25
388.938	87.25
389.163	93.25
389.387	83.25
389.612	90.25
389.837	91.25
390.062	83.25
390.287	88.25
390.512	86.25
390.736	90.25
390.961	84.25
391.186	94.25
391.411	67.25
391.636	98.25
391.86	82.25
392.085	90.25
392.31	84.25
392.534	79.25
392.759	95.25
392.984	88.25
393.208	90.25
393.433	86.25
393.658	99.25
393.882	73.25
394.107	81.25
394.331	95.25
394.556	85.25
394.78	107.25
395.005	92.25
395.229	82.25
395.454	91.25
395.678	88.25
395.903	87.25
396.127	97.25
396.352	72.25
396.576	102.25
396.801	76.25
397.025	74.25
397.249	95.25
397.474	94.25
397.698	93.25
397.922	79.25
398.147	79.25
398.371	94.25
398.595	90.25
398.82	90.25
399.044	82.25
399.268	92.25
399.492	92.25
399.717	91.25
399.941	82.25
400.165	80.25
400.389	92.25
400.613	78.25
400.837	88.25
401.062	77.25
401.286	88.25
401.51	87.25
401.734	76.25
401.958	77.25
402.182	89.25
402.406	84.25
402.63	86.25
402.854	90.25
403.078	91.25
403.302	94.25
403.526	80.25
403.75	87.25
403.974	93.25
404.198	78.25
404.422	95.25
404.645	88.25
404.869	80.25
405.093	93.25
405.317	76.25
405.541	94.25
405.765	85.25
405.988	79.25
406.212	87.25
406.436	78.25
406.66	86.25
406.883	94.25
407.107	85.25
407.331	92.25
407.555	102.25
407.778	89.25
408.002	81.25
408.226	79.25
408.449	79.25
408.673	90.25
408.896	93.25
409.12	78.25
409.344	88.25
409.567	98.25
409.791	86.25
410.014	93.25
410.238	78.25
410.461	98.25
410.685	80.25
410.908	85.25
411.132	91.25
411.355	90.25
411.578	78.25
411.802	82.25
412.025	88.25
412.249	102.25
412.472	97.25
412.695	90.25
412.919	110.25
413.142	92.25
413.365	107.25
413.589	88.25
413.812	87.25
414.035	89.25
414.258	85.25
414.482	92.25
414.705	77.25
414.928	101.25
415.151	100.25
415.374	90.25
415.597	78.25
415.821	94.25
416.044	99.25
416.267	85.25
416.49	81.25
416.713	92.25
416.936	93.25
417.159	83.25
417.382	91.25
417.605	79.25
417.828	93.25
418.051	82.25
418.274	86.25
418.497	108.25
418.72	101.25
418.943	79.25
419.166	84.25
419.389	81.25
419.611	94.25
419.834	83.25
420.057	91.25
420.28	91.25
420.503	89.25
420.726	92.25
420.948	92.25
421.171	85.25
421.394	76.25
421.617	76.25
421.839	82.25
422.062	76.25
422.285	89.25
422.507	94.25
422.73	79.25
422.953	85.25
423.175	90.25
423.398	84.25
423.621	94.25
423.843	74.25
424.066	76.25
424.288	89.25
424.511	97.25
424.733	70.25
424.956	97.25
425.178	90.25
425.401	95.25
425.623	88.25
425.846	85.25
426.068	87.25
426.291	91.25
426.513	86.25
426.735	81.25
426.958	79.25
427.18	92.25
427.402	76.25
427.625	88.25
427.847	82.25
428.069	87.25
428.292	78.25
428.514	92.25
428.736	80.25
428.958	82.25
429.181	86.25
429.403	82.25
429.625	93.25
429.847	91.25
430.069	83.25
430.292	85.25
430.514	87.25
430.736	85.25
430.958	86.25
431.18	75.25
431.402	80.25
431.624	85.25
431.846	86.25
432.068	89.25
432.29	95.25
432.512	92.25
432.734	78.25
432.956	88.25
433.178	98.25
433.4	85.25
433.622	87.25
433.844	93.25
434.066	77.25
434.287	79.25
434.509	94.25
434.731	85.25
434.953	96.25
435.175	90.25
435.397	95.25
435.618	89.25
435.84	90.25
436.062	100.25
436.284	95.25
436.505	87.25
436.727	92.25
436.949	104.25
437.17	89.25
437.392	84.25
437.614	87.25
437.835	85.25
438.057	77.25
438.278	98.25
438.5	90.25
438.721	80.25
438.943	95.25
439.165	103.25
439.386	73.25
439.608	102.25
439.829	93.25
440.05	103.25
440.272	90.25
440.493	80.25
440.715	101.25
440.936	94.25
441.158	91.25
441.379	99.25
441.6	97.25
441.822	92.25
442.043	87.25
442.264	74.25
442.486	85.25
442.707	78.25
442.928	80.25
443.149	87.25
443.371	106.25
443.592	92.25
443.813	103.25
444.034	96.25
444.255	87.25
444.476	94.25
444.698	99.25
444.919	86.25
445.14	200.25
445.361	126.25
445.582	95.25
445.803	90.25
446.024	94.25
446.245	94.25
446.466	91.25
446.687	78.25
446.908	93.25
447.129	76.25
447.35	87.25
447.571	87.25
447.792	84.25
448.013	79.25
448.234	81.25
448.455	92.25
448.675	83.25
448.896	91.25
449.117	94.25
449.338	75.25
449.559	98.25
449.779	88.25
450	81.25
450.221	84.25
450.442	98.25
450.662	96.25
450.883	97.25
451.104	94.25
451.324	83.25
451.545	92.25
451.766	77.25
451.986	84.25
452.207	82.25
452.428	89.25
452.648	84.25
452.869	85.25
453.089	85.25
453.31	82.25
453.53	80.25
453.751	98.25
453.971	96.25
454.192	82.25
454.412	88.25
454.633	104.25
454.853	80.25
455.073	93.25
455.294	94.25
455.514	85.25
455.734	79.25
455.955	90.25
456.175	84.25
456.395	78.25
456.616	96.25
456.836	103.25
457.056	77.25
457.276	86.25
457.497	87.25
457.717	89.25
457.937	85.25
458.157	74.25
458.377	88.25
458.598	88.25
458.818	81.25
459.038	89.25
459.258	87.25
459.478	72.25
459.698	91.25
459.918	96.25
460.138	88.25
460.358	102.25
460.578	102.25
460.798	85.25
461.018	86.25
461.238	87.25
461.458	96.25
461.678	96.25
461.898	91.25
462.118	88.25
462.338	93.25
462.558	89.25
462.777	82.25
462.997	90.25
463.217	90.25
463.437	96.25
463.657	78.25
463.876	102.25
464.096	87.25
464.316	87.25
464.536	99.25
464.755	99.25
464.975	85.25
465.195	80.25
465.414	93.25
465.634	84.25
465.854	93.25
466.073	79.25
466.293	104.25
466.512	83.25
466.732	85.25
466.951	80.25
467.171	88.25
467.391	93.25
467.61	98.25
467.829	91.25
468.049	86.25
468.268	80.25
468.488	83.25
468.707	88.25
468.927	82.25
469.146	96.25
469.365	91.25
469.585	83.25
469.804	90.25
470.023	90.25
470.243	89.25
470.462	90.25
470.681	103.25
470.901	86.25
471.12	89.25
471.339	107.25
471.558	90.25
471.777	88.25
471.997	88.25
472.216	99.25
472.435	96.25
472.654	91.25
472.873	94.25
473.092	98.25
473.311	100.25
473.53	94.25
473.749	92.25
473.968	79.25
474.187	76.25
474.406	92.25
474.625	83.25
474.844	95.25
475.063	91.25
475.282	99.25
475.501	82.25
475.72	83.25
475.939	86.25
476.158	91.25
476.377	91.25
476.596	92.25
476.814	72.25
477.033	83.25
477.252	74.25
477.471	103.25
477.69	92.25
477.908	103.25
478.127	95.25
478.346	106.25
478.564	88.25
478.783	103.25
479.002	90.25
479.22	91.25
479.439	92.25
479.658	76.25
479.876	96.25
480.095	79.25
480.313	93.25
480.532	96.25
480.751	80.25
480.969	85.25
481.188	94.25
481.406	90.25
481.624	103.25
481.843	86.25
482.061	108.25
482.28	88.25
482.498	98.25
482.717	78.25
482.935	95.25
483.153	88.25
483.372	92.25
483.59	95.25
483.808	86.25
484.027	103.25
484.245	95.25
484.463	90.25
484.681	105.25
484.9	92.25
485.118	96.25
485.336	91.25
485.554	99.25
485.772	85.25
485.99	102.25
486.209	92.25
486.427	97.25
486.645	109.25
486.863	107.25
487.081	95.25
487.299	88.25
487.517	100.25
487.735	94.25
487.953	86.25
488.171	106.25
488.389	102.25
488.607	99.25
488.825	89.25
489.043	102.25
489.261	89.25
489.479	87.25
489.696	94.25
489.914	100.25
490.132	100.25
490.35	93.25
490.568	95.25
490.786	91.25
491.003	95.25
491.221	85.25
491.439	105.25
491.657	103.25
491.874	115.25
492.092	99.25
492.31	89.25
492.527	85.25
492.745	104.25
492.963	100.25
493.18	99.25
493.398	108.25
493.615	102.25
493.833	83.25
494.05	93.25
494.268	100.25
494.485	92.25
494.703	92.25
494.92	87.25
495.138	96.25
495.355	101.25
495.573	88.25
495.79	102.25
496.008	104.25
496.225	99.25
496.442	98.25
496.66	87.25
496.877	98.25
497.094	103.25
497.312	101.25
497.529	97.25
497.746	98.25
497.963	85.25
498.181	82.25
498.398	109.25
498.615	102.25
498.832	103.25
499.049	90.25
499.267	102.25
499.484	92.25
499.701	101.25
499.918	107.25
500.135	120.25
500.352	109.25
500.569	122.25
500.786	107.25
501.003	119.25
501.22	100.25
501.437	110.25
501.654	94.25
501.871	113.25
502.088	106.25
502.305	88.25
502.522	93.25
502.739	107.25
502.956	85.25
503.172	91.25
503.389	75.25
503.606	92.25
503.823	105.25
504.04	110.25
504.256	82.25
504.473	101.25
504.69	93.25
504.907	102.25
505.123	89.25
505.34	105.25
505.557	82.25
505.773	91.25
505.99	112.25
506.207	99.25
506.423	89.25
506.64	95.25
506.856	87.25
507.073	109.25
507.289	97.25
507.506	95.25
507.722	95.25
507.939	91.25
508.155	81.25
508.372	85.25
508.588	93.25
508.805	107.25
509.021	112.25
509.238	101.25
509.454	94.25
509.67	92.25
509.887	90.25
510.103	101.25
510.319	99.25
510.536	102.25
510.752	100.25
510.968	93.25
511.184	101.25
511.401	99.25
511.617	96.25
511.833	88.25
512.049	103.25
512.265	95.25
512.481	102.25
512.698	110.25
512.914	94.25
513.13	96.25
513.346	94.25
513.562	93.25
513.778	105.25
513.994	91.25
514.21	94.25
514.426	106.25
514.642	79.25
514.858	107.25
515.074	99.25
515.29	82.25
515.506	100.25
515.721	92.25
515.937	92.25
516.153	85.25
516.369	92.25
516.585	95.25
516.801	96.25
517.016	105.25
517.232	91.25
517.448	79.25
