Data from Ni(NO3)2@0.125M.TitratingCurve.Agarose3%dH2O.NegLispCup.LampEnergy10.LIBS07252019_HRD10591_18-10-25-568.txt Node
Date: Thu Jul 25 18:10:25 EDT 2019
User: cochatt
Spectrometer: HR+D1059
Trigger mode: 1
Integration Time (sec): 1.000000E-1
Scans to average: 1
Electric dark correction enabled: true
Nonlinearity correction enabled: false
Boxcar width: 0
XAxis mode: Wavelengths
Number of Pixels in Spectrum: 2048
>>>>>Begin Spectral Data<<<<<
223.165	-20.44
223.4	-20.44
223.635	-20.44
223.869	-32.44
224.104	-6.44
224.338	-8.44
224.573	-18.44
224.808	-16.44
225.042	-10.44
225.277	-11.44
225.511	-4.44
225.746	-9.44
225.98	19.56
226.215	10.56
226.449	17.56
226.683	38.56
226.918	20.56
227.152	31.56
227.387	26.56
227.621	40.56
227.856	40.56
228.09	33.56
228.324	48.56
228.559	54.56
228.793	73.56
229.027	98.56
229.262	111.56
229.496	95.56
229.73	103.56
229.964	114.56
230.199	102.56
230.433	104.56
230.667	114.56
230.901	112.56
231.136	121.56
231.37	114.56
231.604	117.56
231.838	120.56
232.072	132.56
232.306	135.56
232.541	127.56
232.775	130.56
233.009	130.56
233.243	117.56
233.477	129.56
233.711	130.56
233.945	131.56
234.179	126.56
234.413	124.56
234.647	145.56
234.881	132.56
235.115	139.56
235.349	131.56
235.583	116.56
235.817	127.56
236.051	124.56
236.285	128.56
236.519	131.56
236.753	132.56
236.987	138.56
237.221	142.56
237.455	125.56
237.689	139.56
237.922	135.56
238.156	145.56
238.39	149.56
238.624	151.56
238.858	133.56
239.091	141.56
239.325	155.56
239.559	129.56
239.793	137.56
240.027	148.56
240.26	148.56
240.494	149.56
240.728	148.56
240.961	151.56
241.195	151.56
241.429	147.56
241.662	157.56
241.896	175.56
242.13	136.56
242.363	151.56
242.597	154.56
242.83	156.56
243.064	172.56
243.298	165.56
243.531	159.56
243.765	172.56
243.998	163.56
244.232	160.56
244.465	183.56
244.699	177.56
244.932	157.56
245.166	169.56
245.399	183.56
245.633	171.56
245.866	171.56
246.099	181.56
246.333	188.56
246.566	186.56
246.8	176.56
247.033	176.56
247.266	188.56
247.5	191.56
247.733	179.56
247.966	191.56
248.2	183.56
248.433	194.56
248.666	197.56
248.899	195.56
249.133	173.56
249.366	199.56
249.599	195.56
249.832	207.56
250.066	209.56
250.299	206.56
250.532	202.56
250.765	222.56
250.998	208.56
251.231	203.56
251.465	215.56
251.698	205.56
251.931	216.56
252.164	213.56
252.397	218.56
252.63	223.56
252.863	205.56
253.096	221.56
253.329	217.56
253.562	238.56
253.795	219.56
254.028	219.56
254.261	241.56
254.494	234.56
254.727	227.56
254.96	230.56
255.193	242.56
255.426	240.56
255.659	232.56
255.892	233.56
256.124	219.56
256.357	235.56
256.59	225.56
256.823	242.56
257.056	240.56
257.289	234.56
257.521	243.56
257.754	227.56
257.987	249.56
258.22	224.56
258.452	231.56
258.685	234.56
258.918	253.56
259.151	242.56
259.383	236.56
259.616	232.56
259.849	263.56
260.081	252.56
260.314	241.56
260.547	259.56
260.779	250.56
261.012	255.56
261.244	261.56
261.477	259.56
261.71	267.56
261.942	253.56
262.175	261.56
262.407	249.56
262.64	268.56
262.872	274.56
263.105	261.56
263.337	287.56
263.57	285.56
263.802	268.56
264.035	261.56
264.267	265.56
264.499	275.56
264.732	282.56
264.964	281.56
265.197	281.56
265.429	288.56
265.661	257.56
265.894	288.56
266.126	279.56
266.358	276.56
266.591	303.56
266.823	287.56
267.055	298.56
267.287	299.56
267.52	283.56
267.752	296.56
267.984	313.56
268.216	291.56
268.448	299.56
268.681	302.56
268.913	280.56
269.145	291.56
269.377	283.56
269.609	299.56
269.841	283.56
270.073	282.56
270.306	305.56
270.538	292.56
270.77	291.56
271.002	286.56
271.234	284.56
271.466	307.56
271.698	305.56
271.93	293.56
272.162	307.56
272.394	327.56
272.626	330.56
272.858	320.56
273.09	336.56
273.322	326.56
273.553	320.56
273.785	311.56
274.017	326.56
274.249	321.56
274.481	321.56
274.713	343.56
274.945	311.56
275.176	318.56
275.408	326.56
275.64	343.56
275.872	308.56
276.104	321.56
276.335	347.56
276.567	344.56
276.799	324.56
277.031	327.56
277.262	335.56
277.494	354.56
277.726	356.56
277.957	340.56
278.189	361.56
278.421	347.56
278.652	356.56
278.884	351.56
279.115	351.56
279.347	361.56
279.579	368.56
279.81	358.56
280.042	351.56
280.273	355.56
280.505	335.56
280.736	348.56
280.968	375.56
281.199	355.56
281.431	369.56
281.662	367.56
281.894	357.56
282.125	379.56
282.356	383.56
282.588	389.56
282.819	371.56
283.051	365.56
283.282	391.56
283.513	390.56
283.745	365.56
283.976	357.56
284.207	383.56
284.439	359.56
284.67	390.56
284.901	376.56
285.132	385.56
285.364	378.56
285.595	393.56
285.826	397.56
286.057	385.56
286.288	390.56
286.52	389.56
286.751	405.56
286.982	397.56
287.213	391.56
287.444	402.56
287.675	425.56
287.906	418.56
288.138	411.56
288.369	398.56
288.6	379.56
288.831	397.56
289.062	416.56
289.293	399.56
289.524	402.56
289.755	402.56
289.986	435.56
290.217	427.56
290.448	423.56
290.679	423.56
290.91	401.56
291.141	411.56
291.371	419.56
291.602	405.56
291.833	408.56
292.064	412.56
292.295	403.56
292.526	425.56
292.757	419.56
292.987	396.56
293.218	397.56
293.449	420.56
293.68	416.56
293.91	413.56
294.141	407.56
294.372	418.56
294.603	409.56
294.833	422.56
295.064	417.56
295.295	420.56
295.525	427.56
295.756	424.56
295.987	414.56
296.217	443.56
296.448	433.56
296.679	439.56
296.909	460.56
297.14	438.56
297.37	445.56
297.601	439.56
297.831	450.56
298.062	441.56
298.292	454.56
298.523	456.56
298.753	456.56
298.984	445.56
299.214	448.56
299.445	431.56
299.675	461.56
299.905	454.56
300.136	451.56
300.366	456.56
300.597	457.56
300.827	467.56
301.057	479.56
301.288	495.56
301.518	474.56
301.748	473.56
301.979	473.56
302.209	475.56
302.439	469.56
302.669	471.56
302.9	471.56
303.13	454.56
303.36	465.56
303.59	462.56
303.82	470.56
304.051	465.56
304.281	479.56
304.511	474.56
304.741	478.56
304.971	471.56
305.201	473.56
305.431	481.56
305.661	449.56
305.891	469.56
306.121	461.56
306.352	465.56
306.582	454.56
306.812	447.56
307.042	463.56
307.272	450.56
307.502	465.56
307.731	467.56
307.961	458.56
308.191	469.56
308.421	453.56
308.651	487.56
308.881	453.56
309.111	473.56
309.341	466.56
309.571	486.56
309.8	469.56
310.03	472.56
310.26	458.56
310.49	476.56
310.72	488.56
310.949	452.56
311.179	477.56
311.409	480.56
311.639	469.56
311.868	473.56
312.098	480.56
312.328	489.56
312.557	488.56
312.787	479.56
313.017	510.56
313.246	511.56
313.476	504.56
313.706	520.56
313.935	523.56
314.165	513.56
314.394	504.56
314.624	523.56
314.853	512.56
315.083	487.56
315.312	511.56
315.542	493.56
315.771	495.56
316.001	505.56
316.23	522.56
316.46	499.56
316.689	495.56
316.919	506.56
317.148	477.56
317.377	499.56
317.607	490.56
317.836	502.56
318.065	515.56
318.295	491.56
318.524	496.56
318.753	492.56
318.983	470.56
319.212	485.56
319.441	490.56
319.67	500.56
319.9	507.56
320.129	512.56
320.358	511.56
320.587	484.56
320.816	500.56
321.046	505.56
321.275	511.56
321.504	496.56
321.733	521.56
321.962	506.56
322.191	491.56
322.42	504.56
322.649	507.56
322.878	507.56
323.108	522.56
323.337	522.56
323.566	505.56
323.795	530.56
324.024	509.56
324.253	501.56
324.482	521.56
324.71	520.56
324.939	529.56
325.168	507.56
325.397	525.56
325.626	535.56
325.855	557.56
326.084	541.56
326.313	548.56
326.542	531.56
326.77	564.56
326.999	569.56
327.228	537.56
327.457	555.56
327.686	570.56
327.914	560.56
328.143	552.56
328.372	560.56
328.6	539.56
328.829	542.56
329.058	537.56
329.287	554.56
329.515	566.56
329.744	561.56
329.972	558.56
330.201	596.56
330.43	583.56
330.658	557.56
330.887	575.56
331.115	591.56
331.344	583.56
331.572	587.56
331.801	605.56
332.03	616.56
332.258	632.56
332.486	661.56
332.715	661.56
332.943	698.56
333.172	731.56
333.4	776.56
333.629	773.56
333.857	759.56
334.085	782.56
334.314	735.56
334.542	710.56
334.771	719.56
334.999	689.56
335.227	692.56
335.455	694.56
335.684	704.56
335.912	691.56
336.14	670.56
336.369	672.56
336.597	689.56
336.825	679.56
337.053	639.56
337.281	655.56
337.51	651.56
337.738	649.56
337.966	635.56
338.194	602.56
338.422	623.56
338.65	602.56
338.878	607.56
339.106	589.56
339.334	627.56
339.562	607.56
339.79	574.56
340.018	577.56
340.246	582.56
340.474	586.56
340.702	592.56
340.93	581.56
341.158	582.56
341.386	570.56
341.614	587.56
341.842	598.56
342.07	593.56
342.298	574.56
342.526	579.56
342.754	589.56
342.981	583.56
343.209	602.56
343.437	667.56
343.665	676.56
343.893	718.56
344.12	720.56
344.348	697.56
344.576	653.56
344.804	621.56
345.031	602.56
345.259	588.56
345.487	612.56
345.714	585.56
345.942	571.56
346.17	582.56
346.397	554.56
346.625	553.56
346.853	575.56
347.08	576.56
347.308	566.56
347.535	574.56
347.763	567.56
347.99	571.56
348.218	584.56
348.445	546.56
348.673	546.56
348.9	548.56
349.128	555.56
349.355	565.56
349.583	562.56
349.81	549.56
350.037	544.56
350.265	550.56
350.492	563.56
350.72	547.56
350.947	545.56
351.174	522.56
351.402	529.56
351.629	548.56
351.856	545.56
352.083	546.56
352.311	542.56
352.538	532.56
352.765	523.56
352.992	547.56
353.22	563.56
353.447	533.56
353.674	534.56
353.901	545.56
354.128	539.56
354.355	548.56
354.583	568.56
354.81	549.56
355.037	538.56
355.264	556.56
355.491	525.56
355.718	513.56
355.945	557.56
356.172	540.56
356.399	546.56
356.626	553.56
356.853	572.56
357.08	549.56
357.307	545.56
357.534	543.56
357.761	576.56
357.988	540.56
358.215	551.56
358.441	543.56
358.668	534.56
358.895	564.56
359.122	538.56
359.349	542.56
359.576	544.56
359.802	570.56
360.029	545.56
360.256	525.56
360.483	544.56
360.709	545.56
360.936	546.56
361.163	552.56
361.39	550.56
361.616	529.56
361.843	536.56
362.07	536.56
362.296	549.56
362.523	554.56
362.749	549.56
362.976	543.56
363.203	548.56
363.429	561.56
363.656	563.56
363.882	540.56
364.109	552.56
364.335	534.56
364.562	552.56
364.788	549.56
365.015	577.56
365.241	570.56
365.468	551.56
365.694	529.56
365.92	568.56
366.147	521.56
366.373	565.56
366.599	546.56
366.826	563.56
367.052	535.56
367.278	567.56
367.505	577.56
367.731	541.56
367.957	542.56
368.184	543.56
368.41	567.56
368.636	563.56
368.862	563.56
369.089	554.56
369.315	554.56
369.541	562.56
369.767	578.56
369.993	549.56
370.219	556.56
370.445	590.56
370.672	593.56
370.898	590.56
371.124	577.56
371.35	573.56
371.576	592.56
371.802	597.56
372.028	594.56
372.254	587.56
372.48	590.56
372.706	618.56
372.932	602.56
373.158	616.56
373.384	626.56
373.61	599.56
373.835	570.56
374.061	593.56
374.287	613.56
374.513	616.56
374.739	620.56
374.965	647.56
375.191	671.56
375.416	636.56
375.642	654.56
375.868	619.56
376.094	610.56
376.319	611.56
376.545	609.56
376.771	589.56
376.997	591.56
377.222	617.56
377.448	625.56
377.674	600.56
377.899	586.56
378.125	597.56
378.35	599.56
378.576	579.56
378.802	584.56
379.027	584.56
379.253	585.56
379.478	555.56
379.704	584.56
379.929	578.56
380.155	576.56
380.38	596.56
380.606	600.56
380.831	588.56
381.057	578.56
381.282	583.56
381.507	610.56
381.733	609.56
381.958	593.56
382.184	610.56
382.409	602.56
382.634	612.56
382.86	632.56
383.085	641.56
383.31	659.56
383.535	661.56
383.761	654.56
383.986	659.56
384.211	661.56
384.436	717.56
384.662	697.56
384.887	717.56
385.112	699.56
385.337	734.56
385.562	712.56
385.787	739.56
386.013	751.56
386.238	741.56
386.463	699.56
386.688	712.56
386.913	718.56
387.138	697.56
387.363	735.56
387.588	701.56
387.813	695.56
388.038	695.56
388.263	708.56
388.488	699.56
388.713	712.56
388.938	688.56
389.163	704.56
389.387	693.56
389.612	692.56
389.837	698.56
390.062	689.56
390.287	700.56
390.512	694.56
390.736	694.56
390.961	701.56
391.186	754.56
391.411	765.56
391.636	786.56
391.86	796.56
392.085	785.56
392.31	798.56
392.534	786.56
392.759	772.56
392.984	756.56
393.208	771.56
393.433	743.56
393.658	756.56
393.882	763.56
394.107	777.56
394.331	787.56
394.556	767.56
394.78	780.56
395.005	800.56
395.229	786.56
395.454	787.56
395.678	846.56
395.903	809.56
396.127	781.56
396.352	800.56
396.576	771.56
396.801	756.56
397.025	791.56
397.249	785.56
397.474	788.56
397.698	783.56
397.922	802.56
398.147	788.56
398.371	835.56
398.595	821.56
398.82	857.56
399.044	925.56
399.268	1059.56
399.492	1258.56
399.717	1391.56
399.941	1363.56
400.165	1199.56
400.389	1077.56
400.613	1016.56
400.837	938.56
401.062	893.56
401.286	908.56
401.51	887.56
401.734	863.56
401.958	917.56
402.182	895.56
402.406	923.56
402.63	940.56
402.854	957.56
403.078	984.56
403.302	996.56
403.526	1026.56
403.75	1049.56
403.974	1064.56
404.198	1105.56
404.422	1078.56
404.645	1088.56
404.869	1031.56
405.093	1017.56
405.317	992.56
405.541	989.56
405.765	982.56
405.988	946.56
406.212	970.56
406.436	941.56
406.66	985.56
406.883	1011.56
407.107	1085.56
407.331	1114.56
407.555	1172.56
407.778	1192.56
408.002	1137.56
408.226	1086.56
408.449	1053.56
408.673	1023.56
408.896	1011.56
409.12	1041.56
409.344	1031.56
409.567	991.56
409.791	1022.56
410.014	1002.56
410.238	1013.56
410.461	1016.56
410.685	1005.56
410.908	970.56
411.132	967.56
411.355	927.56
411.578	928.56
411.802	949.56
412.025	919.56
412.249	936.56
412.472	939.56
412.695	917.56
412.919	886.56
413.142	894.56
413.365	876.56
413.589	903.56
413.812	888.56
414.035	871.56
414.258	917.56
414.482	906.56
414.705	912.56
414.928	923.56
415.151	902.56
415.374	907.56
415.597	907.56
415.821	845.56
416.044	868.56
416.267	852.56
416.49	891.56
416.713	875.56
416.936	873.56
417.159	883.56
417.382	885.56
417.605	877.56
417.828	885.56
418.051	901.56
418.274	886.56
418.497	876.56
418.72	909.56
418.943	907.56
419.166	962.56
419.389	1006.56
419.611	1003.56
419.834	957.56
420.057	941.56
420.28	893.56
420.503	897.56
420.726	869.56
420.948	882.56
421.171	899.56
421.394	900.56
421.617	874.56
421.839	881.56
422.062	877.56
422.285	879.56
422.507	903.56
422.73	931.56
422.953	884.56
423.175	923.56
423.398	956.56
423.621	949.56
423.843	960.56
424.066	955.56
424.288	939.56
424.511	941.56
424.733	901.56
424.956	925.56
425.178	869.56
425.401	892.56
425.623	902.56
425.846	842.56
426.068	864.56
426.291	836.56
426.513	791.56
426.735	845.56
426.958	817.56
427.18	798.56
427.402	829.56
427.625	803.56
427.847	799.56
428.069	792.56
428.292	810.56
428.514	779.56
428.736	788.56
428.958	807.56
429.181	762.56
429.403	773.56
429.625	744.56
429.847	757.56
430.069	774.56
430.292	779.56
430.514	765.56
430.736	745.56
430.958	766.56
431.18	771.56
431.402	776.56
431.624	769.56
431.846	799.56
432.068	782.56
432.29	807.56
432.512	805.56
432.734	808.56
432.956	775.56
433.178	792.56
433.4	785.56
433.622	788.56
433.844	792.56
434.066	791.56
434.287	799.56
434.509	834.56
434.731	879.56
434.953	875.56
435.175	917.56
435.397	881.56
435.618	836.56
435.84	811.56
436.062	780.56
436.284	800.56
436.505	789.56
436.727	797.56
436.949	818.56
437.17	779.56
437.392	770.56
437.614	753.56
437.835	753.56
438.057	750.56
438.278	728.56
438.5	740.56
438.721	718.56
438.943	744.56
439.165	772.56
439.386	767.56
439.608	772.56
439.829	767.56
440.05	801.56
440.272	791.56
440.493	814.56
440.715	801.56
440.936	832.56
441.158	853.56
441.379	868.56
441.6	899.56
441.822	909.56
442.043	912.56
442.264	889.56
442.486	868.56
442.707	867.56
442.928	879.56
443.149	869.56
443.371	869.56
443.592	916.56
443.813	885.56
444.034	892.56
444.255	944.56
444.476	994.56
444.698	1057.56
444.919	1083.56
445.14	1141.56
445.361	1016.56
445.582	919.56
445.803	847.56
446.024	849.56
446.245	812.56
446.466	815.56
446.687	775.56
446.908	780.56
447.129	792.56
447.35	775.56
447.571	749.56
447.792	713.56
448.013	754.56
448.234	723.56
448.455	739.56
448.675	728.56
448.896	732.56
449.117	744.56
449.338	705.56
449.559	707.56
449.779	697.56
450	709.56
450.221	722.56
450.442	724.56
450.662	721.56
450.883	726.56
451.104	738.56
451.324	733.56
451.545	727.56
451.766	734.56
451.986	738.56
452.207	755.56
452.428	714.56
452.648	696.56
452.869	701.56
453.089	696.56
453.31	717.56
453.53	687.56
453.751	684.56
453.971	687.56
454.192	689.56
454.412	676.56
454.633	684.56
454.853	691.56
455.073	675.56
455.294	673.56
455.514	675.56
455.734	666.56
455.955	669.56
456.175	654.56
456.395	660.56
456.616	661.56
456.836	660.56
457.056	656.56
457.276	659.56
457.497	667.56
457.717	668.56
457.937	671.56
458.157	675.56
458.377	688.56
458.598	680.56
458.818	725.56
459.038	721.56
459.258	752.56
459.478	801.56
459.698	805.56
459.918	835.56
460.138	893.56
460.358	928.56
460.578	946.56
460.798	936.56
461.018	946.56
461.238	917.56
461.458	889.56
461.678	932.56
461.898	904.56
462.118	928.56
462.338	996.56
462.558	1014.56
462.777	1056.56
462.997	1191.56
463.217	1268.56
463.437	1279.56
463.657	1123.56
463.876	1068.56
464.096	1090.56
464.316	1085.56
464.536	1089.56
464.755	1035.56
464.975	1011.56
465.195	954.56
465.414	891.56
465.634	833.56
465.854	828.56
466.073	804.56
466.293	801.56
466.512	777.56
466.732	760.56
466.951	777.56
467.171	762.56
467.391	744.56
467.61	746.56
467.829	755.56
468.049	754.56
468.268	697.56
468.488	720.56
468.707	688.56
468.927	718.56
469.146	710.56
469.365	724.56
469.585	740.56
469.804	771.56
470.023	776.56
470.243	760.56
470.462	777.56
470.681	779.56
470.901	773.56
471.12	754.56
471.339	765.56
471.558	739.56
471.777	733.56
471.997	715.56
472.216	701.56
472.435	709.56
472.654	702.56
472.873	713.56
473.092	706.56
473.311	712.56
473.53	714.56
473.749	693.56
473.968	677.56
474.187	685.56
474.406	716.56
474.625	698.56
474.844	680.56
475.063	697.56
475.282	691.56
475.501	681.56
475.72	714.56
475.939	700.56
476.158	715.56
476.377	714.56
476.596	702.56
476.814	716.56
477.033	721.56
477.252	753.56
477.471	773.56
477.69	769.56
477.908	818.56
478.127	833.56
478.346	840.56
478.564	875.56
478.783	852.56
479.002	867.56
479.22	875.56
479.439	857.56
479.658	861.56
479.876	867.56
480.095	874.56
480.313	932.56
480.532	948.56
480.751	916.56
480.969	888.56
481.188	852.56
481.406	827.56
481.624	826.56
481.843	787.56
482.061	767.56
482.28	788.56
482.498	801.56
482.717	783.56
482.935	792.56
483.153	791.56
483.372	801.56
483.59	793.56
483.808	795.56
484.027	796.56
484.245	804.56
484.463	821.56
484.681	836.56
484.9	820.56
485.118	824.56
485.336	827.56
485.554	803.56
485.772	834.56
485.99	818.56
486.209	841.56
486.427	852.56
486.645	840.56
486.863	854.56
487.081	808.56
487.299	829.56
487.517	835.56
487.735	825.56
487.953	828.56
488.171	848.56
488.389	806.56
488.607	818.56
488.825	816.56
489.043	810.56
489.261	816.56
489.479	827.56
489.696	817.56
489.914	859.56
490.132	840.56
490.35	819.56
490.568	840.56
490.786	827.56
491.003	860.56
491.221	832.56
491.439	843.56
491.657	831.56
491.874	860.56
492.092	828.56
492.31	850.56
492.527	859.56
492.745	848.56
492.963	840.56
493.18	839.56
493.398	852.56
493.615	886.56
493.833	847.56
494.05	858.56
494.268	892.56
494.485	893.56
494.703	887.56
494.92	881.56
495.138	882.56
495.355	865.56
495.573	898.56
495.79	874.56
496.008	894.56
496.225	876.56
496.442	892.56
496.66	905.56
496.877	926.56
497.094	910.56
497.312	945.56
497.529	975.56
497.746	1026.56
497.963	1065.56
498.181	1054.56
498.398	1115.56
498.615	1197.56
498.832	1257.56
499.049	1359.56
499.267	1496.56
499.484	1631.56
499.701	1834.56
499.918	2001.56
500.135	2307.56
500.352	2718.56
500.569	2849.56
