Data from Ni(NO3)2@0.125M.TitratingCurve.Agarose3%dH2O.NegLispCup.LampEnergy10.LIBS07252019_HRD10591_18-09-41-567.txt Node
Date: Thu Jul 25 18:09:41 EDT 2019
User: cochatt
Spectrometer: HR+D1059
Trigger mode: 1
Integration Time (sec): 1.000000E-1
Scans to average: 1
Electric dark correction enabled: true
Nonlinearity correction enabled: false
Boxcar width: 0
XAxis mode: Wavelengths
Number of Pixels in Spectrum: 2048
>>>>>Begin Spectral Data<<<<<
223.165	-15.19
223.4	-15.19
223.635	-15.19
223.869	-23.19
224.104	-13.19
224.338	-13.19
224.573	-24.19
224.808	-13.19
225.042	-3.19
225.277	2.81
225.511	-6.19
225.746	4.81
225.98	5.81
226.215	-1.19
226.449	15.81
226.683	14.81
226.918	41.81
227.152	26.81
227.387	35.81
227.621	43.81
227.856	46.81
228.09	56.81
228.324	39.81
228.559	58.81
228.793	68.81
229.027	95.81
229.262	88.81
229.496	100.81
229.73	88.81
229.964	112.81
230.199	108.81
230.433	108.81
230.667	108.81
230.901	116.81
231.136	108.81
231.37	120.81
231.604	127.81
231.838	125.81
232.072	134.81
232.306	118.81
232.541	126.81
232.775	118.81
233.009	120.81
233.243	137.81
233.477	116.81
233.711	122.81
233.945	127.81
234.179	115.81
234.413	138.81
234.647	136.81
234.881	115.81
235.115	134.81
235.349	133.81
235.583	130.81
235.817	135.81
236.051	132.81
236.285	132.81
236.519	131.81
236.753	130.81
236.987	130.81
237.221	136.81
237.455	124.81
237.689	149.81
237.922	159.81
238.156	131.81
238.39	135.81
238.624	134.81
238.858	149.81
239.091	134.81
239.325	131.81
239.559	134.81
239.793	150.81
240.027	154.81
240.26	135.81
240.494	144.81
240.728	129.81
240.961	148.81
241.195	163.81
241.429	157.81
241.662	138.81
241.896	158.81
242.13	153.81
242.363	168.81
242.597	172.81
242.83	164.81
243.064	144.81
243.298	164.81
243.531	168.81
243.765	167.81
243.998	179.81
244.232	160.81
244.465	167.81
244.699	179.81
244.932	171.81
245.166	163.81
245.399	162.81
245.633	190.81
245.866	165.81
246.099	172.81
246.333	171.81
246.566	172.81
246.8	172.81
247.033	171.81
247.266	163.81
247.5	181.81
247.733	178.81
247.966	179.81
248.2	195.81
248.433	191.81
248.666	188.81
248.899	189.81
249.133	194.81
249.366	187.81
249.599	182.81
249.832	204.81
250.066	184.81
250.299	196.81
250.532	197.81
250.765	204.81
250.998	215.81
251.231	203.81
251.465	210.81
251.698	203.81
251.931	191.81
252.164	204.81
252.397	224.81
252.63	223.81
252.863	211.81
253.096	221.81
253.329	218.81
253.562	226.81
253.795	222.81
254.028	205.81
254.261	218.81
254.494	212.81
254.727	212.81
254.96	211.81
255.193	229.81
255.426	235.81
255.659	228.81
255.892	217.81
256.124	227.81
256.357	212.81
256.59	248.81
256.823	244.81
257.056	220.81
257.289	222.81
257.521	231.81
257.754	234.81
257.987	221.81
258.22	238.81
258.452	243.81
258.685	242.81
258.918	231.81
259.151	228.81
259.383	258.81
259.616	230.81
259.849	231.81
260.081	229.81
260.314	224.81
260.547	248.81
260.779	258.81
261.012	246.81
261.244	261.81
261.477	271.81
261.71	238.81
261.942	256.81
262.175	262.81
262.407	254.81
262.64	262.81
262.872	246.81
263.105	256.81
263.337	245.81
263.57	260.81
263.802	255.81
264.035	257.81
264.267	268.81
264.499	263.81
264.732	263.81
264.964	261.81
265.197	261.81
265.429	266.81
265.661	258.81
265.894	259.81
266.126	264.81
266.358	290.81
266.591	276.81
266.823	267.81
267.055	266.81
267.287	290.81
267.52	285.81
267.752	291.81
267.984	287.81
268.216	294.81
268.448	284.81
268.681	272.81
268.913	303.81
269.145	287.81
269.377	300.81
269.609	290.81
269.841	275.81
270.073	294.81
270.306	269.81
270.538	281.81
270.77	292.81
271.002	286.81
271.234	283.81
271.466	315.81
271.698	298.81
271.93	302.81
272.162	286.81
272.394	289.81
272.626	290.81
272.858	305.81
273.09	310.81
273.322	301.81
273.553	297.81
273.785	291.81
274.017	315.81
274.249	310.81
274.481	311.81
274.713	317.81
274.945	323.81
275.176	320.81
275.408	283.81
275.64	317.81
275.872	316.81
276.104	306.81
276.335	327.81
276.567	309.81
276.799	322.81
277.031	320.81
277.262	328.81
277.494	337.81
277.726	342.81
277.957	319.81
278.189	318.81
278.421	310.81
278.652	342.81
278.884	327.81
279.115	322.81
279.347	340.81
279.579	339.81
279.81	323.81
280.042	331.81
280.273	336.81
280.505	349.81
280.736	350.81
280.968	336.81
281.199	357.81
281.431	349.81
281.662	349.81
281.894	350.81
282.125	353.81
282.356	350.81
282.588	359.81
282.819	336.81
283.051	344.81
283.282	362.81
283.513	344.81
283.745	371.81
283.976	368.81
284.207	358.81
284.439	371.81
284.67	378.81
284.901	373.81
285.132	363.81
285.364	363.81
285.595	387.81
285.826	401.81
286.057	371.81
286.288	389.81
286.52	381.81
286.751	362.81
286.982	382.81
287.213	378.81
287.444	382.81
287.675	379.81
287.906	374.81
288.138	371.81
288.369	376.81
288.6	375.81
288.831	377.81
289.062	389.81
289.293	401.81
289.524	406.81
289.755	386.81
289.986	385.81
290.217	394.81
290.448	381.81
290.679	400.81
290.91	388.81
291.141	391.81
291.371	396.81
291.602	399.81
291.833	402.81
292.064	382.81
292.295	390.81
292.526	408.81
292.757	403.81
292.987	396.81
293.218	402.81
293.449	412.81
293.68	404.81
293.91	384.81
294.141	406.81
294.372	386.81
294.603	393.81
294.833	409.81
295.064	380.81
295.295	420.81
295.525	394.81
295.756	420.81
295.987	399.81
296.217	415.81
296.448	427.81
296.679	407.81
296.909	409.81
297.14	415.81
297.37	425.81
297.601	420.81
297.831	423.81
298.062	415.81
298.292	425.81
298.523	443.81
298.753	440.81
298.984	418.81
299.214	442.81
299.445	426.81
299.675	428.81
299.905	424.81
300.136	437.81
300.366	436.81
300.597	435.81
300.827	450.81
301.057	448.81
301.288	466.81
301.518	456.81
301.748	434.81
301.979	471.81
302.209	455.81
302.439	445.81
302.669	436.81
302.9	436.81
303.13	437.81
303.36	450.81
303.59	468.81
303.82	437.81
304.051	451.81
304.281	442.81
304.511	455.81
304.741	458.81
304.971	444.81
305.201	435.81
305.431	453.81
305.661	445.81
305.891	428.81
306.121	442.81
306.352	435.81
306.582	449.81
306.812	448.81
307.042	442.81
307.272	438.81
307.502	438.81
307.731	435.81
307.961	435.81
308.191	438.81
308.421	429.81
308.651	440.81
308.881	419.81
309.111	435.81
309.341	413.81
309.571	443.81
309.8	459.81
310.03	433.81
310.26	460.81
310.49	425.81
310.72	450.81
310.949	442.81
311.179	447.81
311.409	452.81
311.639	436.81
311.868	454.81
312.098	438.81
312.328	456.81
312.557	456.81
312.787	454.81
313.017	437.81
313.246	448.81
313.476	488.81
313.706	482.81
313.935	463.81
314.165	474.81
314.394	489.81
314.624	459.81
314.853	503.81
315.083	472.81
315.312	487.81
315.542	485.81
315.771	472.81
316.001	467.81
316.23	477.81
316.46	453.81
316.689	454.81
316.919	457.81
317.148	455.81
317.377	471.81
317.607	478.81
317.836	448.81
318.065	467.81
318.295	486.81
318.524	461.81
318.753	461.81
318.983	457.81
319.212	450.81
319.441	450.81
319.67	492.81
319.9	468.81
320.129	472.81
320.358	461.81
320.587	503.81
320.816	478.81
321.046	486.81
321.275	473.81
321.504	462.81
321.733	471.81
321.962	468.81
322.191	468.81
322.42	475.81
322.649	469.81
322.878	489.81
323.108	469.81
323.337	487.81
323.566	485.81
323.795	470.81
324.024	492.81
324.253	469.81
324.482	489.81
324.71	482.81
324.939	484.81
325.168	482.81
325.397	475.81
325.626	493.81
325.855	478.81
326.084	492.81
326.313	504.81
326.542	529.81
326.77	515.81
326.999	518.81
327.228	529.81
327.457	508.81
327.686	528.81
327.914	500.81
328.143	504.81
328.372	514.81
328.6	506.81
328.829	527.81
329.058	509.81
329.287	511.81
329.515	535.81
329.744	541.81
329.972	522.81
330.201	534.81
330.43	533.81
330.658	533.81
330.887	546.81
331.115	539.81
331.344	539.81
331.572	539.81
331.801	572.81
332.03	583.81
332.258	582.81
332.486	579.81
332.715	623.81
332.943	626.81
333.172	666.81
333.4	711.81
333.629	709.81
333.857	697.81
334.085	680.81
334.314	686.81
334.542	670.81
334.771	672.81
334.999	660.81
335.227	645.81
335.455	655.81
335.684	610.81
335.912	635.81
336.14	631.81
336.369	631.81
336.597	632.81
336.825	638.81
337.053	644.81
337.281	606.81
337.51	598.81
337.738	590.81
337.966	591.81
338.194	602.81
338.422	575.81
338.65	580.81
338.878	598.81
339.106	571.81
339.334	561.81
339.562	544.81
339.79	552.81
340.018	527.81
340.246	532.81
340.474	534.81
340.702	549.81
340.93	548.81
341.158	553.81
341.386	534.81
341.614	549.81
341.842	541.81
342.07	549.81
342.298	543.81
342.526	526.81
342.754	537.81
342.981	567.81
343.209	577.81
343.437	573.81
343.665	621.81
343.893	660.81
344.12	686.81
344.348	637.81
344.576	620.81
344.804	598.81
345.031	568.81
345.259	550.81
345.487	564.81
345.714	551.81
345.942	548.81
346.17	538.81
346.397	542.81
346.625	536.81
346.853	546.81
347.08	537.81
347.308	554.81
347.535	549.81
347.763	544.81
347.99	544.81
348.218	556.81
348.445	541.81
348.673	520.81
348.9	534.81
349.128	537.81
349.355	532.81
349.583	526.81
349.81	504.81
350.037	510.81
350.265	560.81
350.492	507.81
350.72	521.81
350.947	524.81
351.174	511.81
351.402	501.81
351.629	526.81
351.856	500.81
352.083	515.81
352.311	540.81
352.538	515.81
352.765	523.81
352.992	506.81
353.22	533.81
353.447	486.81
353.674	520.81
353.901	515.81
354.128	511.81
354.355	499.81
354.583	504.81
354.81	502.81
355.037	536.81
355.264	519.81
355.491	518.81
355.718	516.81
355.945	535.81
356.172	541.81
356.399	528.81
356.626	528.81
356.853	507.81
357.08	510.81
357.307	489.81
357.534	522.81
357.761	519.81
357.988	519.81
358.215	515.81
358.441	528.81
358.668	507.81
358.895	540.81
359.122	517.81
359.349	507.81
359.576	516.81
359.802	538.81
360.029	503.81
360.256	541.81
360.483	515.81
360.709	516.81
360.936	520.81
361.163	511.81
361.39	518.81
361.616	525.81
361.843	512.81
362.07	533.81
362.296	527.81
362.523	519.81
362.749	510.81
362.976	520.81
363.203	514.81
363.429	499.81
363.656	528.81
363.882	499.81
364.109	526.81
364.335	509.81
364.562	518.81
364.788	516.81
365.015	521.81
365.241	520.81
365.468	495.81
365.694	488.81
365.92	512.81
366.147	519.81
366.373	534.81
366.599	510.81
366.826	513.81
367.052	507.81
367.278	525.81
367.505	505.81
367.731	519.81
367.957	522.81
368.184	498.81
368.41	527.81
368.636	515.81
368.862	547.81
369.089	531.81
369.315	525.81
369.541	522.81
369.767	516.81
369.993	513.81
370.219	538.81
370.445	540.81
370.672	553.81
370.898	529.81
371.124	548.81
371.35	550.81
371.576	557.81
371.802	547.81
372.028	569.81
372.254	565.81
372.48	542.81
372.706	569.81
372.932	578.81
373.158	583.81
373.384	568.81
373.61	546.81
373.835	573.81
374.061	582.81
374.287	578.81
374.513	580.81
374.739	602.81
374.965	605.81
375.191	613.81
375.416	601.81
375.642	596.81
375.868	607.81
376.094	602.81
376.319	567.81
376.545	580.81
376.771	571.81
376.997	556.81
377.222	566.81
377.448	571.81
377.674	545.81
377.899	550.81
378.125	570.81
378.35	555.81
378.576	538.81
378.802	550.81
379.027	552.81
379.253	567.81
379.478	554.81
379.704	546.81
379.929	531.81
380.155	552.81
380.38	556.81
380.606	565.81
380.831	564.81
381.057	587.81
381.282	552.81
381.507	548.81
381.733	558.81
381.958	570.81
382.184	582.81
382.409	598.81
382.634	595.81
382.86	583.81
383.085	602.81
383.31	583.81
383.535	596.81
383.761	612.81
383.986	616.81
384.211	651.81
384.436	650.81
384.662	655.81
384.887	668.81
385.112	643.81
385.337	655.81
385.562	666.81
385.787	669.81
386.013	675.81
386.238	658.81
386.463	637.81
386.688	668.81
386.913	674.81
387.138	662.81
387.363	643.81
387.588	658.81
387.813	636.81
388.038	640.81
388.263	672.81
388.488	684.81
388.713	671.81
388.938	665.81
389.163	654.81
389.387	637.81
389.612	640.81
389.837	646.81
390.062	631.81
390.287	662.81
390.512	665.81
390.736	646.81
390.961	667.81
391.186	680.81
391.411	718.81
391.636	718.81
391.86	725.81
392.085	743.81
392.31	752.81
392.534	706.81
392.759	714.81
392.984	715.81
393.208	699.81
393.433	698.81
393.658	680.81
393.882	721.81
394.107	706.81
394.331	710.81
394.556	705.81
394.78	719.81
395.005	724.81
395.229	713.81
395.454	715.81
395.678	749.81
395.903	765.81
396.127	718.81
396.352	690.81
396.576	674.81
396.801	671.81
397.025	678.81
397.249	701.81
397.474	766.81
397.698	715.81
397.922	742.81
398.147	743.81
398.371	749.81
398.595	768.81
398.82	807.81
399.044	847.81
399.268	961.81
399.492	1114.81
399.717	1259.81
399.941	1257.81
400.165	1079.81
400.389	967.81
400.613	914.81
400.837	859.81
401.062	839.81
401.286	802.81
401.51	819.81
401.734	851.81
401.958	828.81
402.182	828.81
402.406	841.81
402.63	859.81
402.854	896.81
403.078	893.81
403.302	933.81
403.526	922.81
403.75	958.81
403.974	964.81
404.198	960.81
404.422	981.81
404.645	996.81
404.869	933.81
405.093	918.81
405.317	909.81
405.541	908.81
405.765	899.81
405.988	880.81
406.212	896.81
406.436	886.81
406.66	918.81
406.883	942.81
407.107	989.81
407.331	1074.81
407.555	1085.81
407.778	1050.81
408.002	1043.81
408.226	968.81
408.449	1001.81
408.673	938.81
408.896	933.81
409.12	939.81
409.344	948.81
409.567	934.81
409.791	943.81
410.014	957.81
410.238	942.81
410.461	962.81
410.685	948.81
410.908	910.81
411.132	877.81
411.355	851.81
411.578	847.81
411.802	841.81
412.025	843.81
412.249	883.81
412.472	898.81
412.695	864.81
412.919	866.81
413.142	831.81
413.365	815.81
413.589	826.81
413.812	834.81
414.035	798.81
414.258	812.81
414.482	832.81
414.705	869.81
414.928	846.81
415.151	848.81
415.374	836.81
415.597	841.81
415.821	784.81
416.044	828.81
416.267	823.81
416.49	815.81
416.713	820.81
416.936	845.81
417.159	792.81
417.382	803.81
417.605	804.81
417.828	787.81
418.051	829.81
418.274	834.81
418.497	799.81
418.72	870.81
418.943	862.81
419.166	930.81
419.389	959.81
419.611	926.81
419.834	906.81
420.057	893.81
420.28	844.81
420.503	840.81
420.726	815.81
420.948	799.81
421.171	811.81
421.394	814.81
421.617	811.81
421.839	838.81
422.062	816.81
422.285	828.81
422.507	847.81
422.73	839.81
422.953	882.81
423.175	847.81
423.398	868.81
423.621	874.81
423.843	887.81
424.066	870.81
424.288	864.81
424.511	879.81
424.733	848.81
424.956	867.81
425.178	829.81
425.401	832.81
425.623	844.81
425.846	806.81
426.068	804.81
426.291	781.81
426.513	778.81
426.735	751.81
426.958	775.81
427.18	734.81
427.402	772.81
427.625	777.81
427.847	743.81
428.069	748.81
428.292	762.81
428.514	741.81
428.736	720.81
428.958	747.81
429.181	722.81
429.403	729.81
429.625	718.81
429.847	732.81
430.069	710.81
430.292	730.81
430.514	727.81
430.736	718.81
430.958	715.81
431.18	710.81
431.402	729.81
431.624	739.81
431.846	761.81
432.068	743.81
432.29	758.81
432.512	740.81
432.734	720.81
432.956	755.81
433.178	752.81
433.4	737.81
433.622	736.81
433.844	774.81
434.066	758.81
434.287	763.81
434.509	800.81
434.731	803.81
434.953	829.81
435.175	844.81
435.397	806.81
435.618	799.81
435.84	786.81
436.062	743.81
436.284	777.81
436.505	734.81
436.727	730.81
436.949	745.81
437.17	737.81
437.392	744.81
437.614	716.81
437.835	699.81
438.057	726.81
438.278	721.81
438.5	724.81
438.721	708.81
438.943	712.81
439.165	720.81
439.386	718.81
439.608	744.81
439.829	758.81
440.05	741.81
440.272	763.81
440.493	754.81
440.715	755.81
440.936	755.81
441.158	807.81
441.379	805.81
441.6	846.81
441.822	848.81
442.043	860.81
442.264	840.81
442.486	819.81
442.707	806.81
442.928	826.81
443.149	823.81
443.371	818.81
443.592	838.81
443.813	836.81
444.034	855.81
444.255	867.81
444.476	918.81
444.698	960.81
444.919	1007.81
445.14	1062.81
445.361	976.81
445.582	866.81
445.803	812.81
446.024	751.81
446.245	806.81
446.466	765.81
446.687	739.81
446.908	765.81
447.129	724.81
447.35	712.81
447.571	746.81
447.792	712.81
448.013	706.81
448.234	678.81
448.455	701.81
448.675	678.81
448.896	680.81
449.117	674.81
449.338	680.81
449.559	690.81
449.779	682.81
450	686.81
450.221	700.81
450.442	697.81
450.662	697.81
450.883	717.81
451.104	703.81
451.324	716.81
451.545	715.81
451.766	725.81
451.986	695.81
452.207	710.81
452.428	706.81
452.648	694.81
452.869	674.81
453.089	677.81
453.31	668.81
453.53	679.81
453.751	655.81
453.971	669.81
454.192	660.81
454.412	652.81
454.633	658.81
454.853	661.81
455.073	634.81
455.294	652.81
455.514	652.81
455.734	671.81
455.955	606.81
456.175	654.81
456.395	639.81
456.616	659.81
456.836	649.81
457.056	623.81
457.276	632.81
457.497	637.81
457.717	662.81
457.937	636.81
458.157	674.81
458.377	663.81
458.598	650.81
458.818	694.81
459.038	706.81
459.258	725.81
459.478	739.81
459.698	767.81
459.918	776.81
460.138	830.81
460.358	892.81
460.578	860.81
460.798	883.81
461.018	898.81
461.238	855.81
461.458	866.81
461.678	843.81
461.898	856.81
462.118	893.81
462.338	940.81
462.558	941.81
462.777	998.81
462.997	1091.81
463.217	1151.81
463.437	1178.81
463.657	1052.81
463.876	1004.81
464.096	995.81
464.316	1029.81
464.536	1002.81
464.755	1007.81
464.975	949.81
465.195	874.81
465.414	850.81
465.634	803.81
465.854	784.81
466.073	758.81
466.293	732.81
466.512	734.81
466.732	720.81
466.951	703.81
467.171	724.81
467.391	716.81
467.61	703.81
467.829	706.81
468.049	719.81
468.268	688.81
468.488	677.81
468.707	697.81
468.927	701.81
469.146	692.81
469.365	680.81
469.585	713.81
469.804	724.81
470.023	696.81
470.243	720.81
470.462	746.81
470.681	728.81
470.901	751.81
471.12	711.81
471.339	711.81
471.558	703.81
471.777	698.81
471.997	696.81
472.216	689.81
472.435	668.81
472.654	654.81
472.873	652.81
473.092	655.81
473.311	677.81
473.53	656.81
473.749	666.81
473.968	659.81
474.187	667.81
474.406	656.81
474.625	657.81
474.844	648.81
475.063	676.81
475.282	676.81
475.501	679.81
475.72	670.81
475.939	697.81
476.158	678.81
476.377	684.81
476.596	715.81
476.814	695.81
477.033	711.81
477.252	703.81
477.471	710.81
477.69	770.81
477.908	777.81
478.127	782.81
478.346	784.81
478.564	831.81
478.783	815.81
479.002	838.81
479.22	840.81
479.439	837.81
479.658	832.81
479.876	815.81
480.095	852.81
480.313	876.81
480.532	894.81
480.751	877.81
480.969	832.81
481.188	839.81
481.406	795.81
481.624	774.81
481.843	767.81
482.061	753.81
482.28	755.81
482.498	736.81
482.717	740.81
482.935	763.81
483.153	759.81
483.372	738.81
483.59	753.81
483.808	739.81
484.027	755.81
484.245	748.81
484.463	756.81
484.681	794.81
484.9	785.81
485.118	788.81
485.336	782.81
485.554	790.81
485.772	805.81
485.99	785.81
486.209	793.81
486.427	777.81
486.645	801.81
486.863	810.81
487.081	815.81
487.299	797.81
487.517	779.81
487.735	767.81
487.953	802.81
488.171	810.81
488.389	799.81
488.607	775.81
488.825	778.81
489.043	762.81
489.261	778.81
489.479	777.81
489.696	788.81
489.914	800.81
490.132	787.81
490.35	808.81
490.568	826.81
490.786	834.81
491.003	808.81
491.221	797.81
491.439	799.81
491.657	830.81
491.874	827.81
492.092	812.81
492.31	819.81
492.527	818.81
492.745	824.81
492.963	812.81
493.18	837.81
493.398	846.81
493.615	835.81
493.833	835.81
494.05	870.81
494.268	822.81
494.485	831.81
494.703	815.81
494.92	840.81
495.138	843.81
495.355	829.81
495.573	859.81
495.79	864.81
496.008	848.81
496.225	848.81
496.442	848.81
496.66	877.81
496.877	886.81
497.094	884.81
497.312	900.81
497.529	930.81
497.746	947.81
497.963	988.81
498.181	1019.81
498.398	1052.81
498.615	1138.81
498.832	1202.81
499.049	1269.81
499.267	1361.81
499.484	1467.81
499.701	1682.81
499.918	1826.81
500.135	2127.81
500.352	2479.81
500.569	2568.81
500.786	2541.81
501.003	2339.81
501.22	2078.81
