Data from Ni(NO3)2@0.5M.TitratingCurve.Agarose3%dH2O.NegLispCup.LampEnergy10.LIBS07252019_HRD10591_17-58-34-564.txt Node
Date: Thu Jul 25 17:58:34 EDT 2019
User: cochatt
Spectrometer: HR+D1059
Trigger mode: 1
Integration Time (sec): 1.000000E-1
Scans to average: 1
Electric dark correction enabled: true
Nonlinearity correction enabled: false
Boxcar width: 0
XAxis mode: Wavelengths
Number of Pixels in Spectrum: 2048
>>>>>Begin Spectral Data<<<<<
223.165	-14.5
223.4	-14.5
223.635	-14.5
223.869	-12.5
224.104	-20.5
224.338	-1.5
224.573	-12.5
224.808	-8.5
225.042	1.5
225.277	1.5
225.511	-5.5
225.746	-1.5
225.98	-6.5
226.215	13.5
226.449	20.5
226.683	13.5
226.918	7.5
227.152	25.5
227.387	31.5
227.621	25.5
227.856	37.5
228.09	46.5
228.324	49.5
228.559	65.5
228.793	81.5
229.027	124.5
229.262	123.5
229.496	129.5
229.73	125.5
229.964	165.5
230.199	186.5
230.433	198.5
230.667	173.5
230.901	161.5
231.136	149.5
231.37	154.5
231.604	176.5
231.838	186.5
232.072	180.5
232.306	188.5
232.541	174.5
232.775	166.5
233.009	150.5
233.243	162.5
233.477	155.5
233.711	158.5
233.945	161.5
234.179	159.5
234.413	164.5
234.647	152.5
234.881	162.5
235.115	151.5
235.349	157.5
235.583	149.5
235.817	134.5
236.051	137.5
236.285	145.5
236.519	146.5
236.753	160.5
236.987	148.5
237.221	157.5
237.455	158.5
237.689	166.5
237.922	168.5
238.156	167.5
238.39	148.5
238.624	149.5
238.858	160.5
239.091	172.5
239.325	155.5
239.559	175.5
239.793	204.5
240.027	195.5
240.26	183.5
240.494	178.5
240.728	172.5
240.961	180.5
241.195	195.5
241.429	188.5
241.662	192.5
241.896	201.5
242.13	203.5
242.363	182.5
242.597	168.5
242.83	185.5
243.064	202.5
243.298	186.5
243.531	184.5
243.765	195.5
243.998	199.5
244.232	222.5
244.465	207.5
244.699	202.5
244.932	200.5
245.166	200.5
245.399	210.5
245.633	218.5
245.866	210.5
246.099	201.5
246.333	211.5
246.566	224.5
246.8	213.5
247.033	219.5
247.266	208.5
247.5	213.5
247.733	218.5
247.966	221.5
248.2	219.5
248.433	243.5
248.666	217.5
248.899	226.5
249.133	221.5
249.366	236.5
249.599	213.5
249.832	257.5
250.066	252.5
250.299	255.5
250.532	243.5
250.765	232.5
250.998	253.5
251.231	272.5
251.465	288.5
251.698	275.5
251.931	267.5
252.164	263.5
252.397	260.5
252.63	249.5
252.863	261.5
253.096	280.5
253.329	268.5
253.562	264.5
253.795	259.5
254.028	259.5
254.261	260.5
254.494	283.5
254.727	270.5
254.96	283.5
255.193	277.5
255.426	259.5
255.659	302.5
255.892	281.5
256.124	287.5
256.357	291.5
256.59	278.5
256.823	278.5
257.056	294.5
257.289	285.5
257.521	300.5
257.754	307.5
257.987	290.5
258.22	293.5
258.452	314.5
258.685	292.5
258.918	312.5
259.151	316.5
259.383	306.5
259.616	293.5
259.849	326.5
260.081	322.5
260.314	319.5
260.547	320.5
260.779	325.5
261.012	332.5
261.244	335.5
261.477	335.5
261.71	343.5
261.942	354.5
262.175	345.5
262.407	314.5
262.64	321.5
262.872	319.5
263.105	348.5
263.337	342.5
263.57	340.5
263.802	344.5
264.035	339.5
264.267	350.5
264.499	332.5
264.732	360.5
264.964	370.5
265.197	361.5
265.429	340.5
265.661	364.5
265.894	352.5
266.126	370.5
266.358	363.5
266.591	347.5
266.823	362.5
267.055	377.5
267.287	377.5
267.52	371.5
267.752	365.5
267.984	358.5
268.216	376.5
268.448	385.5
268.681	371.5
268.913	386.5
269.145	372.5
269.377	392.5
269.609	388.5
269.841	388.5
270.073	379.5
270.306	376.5
270.538	401.5
270.77	395.5
271.002	383.5
271.234	370.5
271.466	405.5
271.698	399.5
271.93	397.5
272.162	386.5
272.394	396.5
272.626	383.5
272.858	397.5
273.09	407.5
273.322	415.5
273.553	404.5
273.785	403.5
274.017	386.5
274.249	415.5
274.481	415.5
274.713	414.5
274.945	405.5
275.176	406.5
275.408	386.5
275.64	424.5
275.872	422.5
276.104	425.5
276.335	428.5
276.567	416.5
276.799	423.5
277.031	435.5
277.262	439.5
277.494	456.5
277.726	442.5
277.957	451.5
278.189	458.5
278.421	422.5
278.652	457.5
278.884	441.5
279.115	434.5
279.347	441.5
279.579	454.5
279.81	462.5
280.042	439.5
280.273	454.5
280.505	449.5
280.736	454.5
280.968	462.5
281.199	452.5
281.431	460.5
281.662	438.5
281.894	442.5
282.125	464.5
282.356	471.5
282.588	470.5
282.819	460.5
283.051	458.5
283.282	459.5
283.513	479.5
283.745	473.5
283.976	472.5
284.207	486.5
284.439	464.5
284.67	474.5
284.901	490.5
285.132	487.5
285.364	481.5
285.595	498.5
285.826	471.5
286.057	495.5
286.288	494.5
286.52	485.5
286.751	498.5
286.982	477.5
287.213	483.5
287.444	485.5
287.675	502.5
287.906	505.5
288.138	488.5
288.369	495.5
288.6	517.5
288.831	490.5
289.062	498.5
289.293	489.5
289.524	499.5
289.755	505.5
289.986	520.5
290.217	524.5
290.448	502.5
290.679	499.5
290.91	538.5
291.141	509.5
291.371	513.5
291.602	499.5
291.833	513.5
292.064	519.5
292.295	485.5
292.526	509.5
292.757	519.5
292.987	522.5
293.218	517.5
293.449	507.5
293.68	545.5
293.91	511.5
294.141	507.5
294.372	525.5
294.603	543.5
294.833	535.5
295.064	507.5
295.295	525.5
295.525	505.5
295.756	534.5
295.987	520.5
296.217	550.5
296.448	547.5
296.679	534.5
296.909	522.5
297.14	519.5
297.37	563.5
297.601	556.5
297.831	569.5
298.062	546.5
298.292	534.5
298.523	568.5
298.753	553.5
298.984	557.5
299.214	572.5
299.445	554.5
299.675	576.5
299.905	561.5
300.136	573.5
300.366	582.5
300.597	610.5
300.827	585.5
301.057	584.5
301.288	582.5
301.518	581.5
301.748	597.5
301.979	593.5
302.209	589.5
302.439	587.5
302.669	562.5
302.9	569.5
303.13	569.5
303.36	598.5
303.59	603.5
303.82	607.5
304.051	610.5
304.281	611.5
304.511	618.5
304.741	629.5
304.971	602.5
305.201	625.5
305.431	641.5
305.661	630.5
305.891	630.5
306.121	602.5
306.352	593.5
306.582	592.5
306.812	582.5
307.042	573.5
307.272	593.5
307.502	590.5
307.731	610.5
307.961	585.5
308.191	586.5
308.421	598.5
308.651	582.5
308.881	588.5
309.111	568.5
309.341	614.5
309.571	622.5
309.8	622.5
310.03	648.5
310.26	656.5
310.49	665.5
310.72	626.5
310.949	628.5
311.179	619.5
311.409	614.5
311.639	629.5
311.868	633.5
312.098	635.5
312.328	653.5
312.557	643.5
312.787	638.5
313.017	637.5
313.246	654.5
313.476	643.5
313.706	685.5
313.935	657.5
314.165	659.5
314.394	650.5
314.624	639.5
314.853	665.5
315.083	639.5
315.312	633.5
315.542	635.5
315.771	662.5
316.001	666.5
316.23	667.5
316.46	687.5
316.689	689.5
316.919	670.5
317.148	686.5
317.377	679.5
317.607	671.5
317.836	686.5
318.065	669.5
318.295	690.5
318.524	684.5
318.753	676.5
318.983	679.5
319.212	668.5
319.441	695.5
319.67	675.5
319.9	687.5
320.129	678.5
320.358	699.5
320.587	687.5
320.816	680.5
321.046	686.5
321.275	686.5
321.504	685.5
321.733	718.5
321.962	705.5
322.191	715.5
322.42	711.5
322.649	701.5
322.878	749.5
323.108	733.5
323.337	702.5
323.566	694.5
323.795	720.5
324.024	764.5
324.253	725.5
324.482	729.5
324.71	706.5
324.939	755.5
325.168	726.5
325.397	741.5
325.626	736.5
325.855	727.5
326.084	743.5
326.313	759.5
326.542	741.5
326.77	767.5
326.999	741.5
327.228	727.5
327.457	742.5
327.686	771.5
327.914	774.5
328.143	781.5
328.372	778.5
328.6	757.5
328.829	756.5
329.058	774.5
329.287	790.5
329.515	753.5
329.744	769.5
329.972	773.5
330.201	754.5
330.43	807.5
330.658	787.5
330.887	796.5
331.115	803.5
331.344	798.5
331.572	781.5
331.801	805.5
332.03	838.5
332.258	812.5
332.486	823.5
332.715	826.5
332.943	823.5
333.172	838.5
333.4	855.5
333.629	831.5
333.857	861.5
334.085	888.5
334.314	854.5
334.542	850.5
334.771	885.5
334.999	885.5
335.227	886.5
335.455	881.5
335.684	900.5
335.912	904.5
336.14	894.5
336.369	915.5
336.597	912.5
336.825	916.5
337.053	926.5
337.281	893.5
337.51	897.5
337.738	908.5
337.966	903.5
338.194	935.5
338.422	891.5
338.65	871.5
338.878	875.5
339.106	883.5
339.334	901.5
339.562	889.5
339.79	849.5
340.018	850.5
340.246	837.5
340.474	830.5
340.702	849.5
340.93	822.5
341.158	865.5
341.386	874.5
341.614	903.5
341.842	909.5
342.07	871.5
342.298	884.5
342.526	871.5
342.754	858.5
342.981	851.5
343.209	860.5
343.437	880.5
343.665	909.5
343.893	893.5
344.12	892.5
344.348	925.5
344.576	907.5
344.804	873.5
345.031	877.5
345.259	868.5
345.487	881.5
345.714	887.5
345.942	904.5
346.17	917.5
346.397	890.5
346.625	833.5
346.853	843.5
347.08	788.5
347.308	819.5
347.535	861.5
347.763	807.5
347.99	818.5
348.218	814.5
348.445	833.5
348.673	805.5
348.9	838.5
349.128	839.5
349.355	831.5
349.583	881.5
349.81	828.5
350.037	783.5
350.265	813.5
350.492	812.5
350.72	794.5
350.947	816.5
351.174	803.5
351.402	882.5
351.629	868.5
351.856	853.5
352.083	837.5
352.311	875.5
352.538	877.5
352.765	876.5
352.992	813.5
353.22	788.5
353.447	758.5
353.674	787.5
353.901	812.5
354.128	792.5
354.355	790.5
354.583	801.5
354.81	802.5
355.037	786.5
355.264	809.5
355.491	791.5
355.718	789.5
355.945	781.5
356.172	791.5
356.399	799.5
356.626	813.5
356.853	866.5
357.08	837.5
357.307	829.5
357.534	792.5
357.761	787.5
357.988	819.5
358.215	777.5
358.441	786.5
358.668	783.5
358.895	809.5
359.122	789.5
359.349	792.5
359.576	818.5
359.802	791.5
360.029	805.5
360.256	796.5
360.483	804.5
360.709	808.5
360.936	831.5
361.163	809.5
361.39	824.5
361.616	810.5
361.843	841.5
362.07	867.5
362.296	858.5
362.523	814.5
362.749	792.5
362.976	815.5
363.203	800.5
363.429	801.5
363.656	808.5
363.882	799.5
364.109	804.5
364.335	799.5
364.562	797.5
364.788	782.5
365.015	794.5
365.241	780.5
365.468	812.5
365.694	788.5
365.92	805.5
366.147	810.5
366.373	793.5
366.599	808.5
366.826	821.5
367.052	797.5
367.278	834.5
367.505	823.5
367.731	796.5
367.957	811.5
368.184	806.5
368.41	823.5
368.636	835.5
368.862	822.5
369.089	834.5
369.315	808.5
369.541	847.5
369.767	837.5
369.993	844.5
370.219	824.5
370.445	833.5
370.672	836.5
370.898	865.5
371.124	841.5
371.35	849.5
371.576	856.5
371.802	858.5
372.028	865.5
372.254	830.5
372.48	870.5
372.706	870.5
372.932	868.5
373.158	870.5
373.384	878.5
373.61	867.5
373.835	862.5
374.061	864.5
374.287	886.5
374.513	891.5
374.739	881.5
374.965	882.5
375.191	853.5
375.416	882.5
375.642	869.5
375.868	878.5
376.094	870.5
376.319	850.5
376.545	858.5
376.771	839.5
376.997	861.5
377.222	849.5
377.448	847.5
377.674	862.5
377.899	862.5
378.125	834.5
378.35	855.5
378.576	838.5
378.802	836.5
379.027	820.5
379.253	858.5
379.478	860.5
379.704	843.5
379.929	832.5
380.155	855.5
380.38	836.5
380.606	855.5
380.831	853.5
381.057	841.5
381.282	837.5
381.507	854.5
381.733	862.5
381.958	851.5
382.184	845.5
382.409	867.5
382.634	884.5
382.86	881.5
383.085	883.5
383.31	892.5
383.535	893.5
383.761	894.5
383.986	900.5
384.211	911.5
384.436	908.5
384.662	913.5
384.887	947.5
385.112	917.5
385.337	927.5
385.562	941.5
385.787	946.5
386.013	974.5
386.238	936.5
386.463	965.5
386.688	908.5
386.913	921.5
387.138	926.5
387.363	960.5
387.588	940.5
387.813	963.5
388.038	947.5
388.263	966.5
388.488	937.5
388.713	950.5
388.938	947.5
389.163	946.5
389.387	952.5
389.612	942.5
389.837	966.5
390.062	950.5
390.287	981.5
390.512	959.5
390.736	969.5
390.961	960.5
391.186	970.5
391.411	957.5
391.636	1006.5
391.86	993.5
392.085	974.5
392.31	1020.5
392.534	1013.5
392.759	1031.5
392.984	995.5
393.208	993.5
393.433	1030.5
393.658	1014.5
393.882	991.5
394.107	1002.5
394.331	1021.5
394.556	999.5
394.78	1001.5
395.005	1004.5
395.229	1017.5
395.454	1057.5
395.678	1031.5
395.903	1022.5
396.127	1025.5
396.352	1059.5
396.576	1023.5
396.801	1004.5
397.025	1036.5
397.249	1054.5
397.474	1051.5
397.698	1064.5
397.922	1101.5
398.147	1049.5
398.371	1095.5
398.595	1118.5
398.82	1091.5
399.044	1161.5
399.268	1173.5
399.492	1220.5
399.717	1262.5
399.941	1250.5
400.165	1233.5
400.389	1206.5
400.613	1187.5
400.837	1164.5
401.062	1157.5
401.286	1162.5
401.51	1151.5
401.734	1133.5
401.958	1135.5
402.182	1104.5
402.406	1092.5
402.63	1109.5
402.854	1088.5
403.078	1145.5
403.302	1123.5
403.526	1132.5
403.75	1132.5
403.974	1134.5
404.198	1127.5
404.422	1139.5
404.645	1128.5
404.869	1147.5
405.093	1132.5
405.317	1145.5
405.541	1179.5
405.765	1166.5
405.988	1157.5
406.212	1170.5
406.436	1213.5
406.66	1198.5
406.883	1205.5
407.107	1247.5
407.331	1254.5
407.555	1217.5
407.778	1271.5
408.002	1246.5
408.226	1207.5
408.449	1256.5
408.673	1228.5
408.896	1177.5
409.12	1214.5
409.344	1215.5
409.567	1202.5
409.791	1221.5
410.014	1220.5
410.238	1182.5
410.461	1167.5
410.685	1209.5
410.908	1218.5
411.132	1129.5
411.355	1185.5
411.578	1146.5
411.802	1167.5
412.025	1161.5
412.249	1176.5
412.472	1153.5
412.695	1133.5
412.919	1150.5
413.142	1156.5
413.365	1152.5
413.589	1139.5
413.812	1119.5
414.035	1109.5
414.258	1110.5
414.482	1130.5
414.705	1117.5
414.928	1124.5
415.151	1137.5
415.374	1131.5
415.597	1115.5
415.821	1103.5
416.044	1074.5
416.267	1091.5
416.49	1110.5
416.713	1089.5
416.936	1082.5
417.159	1096.5
417.382	1080.5
417.605	1107.5
417.828	1093.5
418.051	1073.5
418.274	1074.5
418.497	1079.5
418.72	1083.5
418.943	1083.5
419.166	1099.5
419.389	1197.5
419.611	1177.5
419.834	1158.5
420.057	1129.5
420.28	1109.5
420.503	1043.5
420.726	1077.5
420.948	1055.5
421.171	1099.5
421.394	1095.5
421.617	1055.5
421.839	1106.5
422.062	1094.5
422.285	1026.5
422.507	1051.5
422.73	1040.5
422.953	1060.5
423.175	1066.5
423.398	1081.5
423.621	1074.5
423.843	1084.5
424.066	1077.5
424.288	1088.5
424.511	1081.5
424.733	1071.5
424.956	1067.5
425.178	1074.5
425.401	1081.5
425.623	1039.5
425.846	1067.5
426.068	1061.5
426.291	1089.5
426.513	1057.5
426.735	1070.5
426.958	1068.5
427.18	1047.5
427.402	1074.5
427.625	1041.5
427.847	1065.5
428.069	1063.5
428.292	1057.5
428.514	1052.5
428.736	1003.5
428.958	1083.5
429.181	1039.5
429.403	1029.5
429.625	1042.5
429.847	1025.5
430.069	1051.5
430.292	1065.5
430.514	1057.5
430.736	1034.5
430.958	1051.5
431.18	1048.5
431.402	1037.5
431.624	1038.5
431.846	1016.5
432.068	1067.5
432.29	1078.5
432.512	1051.5
432.734	1062.5
432.956	1048.5
433.178	1050.5
433.4	1095.5
433.622	1088.5
433.844	1095.5
434.066	1078.5
434.287	1066.5
434.509	1082.5
434.731	1080.5
434.953	1062.5
435.175	1101.5
435.397	1133.5
435.618	1073.5
435.84	1046.5
436.062	1036.5
436.284	1067.5
436.505	1059.5
436.727	1059.5
436.949	1068.5
437.17	1049.5
437.392	1031.5
437.614	1015.5
437.835	1007.5
438.057	1035.5
438.278	1028.5
438.5	1013.5
438.721	1029.5
438.943	1014.5
439.165	999.5
439.386	1038.5
439.608	1057.5
439.829	1042.5
440.05	1036.5
440.272	1061.5
440.493	1047.5
440.715	1047.5
440.936	1053.5
441.158	1089.5
441.379	1084.5
441.6	1099.5
441.822	1095.5
442.043	1077.5
442.264	1070.5
442.486	1099.5
442.707	1088.5
442.928	1095.5
443.149	1057.5
443.371	1113.5
443.592	1138.5
443.813	1125.5
444.034	1106.5
444.255	1115.5
444.476	1102.5
444.698	1161.5
444.919	1168.5
445.14	1290.5
445.361	1215.5
445.582	1127.5
445.803	1073.5
446.024	1071.5
446.245	1071.5
446.466	1068.5
446.687	1058.5
446.908	1060.5
447.129	1040.5
447.35	1018.5
447.571	1047.5
447.792	988.5
448.013	1015.5
448.234	1010.5
448.455	994.5
448.675	985.5
448.896	991.5
449.117	973.5
449.338	969.5
449.559	982.5
449.779	1023.5
450	981.5
450.221	974.5
450.442	988.5
450.662	966.5
450.883	977.5
451.104	987.5
451.324	964.5
451.545	966.5
451.766	962.5
451.986	952.5
452.207	964.5
452.428	961.5
452.648	955.5
452.869	939.5
453.089	953.5
453.31	966.5
453.53	972.5
453.751	938.5
453.971	952.5
454.192	977.5
454.412	956.5
454.633	967.5
454.853	942.5
455.073	937.5
455.294	945.5
455.514	962.5
455.734	973.5
455.955	986.5
456.175	969.5
456.395	957.5
456.616	916.5
456.836	943.5
457.056	949.5
457.276	903.5
457.497	982.5
457.717	970.5
457.937	963.5
458.157	957.5
458.377	984.5
458.598	999.5
458.818	980.5
459.038	995.5
459.258	1047.5
459.478	1069.5
459.698	1138.5
459.918	1157.5
460.138	1125.5
460.358	1146.5
460.578	1122.5
460.798	1165.5
461.018	1187.5
461.238	1132.5
461.458	1141.5
461.678	1100.5
461.898	1148.5
462.118	1178.5
462.338	1187.5
462.558	1219.5
462.777	1231.5
462.997	1258.5
463.217	1282.5
463.437	1303.5
463.657	1260.5
463.876	1215.5
464.096	1229.5
464.316	1215.5
464.536	1226.5
464.755	1205.5
464.975	1149.5
465.195	1161.5
465.414	1132.5
465.634	1081.5
465.854	1060.5
466.073	1041.5
466.293	1074.5
466.512	1057.5
466.732	1006.5
466.951	1057.5
467.171	1030.5
467.391	1041.5
467.61	1025.5
467.829	1038.5
468.049	1022.5
468.268	1009.5
468.488	992.5
468.707	977.5
468.927	1035.5
469.146	1017.5
469.365	999.5
469.585	1011.5
469.804	1031.5
470.023	1018.5
470.243	994.5
470.462	1014.5
470.681	1023.5
470.901	1046.5
471.12	1022.5
471.339	1004.5
471.558	1017.5
471.777	1038.5
471.997	1029.5
472.216	963.5
472.435	1017.5
472.654	991.5
472.873	1023.5
473.092	1002.5
473.311	972.5
473.53	987.5
473.749	1031.5
473.968	985.5
474.187	994.5
474.406	1021.5
474.625	1079.5
474.844	1009.5
475.063	1018.5
475.282	1030.5
475.501	1043.5
475.72	1033.5
475.939	1062.5
476.158	1073.5
476.377	1061.5
476.596	1033.5
476.814	1054.5
477.033	1039.5
477.252	1042.5
477.471	1131.5
477.69	1108.5
477.908	1135.5
478.127	1173.5
478.346	1148.5
478.564	1151.5
478.783	1156.5
479.002	1191.5
479.22	1236.5
479.439	1230.5
479.658	1183.5
479.876	1205.5
480.095	1207.5
480.313	1229.5
480.532	1186.5
480.751	1164.5
480.969	1179.5
481.188	1137.5
481.406	1168.5
481.624	1161.5
481.843	1149.5
482.061	1158.5
482.28	1173.5
482.498	1150.5
482.717	1186.5
482.935	1173.5
483.153	1223.5
483.372	1216.5
483.59	1259.5
483.808	1207.5
484.027	1183.5
484.245	1187.5
484.463	1210.5
484.681	1205.5
484.9	1174.5
485.118	1204.5
485.336	1201.5
485.554	1210.5
485.772	1191.5
485.99	1215.5
486.209	1226.5
486.427	1193.5
486.645	1197.5
486.863	1187.5
487.081	1217.5
487.299	1202.5
487.517	1219.5
487.735	1232.5
487.953	1256.5
488.171	1246.5
488.389	1254.5
488.607	1236.5
488.825	1209.5
489.043	1215.5
489.261	1225.5
489.479	1236.5
489.696	1203.5
489.914	1204.5
490.132	1207.5
490.35	1260.5
490.568	1222.5
490.786	1236.5
491.003	1228.5
491.221	1281.5
491.439	1227.5
491.657	1254.5
491.874	1275.5
492.092	1269.5
492.31	1278.5
492.527	1230.5
492.745	1269.5
492.963	1263.5
493.18	1274.5
493.398	1249.5
493.615	1297.5
493.833	1274.5
494.05	1285.5
494.268	1283.5
494.485	1287.5
494.703	1295.5
494.92	1325.5
495.138	1290.5
495.355	1315.5
495.573	1321.5
495.79	1309.5
496.008	1348.5
496.225	1342.5
496.442	1378.5
496.66	1372.5
496.877	1386.5
497.094	1372.5
497.312	1421.5
497.529	1421.5
497.746	1432.5
497.963	1462.5
498.181	1502.5
498.398	1502.5
498.615	1555.5
498.832	1596.5
499.049	1615.5
499.267	1683.5
499.484	1764.5
499.701	1831.5
499.918	1884.5
500.135	1947.5
500.352	1996.5
500.569	2037.5
500.786	2027.5
501.003	1998.5
501.22	1934.5
501.437	1844.5
501.654	1857.5
501.871	1726.5
502.088	1659.5
502.305	1643.5
502.522	1631.5
502.739	1578.5
502.956	1559.5
503.172	1482.5
503.389	1476.5
503.606	1425.5
503.823	1455.5
504.04	1411.5
504.256	1402.5
504.473	1357.5
504.69	1354.5
504.907	1326.5
505.123	1290.5
505.34	1323.5
505.557	1255.5
505.773	1237.5
505.99	1223.5
506.207	1215.5
506.423	1200.5
506.64	1182.5
506.856	1204.5
507.073	1175.5
507.289	1181.5
507.506	1146.5
507.722	1145.5
507.939	1149.5
508.155	1151.5
508.372	1153.5
508.588	1127.5
508.805	1118.5
509.021	1120.5
509.238	1125.5
509.454	1113.5
509.67	1097.5
509.887	1082.5
510.103	1094.5
510.319	1087.5
510.536	1063.5
510.752	1083.5
510.968	1049.5
511.184	1045.5
511.401	1054.5
511.617	1075.5
511.833	1060.5
512.049	1040.5
512.265	1022.5
512.481	1053.5
