Data from Ni(NO3)2@0.125M.TitratingCurve.Agarose3%dH2O.NegLispCup.LampEnergy10.LIBS07252019_HRD10591_18-08-26-567.txt Node
Date: Thu Jul 25 18:08:26 EDT 2019
User: cochatt
Spectrometer: HR+D1059
Trigger mode: 1
Integration Time (sec): 1.000000E-1
Scans to average: 1
Electric dark correction enabled: true
Nonlinearity correction enabled: false
Boxcar width: 0
XAxis mode: Wavelengths
Number of Pixels in Spectrum: 2048
>>>>>Begin Spectral Data<<<<<
223.165	-4.81
223.4	-4.81
223.635	-4.81
223.869	-14.81
224.104	-8.81
224.338	-7.81
224.573	-18.81
224.808	-14.81
225.042	-5.81
225.277	4.19
225.511	-9.81
225.746	-4.81
225.98	1.19
226.215	13.19
226.449	13.19
226.683	5.19
226.918	26.19
227.152	27.19
227.387	36.19
227.621	59.19
227.856	43.19
228.09	38.19
228.324	50.19
228.559	57.19
228.793	61.19
229.027	110.19
229.262	87.19
229.496	113.19
229.73	102.19
229.964	101.19
230.199	127.19
230.433	118.19
230.667	124.19
230.901	136.19
231.136	117.19
231.37	118.19
231.604	125.19
231.838	123.19
232.072	138.19
232.306	144.19
232.541	129.19
232.775	124.19
233.009	138.19
233.243	127.19
233.477	122.19
233.711	134.19
233.945	122.19
234.179	127.19
234.413	136.19
234.647	134.19
234.881	123.19
235.115	142.19
235.349	127.19
235.583	125.19
235.817	134.19
236.051	127.19
236.285	134.19
236.519	137.19
236.753	154.19
236.987	141.19
237.221	155.19
237.455	136.19
237.689	143.19
237.922	152.19
238.156	139.19
238.39	142.19
238.624	149.19
238.858	145.19
239.091	144.19
239.325	151.19
239.559	160.19
239.793	173.19
240.027	167.19
240.26	152.19
240.494	154.19
240.728	163.19
240.961	163.19
241.195	162.19
241.429	157.19
241.662	146.19
241.896	167.19
242.13	155.19
242.363	163.19
242.597	174.19
242.83	161.19
243.064	166.19
243.298	177.19
243.531	177.19
243.765	177.19
243.998	170.19
244.232	169.19
244.465	172.19
244.699	167.19
244.932	174.19
245.166	185.19
245.399	191.19
245.633	180.19
245.866	182.19
246.099	183.19
246.333	189.19
246.566	196.19
246.8	178.19
247.033	186.19
247.266	192.19
247.5	202.19
247.733	189.19
247.966	197.19
248.2	194.19
248.433	194.19
248.666	207.19
248.899	215.19
249.133	202.19
249.366	196.19
249.599	193.19
249.832	212.19
250.066	222.19
250.299	204.19
250.532	210.19
250.765	216.19
250.998	241.19
251.231	219.19
251.465	235.19
251.698	233.19
251.931	226.19
252.164	236.19
252.397	219.19
252.63	246.19
252.863	226.19
253.096	238.19
253.329	238.19
253.562	231.19
253.795	233.19
254.028	240.19
254.261	255.19
254.494	238.19
254.727	259.19
254.96	247.19
255.193	244.19
255.426	266.19
255.659	237.19
255.892	254.19
256.124	267.19
256.357	245.19
256.59	244.19
256.823	264.19
257.056	250.19
257.289	263.19
257.521	253.19
257.754	263.19
257.987	275.19
258.22	265.19
258.452	257.19
258.685	270.19
258.918	271.19
259.151	289.19
259.383	274.19
259.616	275.19
259.849	278.19
260.081	273.19
260.314	287.19
260.547	274.19
260.779	289.19
261.012	283.19
261.244	279.19
261.477	284.19
261.71	271.19
261.942	284.19
262.175	283.19
262.407	289.19
262.64	277.19
262.872	278.19
263.105	279.19
263.337	298.19
263.57	275.19
263.802	299.19
264.035	278.19
264.267	287.19
264.499	287.19
264.732	290.19
264.964	305.19
265.197	300.19
265.429	295.19
265.661	310.19
265.894	322.19
266.126	321.19
266.358	299.19
266.591	318.19
266.823	299.19
267.055	325.19
267.287	317.19
267.52	300.19
267.752	305.19
267.984	329.19
268.216	314.19
268.448	317.19
268.681	320.19
268.913	323.19
269.145	315.19
269.377	307.19
269.609	321.19
269.841	318.19
270.073	316.19
270.306	327.19
270.538	323.19
270.77	311.19
271.002	353.19
271.234	327.19
271.466	327.19
271.698	350.19
271.93	328.19
272.162	307.19
272.394	342.19
272.626	335.19
272.858	327.19
273.09	345.19
273.322	330.19
273.553	327.19
273.785	358.19
274.017	353.19
274.249	357.19
274.481	365.19
274.713	356.19
274.945	341.19
275.176	346.19
275.408	357.19
275.64	335.19
275.872	371.19
276.104	379.19
276.335	354.19
276.567	359.19
276.799	354.19
277.031	357.19
277.262	358.19
277.494	358.19
277.726	363.19
277.957	382.19
278.189	362.19
278.421	377.19
278.652	369.19
278.884	366.19
279.115	348.19
279.347	387.19
279.579	369.19
279.81	371.19
280.042	356.19
280.273	366.19
280.505	383.19
280.736	401.19
280.968	380.19
281.199	390.19
281.431	387.19
281.662	406.19
281.894	371.19
282.125	393.19
282.356	424.19
282.588	386.19
282.819	387.19
283.051	406.19
283.282	385.19
283.513	399.19
283.745	413.19
283.976	408.19
284.207	414.19
284.439	405.19
284.67	411.19
284.901	416.19
285.132	403.19
285.364	404.19
285.595	407.19
285.826	414.19
286.057	413.19
286.288	404.19
286.52	411.19
286.751	437.19
286.982	424.19
287.213	430.19
287.444	414.19
287.675	426.19
287.906	435.19
288.138	421.19
288.369	427.19
288.6	415.19
288.831	433.19
289.062	416.19
289.293	446.19
289.524	446.19
289.755	448.19
289.986	447.19
290.217	435.19
290.448	440.19
290.679	446.19
290.91	445.19
291.141	449.19
291.371	434.19
291.602	450.19
291.833	444.19
292.064	442.19
292.295	446.19
292.526	441.19
292.757	445.19
292.987	450.19
293.218	423.19
293.449	462.19
293.68	448.19
293.91	439.19
294.141	440.19
294.372	449.19
294.603	428.19
294.833	459.19
295.064	459.19
295.295	442.19
295.525	425.19
295.756	450.19
295.987	438.19
296.217	470.19
296.448	442.19
296.679	450.19
296.909	458.19
297.14	469.19
297.37	469.19
297.601	482.19
297.831	472.19
298.062	467.19
298.292	484.19
298.523	475.19
298.753	499.19
298.984	488.19
299.214	485.19
299.445	480.19
299.675	469.19
299.905	478.19
300.136	457.19
300.366	484.19
300.597	480.19
300.827	499.19
301.057	513.19
301.288	491.19
301.518	500.19
301.748	483.19
301.979	513.19
302.209	503.19
302.439	495.19
302.669	490.19
302.9	487.19
303.13	491.19
303.36	479.19
303.59	484.19
303.82	482.19
304.051	499.19
304.281	500.19
304.511	469.19
304.741	483.19
304.971	498.19
305.201	499.19
305.431	480.19
305.661	472.19
305.891	483.19
306.121	486.19
306.352	493.19
306.582	484.19
306.812	482.19
307.042	476.19
307.272	483.19
307.502	466.19
307.731	489.19
307.961	491.19
308.191	464.19
308.421	471.19
308.651	500.19
308.881	479.19
309.111	486.19
309.341	484.19
309.571	494.19
309.8	504.19
310.03	505.19
310.26	500.19
310.49	494.19
310.72	511.19
310.949	490.19
311.179	485.19
311.409	522.19
311.639	493.19
311.868	494.19
312.098	503.19
312.328	517.19
312.557	526.19
312.787	516.19
313.017	509.19
313.246	519.19
313.476	521.19
313.706	514.19
313.935	532.19
314.165	542.19
314.394	538.19
314.624	537.19
314.853	536.19
315.083	540.19
315.312	536.19
315.542	563.19
315.771	537.19
316.001	506.19
316.23	525.19
316.46	516.19
316.689	531.19
316.919	502.19
317.148	513.19
317.377	524.19
317.607	515.19
317.836	522.19
318.065	519.19
318.295	511.19
318.524	500.19
318.753	513.19
318.983	519.19
319.212	523.19
319.441	538.19
319.67	519.19
319.9	524.19
320.129	517.19
320.358	532.19
320.587	550.19
320.816	515.19
321.046	516.19
321.275	519.19
321.504	545.19
321.733	544.19
321.962	539.19
322.191	564.19
322.42	549.19
322.649	547.19
322.878	523.19
323.108	535.19
323.337	558.19
323.566	554.19
323.795	565.19
324.024	572.19
324.253	571.19
324.482	563.19
324.71	560.19
324.939	570.19
325.168	571.19
325.397	579.19
325.626	587.19
325.855	598.19
326.084	605.19
326.313	603.19
326.542	584.19
326.77	604.19
326.999	608.19
327.228	583.19
327.457	564.19
327.686	583.19
327.914	589.19
328.143	600.19
328.372	597.19
328.6	594.19
328.829	597.19
329.058	597.19
329.287	617.19
329.515	607.19
329.744	618.19
329.972	594.19
330.201	617.19
330.43	586.19
330.658	606.19
330.887	640.19
331.115	636.19
331.344	620.19
331.572	646.19
331.801	663.19
332.03	677.19
332.258	683.19
332.486	700.19
332.715	729.19
332.943	769.19
333.172	795.19
333.4	806.19
333.629	852.19
333.857	851.19
334.085	812.19
334.314	829.19
334.542	785.19
334.771	777.19
334.999	751.19
335.227	780.19
335.455	779.19
335.684	754.19
335.912	735.19
336.14	725.19
336.369	719.19
336.597	742.19
336.825	744.19
337.053	722.19
337.281	731.19
337.51	731.19
337.738	707.19
337.966	693.19
338.194	695.19
338.422	692.19
338.65	638.19
338.878	659.19
339.106	647.19
339.334	674.19
339.562	658.19
339.79	655.19
340.018	648.19
340.246	637.19
340.474	658.19
340.702	612.19
340.93	637.19
341.158	655.19
341.386	635.19
341.614	657.19
341.842	652.19
342.07	643.19
342.298	635.19
342.526	622.19
342.754	636.19
342.981	642.19
343.209	671.19
343.437	695.19
343.665	747.19
343.893	793.19
344.12	825.19
344.348	754.19
344.576	731.19
344.804	691.19
345.031	687.19
345.259	665.19
345.487	632.19
345.714	629.19
345.942	651.19
346.17	652.19
346.397	639.19
346.625	637.19
346.853	642.19
347.08	620.19
347.308	622.19
347.535	627.19
347.763	641.19
347.99	635.19
348.218	607.19
348.445	613.19
348.673	600.19
348.9	623.19
349.128	610.19
349.355	619.19
349.583	619.19
349.81	601.19
350.037	584.19
350.265	604.19
350.492	605.19
350.72	599.19
350.947	604.19
351.174	586.19
351.402	605.19
351.629	618.19
351.856	617.19
352.083	607.19
352.311	565.19
352.538	601.19
352.765	578.19
352.992	578.19
353.22	578.19
353.447	583.19
353.674	585.19
353.901	583.19
354.128	599.19
354.355	571.19
354.583	606.19
354.81	607.19
355.037	609.19
355.264	627.19
355.491	587.19
355.718	599.19
355.945	607.19
356.172	622.19
356.399	587.19
356.626	617.19
356.853	593.19
357.08	597.19
357.307	597.19
357.534	613.19
357.761	615.19
357.988	605.19
358.215	587.19
358.441	595.19
358.668	606.19
358.895	598.19
359.122	590.19
359.349	586.19
359.576	594.19
359.802	605.19
360.029	577.19
360.256	599.19
360.483	582.19
360.709	566.19
360.936	583.19
361.163	604.19
361.39	592.19
361.616	580.19
361.843	603.19
362.07	586.19
362.296	607.19
362.523	577.19
362.749	581.19
362.976	605.19
363.203	588.19
363.429	573.19
363.656	570.19
363.882	570.19
364.109	621.19
364.335	587.19
364.562	586.19
364.788	596.19
365.015	609.19
365.241	604.19
365.468	580.19
365.694	569.19
365.92	579.19
366.147	562.19
366.373	590.19
366.599	580.19
366.826	546.19
367.052	585.19
367.278	590.19
367.505	589.19
367.731	597.19
367.957	583.19
368.184	605.19
368.41	589.19
368.636	604.19
368.862	597.19
369.089	575.19
369.315	614.19
369.541	576.19
369.767	604.19
369.993	633.19
370.219	637.19
370.445	614.19
370.672	647.19
370.898	641.19
371.124	631.19
371.35	651.19
371.576	645.19
371.802	654.19
372.028	651.19
372.254	635.19
372.48	653.19
372.706	658.19
372.932	667.19
373.158	659.19
373.384	652.19
373.61	643.19
373.835	641.19
374.061	638.19
374.287	651.19
374.513	635.19
374.739	681.19
374.965	678.19
375.191	713.19
375.416	689.19
375.642	687.19
375.868	643.19
376.094	651.19
376.319	653.19
376.545	647.19
376.771	681.19
376.997	665.19
377.222	652.19
377.448	653.19
377.674	636.19
377.899	648.19
378.125	609.19
378.35	625.19
378.576	620.19
378.802	613.19
379.027	606.19
379.253	622.19
379.478	621.19
379.704	633.19
379.929	619.19
380.155	639.19
380.38	622.19
380.606	641.19
380.831	625.19
381.057	641.19
381.282	629.19
381.507	638.19
381.733	634.19
381.958	629.19
382.184	641.19
382.409	668.19
382.634	631.19
382.86	666.19
383.085	669.19
383.31	630.19
383.535	678.19
383.761	727.19
383.986	705.19
384.211	717.19
384.436	723.19
384.662	754.19
384.887	782.19
385.112	774.19
385.337	746.19
385.562	756.19
385.787	743.19
386.013	786.19
386.238	753.19
386.463	754.19
386.688	733.19
386.913	744.19
387.138	766.19
387.363	771.19
387.588	765.19
387.813	725.19
388.038	717.19
388.263	762.19
388.488	742.19
388.713	730.19
388.938	734.19
389.163	726.19
389.387	734.19
389.612	729.19
389.837	731.19
390.062	734.19
390.287	709.19
390.512	699.19
390.736	732.19
390.961	763.19
391.186	784.19
391.411	802.19
391.636	811.19
391.86	846.19
392.085	843.19
392.31	851.19
392.534	825.19
392.759	803.19
392.984	804.19
393.208	818.19
393.433	785.19
393.658	789.19
393.882	783.19
394.107	803.19
394.331	801.19
394.556	806.19
394.78	805.19
395.005	811.19
395.229	820.19
395.454	853.19
395.678	882.19
395.903	862.19
396.127	829.19
396.352	804.19
396.576	805.19
396.801	784.19
397.025	787.19
397.249	819.19
397.474	830.19
397.698	847.19
397.922	849.19
398.147	826.19
398.371	836.19
398.595	887.19
398.82	923.19
399.044	991.19
399.268	1099.19
399.492	1313.19
399.717	1471.19
399.941	1440.19
400.165	1261.19
400.389	1114.19
400.613	1027.19
400.837	1014.19
401.062	948.19
401.286	937.19
401.51	949.19
401.734	939.19
401.958	932.19
402.182	950.19
402.406	965.19
402.63	1009.19
402.854	1019.19
403.078	1046.19
403.302	1053.19
403.526	1084.19
403.75	1086.19
403.974	1121.19
404.198	1092.19
404.422	1134.19
404.645	1150.19
404.869	1091.19
405.093	1109.19
405.317	1082.19
405.541	1068.19
405.765	1047.19
405.988	1033.19
406.212	1062.19
406.436	1015.19
406.66	1042.19
406.883	1070.19
407.107	1140.19
407.331	1212.19
407.555	1266.19
407.778	1253.19
408.002	1214.19
408.226	1190.19
408.449	1112.19
408.673	1098.19
408.896	1079.19
409.12	1070.19
409.344	1059.19
409.567	1083.19
409.791	1097.19
410.014	1102.19
410.238	1068.19
410.461	1079.19
410.685	1043.19
410.908	1041.19
411.132	1004.19
411.355	991.19
411.578	1015.19
411.802	972.19
412.025	967.19
412.249	990.19
412.472	1009.19
412.695	996.19
412.919	932.19
413.142	966.19
413.365	980.19
413.589	976.19
413.812	970.19
414.035	952.19
414.258	941.19
414.482	965.19
414.705	982.19
414.928	984.19
415.151	955.19
415.374	990.19
415.597	950.19
415.821	942.19
416.044	939.19
416.267	940.19
416.49	941.19
416.713	902.19
416.936	935.19
417.159	957.19
417.382	963.19
417.605	938.19
417.828	940.19
418.051	959.19
418.274	964.19
418.497	959.19
418.72	994.19
418.943	998.19
419.166	1092.19
419.389	1095.19
419.611	1089.19
419.834	1048.19
420.057	1009.19
420.28	1002.19
420.503	961.19
420.726	928.19
420.948	955.19
421.171	956.19
421.394	952.19
421.617	942.19
421.839	969.19
422.062	973.19
422.285	954.19
422.507	987.19
422.73	974.19
422.953	984.19
423.175	1043.19
423.398	1015.19
423.621	1019.19
423.843	1049.19
424.066	1041.19
424.288	1040.19
424.511	1002.19
424.733	1000.19
424.956	1004.19
425.178	984.19
425.401	969.19
425.623	980.19
425.846	954.19
426.068	931.19
426.291	926.19
426.513	886.19
426.735	899.19
426.958	901.19
427.18	884.19
427.402	863.19
427.625	874.19
427.847	850.19
428.069	864.19
428.292	867.19
428.514	849.19
428.736	858.19
428.958	843.19
429.181	848.19
429.403	853.19
429.625	846.19
429.847	852.19
430.069	827.19
430.292	847.19
430.514	832.19
430.736	855.19
430.958	849.19
431.18	826.19
431.402	840.19
431.624	877.19
431.846	862.19
432.068	867.19
432.29	879.19
432.512	844.19
432.734	855.19
432.956	837.19
433.178	886.19
433.4	862.19
433.622	874.19
433.844	890.19
434.066	853.19
434.287	874.19
434.509	919.19
434.731	948.19
434.953	973.19
435.175	1018.19
435.397	985.19
435.618	928.19
435.84	897.19
436.062	905.19
436.284	855.19
436.505	873.19
436.727	873.19
436.949	855.19
437.17	883.19
437.392	845.19
437.614	862.19
437.835	829.19
438.057	803.19
438.278	823.19
438.5	849.19
438.721	819.19
438.943	844.19
439.165	835.19
439.386	849.19
439.608	870.19
439.829	869.19
440.05	877.19
440.272	873.19
440.493	898.19
440.715	875.19
440.936	886.19
441.158	934.19
441.379	936.19
441.6	1012.19
441.822	1013.19
442.043	1002.19
442.264	957.19
442.486	945.19
442.707	974.19
442.928	971.19
443.149	964.19
443.371	982.19
443.592	999.19
443.813	977.19
444.034	995.19
444.255	1035.19
444.476	1107.19
444.698	1149.19
444.919	1186.19
445.14	1268.19
445.361	1133.19
445.582	1033.19
445.803	951.19
446.024	929.19
446.245	917.19
446.466	881.19
446.687	871.19
446.908	897.19
447.129	872.19
447.35	851.19
447.571	846.19
447.792	810.19
448.013	848.19
448.234	813.19
448.455	835.19
448.675	811.19
448.896	814.19
449.117	798.19
449.338	803.19
449.559	762.19
449.779	797.19
450	805.19
450.221	787.19
450.442	807.19
450.662	811.19
450.883	836.19
451.104	827.19
451.324	817.19
451.545	838.19
451.766	834.19
451.986	814.19
452.207	787.19
452.428	838.19
452.648	811.19
452.869	796.19
453.089	772.19
453.31	799.19
453.53	778.19
453.751	775.19
453.971	765.19
454.192	808.19
454.412	779.19
454.633	766.19
454.853	787.19
455.073	777.19
455.294	761.19
455.514	742.19
455.734	742.19
455.955	738.19
456.175	741.19
456.395	734.19
456.616	748.19
456.836	746.19
457.056	759.19
457.276	733.19
457.497	762.19
457.717	760.19
457.937	758.19
458.157	770.19
458.377	738.19
458.598	777.19
458.818	811.19
459.038	815.19
459.258	856.19
459.478	878.19
459.698	908.19
459.918	912.19
460.138	988.19
460.358	1011.19
460.578	1056.19
460.798	1049.19
461.018	1049.19
461.238	1032.19
461.458	1022.19
461.678	1044.19
461.898	1034.19
462.118	1037.19
462.338	1095.19
462.558	1122.19
462.777	1155.19
462.997	1290.19
463.217	1412.19
463.437	1430.19
463.657	1281.19
463.876	1249.19
464.096	1199.19
464.316	1193.19
464.536	1213.19
464.755	1169.19
464.975	1130.19
465.195	1053.19
465.414	1011.19
465.634	931.19
465.854	885.19
466.073	886.19
466.293	856.19
466.512	853.19
466.732	859.19
466.951	869.19
467.171	840.19
467.391	839.19
467.61	834.19
467.829	822.19
468.049	836.19
468.268	797.19
468.488	802.19
468.707	804.19
468.927	807.19
469.146	776.19
469.365	805.19
469.585	805.19
469.804	838.19
470.023	852.19
470.243	859.19
470.462	886.19
470.681	887.19
470.901	852.19
471.12	876.19
471.339	846.19
471.558	815.19
471.777	812.19
471.997	787.19
472.216	806.19
472.435	794.19
472.654	779.19
472.873	788.19
473.092	768.19
473.311	753.19
473.53	787.19
473.749	758.19
473.968	793.19
474.187	775.19
474.406	753.19
474.625	785.19
474.844	795.19
475.063	800.19
475.282	795.19
475.501	795.19
475.72	803.19
475.939	819.19
476.158	823.19
476.377	800.19
476.596	798.19
476.814	811.19
477.033	827.19
477.252	842.19
477.471	859.19
477.69	856.19
477.908	885.19
478.127	917.19
478.346	926.19
478.564	938.19
478.783	966.19
479.002	958.19
479.22	986.19
479.439	992.19
479.658	947.19
479.876	988.19
480.095	979.19
480.313	1010.19
480.532	1062.19
480.751	1037.19
480.969	1010.19
481.188	934.19
481.406	936.19
481.624	907.19
481.843	921.19
482.061	888.19
482.28	902.19
482.498	877.19
482.717	879.19
482.935	888.19
483.153	923.19
483.372	897.19
483.59	897.19
483.808	869.19
484.027	892.19
484.245	895.19
484.463	887.19
484.681	902.19
484.9	898.19
485.118	899.19
485.336	948.19
485.554	905.19
485.772	903.19
485.99	952.19
486.209	953.19
486.427	918.19
486.645	951.19
486.863	920.19
487.081	902.19
487.299	902.19
487.517	902.19
487.735	930.19
487.953	931.19
488.171	934.19
488.389	934.19
488.607	946.19
488.825	895.19
489.043	890.19
489.261	912.19
489.479	906.19
489.696	917.19
489.914	942.19
490.132	917.19
490.35	923.19
490.568	945.19
490.786	942.19
491.003	963.19
491.221	946.19
491.439	952.19
491.657	954.19
491.874	939.19
492.092	967.19
492.31	978.19
492.527	988.19
492.745	969.19
492.963	956.19
493.18	971.19
493.398	954.19
493.615	965.19
493.833	991.19
494.05	1006.19
494.268	1023.19
494.485	973.19
494.703	1005.19
494.92	981.19
495.138	972.19
495.355	1004.19
495.573	986.19
495.79	1021.19
496.008	983.19
496.225	1012.19
496.442	1036.19
496.66	1029.19
496.877	1028.19
497.094	1059.19
497.312	1074.19
497.529	1077.19
497.746	1077.19
497.963	1152.19
498.181	1219.19
498.398	1266.19
498.615	1353.19
498.832	1393.19
499.049	1505.19
499.267	1668.19
499.484	1855.19
499.701	2073.19
499.918	2286.19
