Data from Ni(NO3)2@0.5M.TitratingCurve.Agarose3%dH2O.NegLispCup.LampEnergy10.LIBS07252019_HRD10591_17-58-53-564.txt Node
Date: Thu Jul 25 17:58:53 EDT 2019
User: cochatt
Spectrometer: HR+D1059
Trigger mode: 1
Integration Time (sec): 1.000000E-1
Scans to average: 1
Electric dark correction enabled: true
Nonlinearity correction enabled: false
Boxcar width: 0
XAxis mode: Wavelengths
Number of Pixels in Spectrum: 2048
>>>>>Begin Spectral Data<<<<<
223.165	-16.56
223.4	-16.56
223.635	-16.56
223.869	-23.56
224.104	-23.56
224.338	-17.56
224.573	-7.56
224.808	-7.56
225.042	-0.56
225.277	-0.56
225.511	-10.56
225.746	9.44
225.98	3.44
226.215	7.44
226.449	6.44
226.683	20.44
226.918	25.44
227.152	35.44
227.387	35.44
227.621	30.44
227.856	54.44
228.09	44.44
228.324	51.44
228.559	52.44
228.793	51.44
229.027	113.44
229.262	118.44
229.496	102.44
229.73	120.44
229.964	132.44
230.199	147.44
230.433	149.44
230.667	142.44
230.901	136.44
231.136	128.44
231.37	121.44
231.604	136.44
231.838	143.44
232.072	166.44
232.306	138.44
232.541	126.44
232.775	135.44
233.009	122.44
233.243	134.44
233.477	124.44
233.711	119.44
233.945	126.44
234.179	133.44
234.413	127.44
234.647	139.44
234.881	120.44
235.115	131.44
235.349	152.44
235.583	119.44
235.817	121.44
236.051	128.44
236.285	129.44
236.519	135.44
236.753	136.44
236.987	132.44
237.221	133.44
237.455	128.44
237.689	134.44
237.922	144.44
238.156	135.44
238.39	131.44
238.624	131.44
238.858	127.44
239.091	128.44
239.325	140.44
239.559	153.44
239.793	177.44
240.027	158.44
240.26	148.44
240.494	157.44
240.728	145.44
240.961	143.44
241.195	151.44
241.429	137.44
241.662	137.44
241.896	161.44
242.13	153.44
242.363	152.44
242.597	158.44
242.83	131.44
243.064	137.44
243.298	162.44
243.531	148.44
243.765	153.44
243.998	158.44
244.232	155.44
244.465	160.44
244.699	160.44
244.932	159.44
245.166	157.44
245.399	151.44
245.633	160.44
245.866	161.44
246.099	164.44
246.333	160.44
246.566	174.44
246.8	167.44
247.033	154.44
247.266	149.44
247.5	171.44
247.733	168.44
247.966	155.44
248.2	160.44
248.433	166.44
248.666	153.44
248.899	167.44
249.133	160.44
249.366	172.44
249.599	158.44
249.832	174.44
250.066	165.44
250.299	177.44
250.532	172.44
250.765	175.44
250.998	196.44
251.231	193.44
251.465	203.44
251.698	189.44
251.931	188.44
252.164	192.44
252.397	188.44
252.63	188.44
252.863	191.44
253.096	190.44
253.329	193.44
253.562	177.44
253.795	198.44
254.028	195.44
254.261	184.44
254.494	187.44
254.727	194.44
254.96	184.44
255.193	184.44
255.426	197.44
255.659	195.44
255.892	208.44
256.124	206.44
256.357	190.44
256.59	206.44
256.823	210.44
257.056	205.44
257.289	196.44
257.521	221.44
257.754	210.44
257.987	207.44
258.22	209.44
258.452	210.44
258.685	206.44
258.918	216.44
259.151	208.44
259.383	223.44
259.616	207.44
259.849	207.44
260.081	228.44
260.314	216.44
260.547	213.44
260.779	222.44
261.012	231.44
261.244	235.44
261.477	249.44
261.71	224.44
261.942	240.44
262.175	212.44
262.407	222.44
262.64	232.44
262.872	227.44
263.105	234.44
263.337	229.44
263.57	226.44
263.802	231.44
264.035	221.44
264.267	235.44
264.499	229.44
264.732	255.44
264.964	229.44
265.197	258.44
265.429	244.44
265.661	237.44
265.894	246.44
266.126	230.44
266.358	244.44
266.591	224.44
266.823	251.44
267.055	245.44
267.287	266.44
267.52	234.44
267.752	238.44
267.984	245.44
268.216	252.44
268.448	248.44
268.681	247.44
268.913	239.44
269.145	244.44
269.377	257.44
269.609	261.44
269.841	250.44
270.073	248.44
270.306	249.44
270.538	260.44
270.77	253.44
271.002	254.44
271.234	259.44
271.466	237.44
271.698	267.44
271.93	262.44
272.162	256.44
272.394	266.44
272.626	268.44
272.858	246.44
273.09	283.44
273.322	284.44
273.553	286.44
273.785	279.44
274.017	275.44
274.249	269.44
274.481	276.44
274.713	276.44
274.945	271.44
275.176	294.44
275.408	295.44
275.64	287.44
275.872	281.44
276.104	280.44
276.335	271.44
276.567	286.44
276.799	290.44
277.031	293.44
277.262	292.44
277.494	284.44
277.726	281.44
277.957	309.44
278.189	299.44
278.421	283.44
278.652	293.44
278.884	288.44
279.115	310.44
279.347	283.44
279.579	304.44
279.81	299.44
280.042	300.44
280.273	309.44
280.505	287.44
280.736	296.44
280.968	305.44
281.199	303.44
281.431	308.44
281.662	304.44
281.894	300.44
282.125	300.44
282.356	303.44
282.588	326.44
282.819	313.44
283.051	307.44
283.282	315.44
283.513	335.44
283.745	318.44
283.976	299.44
284.207	317.44
284.439	319.44
284.67	311.44
284.901	329.44
285.132	313.44
285.364	327.44
285.595	321.44
285.826	331.44
286.057	319.44
286.288	309.44
286.52	324.44
286.751	341.44
286.982	325.44
287.213	312.44
287.444	336.44
287.675	329.44
287.906	327.44
288.138	340.44
288.369	328.44
288.6	325.44
288.831	319.44
289.062	335.44
289.293	336.44
289.524	323.44
289.755	336.44
289.986	324.44
290.217	344.44
290.448	332.44
290.679	338.44
290.91	329.44
291.141	330.44
291.371	337.44
291.602	351.44
291.833	344.44
292.064	332.44
292.295	328.44
292.526	325.44
292.757	350.44
292.987	331.44
293.218	326.44
293.449	332.44
293.68	334.44
293.91	326.44
294.141	337.44
294.372	327.44
294.603	323.44
294.833	340.44
295.064	349.44
295.295	342.44
295.525	353.44
295.756	345.44
295.987	348.44
296.217	343.44
296.448	343.44
296.679	352.44
296.909	332.44
297.14	346.44
297.37	359.44
297.601	349.44
297.831	351.44
298.062	359.44
298.292	361.44
298.523	374.44
298.753	363.44
298.984	343.44
299.214	351.44
299.445	345.44
299.675	360.44
299.905	356.44
300.136	384.44
300.366	394.44
300.597	412.44
300.827	377.44
301.057	377.44
301.288	388.44
301.518	365.44
301.748	365.44
301.979	379.44
302.209	377.44
302.439	380.44
302.669	388.44
302.9	389.44
303.13	384.44
303.36	397.44
303.59	387.44
303.82	377.44
304.051	388.44
304.281	392.44
304.511	393.44
304.741	386.44
304.971	371.44
305.201	400.44
305.431	389.44
305.661	405.44
305.891	409.44
306.121	400.44
306.352	388.44
306.582	391.44
306.812	377.44
307.042	380.44
307.272	368.44
307.502	385.44
307.731	387.44
307.961	375.44
308.191	375.44
308.421	390.44
308.651	394.44
308.881	390.44
309.111	402.44
309.341	382.44
309.571	392.44
309.8	402.44
310.03	392.44
310.26	429.44
310.49	423.44
310.72	421.44
310.949	377.44
311.179	377.44
311.409	421.44
311.639	394.44
311.868	408.44
312.098	408.44
312.328	408.44
312.557	414.44
312.787	395.44
313.017	407.44
313.246	425.44
313.476	421.44
313.706	417.44
313.935	427.44
314.165	415.44
314.394	416.44
314.624	389.44
314.853	409.44
315.083	422.44
315.312	428.44
315.542	401.44
315.771	432.44
316.001	415.44
316.23	409.44
316.46	424.44
316.689	424.44
316.919	420.44
317.148	408.44
317.377	440.44
317.607	425.44
317.836	415.44
318.065	425.44
318.295	432.44
318.524	453.44
318.753	418.44
318.983	421.44
319.212	406.44
319.441	437.44
319.67	451.44
319.9	419.44
320.129	436.44
320.358	432.44
320.587	430.44
320.816	430.44
321.046	462.44
321.275	449.44
321.504	428.44
321.733	443.44
321.962	444.44
322.191	441.44
322.42	446.44
322.649	435.44
322.878	439.44
323.108	461.44
323.337	454.44
323.566	453.44
323.795	425.44
324.024	464.44
324.253	461.44
324.482	464.44
324.71	455.44
324.939	453.44
325.168	475.44
325.397	464.44
325.626	460.44
325.855	462.44
326.084	465.44
326.313	466.44
326.542	467.44
326.77	469.44
326.999	473.44
327.228	463.44
327.457	474.44
327.686	473.44
327.914	485.44
328.143	486.44
328.372	471.44
328.6	486.44
328.829	482.44
329.058	480.44
329.287	479.44
329.515	483.44
329.744	477.44
329.972	489.44
330.201	483.44
330.43	476.44
330.658	482.44
330.887	500.44
331.115	480.44
331.344	476.44
331.572	508.44
331.801	496.44
332.03	491.44
332.258	529.44
332.486	539.44
332.715	533.44
332.943	537.44
333.172	549.44
333.4	567.44
333.629	539.44
333.857	569.44
334.085	549.44
334.314	581.44
334.542	548.44
334.771	568.44
334.999	567.44
335.227	549.44
335.455	543.44
335.684	549.44
335.912	536.44
336.14	539.44
336.369	557.44
336.597	580.44
336.825	565.44
337.053	547.44
337.281	565.44
337.51	539.44
337.738	544.44
337.966	543.44
338.194	542.44
338.422	548.44
338.65	527.44
338.878	536.44
339.106	540.44
339.334	544.44
339.562	518.44
339.79	521.44
340.018	506.44
340.246	513.44
340.474	529.44
340.702	507.44
340.93	513.44
341.158	536.44
341.386	554.44
341.614	565.44
341.842	545.44
342.07	526.44
342.298	496.44
342.526	543.44
342.754	535.44
342.981	506.44
343.209	507.44
343.437	552.44
343.665	564.44
343.893	555.44
344.12	560.44
344.348	569.44
344.576	559.44
344.804	555.44
345.031	545.44
345.259	547.44
345.487	525.44
345.714	540.44
345.942	547.44
346.17	537.44
346.397	528.44
346.625	539.44
346.853	524.44
347.08	512.44
347.308	503.44
347.535	504.44
347.763	482.44
347.99	505.44
348.218	483.44
348.445	505.44
348.673	500.44
348.9	496.44
349.128	528.44
349.355	522.44
349.583	502.44
349.81	503.44
350.037	472.44
350.265	488.44
350.492	501.44
350.72	493.44
350.947	488.44
351.174	521.44
351.402	528.44
351.629	536.44
351.856	545.44
352.083	521.44
352.311	532.44
352.538	542.44
352.765	563.44
352.992	501.44
353.22	493.44
353.447	460.44
353.674	483.44
353.901	490.44
354.128	470.44
354.355	494.44
354.583	465.44
354.81	474.44
355.037	489.44
355.264	477.44
355.491	490.44
355.718	476.44
355.945	501.44
356.172	519.44
356.399	501.44
356.626	493.44
356.853	535.44
357.08	513.44
357.307	489.44
357.534	483.44
357.761	478.44
357.988	499.44
358.215	502.44
358.441	493.44
358.668	490.44
358.895	486.44
359.122	504.44
359.349	495.44
359.576	487.44
359.802	497.44
360.029	490.44
360.256	490.44
360.483	473.44
360.709	486.44
360.936	476.44
361.163	501.44
361.39	492.44
361.616	501.44
361.843	504.44
362.07	524.44
362.296	539.44
362.523	485.44
362.749	493.44
362.976	486.44
363.203	491.44
363.429	494.44
363.656	479.44
363.882	506.44
364.109	487.44
364.335	484.44
364.562	476.44
364.788	496.44
365.015	501.44
365.241	477.44
365.468	505.44
365.694	519.44
365.92	502.44
366.147	480.44
366.373	497.44
366.599	485.44
366.826	508.44
367.052	488.44
367.278	481.44
367.505	496.44
367.731	514.44
367.957	496.44
368.184	474.44
368.41	503.44
368.636	492.44
368.862	500.44
369.089	522.44
369.315	533.44
369.541	486.44
369.767	522.44
369.993	513.44
370.219	508.44
370.445	536.44
370.672	530.44
370.898	527.44
371.124	515.44
371.35	519.44
371.576	524.44
371.802	527.44
372.028	500.44
372.254	543.44
372.48	540.44
372.706	549.44
372.932	525.44
373.158	538.44
373.384	541.44
373.61	526.44
373.835	533.44
374.061	530.44
374.287	533.44
374.513	547.44
374.739	533.44
374.965	560.44
375.191	568.44
375.416	547.44
375.642	549.44
375.868	548.44
376.094	524.44
376.319	541.44
376.545	535.44
376.771	539.44
376.997	518.44
377.222	517.44
377.448	524.44
377.674	526.44
377.899	517.44
378.125	518.44
378.35	535.44
378.576	524.44
378.802	512.44
379.027	537.44
379.253	514.44
379.478	515.44
379.704	501.44
379.929	520.44
380.155	531.44
380.38	521.44
380.606	544.44
380.831	517.44
381.057	535.44
381.282	510.44
381.507	530.44
381.733	513.44
381.958	535.44
382.184	524.44
382.409	543.44
382.634	525.44
382.86	545.44
383.085	547.44
383.31	558.44
383.535	554.44
383.761	556.44
383.986	548.44
384.211	554.44
384.436	557.44
384.662	573.44
384.887	559.44
385.112	569.44
385.337	569.44
385.562	575.44
385.787	584.44
386.013	629.44
386.238	588.44
386.463	590.44
386.688	610.44
386.913	569.44
387.138	584.44
387.363	572.44
387.588	585.44
387.813	573.44
388.038	589.44
388.263	592.44
388.488	610.44
388.713	583.44
388.938	567.44
389.163	598.44
389.387	611.44
389.612	574.44
389.837	593.44
390.062	575.44
390.287	597.44
390.512	597.44
390.736	613.44
390.961	615.44
391.186	617.44
391.411	633.44
391.636	603.44
391.86	628.44
392.085	625.44
392.31	643.44
392.534	635.44
392.759	623.44
392.984	597.44
393.208	612.44
393.433	618.44
393.658	624.44
393.882	618.44
394.107	641.44
394.331	609.44
394.556	616.44
394.78	615.44
395.005	623.44
395.229	614.44
395.454	615.44
395.678	635.44
395.903	637.44
396.127	625.44
396.352	619.44
396.576	616.44
396.801	619.44
397.025	637.44
397.249	647.44
397.474	655.44
397.698	633.44
397.922	665.44
398.147	669.44
398.371	668.44
398.595	684.44
398.82	711.44
399.044	718.44
399.268	732.44
399.492	728.44
399.717	792.44
399.941	792.44
400.165	761.44
400.389	748.44
400.613	709.44
400.837	717.44
401.062	732.44
401.286	709.44
401.51	702.44
401.734	699.44
401.958	686.44
402.182	703.44
402.406	693.44
402.63	707.44
402.854	683.44
403.078	714.44
403.302	684.44
403.526	717.44
403.75	696.44
403.974	703.44
404.198	711.44
404.422	701.44
404.645	687.44
404.869	709.44
405.093	714.44
405.317	719.44
405.541	743.44
405.765	731.44
405.988	738.44
406.212	707.44
406.436	744.44
406.66	765.44
406.883	755.44
407.107	766.44
407.331	777.44
407.555	783.44
407.778	781.44
408.002	789.44
408.226	795.44
408.449	780.44
408.673	751.44
408.896	733.44
409.12	758.44
409.344	739.44
409.567	753.44
409.791	732.44
410.014	732.44
410.238	750.44
410.461	721.44
410.685	735.44
410.908	737.44
411.132	710.44
411.355	721.44
411.578	735.44
411.802	721.44
412.025	708.44
412.249	713.44
412.472	719.44
412.695	704.44
412.919	704.44
413.142	683.44
413.365	732.44
413.589	727.44
413.812	711.44
414.035	688.44
414.258	710.44
414.482	699.44
414.705	718.44
414.928	694.44
415.151	687.44
415.374	674.44
415.597	687.44
415.821	678.44
416.044	673.44
416.267	682.44
416.49	695.44
416.713	691.44
416.936	698.44
417.159	673.44
417.382	666.44
417.605	669.44
417.828	696.44
418.051	693.44
418.274	689.44
418.497	693.44
418.72	687.44
418.943	668.44
419.166	708.44
419.389	765.44
419.611	731.44
419.834	736.44
420.057	720.44
420.28	687.44
420.503	685.44
420.726	644.44
420.948	671.44
421.171	653.44
421.394	679.44
421.617	669.44
421.839	673.44
422.062	675.44
422.285	669.44
422.507	679.44
422.73	690.44
422.953	699.44
423.175	683.44
423.398	680.44
423.621	666.44
423.843	673.44
424.066	675.44
424.288	654.44
424.511	686.44
424.733	684.44
424.956	656.44
425.178	682.44
425.401	683.44
425.623	649.44
425.846	667.44
426.068	669.44
426.291	664.44
426.513	675.44
426.735	681.44
426.958	672.44
427.18	637.44
427.402	660.44
427.625	684.44
427.847	655.44
428.069	639.44
428.292	651.44
428.514	641.44
428.736	641.44
428.958	648.44
429.181	641.44
429.403	653.44
429.625	662.44
429.847	638.44
430.069	651.44
430.292	678.44
430.514	634.44
430.736	661.44
430.958	627.44
431.18	659.44
431.402	652.44
431.624	641.44
431.846	654.44
432.068	665.44
432.29	652.44
432.512	655.44
432.734	685.44
432.956	649.44
433.178	680.44
433.4	703.44
433.622	702.44
433.844	673.44
434.066	677.44
434.287	688.44
434.509	676.44
434.731	679.44
434.953	683.44
435.175	703.44
435.397	703.44
435.618	709.44
435.84	688.44
436.062	671.44
436.284	669.44
436.505	684.44
436.727	670.44
436.949	661.44
437.17	672.44
437.392	665.44
437.614	667.44
437.835	624.44
438.057	654.44
438.278	622.44
438.5	639.44
438.721	643.44
438.943	643.44
439.165	647.44
439.386	633.44
439.608	637.44
439.829	644.44
440.05	643.44
440.272	680.44
440.493	663.44
440.715	653.44
440.936	678.44
441.158	683.44
441.379	684.44
441.6	697.44
441.822	714.44
442.043	721.44
442.264	685.44
442.486	679.44
442.707	682.44
442.928	677.44
443.149	692.44
443.371	725.44
443.592	747.44
443.813	742.44
444.034	699.44
444.255	716.44
444.476	701.44
444.698	751.44
444.919	781.44
445.14	863.44
445.361	801.44
445.582	740.44
445.803	677.44
446.024	689.44
446.245	663.44
446.466	678.44
446.687	653.44
446.908	685.44
447.129	630.44
447.35	642.44
447.571	632.44
447.792	609.44
448.013	614.44
448.234	621.44
448.455	604.44
448.675	611.44
448.896	589.44
449.117	619.44
449.338	628.44
449.559	607.44
449.779	596.44
450	611.44
450.221	608.44
450.442	602.44
450.662	619.44
450.883	614.44
451.104	642.44
451.324	619.44
451.545	613.44
451.766	603.44
451.986	588.44
452.207	639.44
452.428	590.44
452.648	582.44
452.869	600.44
453.089	586.44
453.31	611.44
453.53	585.44
453.751	574.44
453.971	576.44
454.192	594.44
454.412	633.44
454.633	593.44
454.853	584.44
455.073	596.44
455.294	604.44
455.514	590.44
455.734	632.44
455.955	609.44
456.175	631.44
456.395	567.44
456.616	598.44
456.836	591.44
457.056	600.44
457.276	575.44
457.497	591.44
457.717	617.44
457.937	619.44
458.157	601.44
458.377	609.44
458.598	599.44
458.818	619.44
459.038	591.44
459.258	632.44
459.478	683.44
459.698	721.44
459.918	729.44
460.138	696.44
460.358	697.44
460.578	712.44
460.798	736.44
461.018	727.44
461.238	698.44
461.458	724.44
461.678	692.44
461.898	708.44
462.118	728.44
462.338	737.44
462.558	761.44
462.777	797.44
462.997	816.44
463.217	824.44
463.437	828.44
463.657	817.44
463.876	801.44
464.096	781.44
464.316	763.44
464.536	778.44
464.755	739.44
464.975	732.44
465.195	715.44
465.414	717.44
465.634	689.44
465.854	661.44
466.073	649.44
466.293	643.44
466.512	670.44
466.732	659.44
466.951	651.44
467.171	657.44
467.391	639.44
467.61	659.44
467.829	631.44
468.049	638.44
468.268	636.44
468.488	640.44
468.707	628.44
468.927	614.44
469.146	630.44
469.365	633.44
469.585	639.44
469.804	629.44
470.023	653.44
470.243	630.44
470.462	641.44
470.681	646.44
470.901	666.44
471.12	665.44
471.339	648.44
471.558	657.44
471.777	644.44
471.997	646.44
472.216	619.44
472.435	615.44
472.654	624.44
472.873	609.44
473.092	601.44
473.311	613.44
473.53	637.44
473.749	627.44
473.968	620.44
474.187	623.44
474.406	636.44
474.625	630.44
474.844	621.44
475.063	639.44
475.282	635.44
475.501	643.44
475.72	636.44
475.939	657.44
476.158	676.44
476.377	635.44
476.596	646.44
476.814	641.44
477.033	675.44
477.252	688.44
477.471	681.44
477.69	703.44
477.908	697.44
478.127	693.44
478.346	703.44
478.564	726.44
478.783	741.44
479.002	774.44
479.22	780.44
479.439	748.44
479.658	751.44
479.876	719.44
480.095	720.44
480.313	733.44
480.532	719.44
480.751	728.44
480.969	732.44
481.188	734.44
481.406	756.44
481.624	720.44
481.843	707.44
482.061	722.44
482.28	714.44
482.498	714.44
482.717	701.44
482.935	728.44
483.153	715.44
483.372	760.44
483.59	767.44
483.808	748.44
484.027	731.44
484.245	720.44
484.463	730.44
484.681	759.44
484.9	760.44
485.118	744.44
485.336	721.44
485.554	747.44
485.772	756.44
485.99	734.44
486.209	747.44
486.427	734.44
486.645	757.44
486.863	749.44
487.081	751.44
487.299	764.44
487.517	757.44
487.735	765.44
487.953	772.44
488.171	763.44
488.389	752.44
488.607	773.44
488.825	757.44
489.043	755.44
489.261	737.44
489.479	767.44
489.696	734.44
489.914	742.44
490.132	739.44
490.35	772.44
490.568	778.44
490.786	781.44
491.003	788.44
491.221	771.44
491.439	792.44
491.657	794.44
491.874	770.44
492.092	786.44
492.31	782.44
492.527	784.44
492.745	772.44
492.963	782.44
493.18	791.44
493.398	797.44
493.615	772.44
493.833	805.44
494.05	792.44
494.268	761.44
494.485	798.44
494.703	808.44
494.92	803.44
495.138	817.44
495.355	818.44
495.573	793.44
495.79	810.44
496.008	789.44
496.225	813.44
496.442	821.44
496.66	805.44
496.877	807.44
497.094	831.44
497.312	839.44
497.529	842.44
497.746	847.44
497.963	889.44
498.181	880.44
498.398	925.44
498.615	968.44
498.832	987.44
499.049	1008.44
499.267	1038.44
499.484	1081.44
499.701	1139.44
499.918	1204.44
500.135	1283.44
500.352	1296.44
500.569	1343.44
500.786	1360.44
501.003	1281.44
501.22	1248.44
501.437	1200.44
