Data from Ni(NO3)2@0.125M.TitratingCurve.Agarose3%dH2O.NegLispCup.LampEnergy10.LIBS07252019_HRD10591_18-09-08-567.txt Node
Date: Thu Jul 25 18:09:08 EDT 2019
User: cochatt
Spectrometer: HR+D1059
Trigger mode: 1
Integration Time (sec): 1.000000E-1
Scans to average: 1
Electric dark correction enabled: true
Nonlinearity correction enabled: false
Boxcar width: 0
XAxis mode: Wavelengths
Number of Pixels in Spectrum: 2048
>>>>>Begin Spectral Data<<<<<
223.165	-12
223.4	-12
223.635	-12
223.869	-21
224.104	-17
224.338	-22
224.573	-16
224.808	-16
225.042	3
225.277	-8
225.511	-11
225.746	14
225.98	2
226.215	3
226.449	17
226.683	20
226.918	34
227.152	30
227.387	46
227.621	28
227.856	55
228.09	32
228.324	52
228.559	52
228.793	69
229.027	115
229.262	123
229.496	121
229.73	122
229.964	138
230.199	123
230.433	130
230.667	138
230.901	145
231.136	140
231.37	142
231.604	141
231.838	153
232.072	166
232.306	163
232.541	155
232.775	150
233.009	152
233.243	150
233.477	144
233.711	151
233.945	168
234.179	153
234.413	150
234.647	156
234.881	162
235.115	166
235.349	174
235.583	153
235.817	157
236.051	157
236.285	148
236.519	146
236.753	168
236.987	159
237.221	158
237.455	150
237.689	178
237.922	181
238.156	176
238.39	166
238.624	170
238.858	188
239.091	170
239.325	187
239.559	197
239.793	196
240.027	170
240.26	182
240.494	186
240.728	189
240.961	197
241.195	195
241.429	187
241.662	193
241.896	186
242.13	186
242.363	202
242.597	204
242.83	218
243.064	232
243.298	220
243.531	214
243.765	235
243.998	215
244.232	229
244.465	222
244.699	225
244.932	225
245.166	235
245.399	219
245.633	225
245.866	247
246.099	227
246.333	239
246.566	231
246.8	226
247.033	234
247.266	236
247.5	247
247.733	254
247.966	254
248.2	247
248.433	252
248.666	237
248.899	246
249.133	256
249.366	253
249.599	249
249.832	267
250.066	271
250.299	263
250.532	287
250.765	270
250.998	268
251.231	272
251.465	286
251.698	299
251.931	288
252.164	294
252.397	300
252.63	296
252.863	282
253.096	286
253.329	289
253.562	287
253.795	299
254.028	322
254.261	310
254.494	296
254.727	329
254.96	338
255.193	288
255.426	322
255.659	316
255.892	312
256.124	307
256.357	325
256.59	336
256.823	318
257.056	313
257.289	334
257.521	341
257.754	340
257.987	345
258.22	333
258.452	344
258.685	344
258.918	340
259.151	349
259.383	341
259.616	343
259.849	338
260.081	348
260.314	349
260.547	345
260.779	348
261.012	346
261.244	367
261.477	359
261.71	351
261.942	343
262.175	375
262.407	379
262.64	376
262.872	374
263.105	367
263.337	379
263.57	352
263.802	364
264.035	378
264.267	376
264.499	389
264.732	399
264.964	398
265.197	381
265.429	378
265.661	386
265.894	388
266.126	393
266.358	391
266.591	394
266.823	394
267.055	401
267.287	384
267.52	392
267.752	409
267.984	407
268.216	406
268.448	406
268.681	403
268.913	392
269.145	387
269.377	419
269.609	410
269.841	402
270.073	422
270.306	423
270.538	421
270.77	422
271.002	443
271.234	414
271.466	426
271.698	389
271.93	458
272.162	448
272.394	429
272.626	436
272.858	437
273.09	414
273.322	424
273.553	430
273.785	461
274.017	462
274.249	440
274.481	439
274.713	455
274.945	456
275.176	448
275.408	474
275.64	442
275.872	470
276.104	448
276.335	448
276.567	460
276.799	466
277.031	477
277.262	469
277.494	475
277.726	482
277.957	482
278.189	472
278.421	466
278.652	473
278.884	484
279.115	477
279.347	478
279.579	476
279.81	483
280.042	498
280.273	477
280.505	490
280.736	498
280.968	468
281.199	508
281.431	490
281.662	507
281.894	515
282.125	488
282.356	524
282.588	522
282.819	514
283.051	516
283.282	508
283.513	523
283.745	514
283.976	508
284.207	518
284.439	518
284.67	525
284.901	527
285.132	517
285.364	516
285.595	538
285.826	558
286.057	556
286.288	565
286.52	534
286.751	557
286.982	552
287.213	530
287.444	559
287.675	564
287.906	548
288.138	554
288.369	561
288.6	536
288.831	557
289.062	569
289.293	560
289.524	558
289.755	558
289.986	560
290.217	574
290.448	557
290.679	560
290.91	569
291.141	549
291.371	571
291.602	589
291.833	580
292.064	590
292.295	586
292.526	548
292.757	571
292.987	578
293.218	575
293.449	590
293.68	573
293.91	583
294.141	593
294.372	578
294.603	549
294.833	571
295.064	603
295.295	581
295.525	592
295.756	594
295.987	596
296.217	603
296.448	599
296.679	590
296.909	610
297.14	606
297.37	626
297.601	646
297.831	604
298.062	615
298.292	643
298.523	652
298.753	642
298.984	618
299.214	622
299.445	633
299.675	632
299.905	633
300.136	632
300.366	641
300.597	626
300.827	649
301.057	664
301.288	648
301.518	668
301.748	648
301.979	654
302.209	675
302.439	666
302.669	634
302.9	652
303.13	664
303.36	652
303.59	638
303.82	656
304.051	671
304.281	643
304.511	634
304.741	654
304.971	647
305.201	638
305.431	662
305.661	658
305.891	639
306.121	633
306.352	619
306.582	627
306.812	620
307.042	640
307.272	635
307.502	635
307.731	634
307.961	633
308.191	646
308.421	634
308.651	627
308.881	617
309.111	619
309.341	615
309.571	640
309.8	623
310.03	628
310.26	634
310.49	618
310.72	642
310.949	654
311.179	622
311.409	615
311.639	656
311.868	660
312.098	655
312.328	651
312.557	651
312.787	669
313.017	660
313.246	677
313.476	684
313.706	702
313.935	708
314.165	688
314.394	694
314.624	677
314.853	677
315.083	655
315.312	688
315.542	706
315.771	672
316.001	695
316.23	685
316.46	678
316.689	680
316.919	666
317.148	658
317.377	663
317.607	686
317.836	653
318.065	655
318.295	667
318.524	661
318.753	660
318.983	683
319.212	648
319.441	675
319.67	642
319.9	687
320.129	668
320.358	655
320.587	682
320.816	683
321.046	657
321.275	702
321.504	692
321.733	666
321.962	680
322.191	689
322.42	688
322.649	682
322.878	714
323.108	703
323.337	682
323.566	684
323.795	702
324.024	704
324.253	690
324.482	699
324.71	711
324.939	706
325.168	711
325.397	697
325.626	703
325.855	748
326.084	768
326.313	757
326.542	754
326.77	768
326.999	758
327.228	731
327.457	731
327.686	732
327.914	746
328.143	771
328.372	750
328.6	758
328.829	735
329.058	754
329.287	768
329.515	743
329.744	774
329.972	775
330.201	747
330.43	779
330.658	756
330.887	775
331.115	798
331.344	827
331.572	788
331.801	823
332.03	826
332.258	859
332.486	883
332.715	923
332.943	953
333.172	978
333.4	1013
333.629	1064
333.857	1030
334.085	1058
334.314	1013
334.542	988
334.771	975
334.999	936
335.227	934
335.455	927
335.684	963
335.912	960
336.14	908
336.369	910
336.597	924
336.825	928
337.053	886
337.281	915
337.51	901
337.738	875
337.966	875
338.194	833
338.422	831
338.65	826
338.878	846
339.106	842
339.334	821
339.562	828
339.79	796
340.018	799
340.246	800
340.474	780
340.702	784
340.93	824
341.158	815
341.386	805
341.614	806
341.842	804
342.07	791
342.298	774
342.526	794
342.754	824
342.981	776
343.209	819
343.437	859
343.665	891
343.893	990
344.12	1018
344.348	980
344.576	901
344.804	892
345.031	815
345.259	824
345.487	816
345.714	823
345.942	792
346.17	815
346.397	792
346.625	774
346.853	786
347.08	802
347.308	791
347.535	785
347.763	776
347.99	802
348.218	811
348.445	800
348.673	765
348.9	780
349.128	774
349.355	743
349.583	767
349.81	770
350.037	769
350.265	730
350.492	758
350.72	737
350.947	743
351.174	711
351.402	719
351.629	740
351.856	747
352.083	761
352.311	735
352.538	739
352.765	750
352.992	718
353.22	742
353.447	741
353.674	726
353.901	727
354.128	760
354.355	746
354.583	744
354.81	758
355.037	764
355.264	744
355.491	741
355.718	743
355.945	726
356.172	735
356.399	742
356.626	748
356.853	758
357.08	744
357.307	716
357.534	756
357.761	730
357.988	742
358.215	747
358.441	733
358.668	738
358.895	755
359.122	751
359.349	761
359.576	725
359.802	729
360.029	748
360.256	740
360.483	733
360.709	726
360.936	756
361.163	737
361.39	730
361.616	749
361.843	743
362.07	737
362.296	704
362.523	774
362.749	729
362.976	730
363.203	728
363.429	729
363.656	715
363.882	744
364.109	726
364.335	751
364.562	738
364.788	745
365.015	723
365.241	721
365.468	719
365.694	727
365.92	725
366.147	741
366.373	748
366.599	732
366.826	736
367.052	715
367.278	711
367.505	760
367.731	712
367.957	751
368.184	750
368.41	752
368.636	767
368.862	747
369.089	739
369.315	743
369.541	748
369.767	755
369.993	756
370.219	762
370.445	776
370.672	774
370.898	770
371.124	789
371.35	784
371.576	802
371.802	797
372.028	796
372.254	808
372.48	802
372.706	814
372.932	846
373.158	818
373.384	805
373.61	774
373.835	799
374.061	811
374.287	831
374.513	840
374.739	845
374.965	867
375.191	922
375.416	880
375.642	878
375.868	868
376.094	851
376.319	846
376.545	820
376.771	829
376.997	794
377.222	801
377.448	805
377.674	803
377.899	790
378.125	782
378.35	810
378.576	784
378.802	771
379.027	813
379.253	789
379.478	805
379.704	775
379.929	781
380.155	790
380.38	780
380.606	798
380.831	774
381.057	806
381.282	799
381.507	768
381.733	808
381.958	793
382.184	808
382.409	815
382.634	829
382.86	812
383.085	852
383.31	870
383.535	866
383.761	877
383.986	911
384.211	920
384.436	928
384.662	947
384.887	971
385.112	958
385.337	974
385.562	940
385.787	956
386.013	956
386.238	962
386.463	952
386.688	958
386.913	980
387.138	966
387.363	947
387.588	934
387.813	916
388.038	891
388.263	926
388.488	948
388.713	926
388.938	935
389.163	926
389.387	926
389.612	942
389.837	927
390.062	939
390.287	929
390.512	914
390.736	928
390.961	965
391.186	950
391.411	1019
391.636	1026
391.86	1060
392.085	1092
392.31	1083
392.534	1050
392.759	1045
392.984	1027
393.208	1002
393.433	998
393.658	1031
393.882	1014
394.107	1012
394.331	1042
394.556	1039
394.78	1040
395.005	1004
395.229	989
395.454	1079
395.678	1102
395.903	1084
396.127	1049
396.352	1008
396.576	1005
396.801	995
397.025	990
397.249	1032
397.474	1057
397.698	1067
397.922	1057
398.147	1061
398.371	1120
398.595	1126
398.82	1154
399.044	1261
399.268	1374
399.492	1618
399.717	1888
399.941	1915
400.165	1614
400.389	1449
400.613	1327
400.837	1236
401.062	1194
401.286	1196
401.51	1172
401.734	1178
401.958	1226
402.182	1203
402.406	1244
402.63	1239
402.854	1253
403.078	1306
403.302	1348
403.526	1397
403.75	1402
403.974	1429
404.198	1406
404.422	1464
404.645	1418
404.869	1383
405.093	1392
405.317	1346
405.541	1307
405.765	1326
405.988	1300
406.212	1300
406.436	1316
406.66	1338
406.883	1356
407.107	1451
407.331	1511
407.555	1620
407.778	1592
408.002	1549
408.226	1527
408.449	1422
408.673	1387
408.896	1370
409.12	1363
409.344	1346
409.567	1379
409.791	1388
410.014	1407
410.238	1404
410.461	1372
410.685	1347
410.908	1327
411.132	1292
411.355	1215
411.578	1259
411.802	1263
412.025	1222
412.249	1335
412.472	1292
412.695	1223
412.919	1194
413.142	1200
413.365	1193
413.589	1171
413.812	1182
414.035	1182
414.258	1165
414.482	1198
414.705	1233
414.928	1233
415.151	1215
415.374	1225
415.597	1207
415.821	1172
416.044	1188
416.267	1150
416.49	1180
416.713	1178
416.936	1227
417.159	1206
417.382	1194
417.605	1176
417.828	1176
418.051	1206
418.274	1211
418.497	1207
418.72	1255
418.943	1258
419.166	1327
419.389	1428
419.611	1404
419.834	1320
420.057	1259
420.28	1246
420.503	1202
420.726	1169
420.948	1191
421.171	1200
421.394	1192
421.617	1171
421.839	1208
422.062	1230
422.285	1208
422.507	1273
422.73	1232
422.953	1227
423.175	1291
423.398	1291
423.621	1276
423.843	1306
424.066	1330
424.288	1308
424.511	1296
424.733	1280
424.956	1234
425.178	1208
425.401	1229
425.623	1220
425.846	1191
426.068	1158
426.291	1157
426.513	1149
426.735	1148
426.958	1128
427.18	1099
427.402	1109
427.625	1080
427.847	1079
428.069	1100
428.292	1066
428.514	1051
428.736	1081
428.958	1079
429.181	1017
429.403	1036
429.625	1046
429.847	1042
430.069	1029
430.292	1053
430.514	1054
430.736	1076
430.958	1073
431.18	1065
431.402	1069
431.624	1054
431.846	1075
432.068	1117
432.29	1110
432.512	1093
432.734	1084
432.956	1086
433.178	1075
433.4	1101
433.622	1101
433.844	1110
434.066	1100
434.287	1092
434.509	1140
434.731	1213
434.953	1228
435.175	1230
435.397	1246
435.618	1163
435.84	1159
436.062	1098
436.284	1077
436.505	1099
436.727	1111
436.949	1090
437.17	1074
437.392	1050
437.614	1078
437.835	1044
438.057	1050
438.278	1030
438.5	1036
438.721	1022
438.943	1076
439.165	1022
439.386	1036
439.608	1070
439.829	1099
440.05	1119
440.272	1104
440.493	1100
440.715	1104
440.936	1116
441.158	1145
441.379	1159
441.6	1212
441.822	1251
442.043	1243
442.264	1197
442.486	1204
442.707	1192
442.928	1204
443.149	1222
443.371	1213
443.592	1246
443.813	1237
444.034	1195
444.255	1250
444.476	1361
444.698	1407
444.919	1518
445.14	1575
445.361	1410
445.582	1283
445.803	1192
446.024	1141
446.245	1141
446.466	1155
446.687	1091
446.908	1106
447.129	1080
447.35	1061
447.571	1046
447.792	1028
448.013	1044
448.234	1024
448.455	1008
448.675	1030
448.896	992
449.117	998
449.338	989
449.559	991
449.779	983
450	1007
450.221	996
450.442	1016
450.662	1014
450.883	1058
451.104	1050
451.324	1049
451.545	1040
451.766	1022
451.986	1021
452.207	1021
452.428	1015
452.648	1031
452.869	1011
453.089	991
453.31	1015
453.53	993
453.751	957
453.971	960
454.192	963
454.412	960
454.633	961
454.853	974
455.073	942
455.294	948
455.514	946
455.734	947
455.955	924
456.175	932
456.395	960
456.616	910
456.836	936
457.056	946
457.276	914
457.497	942
457.717	906
457.937	930
458.157	963
458.377	963
458.598	984
458.818	1001
459.038	1007
459.258	1038
459.478	1089
459.698	1085
459.918	1136
460.138	1203
460.358	1332
460.578	1297
460.798	1323
461.018	1312
461.238	1248
461.458	1265
461.678	1293
461.898	1307
462.118	1296
462.338	1369
462.558	1422
462.777	1466
462.997	1597
463.217	1800
463.437	1843
463.657	1673
463.876	1532
464.096	1533
464.316	1509
464.536	1548
464.755	1492
464.975	1439
465.195	1338
465.414	1249
465.634	1208
465.854	1157
466.073	1110
466.293	1091
466.512	1087
466.732	1063
466.951	1064
467.171	1069
467.391	1071
467.61	1068
467.829	1050
468.049	1029
468.268	1014
468.488	988
468.707	994
468.927	989
469.146	1001
469.365	1014
469.585	1010
469.804	1013
470.023	1072
470.243	1090
470.462	1118
470.681	1103
470.901	1120
471.12	1101
471.339	1047
471.558	1022
471.777	1014
471.997	1040
472.216	994
472.435	1004
472.654	982
472.873	967
473.092	972
473.311	948
473.53	987
473.749	986
473.968	987
474.187	957
474.406	978
474.625	984
474.844	968
475.063	984
475.282	982
475.501	996
475.72	999
475.939	994
476.158	1036
476.377	1011
476.596	991
476.814	1024
477.033	1002
477.252	1034
477.471	1064
477.69	1082
477.908	1142
478.127	1147
478.346	1156
478.564	1179
478.783	1187
479.002	1247
479.22	1278
479.439	1215
479.658	1204
479.876	1226
480.095	1229
480.313	1326
480.532	1315
480.751	1365
480.969	1251
481.188	1246
481.406	1172
481.624	1156
481.843	1129
482.061	1093
482.28	1116
482.498	1111
482.717	1122
482.935	1120
483.153	1117
483.372	1096
483.59	1123
483.808	1078
484.027	1104
484.245	1126
484.463	1150
484.681	1176
484.9	1159
485.118	1163
485.336	1159
485.554	1158
485.772	1216
485.99	1167
486.209	1194
486.427	1169
486.645	1195
486.863	1219
487.081	1166
487.299	1177
487.517	1192
487.735	1210
487.953	1201
488.171	1192
488.389	1177
488.607	1176
488.825	1118
489.043	1152
489.261	1166
489.479	1193
489.696	1158
489.914	1207
490.132	1168
490.35	1176
490.568	1179
490.786	1197
491.003	1183
491.221	1211
491.439	1215
491.657	1210
491.874	1205
492.092	1231
492.31	1197
492.527	1232
492.745	1213
492.963	1213
493.18	1246
493.398	1241
493.615	1254
493.833	1219
494.05	1206
494.268	1272
494.485	1226
494.703	1270
494.92	1269
495.138	1266
495.355	1253
495.573	1255
495.79	1271
496.008	1290
496.225	1278
496.442	1293
496.66	1294
496.877	1289
497.094	1344
497.312	1351
497.529	1331
497.746	1415
497.963	1460
498.181	1505
498.398	1557
498.615	1646
498.832	1754
499.049	1875
499.267	2070
499.484	2259
499.701	2566
499.918	2787
500.135	3312
500.352	3876
500.569	4095
500.786	3970
501.003	3707
501.22	3206
501.437	2852
501.654	2440
501.871	2175
502.088	2031
502.305	1902
502.522	1758
502.739	1718
502.956	1636
503.172	1553
503.389	1502
503.606	1442
503.823	1417
504.04	1401
504.256	1427
504.473	1504
504.69	1551
504.907	1517
505.123	1381
505.34	1296
505.557	1209
505.773	1247
505.99	1219
506.207	1164
506.423	1162
506.64	1166
506.856	1117
507.073	1082
507.289	1130
507.506	1132
507.722	1096
507.939	1100
508.155	1062
508.372	1063
508.588	1065
508.805	1039
509.021	1059
509.238	1034
509.454	1035
509.67	1021
509.887	1003
510.103	1018
510.319	1015
510.536	1036
510.752	998
510.968	1019
511.184	1005
511.401	980
511.617	996
511.833	981
512.049	1019
512.265	1014
512.481	1014
512.698	1023
512.914	1010
513.13	996
513.346	981
513.562	986
513.778	1009
513.994	1018
514.21	1012
514.426	1021
514.642	1036
514.858	1021
515.074	1038
515.29	1044
515.506	1044
515.721	1054
515.937	1089
516.153	1098
516.369	1143
516.585	1160
516.801	1202
517.016	1246
517.232	1297
517.448	1405
517.664	1429
517.879	1476
518.095	1472
518.311	1447
518.527	1371
518.742	1263
518.958	1245
519.173	1192
519.389	1138
519.605	1086
519.82	1082
520.036	1089
520.251	1095
520.467	1037
520.682	1046
520.898	1024
521.113	1025
521.329	990
521.544	977
521.76	995
521.975	976
522.19	966
522.406	958
522.621	921
522.836	957
523.052	960
523.267	952
523.482	980
523.698	934
523.913	930
524.128	926
524.343	927
524.559	933
524.774	932
524.989	913
525.204	939
525.419	927
525.634	935
525.849	958
526.064	913
526.28	899
526.495	932
526.71	938
526.925	893
527.14	909
527.355	916
527.57	916
527.785	935
527.999	903
528.214	950
528.429	933
528.644	922
528.859	916
529.074	904
529.289	920
529.503	931
529.718	921
529.933	934
530.148	909
530.363	923
530.577	920
530.792	917
531.007	904
531.221	918
531.436	921
531.651	928
531.865	928
532.08	937
532.295	907
532.509	956
532.724	907
532.938	908
533.153	903
533.367	959
533.582	943
533.796	931
534.011	906
534.225	893
534.44	900
534.654	894
534.868	895
535.083	900
535.297	888
535.511	893
535.726	903
535.94	891
536.154	858
536.369	847
536.583	856
536.797	847
537.011	854
537.225	846
537.44	852
537.654	874
537.868	822
538.082	834
538.296	816
538.51	849
538.724	852
538.938	860
539.153	838
539.367	834
539.581	847
539.795	800
540.009	837
540.222	818
540.436	791
540.65	809
540.864	821
541.078	838
541.292	815
541.506	808
541.72	844
541.934	840
542.147	823
542.361	813
542.575	806
542.789	831
543.002	799
543.216	824
543.43	824
543.644	794
543.857	818
544.071	823
544.285	840
544.498	831
544.712	791
544.925	859
545.139	827
545.352	834
545.566	841
545.779	858
545.993	861
546.206	836
546.42	825
546.633	854
546.847	823
547.06	815
547.274	866
547.487	846
547.7	856
547.914	855
548.127	873
548.34	866
548.554	852
548.767	869
548.98	870
549.193	851
549.407	859
549.62	842
549.833	860
550.046	868
550.259	854
550.473	855
550.686	816
550.899	846
551.112	828
551.325	820
551.538	808
551.751	804
551.964	812
552.177	803
552.39	846
552.603	866
552.816	911
553.029	926
553.242	945
553.455	938
553.667	950
553.88	924
554.093	906
554.306	912
