Data from Ni(NO3)2@0.25M.TitratingCurve.Agarose3%dH2O.NegLispCup.LampEnergy10.LIBS07252019_HRD10591_18-03-02-565.txt Node
Date: Thu Jul 25 18:03:02 EDT 2019
User: cochatt
Spectrometer: HR+D1059
Trigger mode: 1
Integration Time (sec): 1.000000E-1
Scans to average: 1
Electric dark correction enabled: true
Nonlinearity correction enabled: false
Boxcar width: 0
XAxis mode: Wavelengths
Number of Pixels in Spectrum: 2048
>>>>>Begin Spectral Data<<<<<
223.165	-28.62
223.4	-28.62
223.635	-28.62
223.869	-22.62
224.104	-27.62
224.338	-20.62
224.573	-8.62
224.808	-26.62
225.042	-20.62
225.277	-1.62
225.511	-3.62
225.746	19.38
225.98	12.38
226.215	15.38
226.449	29.38
226.683	22.38
226.918	21.38
227.152	40.38
227.387	28.38
227.621	34.38
227.856	40.38
228.09	51.38
228.324	45.38
228.559	64.38
228.793	53.38
229.027	87.38
229.262	81.38
229.496	84.38
229.73	89.38
229.964	89.38
230.199	96.38
230.433	98.38
230.667	125.38
230.901	114.38
231.136	98.38
231.37	87.38
231.604	116.38
231.838	111.38
232.072	126.38
232.306	119.38
232.541	107.38
232.775	106.38
233.009	106.38
233.243	84.38
233.477	106.38
233.711	112.38
233.945	96.38
234.179	96.38
234.413	102.38
234.647	101.38
234.881	106.38
235.115	117.38
235.349	111.38
235.583	107.38
235.817	102.38
236.051	97.38
236.285	100.38
236.519	103.38
236.753	109.38
236.987	118.38
237.221	123.38
237.455	107.38
237.689	106.38
237.922	122.38
238.156	117.38
238.39	107.38
238.624	112.38
238.858	124.38
239.091	109.38
239.325	117.38
239.559	112.38
239.793	117.38
240.027	142.38
240.26	117.38
240.494	114.38
240.728	112.38
240.961	113.38
241.195	120.38
241.429	119.38
241.662	114.38
241.896	127.38
242.13	127.38
242.363	124.38
242.597	115.38
242.83	120.38
243.064	121.38
243.298	117.38
243.531	123.38
243.765	128.38
243.998	128.38
244.232	139.38
244.465	129.38
244.699	128.38
244.932	140.38
245.166	139.38
245.399	134.38
245.633	131.38
245.866	140.38
246.099	136.38
246.333	138.38
246.566	154.38
246.8	153.38
247.033	171.38
247.266	160.38
247.5	150.38
247.733	173.38
247.966	158.38
248.2	165.38
248.433	191.38
248.666	202.38
248.899	189.38
249.133	197.38
249.366	177.38
249.599	205.38
249.832	196.38
250.066	227.38
250.299	187.38
250.532	218.38
250.765	229.38
250.998	228.38
251.231	252.38
251.465	235.38
251.698	247.38
251.931	234.38
252.164	266.38
252.397	266.38
252.63	272.38
252.863	277.38
253.096	274.38
253.329	270.38
253.562	280.38
253.795	295.38
254.028	312.38
254.261	301.38
254.494	282.38
254.727	300.38
254.96	328.38
255.193	320.38
255.426	308.38
255.659	333.38
255.892	341.38
256.124	351.38
256.357	362.38
256.59	344.38
256.823	356.38
257.056	345.38
257.289	384.38
257.521	380.38
257.754	373.38
257.987	372.38
258.22	377.38
258.452	393.38
258.685	371.38
258.918	400.38
259.151	379.38
259.383	386.38
259.616	397.38
259.849	409.38
260.081	392.38
260.314	414.38
260.547	411.38
260.779	403.38
261.012	419.38
261.244	442.38
261.477	441.38
261.71	438.38
261.942	413.38
262.175	429.38
262.407	460.38
262.64	445.38
262.872	454.38
263.105	468.38
263.337	444.38
263.57	449.38
263.802	446.38
264.035	466.38
264.267	465.38
264.499	473.38
264.732	461.38
264.964	474.38
265.197	487.38
265.429	462.38
265.661	460.38
265.894	457.38
266.126	475.38
266.358	472.38
266.591	478.38
266.823	479.38
267.055	449.38
267.287	470.38
267.52	474.38
267.752	470.38
267.984	497.38
268.216	490.38
268.448	477.38
268.681	483.38
268.913	491.38
269.145	476.38
269.377	482.38
269.609	473.38
269.841	507.38
270.073	471.38
270.306	500.38
270.538	492.38
270.77	487.38
271.002	492.38
271.234	492.38
271.466	501.38
271.698	493.38
271.93	497.38
272.162	484.38
272.394	491.38
272.626	489.38
272.858	517.38
273.09	511.38
273.322	492.38
273.553	515.38
273.785	491.38
274.017	493.38
274.249	509.38
274.481	514.38
274.713	491.38
274.945	476.38
275.176	511.38
275.408	505.38
275.64	521.38
275.872	498.38
276.104	480.38
276.335	509.38
276.567	513.38
276.799	507.38
277.031	501.38
277.262	498.38
277.494	491.38
277.726	499.38
277.957	523.38
278.189	503.38
278.421	499.38
278.652	483.38
278.884	508.38
279.115	495.38
279.347	511.38
279.579	483.38
279.81	520.38
280.042	493.38
280.273	525.38
280.505	516.38
280.736	509.38
280.968	476.38
281.199	490.38
281.431	519.38
281.662	505.38
281.894	501.38
282.125	490.38
282.356	499.38
282.588	496.38
282.819	499.38
283.051	508.38
283.282	493.38
283.513	496.38
283.745	503.38
283.976	515.38
284.207	519.38
284.439	495.38
284.67	490.38
284.901	479.38
285.132	515.38
285.364	500.38
285.595	519.38
285.826	479.38
286.057	495.38
286.288	510.38
286.52	491.38
286.751	508.38
286.982	495.38
287.213	498.38
287.444	503.38
287.675	498.38
287.906	514.38
288.138	495.38
288.369	515.38
288.6	479.38
288.831	500.38
289.062	517.38
289.293	490.38
289.524	499.38
289.755	488.38
289.986	513.38
290.217	487.38
290.448	479.38
290.679	484.38
290.91	497.38
291.141	487.38
291.371	475.38
291.602	487.38
291.833	514.38
292.064	504.38
292.295	501.38
292.526	509.38
292.757	491.38
292.987	510.38
293.218	479.38
293.449	488.38
293.68	485.38
293.91	492.38
294.141	498.38
294.372	483.38
294.603	481.38
294.833	486.38
295.064	497.38
295.295	491.38
295.525	495.38
295.756	492.38
295.987	482.38
296.217	481.38
296.448	492.38
296.679	479.38
296.909	475.38
297.14	471.38
297.37	499.38
297.601	506.38
297.831	491.38
298.062	472.38
298.292	482.38
298.523	491.38
298.753	507.38
298.984	504.38
299.214	493.38
299.445	533.38
299.675	513.38
299.905	510.38
300.136	494.38
300.366	500.38
300.597	502.38
300.827	496.38
301.057	509.38
301.288	497.38
301.518	507.38
301.748	523.38
301.979	508.38
302.209	517.38
302.439	545.38
302.669	544.38
302.9	525.38
303.13	553.38
303.36	541.38
303.59	556.38
303.82	543.38
304.051	545.38
304.281	555.38
304.511	563.38
304.741	550.38
304.971	547.38
305.201	564.38
305.431	551.38
305.661	559.38
305.891	548.38
306.121	566.38
306.352	559.38
306.582	554.38
306.812	559.38
307.042	568.38
307.272	541.38
307.502	562.38
307.731	570.38
307.961	580.38
308.191	592.38
308.421	588.38
308.651	579.38
308.881	582.38
309.111	587.38
309.341	589.38
309.571	600.38
309.8	610.38
310.03	605.38
310.26	600.38
310.49	629.38
310.72	645.38
310.949	634.38
311.179	649.38
311.409	652.38
311.639	637.38
311.868	646.38
312.098	640.38
312.328	659.38
312.557	666.38
312.787	676.38
313.017	673.38
313.246	682.38
313.476	707.38
313.706	699.38
313.935	703.38
314.165	708.38
314.394	707.38
314.624	720.38
314.853	733.38
315.083	762.38
315.312	738.38
315.542	769.38
315.771	749.38
316.001	755.38
316.23	766.38
316.46	747.38
316.689	791.38
316.919	775.38
317.148	834.38
317.377	796.38
317.607	796.38
317.836	812.38
318.065	817.38
318.295	812.38
318.524	851.38
318.753	855.38
318.983	853.38
319.212	855.38
319.441	881.38
319.67	873.38
319.9	870.38
320.129	883.38
320.358	923.38
320.587	907.38
320.816	913.38
321.046	920.38
321.275	923.38
321.504	936.38
321.733	963.38
321.962	969.38
322.191	980.38
322.42	972.38
322.649	974.38
322.878	985.38
323.108	1025.38
323.337	1057.38
323.566	992.38
323.795	1029.38
324.024	1072.38
324.253	1049.38
324.482	1044.38
324.71	1087.38
324.939	1077.38
325.168	1089.38
325.397	1094.38
325.626	1080.38
325.855	1099.38
326.084	1118.38
326.313	1139.38
326.542	1107.38
326.77	1177.38
326.999	1136.38
327.228	1126.38
327.457	1157.38
327.686	1169.38
327.914	1183.38
328.143	1187.38
328.372	1171.38
328.6	1178.38
328.829	1179.38
329.058	1216.38
329.287	1215.38
329.515	1228.38
329.744	1208.38
329.972	1251.38
330.201	1235.38
330.43	1256.38
330.658	1275.38
330.887	1258.38
331.115	1271.38
331.344	1265.38
331.572	1303.38
331.801	1303.38
332.03	1284.38
332.258	1284.38
332.486	1286.38
332.715	1277.38
332.943	1346.38
333.172	1324.38
333.4	1294.38
333.629	1360.38
333.857	1324.38
334.085	1349.38
334.314	1306.38
334.542	1355.38
334.771	1359.38
334.999	1372.38
335.227	1380.38
335.455	1393.38
335.684	1383.38
335.912	1370.38
336.14	1360.38
336.369	1393.38
336.597	1375.38
336.825	1379.38
337.053	1402.38
337.281	1392.38
337.51	1391.38
337.738	1380.38
337.966	1395.38
338.194	1406.38
338.422	1385.38
338.65	1381.38
338.878	1380.38
339.106	1417.38
339.334	1401.38
339.562	1386.38
339.79	1383.38
340.018	1372.38
340.246	1370.38
340.474	1401.38
340.702	1405.38
340.93	1386.38
341.158	1379.38
341.386	1364.38
341.614	1386.38
341.842	1395.38
342.07	1383.38
342.298	1372.38
342.526	1363.38
342.754	1412.38
342.981	1388.38
343.209	1423.38
343.437	1416.38
343.665	1415.38
343.893	1423.38
344.12	1438.38
344.348	1404.38
344.576	1420.38
344.804	1384.38
345.031	1379.38
345.259	1415.38
345.487	1391.38
345.714	1417.38
345.942	1395.38
346.17	1409.38
346.397	1391.38
346.625	1410.38
346.853	1376.38
347.08	1397.38
347.308	1388.38
347.535	1393.38
347.763	1397.38
347.99	1421.38
348.218	1416.38
348.445	1377.38
348.673	1384.38
348.9	1385.38
349.128	1395.38
349.355	1359.38
349.583	1390.38
349.81	1359.38
350.037	1358.38
350.265	1400.38
350.492	1377.38
350.72	1365.38
350.947	1369.38
351.174	1387.38
351.402	1386.38
351.629	1394.38
351.856	1335.38
352.083	1350.38
352.311	1348.38
352.538	1329.38
352.765	1347.38
352.992	1337.38
353.22	1361.38
353.447	1379.38
353.674	1365.38
353.901	1345.38
354.128	1383.38
354.355	1361.38
354.583	1356.38
354.81	1362.38
355.037	1356.38
355.264	1384.38
355.491	1364.38
355.718	1333.38
355.945	1356.38
356.172	1356.38
356.399	1372.38
356.626	1332.38
356.853	1388.38
357.08	1369.38
357.307	1366.38
357.534	1350.38
357.761	1352.38
357.988	1352.38
358.215	1362.38
358.441	1336.38
358.668	1328.38
358.895	1356.38
359.122	1348.38
359.349	1385.38
359.576	1366.38
359.802	1361.38
360.029	1324.38
360.256	1362.38
360.483	1331.38
360.709	1314.38
360.936	1346.38
361.163	1357.38
361.39	1329.38
361.616	1332.38
361.843	1348.38
362.07	1353.38
362.296	1356.38
362.523	1334.38
362.749	1315.38
362.976	1350.38
363.203	1346.38
363.429	1330.38
363.656	1378.38
363.882	1351.38
364.109	1342.38
364.335	1355.38
364.562	1346.38
364.788	1340.38
365.015	1331.38
365.241	1316.38
365.468	1324.38
365.694	1331.38
365.92	1325.38
366.147	1331.38
366.373	1310.38
366.599	1316.38
366.826	1302.38
367.052	1299.38
367.278	1329.38
367.505	1324.38
367.731	1337.38
367.957	1325.38
368.184	1308.38
368.41	1317.38
368.636	1313.38
368.862	1336.38
369.089	1323.38
369.315	1297.38
369.541	1338.38
369.767	1335.38
369.993	1304.38
370.219	1315.38
370.445	1321.38
370.672	1311.38
370.898	1330.38
371.124	1307.38
371.35	1295.38
371.576	1330.38
371.802	1305.38
372.028	1290.38
372.254	1283.38
372.48	1267.38
372.706	1285.38
372.932	1273.38
373.158	1265.38
373.384	1315.38
373.61	1282.38
373.835	1261.38
374.061	1284.38
374.287	1248.38
374.513	1266.38
374.739	1270.38
374.965	1256.38
375.191	1236.38
375.416	1250.38
375.642	1240.38
375.868	1241.38
376.094	1239.38
376.319	1222.38
376.545	1231.38
376.771	1194.38
376.997	1215.38
377.222	1213.38
377.448	1203.38
377.674	1214.38
377.899	1191.38
378.125	1211.38
378.35	1217.38
378.576	1223.38
378.802	1173.38
379.027	1191.38
379.253	1220.38
379.478	1172.38
379.704	1179.38
379.929	1232.38
380.155	1162.38
380.38	1196.38
380.606	1196.38
380.831	1187.38
381.057	1172.38
381.282	1165.38
381.507	1153.38
381.733	1200.38
381.958	1190.38
382.184	1189.38
382.409	1175.38
382.634	1142.38
382.86	1176.38
383.085	1153.38
383.31	1151.38
383.535	1172.38
383.761	1180.38
383.986	1207.38
384.211	1175.38
384.436	1218.38
384.662	1171.38
384.887	1224.38
385.112	1172.38
385.337	1189.38
385.562	1200.38
385.787	1192.38
386.013	1219.38
386.238	1205.38
386.463	1216.38
386.688	1207.38
386.913	1191.38
387.138	1224.38
387.363	1191.38
387.588	1207.38
387.813	1200.38
388.038	1216.38
388.263	1179.38
388.488	1191.38
388.713	1176.38
388.938	1214.38
389.163	1207.38
389.387	1196.38
389.612	1184.38
389.837	1203.38
390.062	1181.38
390.287	1187.38
390.512	1186.38
390.736	1186.38
390.961	1172.38
391.186	1171.38
391.411	1179.38
391.636	1183.38
391.86	1202.38
392.085	1187.38
392.31	1226.38
392.534	1217.38
392.759	1181.38
392.984	1174.38
393.208	1196.38
393.433	1191.38
393.658	1203.38
393.882	1209.38
394.107	1196.38
394.331	1194.38
394.556	1190.38
394.78	1186.38
395.005	1183.38
395.229	1182.38
395.454	1246.38
395.678	1208.38
395.903	1161.38
396.127	1195.38
396.352	1180.38
396.576	1201.38
396.801	1186.38
397.025	1193.38
397.249	1230.38
397.474	1195.38
397.698	1216.38
397.922	1247.38
398.147	1199.38
398.371	1193.38
398.595	1249.38
398.82	1230.38
399.044	1233.38
399.268	1269.38
399.492	1290.38
399.717	1315.38
399.941	1347.38
400.165	1294.38
400.389	1265.38
400.613	1300.38
400.837	1281.38
401.062	1272.38
401.286	1243.38
401.51	1280.38
401.734	1279.38
401.958	1279.38
402.182	1271.38
402.406	1268.38
402.63	1309.38
402.854	1297.38
403.078	1283.38
403.302	1300.38
403.526	1278.38
403.75	1302.38
403.974	1296.38
404.198	1270.38
404.422	1299.38
404.645	1284.38
404.869	1315.38
405.093	1306.38
405.317	1304.38
405.541	1346.38
405.765	1344.38
405.988	1320.38
406.212	1380.38
406.436	1330.38
406.66	1319.38
406.883	1337.38
407.107	1381.38
407.331	1391.38
407.555	1421.38
407.778	1382.38
408.002	1399.38
408.226	1386.38
408.449	1411.38
408.673	1389.38
408.896	1371.38
409.12	1356.38
409.344	1392.38
409.567	1393.38
409.791	1407.38
410.014	1359.38
410.238	1369.38
410.461	1397.38
410.685	1347.38
410.908	1359.38
411.132	1364.38
411.355	1346.38
411.578	1373.38
411.802	1347.38
412.025	1365.38
412.249	1358.38
412.472	1382.38
412.695	1323.38
412.919	1379.38
413.142	1361.38
413.365	1391.38
413.589	1397.38
413.812	1379.38
414.035	1370.38
414.258	1389.38
414.482	1362.38
414.705	1369.38
414.928	1381.38
415.151	1379.38
415.374	1373.38
415.597	1347.38
415.821	1371.38
416.044	1351.38
416.267	1379.38
416.49	1365.38
416.713	1349.38
416.936	1380.38
417.159	1331.38
417.382	1385.38
417.605	1329.38
417.828	1352.38
418.051	1373.38
418.274	1341.38
418.497	1347.38
418.72	1410.38
418.943	1334.38
419.166	1375.38
419.389	1516.38
419.611	1514.38
419.834	1448.38
420.057	1444.38
420.28	1402.38
420.503	1353.38
420.726	1340.38
420.948	1376.38
421.171	1373.38
421.394	1399.38
421.617	1365.38
421.839	1387.38
422.062	1371.38
422.285	1345.38
422.507	1391.38
422.73	1397.38
422.953	1396.38
423.175	1373.38
423.398	1417.38
423.621	1414.38
423.843	1394.38
424.066	1421.38
424.288	1428.38
424.511	1419.38
424.733	1373.38
424.956	1417.38
425.178	1387.38
425.401	1415.38
425.623	1452.38
425.846	1398.38
426.068	1411.38
426.291	1423.38
426.513	1416.38
426.735	1446.38
426.958	1436.38
427.18	1437.38
427.402	1449.38
427.625	1435.38
427.847	1411.38
428.069	1451.38
428.292	1468.38
428.514	1411.38
428.736	1425.38
428.958	1472.38
429.181	1410.38
429.403	1443.38
429.625	1458.38
429.847	1467.38
430.069	1416.38
430.292	1476.38
430.514	1476.38
430.736	1464.38
430.958	1437.38
431.18	1431.38
431.402	1468.38
431.624	1419.38
431.846	1428.38
432.068	1396.38
432.29	1455.38
432.512	1427.38
432.734	1463.38
432.956	1449.38
433.178	1484.38
433.4	1506.38
433.622	1498.38
433.844	1507.38
434.066	1480.38
434.287	1451.38
434.509	1481.38
434.731	1488.38
434.953	1423.38
435.175	1497.38
435.397	1498.38
435.618	1503.38
435.84	1488.38
436.062	1479.38
436.284	1420.38
436.505	1439.38
436.727	1459.38
436.949	1484.38
437.17	1476.38
437.392	1459.38
437.614	1471.38
437.835	1424.38
438.057	1431.38
438.278	1414.38
438.5	1443.38
438.721	1428.38
438.943	1485.38
439.165	1450.38
439.386	1447.38
439.608	1452.38
439.829	1469.38
440.05	1476.38
440.272	1459.38
440.493	1472.38
440.715	1466.38
440.936	1477.38
441.158	1475.38
441.379	1457.38
441.6	1487.38
441.822	1472.38
442.043	1491.38
442.264	1462.38
442.486	1452.38
442.707	1464.38
442.928	1487.38
443.149	1485.38
443.371	1477.38
443.592	1484.38
443.813	1479.38
444.034	1474.38
444.255	1469.38
444.476	1485.38
444.698	1489.38
444.919	1494.38
445.14	1584.38
445.361	1520.38
445.582	1485.38
445.803	1476.38
446.024	1446.38
446.245	1480.38
446.466	1447.38
446.687	1452.38
446.908	1437.38
447.129	1423.38
447.35	1412.38
447.571	1443.38
447.792	1401.38
448.013	1405.38
448.234	1423.38
448.455	1408.38
448.675	1428.38
448.896	1431.38
449.117	1367.38
449.338	1420.38
449.559	1378.38
449.779	1371.38
450	1406.38
450.221	1370.38
450.442	1396.38
450.662	1382.38
450.883	1378.38
451.104	1366.38
451.324	1381.38
451.545	1372.38
451.766	1388.38
451.986	1348.38
452.207	1366.38
452.428	1332.38
452.648	1367.38
452.869	1331.38
453.089	1313.38
453.31	1353.38
453.53	1355.38
453.751	1315.38
453.971	1348.38
454.192	1332.38
454.412	1353.38
454.633	1323.38
454.853	1365.38
455.073	1321.38
455.294	1359.38
455.514	1350.38
455.734	1363.38
455.955	1345.38
456.175	1334.38
456.395	1352.38
456.616	1341.38
456.836	1360.38
457.056	1359.38
457.276	1309.38
457.497	1341.38
457.717	1334.38
457.937	1344.38
458.157	1332.38
458.377	1336.38
458.598	1338.38
458.818	1343.38
459.038	1379.38
459.258	1349.38
459.478	1397.38
459.698	1404.38
459.918	1396.38
460.138	1379.38
460.358	1426.38
460.578	1412.38
460.798	1398.38
461.018	1435.38
461.238	1442.38
461.458	1422.38
461.678	1414.38
461.898	1402.38
462.118	1365.38
462.338	1453.38
462.558	1447.38
462.777	1443.38
462.997	1473.38
463.217	1483.38
463.437	1529.38
463.657	1493.38
463.876	1442.38
464.096	1517.38
464.316	1476.38
464.536	1465.38
464.755	1466.38
464.975	1461.38
465.195	1419.38
465.414	1429.38
465.634	1448.38
465.854	1402.38
466.073	1415.38
466.293	1453.38
466.512	1419.38
466.732	1415.38
466.951	1413.38
467.171	1422.38
467.391	1444.38
467.61	1425.38
467.829	1443.38
468.049	1450.38
468.268	1411.38
468.488	1431.38
468.707	1380.38
468.927	1471.38
469.146	1447.38
469.365	1464.38
469.585	1401.38
469.804	1455.38
470.023	1449.38
470.243	1466.38
470.462	1431.38
470.681	1428.38
470.901	1451.38
471.12	1455.38
471.339	1436.38
471.558	1485.38
471.777	1490.38
471.997	1487.38
472.216	1486.38
472.435	1491.38
472.654	1483.38
472.873	1478.38
473.092	1499.38
473.311	1459.38
473.53	1511.38
473.749	1515.38
473.968	1556.38
474.187	1531.38
474.406	1525.38
474.625	1541.38
474.844	1541.38
475.063	1520.38
475.282	1562.38
475.501	1513.38
475.72	1577.38
475.939	1592.38
476.158	1601.38
476.377	1610.38
476.596	1595.38
476.814	1648.38
477.033	1596.38
477.252	1612.38
477.471	1605.38
477.69	1665.38
477.908	1643.38
478.127	1667.38
478.346	1669.38
478.564	1723.38
478.783	1712.38
479.002	1711.38
479.22	1755.38
479.439	1748.38
479.658	1687.38
479.876	1723.38
480.095	1739.38
480.313	1765.38
480.532	1757.38
480.751	1747.38
480.969	1795.38
481.188	1790.38
481.406	1741.38
481.624	1748.38
481.843	1812.38
482.061	1768.38
482.28	1795.38
482.498	1817.38
482.717	1793.38
482.935	1818.38
483.153	1833.38
483.372	1878.38
483.59	1897.38
483.808	1899.38
484.027	1852.38
484.245	1868.38
484.463	1812.38
484.681	1880.38
484.9	1892.38
485.118	1863.38
485.336	1846.38
485.554	1867.38
485.772	1849.38
485.99	1880.38
486.209	1887.38
486.427	1817.38
486.645	1895.38
486.863	1900.38
487.081	1898.38
487.299	1878.38
487.517	1923.38
487.735	1952.38
487.953	1931.38
488.171	1944.38
488.389	1935.38
488.607	1910.38
488.825	1941.38
489.043	1856.38
489.261	1901.38
489.479	1904.38
489.696	1945.38
489.914	1917.38
490.132	1877.38
490.35	1947.38
490.568	1949.38
490.786	1944.38
491.003	1943.38
491.221	1944.38
491.439	1971.38
