Data from Ni(NO3)2@0.0625M.TitratingCurve.Agarose3%dH2O.NegLispCup.LampEnergy10.LIBS07252019_HRD10591_18-15-02-569.txt Node
Date: Thu Jul 25 18:15:02 EDT 2019
User: cochatt
Spectrometer: HR+D1059
Trigger mode: 1
Integration Time (sec): 1.000000E-1
Scans to average: 1
Electric dark correction enabled: true
Nonlinearity correction enabled: false
Boxcar width: 0
XAxis mode: Wavelengths
Number of Pixels in Spectrum: 2048
>>>>>Begin Spectral Data<<<<<
223.165	-7.12
223.4	-7.12
223.635	-7.12
223.869	-16.12
224.104	-36.12
224.338	-6.12
224.573	3.88
224.808	-15.12
225.042	3.88
225.277	-0.12
225.511	-12.12
225.746	0.88
225.98	11.88
226.215	-10.12
226.449	7.88
226.683	12.88
226.918	25.88
227.152	35.88
227.387	37.88
227.621	38.88
227.856	41.88
228.09	41.88
228.324	44.88
228.559	49.88
228.793	73.88
229.027	88.88
229.262	86.88
229.496	112.88
229.73	112.88
229.964	110.88
230.199	114.88
230.433	105.88
230.667	112.88
230.901	116.88
231.136	122.88
231.37	132.88
231.604	127.88
231.838	140.88
232.072	145.88
232.306	118.88
232.541	142.88
232.775	121.88
233.009	120.88
233.243	114.88
233.477	116.88
233.711	144.88
233.945	125.88
234.179	131.88
234.413	128.88
234.647	123.88
234.881	128.88
235.115	124.88
235.349	128.88
235.583	130.88
235.817	135.88
236.051	122.88
236.285	121.88
236.519	136.88
236.753	128.88
236.987	118.88
237.221	138.88
237.455	145.88
237.689	127.88
237.922	142.88
238.156	146.88
238.39	141.88
238.624	134.88
238.858	132.88
239.091	146.88
239.325	136.88
239.559	154.88
239.793	153.88
240.027	162.88
240.26	146.88
240.494	146.88
240.728	123.88
240.961	151.88
241.195	136.88
241.429	146.88
241.662	138.88
241.896	158.88
242.13	158.88
242.363	149.88
242.597	171.88
242.83	139.88
243.064	142.88
243.298	137.88
243.531	158.88
243.765	159.88
243.998	163.88
244.232	171.88
244.465	163.88
244.699	165.88
244.932	157.88
245.166	178.88
245.399	174.88
245.633	178.88
245.866	174.88
246.099	168.88
246.333	171.88
246.566	169.88
246.8	169.88
247.033	176.88
247.266	187.88
247.5	167.88
247.733	196.88
247.966	171.88
248.2	190.88
248.433	203.88
248.666	190.88
248.899	186.88
249.133	179.88
249.366	183.88
249.599	190.88
249.832	188.88
250.066	201.88
250.299	209.88
250.532	194.88
250.765	187.88
250.998	189.88
251.231	194.88
251.465	186.88
251.698	195.88
251.931	197.88
252.164	206.88
252.397	204.88
252.63	215.88
252.863	196.88
253.096	214.88
253.329	210.88
253.562	204.88
253.795	216.88
254.028	230.88
254.261	216.88
254.494	196.88
254.727	207.88
254.96	205.88
255.193	202.88
255.426	223.88
255.659	217.88
255.892	207.88
256.124	210.88
256.357	219.88
256.59	228.88
256.823	219.88
257.056	225.88
257.289	208.88
257.521	217.88
257.754	244.88
257.987	228.88
258.22	243.88
258.452	231.88
258.685	227.88
258.918	223.88
259.151	225.88
259.383	222.88
259.616	240.88
259.849	252.88
260.081	239.88
260.314	239.88
260.547	246.88
260.779	238.88
261.012	232.88
261.244	239.88
261.477	231.88
261.71	252.88
261.942	254.88
262.175	234.88
262.407	245.88
262.64	240.88
262.872	245.88
263.105	240.88
263.337	268.88
263.57	249.88
263.802	264.88
264.035	264.88
264.267	251.88
264.499	250.88
264.732	257.88
264.964	238.88
265.197	260.88
265.429	245.88
265.661	254.88
265.894	260.88
266.126	274.88
266.358	257.88
266.591	263.88
266.823	270.88
267.055	261.88
267.287	255.88
267.52	250.88
267.752	262.88
267.984	276.88
268.216	274.88
268.448	273.88
268.681	274.88
268.913	288.88
269.145	262.88
269.377	276.88
269.609	286.88
269.841	278.88
270.073	270.88
270.306	271.88
270.538	276.88
270.77	274.88
271.002	297.88
271.234	275.88
271.466	275.88
271.698	267.88
271.93	275.88
272.162	267.88
272.394	286.88
272.626	288.88
272.858	296.88
273.09	279.88
273.322	289.88
273.553	282.88
273.785	285.88
274.017	299.88
274.249	288.88
274.481	303.88
274.713	304.88
274.945	325.88
275.176	295.88
275.408	297.88
275.64	315.88
275.872	308.88
276.104	301.88
276.335	288.88
276.567	322.88
276.799	295.88
277.031	320.88
277.262	320.88
277.494	323.88
277.726	311.88
277.957	317.88
278.189	298.88
278.421	310.88
278.652	313.88
278.884	304.88
279.115	331.88
279.347	335.88
279.579	310.88
279.81	334.88
280.042	314.88
280.273	319.88
280.505	344.88
280.736	329.88
280.968	328.88
281.199	337.88
281.431	354.88
281.662	342.88
281.894	354.88
282.125	338.88
282.356	347.88
282.588	347.88
282.819	348.88
283.051	339.88
283.282	352.88
283.513	344.88
283.745	352.88
283.976	341.88
284.207	360.88
284.439	359.88
284.67	338.88
284.901	338.88
285.132	368.88
285.364	347.88
285.595	365.88
285.826	352.88
286.057	373.88
286.288	384.88
286.52	364.88
286.751	376.88
286.982	374.88
287.213	357.88
287.444	384.88
287.675	354.88
287.906	370.88
288.138	370.88
288.369	374.88
288.6	391.88
288.831	389.88
289.062	370.88
289.293	378.88
289.524	370.88
289.755	389.88
289.986	400.88
290.217	371.88
290.448	380.88
290.679	368.88
290.91	380.88
291.141	394.88
291.371	392.88
291.602	384.88
291.833	405.88
292.064	370.88
292.295	382.88
292.526	385.88
292.757	374.88
292.987	384.88
293.218	399.88
293.449	385.88
293.68	398.88
293.91	393.88
294.141	412.88
294.372	376.88
294.603	369.88
294.833	399.88
295.064	384.88
295.295	401.88
295.525	398.88
295.756	402.88
295.987	396.88
296.217	396.88
296.448	390.88
296.679	392.88
296.909	398.88
297.14	414.88
297.37	421.88
297.601	429.88
297.831	399.88
298.062	431.88
298.292	425.88
298.523	438.88
298.753	426.88
298.984	436.88
299.214	434.88
299.445	440.88
299.675	397.88
299.905	423.88
300.136	427.88
300.366	447.88
300.597	445.88
300.827	440.88
301.057	419.88
301.288	443.88
301.518	451.88
301.748	447.88
301.979	450.88
302.209	446.88
302.439	467.88
302.669	452.88
302.9	439.88
303.13	433.88
303.36	410.88
303.59	409.88
303.82	448.88
304.051	447.88
304.281	451.88
304.511	438.88
304.741	438.88
304.971	430.88
305.201	441.88
305.431	461.88
305.661	454.88
305.891	434.88
306.121	439.88
306.352	442.88
306.582	427.88
306.812	430.88
307.042	432.88
307.272	427.88
307.502	422.88
307.731	430.88
307.961	429.88
308.191	429.88
308.421	426.88
308.651	412.88
308.881	412.88
309.111	419.88
309.341	432.88
309.571	418.88
309.8	439.88
310.03	432.88
310.26	439.88
310.49	447.88
310.72	440.88
310.949	426.88
311.179	439.88
311.409	440.88
311.639	441.88
311.868	441.88
312.098	441.88
312.328	463.88
312.557	454.88
312.787	439.88
313.017	417.88
313.246	455.88
313.476	461.88
313.706	461.88
313.935	471.88
314.165	453.88
314.394	467.88
314.624	452.88
314.853	477.88
315.083	448.88
315.312	460.88
315.542	442.88
315.771	456.88
316.001	457.88
316.23	430.88
316.46	440.88
316.689	449.88
316.919	442.88
317.148	429.88
317.377	434.88
317.607	451.88
317.836	438.88
318.065	438.88
318.295	448.88
318.524	449.88
318.753	436.88
318.983	440.88
319.212	430.88
319.441	462.88
319.67	430.88
319.9	455.88
320.129	467.88
320.358	442.88
320.587	456.88
320.816	453.88
321.046	456.88
321.275	455.88
321.504	458.88
321.733	448.88
321.962	470.88
322.191	456.88
322.42	449.88
322.649	452.88
322.878	453.88
323.108	450.88
323.337	465.88
323.566	476.88
323.795	483.88
324.024	471.88
324.253	455.88
324.482	459.88
324.71	456.88
324.939	469.88
325.168	486.88
325.397	478.88
325.626	485.88
325.855	498.88
326.084	489.88
326.313	502.88
326.542	504.88
326.77	512.88
326.999	502.88
327.228	472.88
327.457	475.88
327.686	496.88
327.914	487.88
328.143	496.88
328.372	496.88
328.6	512.88
328.829	481.88
329.058	491.88
329.287	472.88
329.515	501.88
329.744	517.88
329.972	498.88
330.201	492.88
330.43	518.88
330.658	520.88
330.887	521.88
331.115	485.88
331.344	512.88
331.572	539.88
331.801	522.88
332.03	536.88
332.258	553.88
332.486	568.88
332.715	580.88
332.943	606.88
333.172	652.88
333.4	672.88
333.629	661.88
333.857	666.88
334.085	661.88
334.314	637.88
334.542	636.88
334.771	624.88
334.999	613.88
335.227	604.88
335.455	621.88
335.684	604.88
335.912	608.88
336.14	607.88
336.369	612.88
336.597	609.88
336.825	621.88
337.053	590.88
337.281	615.88
337.51	580.88
337.738	592.88
337.966	579.88
338.194	588.88
338.422	560.88
338.65	564.88
338.878	530.88
339.106	543.88
339.334	560.88
339.562	545.88
339.79	551.88
340.018	518.88
340.246	501.88
340.474	503.88
340.702	538.88
340.93	559.88
341.158	542.88
341.386	555.88
341.614	594.88
341.842	584.88
342.07	528.88
342.298	512.88
342.526	528.88
342.754	528.88
342.981	555.88
343.209	531.88
343.437	558.88
343.665	598.88
343.893	629.88
344.12	621.88
344.348	619.88
344.576	588.88
344.804	581.88
345.031	555.88
345.259	555.88
345.487	552.88
345.714	539.88
345.942	545.88
346.17	567.88
346.397	533.88
346.625	527.88
346.853	509.88
347.08	507.88
347.308	519.88
347.535	526.88
347.763	531.88
347.99	525.88
348.218	521.88
348.445	549.88
348.673	519.88
348.9	494.88
349.128	504.88
349.355	532.88
349.583	544.88
349.81	498.88
350.037	502.88
350.265	481.88
350.492	492.88
350.72	490.88
350.947	488.88
351.174	512.88
351.402	537.88
351.629	538.88
351.856	515.88
352.083	487.88
352.311	522.88
352.538	533.88
352.765	542.88
352.992	498.88
353.22	478.88
353.447	489.88
353.674	485.88
353.901	471.88
354.128	492.88
354.355	477.88
354.583	462.88
354.81	478.88
355.037	506.88
355.264	487.88
355.491	500.88
355.718	487.88
355.945	518.88
356.172	495.88
356.399	511.88
356.626	508.88
356.853	533.88
357.08	516.88
357.307	502.88
357.534	479.88
357.761	491.88
357.988	501.88
358.215	484.88
358.441	478.88
358.668	506.88
358.895	472.88
359.122	485.88
359.349	471.88
359.576	510.88
359.802	468.88
360.029	483.88
360.256	496.88
360.483	490.88
360.709	484.88
360.936	504.88
361.163	520.88
361.39	523.88
361.616	514.88
361.843	491.88
362.07	508.88
362.296	546.88
362.523	501.88
362.749	502.88
362.976	480.88
363.203	493.88
363.429	473.88
363.656	505.88
363.882	520.88
364.109	488.88
364.335	498.88
364.562	503.88
364.788	491.88
365.015	494.88
365.241	503.88
365.468	491.88
365.694	479.88
365.92	488.88
366.147	482.88
366.373	512.88
366.599	484.88
366.826	489.88
367.052	478.88
367.278	502.88
367.505	494.88
367.731	487.88
367.957	478.88
368.184	487.88
368.41	484.88
368.636	491.88
368.862	511.88
369.089	489.88
369.315	484.88
369.541	482.88
369.767	497.88
369.993	504.88
370.219	495.88
370.445	517.88
370.672	503.88
370.898	502.88
371.124	519.88
371.35	547.88
371.576	544.88
371.802	526.88
372.028	530.88
372.254	530.88
372.48	529.88
372.706	574.88
372.932	565.88
373.158	576.88
373.384	548.88
373.61	531.88
373.835	553.88
374.061	554.88
374.287	550.88
374.513	562.88
374.739	573.88
374.965	578.88
375.191	588.88
375.416	591.88
375.642	582.88
375.868	585.88
376.094	563.88
376.319	543.88
376.545	533.88
376.771	535.88
376.997	558.88
377.222	543.88
377.448	547.88
377.674	540.88
377.899	566.88
378.125	519.88
378.35	543.88
378.576	540.88
378.802	547.88
379.027	502.88
379.253	522.88
379.478	524.88
379.704	549.88
379.929	542.88
380.155	513.88
380.38	522.88
380.606	522.88
380.831	519.88
381.057	523.88
381.282	522.88
381.507	534.88
381.733	536.88
381.958	545.88
382.184	535.88
382.409	552.88
382.634	548.88
382.86	570.88
383.085	556.88
383.31	573.88
383.535	584.88
383.761	579.88
383.986	615.88
384.211	596.88
384.436	612.88
384.662	622.88
384.887	649.88
385.112	653.88
385.337	637.88
385.562	657.88
385.787	661.88
386.013	658.88
386.238	664.88
386.463	640.88
386.688	645.88
386.913	631.88
387.138	606.88
387.363	646.88
387.588	613.88
387.813	639.88
388.038	611.88
388.263	620.88
388.488	624.88
388.713	624.88
388.938	634.88
389.163	602.88
389.387	625.88
389.612	600.88
389.837	620.88
390.062	631.88
390.287	632.88
390.512	626.88
390.736	642.88
390.961	658.88
391.186	650.88
391.411	663.88
391.636	676.88
391.86	689.88
392.085	727.88
392.31	711.88
392.534	694.88
392.759	676.88
392.984	682.88
393.208	679.88
393.433	663.88
393.658	683.88
393.882	676.88
394.107	671.88
394.331	682.88
394.556	679.88
394.78	695.88
395.005	680.88
395.229	686.88
395.454	700.88
395.678	722.88
395.903	712.88
396.127	682.88
396.352	646.88
396.576	653.88
396.801	651.88
397.025	682.88
397.249	679.88
397.474	715.88
397.698	723.88
397.922	702.88
398.147	674.88
398.371	724.88
398.595	726.88
398.82	768.88
399.044	800.88
399.268	922.88
399.492	1071.88
399.717	1244.88
399.941	1187.88
400.165	1052.88
400.389	928.88
400.613	840.88
400.837	825.88
401.062	782.88
401.286	811.88
401.51	821.88
401.734	780.88
401.958	828.88
402.182	822.88
402.406	800.88
402.63	831.88
402.854	828.88
403.078	867.88
403.302	888.88
403.526	898.88
403.75	911.88
403.974	930.88
404.198	949.88
404.422	954.88
404.645	902.88
404.869	901.88
405.093	891.88
405.317	878.88
405.541	862.88
405.765	884.88
405.988	841.88
406.212	862.88
406.436	870.88
406.66	896.88
406.883	887.88
407.107	967.88
407.331	1003.88
407.555	1027.88
407.778	1033.88
408.002	1022.88
408.226	994.88
408.449	979.88
408.673	897.88
408.896	924.88
409.12	907.88
409.344	892.88
409.567	906.88
409.791	921.88
410.014	910.88
410.238	879.88
410.461	888.88
410.685	881.88
410.908	862.88
411.132	868.88
411.355	843.88
411.578	835.88
411.802	822.88
412.025	829.88
412.249	826.88
412.472	814.88
412.695	807.88
412.919	789.88
413.142	778.88
413.365	782.88
413.589	763.88
413.812	780.88
414.035	790.88
414.258	790.88
414.482	797.88
414.705	801.88
414.928	798.88
415.151	790.88
415.374	796.88
415.597	794.88
415.821	795.88
416.044	758.88
416.267	751.88
416.49	776.88
416.713	769.88
416.936	779.88
417.159	757.88
417.382	773.88
417.605	770.88
417.828	778.88
418.051	766.88
418.274	789.88
418.497	774.88
418.72	796.88
418.943	814.88
419.166	858.88
419.389	919.88
419.611	867.88
419.834	868.88
420.057	828.88
420.28	793.88
420.503	794.88
420.726	750.88
420.948	788.88
421.171	777.88
421.394	758.88
421.617	782.88
421.839	800.88
422.062	804.88
422.285	794.88
422.507	795.88
422.73	819.88
422.953	803.88
423.175	830.88
423.398	816.88
423.621	848.88
423.843	868.88
424.066	878.88
424.288	840.88
424.511	784.88
424.733	808.88
424.956	804.88
425.178	809.88
425.401	814.88
425.623	778.88
425.846	755.88
426.068	746.88
426.291	753.88
426.513	732.88
426.735	739.88
426.958	763.88
427.18	718.88
427.402	748.88
427.625	724.88
427.847	690.88
428.069	686.88
428.292	718.88
428.514	696.88
428.736	706.88
428.958	713.88
429.181	665.88
429.403	705.88
429.625	688.88
429.847	694.88
430.069	706.88
430.292	696.88
430.514	677.88
430.736	686.88
430.958	702.88
431.18	663.88
431.402	691.88
431.624	712.88
431.846	712.88
432.068	737.88
432.29	750.88
432.512	731.88
432.734	712.88
432.956	695.88
433.178	706.88
433.4	707.88
433.622	699.88
433.844	725.88
434.066	706.88
434.287	739.88
434.509	765.88
434.731	778.88
434.953	765.88
435.175	823.88
435.397	800.88
435.618	793.88
435.84	772.88
436.062	741.88
436.284	734.88
436.505	742.88
436.727	718.88
436.949	717.88
437.17	712.88
437.392	699.88
437.614	693.88
437.835	695.88
438.057	704.88
438.278	699.88
438.5	678.88
438.721	676.88
438.943	688.88
439.165	694.88
439.386	691.88
439.608	707.88
439.829	712.88
440.05	741.88
440.272	709.88
440.493	710.88
440.715	722.88
440.936	736.88
441.158	730.88
441.379	766.88
441.6	772.88
441.822	832.88
442.043	815.88
442.264	804.88
442.486	772.88
442.707	788.88
442.928	784.88
443.149	790.88
443.371	798.88
443.592	790.88
443.813	806.88
444.034	801.88
444.255	855.88
444.476	860.88
444.698	905.88
444.919	981.88
445.14	1038.88
445.361	902.88
445.582	811.88
445.803	778.88
446.024	748.88
446.245	757.88
446.466	738.88
446.687	711.88
446.908	696.88
447.129	695.88
447.35	682.88
447.571	696.88
447.792	702.88
448.013	662.88
448.234	680.88
448.455	660.88
448.675	650.88
448.896	664.88
449.117	651.88
449.338	651.88
449.559	647.88
449.779	646.88
450	653.88
450.221	648.88
450.442	646.88
450.662	648.88
450.883	666.88
451.104	698.88
451.324	651.88
451.545	684.88
451.766	672.88
451.986	646.88
452.207	678.88
452.428	655.88
452.648	662.88
452.869	666.88
453.089	659.88
453.31	690.88
453.53	651.88
453.751	645.88
453.971	666.88
454.192	626.88
454.412	624.88
454.633	633.88
454.853	616.88
455.073	623.88
455.294	648.88
455.514	615.88
455.734	597.88
455.955	613.88
456.175	598.88
456.395	598.88
456.616	622.88
456.836	628.88
457.056	595.88
457.276	610.88
457.497	632.88
457.717	611.88
457.937	616.88
458.157	607.88
458.377	615.88
458.598	656.88
458.818	658.88
459.038	674.88
459.258	730.88
459.478	698.88
459.698	727.88
459.918	785.88
460.138	819.88
460.358	863.88
460.578	866.88
460.798	871.88
461.018	863.88
461.238	835.88
461.458	826.88
461.678	824.88
461.898	839.88
462.118	855.88
462.338	926.88
462.558	942.88
462.777	931.88
462.997	1060.88
463.217	1155.88
463.437	1163.88
463.657	1072.88
463.876	1015.88
464.096	998.88
464.316	992.88
464.536	992.88
464.755	949.88
464.975	922.88
465.195	882.88
465.414	841.88
465.634	779.88
465.854	764.88
466.073	738.88
466.293	702.88
466.512	715.88
466.732	688.88
466.951	692.88
467.171	708.88
467.391	702.88
467.61	680.88
467.829	702.88
468.049	676.88
468.268	667.88
468.488	659.88
468.707	652.88
468.927	673.88
469.146	663.88
469.365	683.88
469.585	692.88
469.804	688.88
470.023	689.88
470.243	703.88
470.462	721.88
470.681	732.88
470.901	702.88
471.12	694.88
471.339	673.88
471.558	678.88
471.777	696.88
471.997	680.88
472.216	644.88
472.435	654.88
472.654	656.88
472.873	673.88
473.092	650.88
473.311	646.88
473.53	666.88
473.749	672.88
473.968	652.88
474.187	655.88
474.406	637.88
474.625	671.88
474.844	646.88
475.063	642.88
475.282	669.88
475.501	649.88
475.72	665.88
475.939	651.88
476.158	652.88
476.377	677.88
476.596	671.88
476.814	709.88
477.033	697.88
477.252	708.88
477.471	716.88
477.69	758.88
477.908	740.88
478.127	776.88
478.346	763.88
478.564	798.88
478.783	800.88
479.002	846.88
479.22	816.88
479.439	790.88
479.658	786.88
479.876	805.88
480.095	836.88
480.313	875.88
480.532	884.88
480.751	888.88
480.969	851.88
481.188	800.88
481.406	786.88
481.624	770.88
481.843	753.88
482.061	784.88
482.28	772.88
482.498	768.88
482.717	735.88
482.935	746.88
483.153	778.88
483.372	768.88
483.59	751.88
483.808	764.88
484.027	749.88
484.245	770.88
484.463	799.88
484.681	803.88
484.9	790.88
485.118	799.88
485.336	784.88
485.554	825.88
485.772	790.88
485.99	807.88
486.209	829.88
486.427	835.88
486.645	796.88
486.863	825.88
487.081	805.88
487.299	827.88
487.517	799.88
487.735	818.88
487.953	814.88
488.171	795.88
488.389	807.88
488.607	807.88
488.825	814.88
489.043	788.88
489.261	784.88
489.479	792.88
489.696	786.88
489.914	777.88
490.132	779.88
490.35	771.88
490.568	786.88
490.786	792.88
491.003	800.88
491.221	805.88
491.439	801.88
491.657	789.88
491.874	787.88
492.092	809.88
492.31	814.88
492.527	786.88
492.745	789.88
492.963	830.88
493.18	792.88
493.398	828.88
493.615	842.88
493.833	841.88
494.05	819.88
494.268	845.88
494.485	834.88
494.703	819.88
494.92	831.88
495.138	819.88
495.355	819.88
495.573	794.88
495.79	828.88
496.008	839.88
496.225	826.88
496.442	839.88
496.66	852.88
496.877	876.88
497.094	878.88
497.312	890.88
497.529	906.88
497.746	930.88
497.963	937.88
498.181	972.88
498.398	995.88
498.615	1074.88
498.832	1156.88
499.049	1236.88
499.267	1315.88
499.484	1456.88
499.701	1612.88
499.918	1800.88
500.135	2067.88
500.352	2382.88
500.569	2555.88
500.786	2460.88
501.003	2304.88
501.22	1968.88
