Data from Ni(NO3)2Standard.Agarose3%.GreenCap.LampEnergy5.5.E.O_HRD10591_14-41-16-188.txt Node
Date: Mon Jul 22 14:41:16 EDT 2019
User: cochatt
Spectrometer: HR+D1059
Trigger mode: 1
Integration Time (sec): 1.000000E-1
Scans to average: 1
Electric dark correction enabled: true
Nonlinearity correction enabled: false
Boxcar width: 0
XAxis mode: Wavelengths
Number of Pixels in Spectrum: 2048
>>>>>Begin Spectral Data<<<<<
223.165	-15.44
223.4	-15.44
223.635	-15.44
223.869	-3.44
224.104	-10.44
224.338	-10.44
224.573	-5.44
224.808	-13.44
225.042	-11.44
225.277	-12.44
225.511	-8.44
225.746	3.56
225.98	4.56
226.215	11.56
226.449	5.56
226.683	16.56
226.918	16.56
227.152	32.56
227.387	33.56
227.621	36.56
227.856	51.56
228.09	37.56
228.324	57.56
228.559	69.56
228.793	68.56
229.027	61.56
229.262	72.56
229.496	75.56
229.73	74.56
229.964	81.56
230.199	71.56
230.433	93.56
230.667	70.56
230.901	83.56
231.136	91.56
231.37	89.56
231.604	77.56
231.838	68.56
232.072	86.56
232.306	101.56
232.541	94.56
232.775	77.56
233.009	99.56
233.243	86.56
233.477	93.56
233.711	85.56
233.945	86.56
234.179	80.56
234.413	87.56
234.647	84.56
234.881	76.56
235.115	75.56
235.349	84.56
235.583	70.56
235.817	74.56
236.051	76.56
236.285	88.56
236.519	81.56
236.753	76.56
236.987	87.56
237.221	81.56
237.455	75.56
237.689	77.56
237.922	76.56
238.156	77.56
238.39	59.56
238.624	90.56
238.858	79.56
239.091	73.56
239.325	91.56
239.559	83.56
239.793	85.56
240.027	75.56
240.26	91.56
240.494	76.56
240.728	83.56
240.961	64.56
241.195	65.56
241.429	89.56
241.662	79.56
241.896	78.56
242.13	73.56
242.363	84.56
242.597	74.56
242.83	75.56
243.064	77.56
243.298	91.56
243.531	91.56
243.765	85.56
243.998	77.56
244.232	83.56
244.465	87.56
244.699	85.56
244.932	76.56
245.166	81.56
245.399	97.56
245.633	80.56
245.866	84.56
246.099	82.56
246.333	81.56
246.566	75.56
246.8	73.56
247.033	85.56
247.266	87.56
247.5	84.56
247.733	84.56
247.966	77.56
248.2	84.56
248.433	85.56
248.666	78.56
248.899	89.56
249.133	84.56
249.366	72.56
249.599	77.56
249.832	81.56
250.066	74.56
250.299	71.56
250.532	79.56
250.765	92.56
250.998	79.56
251.231	82.56
251.465	103.56
251.698	87.56
251.931	89.56
252.164	91.56
252.397	67.56
252.63	87.56
252.863	80.56
253.096	77.56
253.329	99.56
253.562	79.56
253.795	73.56
254.028	71.56
254.261	80.56
254.494	101.56
254.727	83.56
254.96	87.56
255.193	82.56
255.426	87.56
255.659	76.56
255.892	81.56
256.124	80.56
256.357	87.56
256.59	80.56
256.823	79.56
257.056	71.56
257.289	82.56
257.521	80.56
257.754	89.56
257.987	91.56
258.22	76.56
258.452	80.56
258.685	82.56
258.918	81.56
259.151	87.56
259.383	77.56
259.616	87.56
259.849	93.56
260.081	91.56
260.314	86.56
260.547	82.56
260.779	85.56
261.012	88.56
261.244	74.56
261.477	103.56
261.71	86.56
261.942	75.56
262.175	71.56
262.407	97.56
262.64	72.56
262.872	88.56
263.105	82.56
263.337	99.56
263.57	84.56
263.802	85.56
264.035	89.56
264.267	75.56
264.499	79.56
264.732	89.56
264.964	76.56
265.197	91.56
265.429	92.56
265.661	95.56
265.894	90.56
266.126	78.56
266.358	80.56
266.591	87.56
266.823	69.56
267.055	77.56
267.287	99.56
267.52	91.56
267.752	85.56
267.984	83.56
268.216	96.56
268.448	93.56
268.681	96.56
268.913	79.56
269.145	81.56
269.377	88.56
269.609	87.56
269.841	95.56
270.073	76.56
270.306	87.56
270.538	72.56
270.77	91.56
271.002	89.56
271.234	96.56
271.466	94.56
271.698	81.56
271.93	98.56
272.162	87.56
272.394	102.56
272.626	102.56
272.858	83.56
273.09	100.56
273.322	91.56
273.553	82.56
273.785	89.56
274.017	95.56
274.249	85.56
274.481	94.56
274.713	71.56
274.945	61.56
275.176	71.56
275.408	96.56
275.64	87.56
275.872	86.56
276.104	92.56
276.335	89.56
276.567	88.56
276.799	88.56
277.031	79.56
277.262	91.56
277.494	87.56
277.726	84.56
277.957	79.56
278.189	83.56
278.421	85.56
278.652	84.56
278.884	94.56
279.115	93.56
279.347	92.56
279.579	88.56
279.81	92.56
280.042	93.56
280.273	91.56
280.505	83.56
280.736	82.56
280.968	81.56
281.199	90.56
281.431	96.56
281.662	87.56
281.894	83.56
282.125	90.56
282.356	84.56
282.588	86.56
282.819	93.56
283.051	73.56
283.282	91.56
283.513	89.56
283.745	85.56
283.976	76.56
284.207	87.56
284.439	81.56
284.67	82.56
284.901	83.56
285.132	81.56
285.364	99.56
285.595	98.56
285.826	81.56
286.057	78.56
286.288	95.56
286.52	89.56
286.751	87.56
286.982	77.56
287.213	94.56
287.444	83.56
287.675	99.56
287.906	86.56
288.138	92.56
288.369	84.56
288.6	94.56
288.831	78.56
289.062	86.56
289.293	83.56
289.524	84.56
289.755	83.56
289.986	95.56
290.217	90.56
290.448	83.56
290.679	77.56
290.91	94.56
291.141	87.56
291.371	96.56
291.602	93.56
291.833	87.56
292.064	97.56
292.295	92.56
292.526	94.56
292.757	93.56
292.987	84.56
293.218	87.56
293.449	91.56
293.68	81.56
293.91	88.56
294.141	83.56
294.372	81.56
294.603	87.56
294.833	80.56
295.064	89.56
295.295	91.56
295.525	90.56
295.756	80.56
295.987	89.56
296.217	71.56
296.448	83.56
296.679	90.56
296.909	79.56
297.14	85.56
297.37	89.56
297.601	92.56
297.831	96.56
298.062	94.56
298.292	80.56
298.523	99.56
298.753	88.56
298.984	85.56
299.214	96.56
299.445	86.56
299.675	78.56
299.905	90.56
300.136	85.56
300.366	96.56
300.597	87.56
300.827	86.56
301.057	68.56
301.288	80.56
301.518	76.56
301.748	95.56
301.979	91.56
302.209	91.56
302.439	79.56
302.669	95.56
302.9	80.56
303.13	75.56
303.36	91.56
303.59	93.56
303.82	97.56
304.051	75.56
304.281	87.56
304.511	87.56
304.741	89.56
304.971	94.56
305.201	95.56
305.431	76.56
305.661	89.56
305.891	79.56
306.121	101.56
306.352	91.56
306.582	89.56
306.812	92.56
307.042	85.56
307.272	100.56
307.502	86.56
307.731	104.56
307.961	92.56
308.191	80.56
308.421	95.56
308.651	76.56
308.881	76.56
309.111	85.56
309.341	91.56
309.571	85.56
309.8	83.56
310.03	85.56
310.26	85.56
310.49	86.56
310.72	85.56
310.949	86.56
311.179	93.56
311.409	80.56
311.639	74.56
311.868	80.56
312.098	88.56
312.328	75.56
312.557	90.56
312.787	101.56
313.017	112.56
313.246	94.56
313.476	95.56
313.706	84.56
313.935	89.56
314.165	94.56
314.394	100.56
314.624	89.56
314.853	96.56
315.083	93.56
315.312	78.56
315.542	87.56
315.771	91.56
316.001	90.56
316.23	85.56
316.46	92.56
316.689	96.56
316.919	95.56
317.148	102.56
317.377	79.56
317.607	103.56
317.836	90.56
318.065	93.56
318.295	85.56
318.524	85.56
318.753	84.56
318.983	100.56
319.212	90.56
319.441	88.56
319.67	85.56
319.9	92.56
320.129	76.56
320.358	89.56
320.587	95.56
320.816	95.56
321.046	85.56
321.275	91.56
321.504	82.56
321.733	92.56
321.962	98.56
322.191	90.56
322.42	95.56
322.649	77.56
322.878	98.56
323.108	91.56
323.337	90.56
323.566	88.56
323.795	97.56
324.024	87.56
324.253	84.56
324.482	89.56
324.71	83.56
324.939	91.56
325.168	72.56
325.397	101.56
325.626	90.56
325.855	93.56
326.084	94.56
326.313	94.56
326.542	93.56
326.77	90.56
326.999	86.56
327.228	89.56
327.457	84.56
327.686	102.56
327.914	87.56
328.143	86.56
328.372	87.56
328.6	89.56
328.829	91.56
329.058	95.56
329.287	93.56
329.515	97.56
329.744	99.56
329.972	80.56
330.201	85.56
330.43	94.56
330.658	85.56
330.887	92.56
331.115	91.56
331.344	94.56
331.572	102.56
331.801	74.56
332.03	90.56
332.258	88.56
332.486	87.56
332.715	83.56
332.943	83.56
333.172	83.56
333.4	89.56
333.629	96.56
333.857	101.56
334.085	104.56
334.314	91.56
334.542	95.56
334.771	92.56
334.999	88.56
335.227	93.56
335.455	80.56
335.684	96.56
335.912	89.56
336.14	95.56
336.369	87.56
336.597	92.56
336.825	95.56
337.053	109.56
337.281	84.56
337.51	79.56
337.738	109.56
337.966	91.56
338.194	95.56
338.422	89.56
338.65	96.56
338.878	99.56
339.106	96.56
339.334	88.56
339.562	91.56
339.79	79.56
340.018	97.56
340.246	80.56
340.474	91.56
340.702	77.56
340.93	78.56
341.158	92.56
341.386	94.56
341.614	98.56
341.842	90.56
342.07	94.56
342.298	76.56
342.526	89.56
342.754	84.56
342.981	92.56
343.209	86.56
343.437	93.56
343.665	88.56
343.893	78.56
344.12	77.56
344.348	109.56
344.576	117.56
344.804	88.56
345.031	79.56
345.259	86.56
345.487	88.56
345.714	92.56
345.942	103.56
346.17	81.56
346.397	91.56
346.625	101.56
346.853	90.56
347.08	86.56
347.308	82.56
347.535	74.56
347.763	95.56
347.99	87.56
348.218	86.56
348.445	90.56
348.673	81.56
348.9	85.56
349.128	79.56
349.355	81.56
349.583	87.56
349.81	95.56
350.037	97.56
350.265	87.56
350.492	92.56
350.72	86.56
350.947	91.56
351.174	74.56
351.402	74.56
351.629	92.56
351.856	102.56
352.083	85.56
352.311	94.56
352.538	98.56
352.765	88.56
352.992	101.56
353.22	95.56
353.447	96.56
353.674	88.56
353.901	83.56
354.128	87.56
354.355	89.56
354.583	86.56
354.81	89.56
355.037	83.56
355.264	95.56
355.491	80.56
355.718	92.56
355.945	97.56
356.172	95.56
356.399	101.56
356.626	96.56
356.853	77.56
357.08	104.56
357.307	97.56
357.534	87.56
357.761	87.56
357.988	71.56
358.215	88.56
358.441	90.56
358.668	88.56
358.895	101.56
359.122	92.56
359.349	86.56
359.576	95.56
359.802	101.56
360.029	88.56
360.256	96.56
360.483	91.56
360.709	85.56
360.936	91.56
361.163	83.56
361.39	85.56
361.616	91.56
361.843	86.56
362.07	103.56
362.296	90.56
362.523	88.56
362.749	88.56
362.976	101.56
363.203	78.56
363.429	85.56
363.656	88.56
363.882	112.56
364.109	84.56
364.335	95.56
364.562	78.56
364.788	88.56
365.015	103.56
365.241	87.56
365.468	93.56
365.694	86.56
365.92	84.56
366.147	73.56
366.373	85.56
366.599	90.56
366.826	83.56
367.052	88.56
367.278	90.56
367.505	96.56
367.731	96.56
367.957	73.56
368.184	87.56
368.41	95.56
368.636	104.56
368.862	85.56
369.089	90.56
369.315	82.56
369.541	86.56
369.767	85.56
369.993	84.56
370.219	90.56
370.445	100.56
370.672	96.56
370.898	88.56
371.124	99.56
371.35	91.56
371.576	67.56
371.802	78.56
372.028	91.56
372.254	77.56
372.48	83.56
372.706	83.56
372.932	83.56
373.158	101.56
373.384	80.56
373.61	95.56
373.835	84.56
374.061	87.56
374.287	78.56
374.513	85.56
374.739	75.56
374.965	85.56
375.191	87.56
375.416	97.56
375.642	86.56
375.868	94.56
376.094	86.56
376.319	100.56
376.545	84.56
376.771	90.56
376.997	97.56
377.222	102.56
377.448	96.56
377.674	86.56
377.899	89.56
378.125	93.56
378.35	74.56
378.576	77.56
378.802	89.56
379.027	89.56
379.253	85.56
379.478	96.56
379.704	86.56
379.929	82.56
380.155	78.56
380.38	73.56
380.606	87.56
380.831	91.56
381.057	81.56
381.282	88.56
381.507	95.56
381.733	99.56
381.958	95.56
382.184	84.56
382.409	91.56
382.634	102.56
382.86	77.56
383.085	79.56
383.31	74.56
383.535	89.56
383.761	99.56
383.986	99.56
384.211	86.56
384.436	95.56
384.662	83.56
384.887	98.56
385.112	86.56
385.337	81.56
385.562	94.56
385.787	99.56
386.013	99.56
386.238	103.56
386.463	93.56
386.688	83.56
386.913	88.56
387.138	94.56
387.363	89.56
387.588	95.56
387.813	88.56
388.038	83.56
388.263	96.56
388.488	94.56
388.713	102.56
388.938	95.56
389.163	81.56
389.387	88.56
389.612	88.56
389.837	94.56
390.062	87.56
390.287	92.56
390.512	88.56
390.736	100.56
390.961	86.56
391.186	81.56
391.411	80.56
391.636	97.56
391.86	87.56
392.085	75.56
392.31	91.56
392.534	87.56
392.759	90.56
392.984	97.56
393.208	82.56
393.433	98.56
393.658	81.56
393.882	80.56
394.107	87.56
394.331	93.56
394.556	102.56
394.78	104.56
395.005	92.56
395.229	79.56
395.454	74.56
395.678	97.56
395.903	95.56
396.127	83.56
396.352	75.56
396.576	78.56
396.801	90.56
397.025	102.56
397.249	100.56
397.474	109.56
397.698	92.56
397.922	103.56
398.147	88.56
398.371	80.56
398.595	91.56
398.82	101.56
399.044	100.56
399.268	91.56
399.492	103.56
399.717	94.56
399.941	99.56
400.165	91.56
400.389	90.56
400.613	86.56
400.837	90.56
401.062	86.56
401.286	84.56
401.51	91.56
401.734	101.56
401.958	89.56
402.182	94.56
402.406	104.56
402.63	97.56
402.854	89.56
403.078	91.56
403.302	92.56
403.526	92.56
403.75	83.56
403.974	99.56
404.198	88.56
404.422	97.56
404.645	93.56
404.869	87.56
405.093	89.56
405.317	104.56
405.541	87.56
405.765	82.56
405.988	81.56
406.212	89.56
406.436	84.56
406.66	76.56
406.883	85.56
407.107	94.56
407.331	88.56
407.555	94.56
407.778	79.56
408.002	85.56
408.226	70.56
408.449	98.56
408.673	85.56
408.896	92.56
409.12	98.56
409.344	91.56
409.567	78.56
409.791	110.56
410.014	89.56
410.238	87.56
410.461	99.56
410.685	87.56
410.908	90.56
411.132	108.56
411.355	90.56
411.578	85.56
411.802	105.56
412.025	84.56
412.249	93.56
412.472	90.56
412.695	99.56
412.919	86.56
413.142	86.56
413.365	83.56
413.589	87.56
413.812	89.56
414.035	96.56
414.258	84.56
414.482	85.56
414.705	94.56
414.928	97.56
415.151	94.56
415.374	81.56
415.597	103.56
415.821	76.56
416.044	85.56
416.267	87.56
416.49	86.56
416.713	70.56
416.936	101.56
417.159	86.56
417.382	92.56
417.605	89.56
417.828	90.56
418.051	91.56
418.274	96.56
418.497	91.56
418.72	96.56
418.943	93.56
419.166	89.56
419.389	94.56
419.611	103.56
419.834	95.56
420.057	81.56
420.28	79.56
420.503	80.56
420.726	97.56
420.948	102.56
421.171	82.56
421.394	82.56
421.617	85.56
421.839	88.56
422.062	98.56
422.285	97.56
422.507	95.56
422.73	94.56
422.953	96.56
423.175	90.56
423.398	95.56
423.621	89.56
423.843	92.56
424.066	80.56
424.288	103.56
424.511	102.56
424.733	89.56
424.956	87.56
425.178	77.56
425.401	96.56
425.623	95.56
425.846	85.56
426.068	87.56
426.291	90.56
426.513	85.56
426.735	93.56
426.958	85.56
427.18	79.56
427.402	86.56
427.625	99.56
427.847	87.56
428.069	90.56
428.292	89.56
428.514	81.56
428.736	97.56
428.958	83.56
429.181	102.56
429.403	86.56
429.625	88.56
429.847	93.56
430.069	85.56
430.292	92.56
430.514	88.56
430.736	83.56
430.958	103.56
431.18	85.56
431.402	98.56
431.624	97.56
431.846	70.56
432.068	86.56
432.29	111.56
432.512	95.56
432.734	79.56
432.956	94.56
433.178	92.56
433.4	98.56
433.622	82.56
433.844	88.56
434.066	92.56
434.287	108.56
434.509	84.56
434.731	101.56
434.953	95.56
435.175	101.56
435.397	91.56
435.618	87.56
435.84	80.56
436.062	83.56
436.284	77.56
436.505	84.56
436.727	82.56
436.949	89.56
437.17	92.56
437.392	103.56
437.614	88.56
437.835	103.56
438.057	89.56
438.278	79.56
438.5	85.56
438.721	85.56
438.943	86.56
439.165	81.56
439.386	86.56
439.608	84.56
439.829	84.56
440.05	91.56
440.272	82.56
440.493	87.56
440.715	90.56
440.936	94.56
441.158	90.56
441.379	90.56
441.6	92.56
441.822	86.56
442.043	79.56
442.264	78.56
442.486	72.56
442.707	81.56
442.928	108.56
443.149	93.56
443.371	93.56
443.592	95.56
443.813	91.56
444.034	87.56
444.255	104.56
444.476	80.56
444.698	93.56
444.919	80.56
445.14	208.56
445.361	143.56
445.582	79.56
445.803	93.56
446.024	108.56
446.245	99.56
446.466	83.56
446.687	92.56
446.908	97.56
447.129	73.56
447.35	91.56
447.571	94.56
447.792	93.56
448.013	91.56
448.234	78.56
448.455	75.56
448.675	96.56
448.896	79.56
449.117	91.56
449.338	82.56
449.559	90.56
449.779	85.56
450	93.56
450.221	89.56
450.442	91.56
450.662	91.56
450.883	87.56
451.104	89.56
451.324	84.56
451.545	88.56
451.766	82.56
451.986	95.56
452.207	83.56
452.428	93.56
452.648	99.56
452.869	79.56
453.089	98.56
453.31	94.56
453.53	85.56
453.751	63.56
453.971	85.56
454.192	87.56
454.412	77.56
454.633	96.56
454.853	72.56
455.073	93.56
455.294	87.56
455.514	91.56
455.734	85.56
455.955	83.56
456.175	91.56
456.395	80.56
456.616	80.56
456.836	79.56
457.056	84.56
457.276	96.56
457.497	96.56
457.717	88.56
457.937	97.56
458.157	84.56
458.377	98.56
458.598	97.56
458.818	85.56
459.038	80.56
459.258	90.56
459.478	83.56
459.698	82.56
459.918	78.56
460.138	90.56
460.358	95.56
460.578	89.56
460.798	74.56
461.018	91.56
461.238	92.56
461.458	93.56
461.678	88.56
461.898	92.56
462.118	92.56
462.338	100.56
462.558	88.56
462.777	92.56
462.997	85.56
463.217	93.56
463.437	101.56
463.657	100.56
463.876	99.56
464.096	99.56
464.316	91.56
464.536	91.56
464.755	86.56
464.975	79.56
465.195	87.56
465.414	93.56
465.634	87.56
465.854	87.56
466.073	93.56
466.293	90.56
466.512	103.56
466.732	89.56
466.951	101.56
467.171	95.56
467.391	93.56
467.61	88.56
467.829	86.56
468.049	89.56
468.268	88.56
468.488	94.56
468.707	81.56
468.927	95.56
469.146	82.56
469.365	87.56
469.585	97.56
469.804	83.56
470.023	86.56
470.243	94.56
470.462	88.56
470.681	89.56
470.901	80.56
471.12	89.56
471.339	86.56
471.558	91.56
471.777	91.56
471.997	83.56
472.216	75.56
472.435	80.56
472.654	93.56
472.873	81.56
473.092	90.56
473.311	90.56
473.53	84.56
473.749	99.56
473.968	95.56
474.187	89.56
474.406	97.56
474.625	88.56
474.844	94.56
475.063	78.56
475.282	81.56
475.501	86.56
475.72	96.56
475.939	88.56
476.158	99.56
476.377	89.56
476.596	90.56
476.814	90.56
477.033	89.56
477.252	89.56
477.471	95.56
477.69	97.56
477.908	85.56
478.127	87.56
478.346	81.56
478.564	95.56
478.783	87.56
479.002	74.56
479.22	81.56
479.439	91.56
479.658	83.56
479.876	101.56
480.095	90.56
480.313	99.56
480.532	101.56
480.751	99.56
480.969	94.56
481.188	97.56
481.406	97.56
481.624	85.56
481.843	104.56
482.061	93.56
482.28	91.56
482.498	89.56
482.717	105.56
482.935	76.56
483.153	99.56
483.372	85.56
483.59	98.56
483.808	96.56
484.027	102.56
484.245	90.56
484.463	96.56
484.681	95.56
484.9	99.56
485.118	98.56
485.336	85.56
485.554	81.56
485.772	94.56
485.99	89.56
486.209	93.56
486.427	84.56
486.645	99.56
486.863	100.56
487.081	92.56
487.299	102.56
487.517	105.56
487.735	108.56
487.953	105.56
488.171	85.56
488.389	88.56
488.607	101.56
488.825	91.56
489.043	98.56
489.261	96.56
489.479	95.56
489.696	92.56
489.914	98.56
490.132	90.56
490.35	89.56
490.568	99.56
490.786	84.56
491.003	87.56
491.221	95.56
491.439	94.56
491.657	98.56
491.874	96.56
492.092	99.56
492.31	95.56
492.527	101.56
492.745	79.56
492.963	92.56
493.18	87.56
493.398	86.56
493.615	105.56
493.833	93.56
494.05	94.56
494.268	96.56
494.485	96.56
494.703	104.56
494.92	95.56
495.138	103.56
495.355	105.56
495.573	96.56
495.79	108.56
496.008	98.56
496.225	97.56
496.442	97.56
496.66	94.56
496.877	91.56
497.094	92.56
497.312	104.56
497.529	100.56
497.746	92.56
497.963	90.56
498.181	102.56
498.398	109.56
498.615	100.56
498.832	91.56
499.049	95.56
499.267	103.56
499.484	100.56
499.701	123.56
499.918	118.56
500.135	116.56
500.352	117.56
500.569	101.56
500.786	116.56
501.003	107.56
501.22	114.56
501.437	112.56
501.654	114.56
501.871	100.56
502.088	106.56
502.305	120.56
502.522	104.56
502.739	89.56
502.956	93.56
503.172	100.56
503.389	105.56
503.606	118.56
503.823	101.56
504.04	96.56
504.256	105.56
504.473	103.56
504.69	103.56
504.907	101.56
505.123	111.56
505.34	101.56
505.557	106.56
505.773	90.56
505.99	91.56
506.207	95.56
506.423	100.56
506.64	92.56
506.856	80.56
507.073	90.56
507.289	95.56
507.506	92.56
507.722	87.56
507.939	102.56
508.155	95.56
508.372	93.56
508.588	103.56
508.805	105.56
509.021	100.56
509.238	101.56
509.454	92.56
509.67	94.56
509.887	101.56
510.103	95.56
510.319	83.56
510.536	99.56
510.752	89.56
510.968	96.56
511.184	101.56
511.401	100.56
511.617	83.56
511.833	76.56
512.049	80.56
512.265	95.56
512.481	108.56
512.698	107.56
512.914	104.56
513.13	104.56
513.346	95.56
513.562	86.56
513.778	86.56
513.994	101.56
514.21	95.56
514.426	96.56
514.642	100.56
514.858	103.56
515.074	108.56
515.29	108.56
515.506	94.56
515.721	103.56
515.937	102.56
516.153	96.56
516.369	94.56
516.585	105.56
516.801	91.56
517.016	96.56
517.232	89.56
