Data from Ni(NO3)2@0.125M.TitratingCurve.Agarose3%dH2O.NegLispCup.LampEnergy10.LIBS07252019_HRD10591_18-09-49-568.txt Node
Date: Thu Jul 25 18:09:49 EDT 2019
User: cochatt
Spectrometer: HR+D1059
Trigger mode: 1
Integration Time (sec): 1.000000E-1
Scans to average: 1
Electric dark correction enabled: true
Nonlinearity correction enabled: false
Boxcar width: 0
XAxis mode: Wavelengths
Number of Pixels in Spectrum: 2048
>>>>>Begin Spectral Data<<<<<
223.165	-7.81
223.4	-7.81
223.635	-7.81
223.869	-7.81
224.104	-15.81
224.338	0.19
224.573	-20.81
224.808	-24.81
225.042	2.19
225.277	2.19
225.511	10.19
225.746	-6.81
225.98	-2.81
226.215	12.19
226.449	9.19
226.683	6.19
226.918	18.19
227.152	26.19
227.387	39.19
227.621	35.19
227.856	34.19
228.09	45.19
228.324	56.19
228.559	55.19
228.793	57.19
229.027	84.19
229.262	99.19
229.496	90.19
229.73	104.19
229.964	100.19
230.199	75.19
230.433	112.19
230.667	92.19
230.901	117.19
231.136	112.19
231.37	118.19
231.604	121.19
231.838	102.19
232.072	122.19
232.306	119.19
232.541	114.19
232.775	110.19
233.009	110.19
233.243	109.19
233.477	122.19
233.711	112.19
233.945	117.19
234.179	128.19
234.413	126.19
234.647	122.19
234.881	114.19
235.115	112.19
235.349	96.19
235.583	115.19
235.817	129.19
236.051	118.19
236.285	113.19
236.519	120.19
236.753	121.19
236.987	121.19
237.221	110.19
237.455	127.19
237.689	126.19
237.922	126.19
238.156	113.19
238.39	132.19
238.624	123.19
238.858	114.19
239.091	121.19
239.325	114.19
239.559	124.19
239.793	114.19
240.027	127.19
240.26	126.19
240.494	144.19
240.728	146.19
240.961	128.19
241.195	137.19
241.429	124.19
241.662	126.19
241.896	147.19
242.13	156.19
242.363	154.19
242.597	142.19
242.83	143.19
243.064	146.19
243.298	154.19
243.531	140.19
243.765	163.19
243.998	147.19
244.232	164.19
244.465	148.19
244.699	147.19
244.932	163.19
245.166	151.19
245.399	164.19
245.633	158.19
245.866	160.19
246.099	154.19
246.333	161.19
246.566	155.19
246.8	148.19
247.033	163.19
247.266	163.19
247.5	163.19
247.733	148.19
247.966	159.19
248.2	178.19
248.433	170.19
248.666	166.19
248.899	174.19
249.133	170.19
249.366	166.19
249.599	174.19
249.832	171.19
250.066	168.19
250.299	167.19
250.532	176.19
250.765	166.19
250.998	196.19
251.231	176.19
251.465	177.19
251.698	173.19
251.931	199.19
252.164	183.19
252.397	170.19
252.63	186.19
252.863	209.19
253.096	193.19
253.329	194.19
253.562	201.19
253.795	192.19
254.028	197.19
254.261	180.19
254.494	194.19
254.727	196.19
254.96	183.19
255.193	193.19
255.426	201.19
255.659	190.19
255.892	196.19
256.124	202.19
256.357	203.19
256.59	197.19
256.823	215.19
257.056	197.19
257.289	197.19
257.521	197.19
257.754	187.19
257.987	200.19
258.22	213.19
258.452	193.19
258.685	198.19
258.918	212.19
259.151	212.19
259.383	203.19
259.616	201.19
259.849	203.19
260.081	226.19
260.314	211.19
260.547	229.19
260.779	210.19
261.012	223.19
261.244	227.19
261.477	231.19
261.71	208.19
261.942	206.19
262.175	230.19
262.407	228.19
262.64	216.19
262.872	238.19
263.105	231.19
263.337	217.19
263.57	219.19
263.802	226.19
264.035	221.19
264.267	223.19
264.499	228.19
264.732	228.19
264.964	245.19
265.197	232.19
265.429	246.19
265.661	229.19
265.894	234.19
266.126	248.19
266.358	241.19
266.591	256.19
266.823	249.19
267.055	223.19
267.287	233.19
267.52	228.19
267.752	236.19
267.984	252.19
268.216	244.19
268.448	222.19
268.681	239.19
268.913	264.19
269.145	238.19
269.377	239.19
269.609	241.19
269.841	258.19
270.073	235.19
270.306	252.19
270.538	238.19
270.77	264.19
271.002	246.19
271.234	258.19
271.466	251.19
271.698	256.19
271.93	247.19
272.162	254.19
272.394	258.19
272.626	259.19
272.858	255.19
273.09	252.19
273.322	265.19
273.553	251.19
273.785	265.19
274.017	267.19
274.249	279.19
274.481	269.19
274.713	260.19
274.945	274.19
275.176	273.19
275.408	275.19
275.64	282.19
275.872	259.19
276.104	278.19
276.335	289.19
276.567	284.19
276.799	272.19
277.031	277.19
277.262	275.19
277.494	286.19
277.726	289.19
277.957	304.19
278.189	286.19
278.421	275.19
278.652	277.19
278.884	278.19
279.115	291.19
279.347	273.19
279.579	271.19
279.81	286.19
280.042	281.19
280.273	295.19
280.505	286.19
280.736	312.19
280.968	291.19
281.199	271.19
281.431	315.19
281.662	299.19
281.894	312.19
282.125	320.19
282.356	299.19
282.588	306.19
282.819	314.19
283.051	298.19
283.282	319.19
283.513	313.19
283.745	302.19
283.976	330.19
284.207	325.19
284.439	303.19
284.67	312.19
284.901	319.19
285.132	313.19
285.364	312.19
285.595	302.19
285.826	323.19
286.057	341.19
286.288	296.19
286.52	326.19
286.751	337.19
286.982	339.19
287.213	340.19
287.444	322.19
287.675	315.19
287.906	333.19
288.138	355.19
288.369	326.19
288.6	350.19
288.831	319.19
289.062	326.19
289.293	341.19
289.524	330.19
289.755	343.19
289.986	329.19
290.217	340.19
290.448	330.19
290.679	347.19
290.91	345.19
291.141	345.19
291.371	328.19
291.602	315.19
291.833	337.19
292.064	343.19
292.295	334.19
292.526	343.19
292.757	318.19
292.987	342.19
293.218	326.19
293.449	338.19
293.68	344.19
293.91	343.19
294.141	359.19
294.372	362.19
294.603	337.19
294.833	344.19
295.064	352.19
295.295	332.19
295.525	352.19
295.756	343.19
295.987	338.19
296.217	363.19
296.448	347.19
296.679	355.19
296.909	370.19
297.14	386.19
297.37	371.19
297.601	371.19
297.831	357.19
298.062	384.19
298.292	377.19
298.523	398.19
298.753	394.19
298.984	388.19
299.214	386.19
299.445	372.19
299.675	352.19
299.905	370.19
300.136	375.19
300.366	370.19
300.597	394.19
300.827	402.19
301.057	379.19
301.288	402.19
301.518	394.19
301.748	382.19
301.979	395.19
302.209	410.19
302.439	392.19
302.669	406.19
302.9	396.19
303.13	389.19
303.36	398.19
303.59	367.19
303.82	389.19
304.051	406.19
304.281	399.19
304.511	378.19
304.741	387.19
304.971	407.19
305.201	392.19
305.431	371.19
305.661	387.19
305.891	387.19
306.121	382.19
306.352	381.19
306.582	358.19
306.812	379.19
307.042	378.19
307.272	386.19
307.502	376.19
307.731	376.19
307.961	379.19
308.191	368.19
308.421	373.19
308.651	375.19
308.881	369.19
309.111	356.19
309.341	390.19
309.571	382.19
309.8	384.19
310.03	384.19
310.26	372.19
310.49	402.19
310.72	389.19
310.949	377.19
311.179	393.19
311.409	376.19
311.639	376.19
311.868	393.19
312.098	394.19
312.328	399.19
312.557	392.19
312.787	389.19
313.017	386.19
313.246	421.19
313.476	407.19
313.706	402.19
313.935	409.19
314.165	412.19
314.394	402.19
314.624	413.19
314.853	396.19
315.083	398.19
315.312	414.19
315.542	396.19
315.771	388.19
316.001	390.19
316.23	404.19
316.46	400.19
316.689	395.19
316.919	390.19
317.148	404.19
317.377	402.19
317.607	386.19
317.836	390.19
318.065	395.19
318.295	369.19
318.524	381.19
318.753	397.19
318.983	408.19
319.212	393.19
319.441	404.19
319.67	398.19
319.9	382.19
320.129	387.19
320.358	390.19
320.587	392.19
320.816	403.19
321.046	404.19
321.275	411.19
321.504	395.19
321.733	412.19
321.962	414.19
322.191	396.19
322.42	399.19
322.649	390.19
322.878	390.19
323.108	403.19
323.337	410.19
323.566	401.19
323.795	423.19
324.024	433.19
324.253	417.19
324.482	402.19
324.71	396.19
324.939	433.19
325.168	414.19
325.397	437.19
325.626	427.19
325.855	419.19
326.084	434.19
326.313	448.19
326.542	459.19
326.77	460.19
326.999	420.19
327.228	427.19
327.457	441.19
327.686	439.19
327.914	429.19
328.143	423.19
328.372	436.19
328.6	452.19
328.829	451.19
329.058	443.19
329.287	452.19
329.515	458.19
329.744	457.19
329.972	448.19
330.201	454.19
330.43	455.19
330.658	447.19
330.887	454.19
331.115	466.19
331.344	474.19
331.572	469.19
331.801	486.19
332.03	474.19
332.258	535.19
332.486	548.19
332.715	534.19
332.943	541.19
333.172	574.19
333.4	600.19
333.629	602.19
333.857	608.19
334.085	590.19
334.314	584.19
334.542	578.19
334.771	583.19
334.999	582.19
335.227	553.19
335.455	555.19
335.684	556.19
335.912	543.19
336.14	547.19
336.369	529.19
336.597	555.19
336.825	563.19
337.053	572.19
337.281	531.19
337.51	507.19
337.738	479.19
337.966	513.19
338.194	499.19
338.422	511.19
338.65	497.19
338.878	490.19
339.106	501.19
339.334	500.19
339.562	470.19
339.79	452.19
340.018	469.19
340.246	450.19
340.474	463.19
340.702	484.19
340.93	472.19
341.158	486.19
341.386	476.19
341.614	494.19
341.842	472.19
342.07	459.19
342.298	478.19
342.526	458.19
342.754	444.19
342.981	466.19
343.209	479.19
343.437	491.19
343.665	538.19
343.893	587.19
344.12	578.19
344.348	549.19
344.576	514.19
344.804	498.19
345.031	485.19
345.259	505.19
345.487	476.19
345.714	478.19
345.942	471.19
346.17	460.19
346.397	476.19
346.625	475.19
346.853	458.19
347.08	466.19
347.308	460.19
347.535	468.19
347.763	477.19
347.99	490.19
348.218	480.19
348.445	478.19
348.673	460.19
348.9	449.19
349.128	478.19
349.355	459.19
349.583	459.19
349.81	462.19
350.037	442.19
350.265	450.19
350.492	439.19
350.72	438.19
350.947	439.19
351.174	452.19
351.402	449.19
351.629	442.19
351.856	441.19
352.083	446.19
352.311	439.19
352.538	446.19
352.765	431.19
352.992	442.19
353.22	453.19
353.447	428.19
353.674	420.19
353.901	450.19
354.128	441.19
354.355	443.19
354.583	457.19
354.81	444.19
355.037	447.19
355.264	434.19
355.491	434.19
355.718	427.19
355.945	454.19
356.172	441.19
356.399	438.19
356.626	434.19
356.853	471.19
357.08	450.19
357.307	456.19
357.534	426.19
357.761	452.19
357.988	467.19
358.215	430.19
358.441	446.19
358.668	425.19
358.895	449.19
359.122	445.19
359.349	439.19
359.576	446.19
359.802	433.19
360.029	434.19
360.256	437.19
360.483	451.19
360.709	444.19
360.936	454.19
361.163	433.19
361.39	440.19
361.616	410.19
361.843	444.19
362.07	457.19
362.296	432.19
362.523	427.19
362.749	443.19
362.976	446.19
363.203	432.19
363.429	430.19
363.656	426.19
363.882	430.19
364.109	438.19
364.335	439.19
364.562	441.19
364.788	414.19
365.015	429.19
365.241	435.19
365.468	444.19
365.694	427.19
365.92	458.19
366.147	443.19
366.373	430.19
366.599	438.19
366.826	437.19
367.052	444.19
367.278	447.19
367.505	458.19
367.731	454.19
367.957	449.19
368.184	450.19
368.41	442.19
368.636	437.19
368.862	460.19
369.089	471.19
369.315	460.19
369.541	465.19
369.767	465.19
369.993	461.19
370.219	490.19
370.445	467.19
370.672	474.19
370.898	445.19
371.124	475.19
371.35	454.19
371.576	479.19
371.802	473.19
372.028	465.19
372.254	453.19
372.48	475.19
372.706	493.19
372.932	495.19
373.158	484.19
373.384	469.19
373.61	490.19
373.835	484.19
374.061	478.19
374.287	480.19
374.513	496.19
374.739	496.19
374.965	500.19
375.191	543.19
375.416	512.19
375.642	503.19
375.868	507.19
376.094	490.19
376.319	480.19
376.545	481.19
376.771	475.19
376.997	490.19
377.222	497.19
377.448	502.19
377.674	492.19
377.899	470.19
378.125	497.19
378.35	462.19
378.576	479.19
378.802	478.19
379.027	446.19
379.253	478.19
379.478	461.19
379.704	458.19
379.929	482.19
380.155	469.19
380.38	485.19
380.606	494.19
380.831	460.19
381.057	473.19
381.282	449.19
381.507	464.19
381.733	470.19
381.958	494.19
382.184	480.19
382.409	488.19
382.634	475.19
382.86	500.19
383.085	494.19
383.31	516.19
383.535	519.19
383.761	500.19
383.986	514.19
384.211	557.19
384.436	552.19
384.662	549.19
384.887	586.19
385.112	580.19
385.337	552.19
385.562	577.19
385.787	564.19
386.013	560.19
386.238	565.19
386.463	586.19
386.688	575.19
386.913	554.19
387.138	540.19
387.363	570.19
387.588	539.19
387.813	541.19
388.038	548.19
388.263	552.19
388.488	565.19
388.713	552.19
388.938	546.19
389.163	537.19
389.387	553.19
389.612	511.19
389.837	535.19
390.062	552.19
390.287	575.19
390.512	558.19
390.736	538.19
390.961	551.19
391.186	570.19
391.411	595.19
391.636	608.19
391.86	611.19
392.085	632.19
392.31	620.19
392.534	608.19
392.759	600.19
392.984	584.19
393.208	578.19
393.433	581.19
393.658	578.19
393.882	592.19
394.107	603.19
394.331	615.19
394.556	615.19
394.78	599.19
395.005	596.19
395.229	577.19
395.454	617.19
395.678	623.19
395.903	636.19
396.127	615.19
396.352	612.19
396.576	579.19
396.801	603.19
397.025	584.19
397.249	586.19
397.474	618.19
397.698	646.19
397.922	623.19
398.147	602.19
398.371	610.19
398.595	656.19
398.82	670.19
399.044	716.19
399.268	779.19
399.492	937.19
399.717	1087.19
399.941	1058.19
400.165	916.19
400.389	813.19
400.613	742.19
400.837	721.19
401.062	703.19
401.286	691.19
401.51	673.19
401.734	673.19
401.958	698.19
402.182	698.19
402.406	703.19
402.63	723.19
402.854	761.19
403.078	755.19
403.302	773.19
403.526	805.19
403.75	816.19
403.974	820.19
404.198	819.19
404.422	811.19
404.645	820.19
404.869	807.19
405.093	813.19
405.317	764.19
405.541	776.19
405.765	774.19
405.988	766.19
406.212	789.19
406.436	762.19
406.66	752.19
406.883	793.19
407.107	872.19
407.331	892.19
407.555	914.19
407.778	904.19
408.002	898.19
408.226	835.19
408.449	836.19
408.673	786.19
408.896	778.19
409.12	807.19
409.344	830.19
409.567	807.19
409.791	855.19
410.014	836.19
410.238	818.19
410.461	798.19
410.685	817.19
410.908	758.19
411.132	759.19
411.355	730.19
411.578	720.19
411.802	740.19
412.025	735.19
412.249	744.19
412.472	751.19
412.695	736.19
412.919	681.19
413.142	718.19
413.365	703.19
413.589	699.19
413.812	691.19
414.035	705.19
414.258	695.19
414.482	728.19
414.705	738.19
414.928	719.19
415.151	716.19
415.374	720.19
415.597	711.19
415.821	707.19
416.044	688.19
416.267	680.19
416.49	685.19
416.713	716.19
416.936	703.19
417.159	693.19
417.382	692.19
417.605	690.19
417.828	684.19
418.051	706.19
418.274	734.19
418.497	713.19
418.72	727.19
418.943	707.19
419.166	778.19
419.389	806.19
419.611	804.19
419.834	789.19
420.057	768.19
420.28	720.19
420.503	690.19
420.726	709.19
420.948	702.19
421.171	715.19
421.394	710.19
421.617	704.19
421.839	718.19
422.062	723.19
422.285	692.19
422.507	711.19
422.73	718.19
422.953	744.19
423.175	735.19
423.398	745.19
423.621	741.19
423.843	793.19
424.066	743.19
424.288	759.19
424.511	767.19
424.733	746.19
424.956	736.19
425.178	733.19
425.401	731.19
425.623	707.19
425.846	690.19
426.068	698.19
426.291	698.19
426.513	682.19
426.735	675.19
426.958	663.19
427.18	658.19
427.402	650.19
427.625	644.19
427.847	658.19
428.069	653.19
428.292	647.19
428.514	665.19
428.736	646.19
428.958	645.19
429.181	601.19
429.403	616.19
429.625	640.19
429.847	618.19
430.069	615.19
430.292	650.19
430.514	634.19
430.736	619.19
430.958	604.19
431.18	627.19
431.402	619.19
431.624	654.19
431.846	653.19
432.068	650.19
432.29	659.19
432.512	626.19
432.734	664.19
432.956	638.19
433.178	642.19
433.4	666.19
433.622	647.19
433.844	642.19
434.066	640.19
434.287	690.19
434.509	670.19
434.731	715.19
434.953	731.19
435.175	756.19
435.397	696.19
435.618	666.19
435.84	644.19
436.062	665.19
436.284	632.19
436.505	632.19
436.727	662.19
436.949	666.19
437.17	649.19
437.392	652.19
437.614	635.19
437.835	595.19
438.057	635.19
438.278	612.19
438.5	622.19
438.721	642.19
438.943	648.19
439.165	650.19
439.386	640.19
439.608	652.19
439.829	638.19
440.05	640.19
440.272	653.19
440.493	673.19
440.715	667.19
440.936	661.19
441.158	687.19
441.379	715.19
441.6	760.19
441.822	750.19
442.043	757.19
442.264	730.19
442.486	693.19
442.707	715.19
442.928	716.19
443.149	734.19
443.371	728.19
443.592	720.19
443.813	744.19
444.034	763.19
444.255	740.19
444.476	794.19
444.698	872.19
444.919	863.19
445.14	962.19
445.361	834.19
445.582	759.19
445.803	707.19
446.024	700.19
446.245	676.19
446.466	672.19
446.687	676.19
446.908	652.19
447.129	647.19
447.35	616.19
447.571	632.19
447.792	638.19
448.013	632.19
448.234	623.19
448.455	612.19
448.675	596.19
448.896	616.19
449.117	602.19
449.338	592.19
449.559	617.19
449.779	574.19
450	606.19
450.221	605.19
450.442	598.19
450.662	589.19
450.883	609.19
451.104	658.19
451.324	642.19
451.545	661.19
451.766	628.19
451.986	628.19
452.207	649.19
452.428	619.19
452.648	592.19
452.869	601.19
453.089	596.19
453.31	611.19
453.53	587.19
453.751	592.19
453.971	614.19
454.192	579.19
454.412	571.19
454.633	586.19
454.853	592.19
455.073	570.19
455.294	569.19
455.514	566.19
455.734	560.19
455.955	559.19
456.175	550.19
456.395	575.19
456.616	545.19
456.836	562.19
457.056	557.19
457.276	548.19
457.497	571.19
457.717	556.19
457.937	569.19
458.157	572.19
458.377	577.19
458.598	581.19
458.818	577.19
459.038	608.19
459.258	643.19
459.478	679.19
459.698	691.19
459.918	715.19
460.138	715.19
460.358	753.19
460.578	753.19
460.798	770.19
461.018	799.19
461.238	774.19
461.458	754.19
461.678	764.19
461.898	775.19
462.118	777.19
462.338	822.19
462.558	830.19
462.777	851.19
462.997	922.19
463.217	1042.19
463.437	1047.19
463.657	971.19
463.876	872.19
464.096	869.19
464.316	890.19
464.536	922.19
464.755	873.19
464.975	831.19
465.195	803.19
465.414	745.19
465.634	702.19
465.854	688.19
466.073	690.19
466.293	646.19
466.512	656.19
466.732	647.19
466.951	613.19
467.171	635.19
467.391	646.19
467.61	629.19
467.829	610.19
468.049	630.19
468.268	615.19
468.488	598.19
468.707	593.19
468.927	608.19
469.146	588.19
469.365	621.19
469.585	634.19
469.804	634.19
470.023	655.19
470.243	662.19
470.462	676.19
470.681	665.19
470.901	656.19
471.12	648.19
471.339	652.19
471.558	633.19
471.777	630.19
471.997	612.19
472.216	606.19
472.435	582.19
472.654	573.19
472.873	579.19
473.092	579.19
473.311	608.19
473.53	603.19
473.749	590.19
473.968	586.19
474.187	566.19
474.406	600.19
474.625	587.19
474.844	606.19
475.063	582.19
475.282	583.19
475.501	579.19
475.72	591.19
475.939	606.19
476.158	630.19
476.377	630.19
476.596	627.19
476.814	612.19
477.033	618.19
477.252	644.19
477.471	633.19
477.69	662.19
477.908	678.19
478.127	676.19
478.346	708.19
478.564	724.19
478.783	714.19
479.002	720.19
479.22	751.19
479.439	730.19
479.658	717.19
479.876	710.19
480.095	724.19
480.313	736.19
480.532	774.19
480.751	768.19
480.969	745.19
481.188	716.19
481.406	696.19
481.624	659.19
481.843	670.19
482.061	658.19
482.28	656.19
482.498	666.19
482.717	663.19
482.935	660.19
483.153	680.19
483.372	674.19
483.59	660.19
483.808	697.19
484.027	668.19
484.245	685.19
484.463	662.19
484.681	704.19
484.9	706.19
485.118	711.19
485.336	705.19
485.554	702.19
485.772	692.19
485.99	710.19
486.209	730.19
486.427	720.19
486.645	727.19
486.863	743.19
487.081	725.19
487.299	713.19
487.517	710.19
487.735	722.19
487.953	715.19
488.171	734.19
488.389	721.19
488.607	698.19
488.825	694.19
489.043	692.19
489.261	696.19
489.479	706.19
489.696	706.19
489.914	693.19
490.132	701.19
490.35	698.19
490.568	716.19
490.786	705.19
491.003	716.19
491.221	702.19
491.439	714.19
491.657	723.19
491.874	729.19
492.092	752.19
492.31	743.19
492.527	729.19
492.745	742.19
492.963	752.19
493.18	740.19
493.398	740.19
493.615	738.19
493.833	725.19
494.05	737.19
494.268	756.19
494.485	747.19
494.703	729.19
494.92	762.19
495.138	760.19
495.355	752.19
495.573	761.19
495.79	764.19
496.008	721.19
496.225	774.19
496.442	780.19
496.66	759.19
496.877	777.19
497.094	787.19
497.312	783.19
497.529	824.19
497.746	840.19
497.963	839.19
498.181	869.19
498.398	895.19
498.615	965.19
498.832	1045.19
499.049	1094.19
499.267	1215.19
499.484	1328.19
499.701	1440.19
499.918	1626.19
500.135	1890.19
500.352	2182.19
500.569	2338.19
500.786	2280.19
501.003	2082.19
501.22	1828.19
501.437	1576.19
