Data from Ni(NO3)2@0.125M.TitratingCurve.Agarose3%dH2O.NegLispCup.LampEnergy10.LIBS07252019_HRD10591_18-09-25-567.txt Node
Date: Thu Jul 25 18:09:25 EDT 2019
User: cochatt
Spectrometer: HR+D1059
Trigger mode: 1
Integration Time (sec): 1.000000E-1
Scans to average: 1
Electric dark correction enabled: true
Nonlinearity correction enabled: false
Boxcar width: 0
XAxis mode: Wavelengths
Number of Pixels in Spectrum: 2048
>>>>>Begin Spectral Data<<<<<
223.165	-20.44
223.4	-20.44
223.635	-20.44
223.869	-11.44
224.104	-24.44
224.338	-18.44
224.573	-26.44
224.808	1.56
225.042	4.56
225.277	-8.44
225.511	9.56
225.746	-8.44
225.98	-5.44
226.215	18.56
226.449	17.56
226.683	14.56
226.918	25.56
227.152	31.56
227.387	34.56
227.621	40.56
227.856	54.56
228.09	46.56
228.324	29.56
228.559	45.56
228.793	44.56
229.027	78.56
229.262	98.56
229.496	100.56
229.73	100.56
229.964	96.56
230.199	115.56
230.433	106.56
230.667	101.56
230.901	120.56
231.136	124.56
231.37	131.56
231.604	112.56
231.838	130.56
232.072	121.56
232.306	134.56
232.541	130.56
232.775	126.56
233.009	133.56
233.243	133.56
233.477	139.56
233.711	125.56
233.945	139.56
234.179	131.56
234.413	138.56
234.647	150.56
234.881	136.56
235.115	125.56
235.349	127.56
235.583	135.56
235.817	137.56
236.051	137.56
236.285	146.56
236.519	126.56
236.753	133.56
236.987	137.56
237.221	128.56
237.455	150.56
237.689	132.56
237.922	137.56
238.156	125.56
238.39	147.56
238.624	141.56
238.858	136.56
239.091	142.56
239.325	139.56
239.559	161.56
239.793	155.56
240.027	145.56
240.26	152.56
240.494	146.56
240.728	141.56
240.961	157.56
241.195	165.56
241.429	160.56
241.662	137.56
241.896	158.56
242.13	156.56
242.363	164.56
242.597	182.56
242.83	159.56
243.064	162.56
243.298	167.56
243.531	167.56
243.765	160.56
243.998	171.56
244.232	160.56
244.465	183.56
244.699	172.56
244.932	169.56
245.166	189.56
245.399	187.56
245.633	190.56
245.866	177.56
246.099	176.56
246.333	181.56
246.566	177.56
246.8	179.56
247.033	200.56
247.266	193.56
247.5	210.56
247.733	184.56
247.966	186.56
248.2	199.56
248.433	198.56
248.666	193.56
248.899	200.56
249.133	202.56
249.366	201.56
249.599	211.56
249.832	213.56
250.066	209.56
250.299	204.56
250.532	224.56
250.765	207.56
250.998	213.56
251.231	217.56
251.465	220.56
251.698	209.56
251.931	220.56
252.164	228.56
252.397	221.56
252.63	211.56
252.863	234.56
253.096	221.56
253.329	230.56
253.562	225.56
253.795	223.56
254.028	228.56
254.261	224.56
254.494	231.56
254.727	234.56
254.96	232.56
255.193	237.56
255.426	244.56
255.659	237.56
255.892	243.56
256.124	227.56
256.357	229.56
256.59	233.56
256.823	243.56
257.056	244.56
257.289	254.56
257.521	245.56
257.754	239.56
257.987	257.56
258.22	244.56
258.452	262.56
258.685	254.56
258.918	255.56
259.151	256.56
259.383	264.56
259.616	262.56
259.849	268.56
260.081	259.56
260.314	257.56
260.547	264.56
260.779	260.56
261.012	263.56
261.244	267.56
261.477	277.56
261.71	291.56
261.942	277.56
262.175	288.56
262.407	259.56
262.64	265.56
262.872	290.56
263.105	292.56
263.337	269.56
263.57	285.56
263.802	290.56
264.035	282.56
264.267	280.56
264.499	284.56
264.732	286.56
264.964	280.56
265.197	305.56
265.429	284.56
265.661	299.56
265.894	283.56
266.126	292.56
266.358	294.56
266.591	302.56
266.823	309.56
267.055	313.56
267.287	292.56
267.52	318.56
267.752	310.56
267.984	304.56
268.216	317.56
268.448	304.56
268.681	299.56
268.913	301.56
269.145	309.56
269.377	306.56
269.609	305.56
269.841	293.56
270.073	324.56
270.306	317.56
270.538	310.56
270.77	306.56
271.002	300.56
271.234	310.56
271.466	323.56
271.698	317.56
271.93	345.56
272.162	311.56
272.394	327.56
272.626	330.56
272.858	331.56
273.09	316.56
273.322	313.56
273.553	316.56
273.785	339.56
274.017	320.56
274.249	330.56
274.481	349.56
274.713	339.56
274.945	313.56
275.176	328.56
275.408	343.56
275.64	349.56
275.872	339.56
276.104	331.56
276.335	328.56
276.567	334.56
276.799	326.56
277.031	353.56
277.262	328.56
277.494	341.56
277.726	343.56
277.957	352.56
278.189	352.56
278.421	346.56
278.652	357.56
278.884	378.56
279.115	344.56
279.347	343.56
279.579	350.56
279.81	358.56
280.042	365.56
280.273	346.56
280.505	373.56
280.736	363.56
280.968	368.56
281.199	378.56
281.431	384.56
281.662	375.56
281.894	363.56
282.125	390.56
282.356	390.56
282.588	381.56
282.819	375.56
283.051	378.56
283.282	391.56
283.513	393.56
283.745	373.56
283.976	381.56
284.207	378.56
284.439	398.56
284.67	405.56
284.901	388.56
285.132	397.56
285.364	385.56
285.595	397.56
285.826	388.56
286.057	413.56
286.288	392.56
286.52	395.56
286.751	390.56
286.982	417.56
287.213	404.56
287.444	399.56
287.675	398.56
287.906	402.56
288.138	427.56
288.369	415.56
288.6	405.56
288.831	428.56
289.062	427.56
289.293	402.56
289.524	410.56
289.755	429.56
289.986	424.56
290.217	428.56
290.448	423.56
290.679	412.56
290.91	420.56
291.141	412.56
291.371	428.56
291.602	430.56
291.833	421.56
292.064	422.56
292.295	427.56
292.526	432.56
292.757	421.56
292.987	427.56
293.218	442.56
293.449	440.56
293.68	450.56
293.91	434.56
294.141	416.56
294.372	426.56
294.603	437.56
294.833	442.56
295.064	439.56
295.295	444.56
295.525	409.56
295.756	456.56
295.987	423.56
296.217	436.56
296.448	446.56
296.679	433.56
296.909	433.56
297.14	456.56
297.37	437.56
297.601	449.56
297.831	440.56
298.062	465.56
298.292	478.56
298.523	487.56
298.753	480.56
298.984	488.56
299.214	455.56
299.445	466.56
299.675	468.56
299.905	461.56
300.136	455.56
300.366	483.56
300.597	485.56
300.827	499.56
301.057	469.56
301.288	506.56
301.518	514.56
301.748	466.56
301.979	483.56
302.209	506.56
302.439	485.56
302.669	493.56
302.9	512.56
303.13	460.56
303.36	476.56
303.59	459.56
303.82	457.56
304.051	476.56
304.281	500.56
304.511	480.56
304.741	479.56
304.971	473.56
305.201	471.56
305.431	456.56
305.661	484.56
305.891	488.56
306.121	448.56
306.352	463.56
306.582	486.56
306.812	462.56
307.042	465.56
307.272	488.56
307.502	474.56
307.731	454.56
307.961	459.56
308.191	473.56
308.421	456.56
308.651	464.56
308.881	471.56
309.111	466.56
309.341	453.56
309.571	439.56
309.8	455.56
310.03	477.56
310.26	479.56
310.49	471.56
310.72	464.56
310.949	483.56
311.179	476.56
311.409	474.56
311.639	482.56
311.868	497.56
312.098	506.56
312.328	514.56
312.557	492.56
312.787	478.56
313.017	494.56
313.246	481.56
313.476	511.56
313.706	510.56
313.935	505.56
314.165	510.56
314.394	510.56
314.624	496.56
314.853	477.56
315.083	490.56
315.312	515.56
315.542	524.56
315.771	502.56
316.001	496.56
316.23	513.56
316.46	484.56
316.689	506.56
316.919	493.56
317.148	474.56
317.377	494.56
317.607	497.56
317.836	496.56
318.065	481.56
318.295	480.56
318.524	499.56
318.753	478.56
318.983	475.56
319.212	478.56
319.441	498.56
319.67	502.56
319.9	490.56
320.129	478.56
320.358	482.56
320.587	466.56
320.816	476.56
321.046	509.56
321.275	506.56
321.504	502.56
321.733	504.56
321.962	496.56
322.191	484.56
322.42	492.56
322.649	505.56
322.878	503.56
323.108	492.56
323.337	501.56
323.566	501.56
323.795	515.56
324.024	534.56
324.253	508.56
324.482	510.56
324.71	516.56
324.939	525.56
325.168	515.56
325.397	512.56
325.626	524.56
325.855	518.56
326.084	545.56
326.313	546.56
326.542	541.56
326.77	577.56
326.999	550.56
327.228	551.56
327.457	549.56
327.686	550.56
327.914	565.56
328.143	563.56
328.372	572.56
328.6	558.56
328.829	541.56
329.058	554.56
329.287	564.56
329.515	554.56
329.744	566.56
329.972	553.56
330.201	552.56
330.43	570.56
330.658	563.56
330.887	570.56
331.115	568.56
331.344	575.56
331.572	583.56
331.801	573.56
332.03	630.56
332.258	642.56
332.486	664.56
332.715	695.56
332.943	720.56
333.172	711.56
333.4	760.56
333.629	768.56
333.857	795.56
334.085	740.56
334.314	734.56
334.542	708.56
334.771	709.56
334.999	679.56
335.227	702.56
335.455	693.56
335.684	704.56
335.912	674.56
336.14	667.56
336.369	664.56
336.597	687.56
336.825	681.56
337.053	690.56
337.281	672.56
337.51	649.56
337.738	634.56
337.966	629.56
338.194	621.56
338.422	581.56
338.65	598.56
338.878	597.56
339.106	606.56
339.334	620.56
339.562	592.56
339.79	573.56
340.018	616.56
340.246	590.56
340.474	590.56
340.702	603.56
340.93	597.56
341.158	574.56
341.386	590.56
341.614	581.56
341.842	587.56
342.07	571.56
342.298	584.56
342.526	562.56
342.754	584.56
342.981	575.56
343.209	597.56
343.437	605.56
343.665	690.56
343.893	712.56
344.12	758.56
344.348	692.56
344.576	638.56
344.804	638.56
345.031	611.56
345.259	612.56
345.487	590.56
345.714	590.56
345.942	583.56
346.17	577.56
346.397	594.56
346.625	582.56
346.853	562.56
347.08	585.56
347.308	587.56
347.535	589.56
347.763	570.56
347.99	574.56
348.218	575.56
348.445	584.56
348.673	580.56
348.9	586.56
349.128	570.56
349.355	569.56
349.583	573.56
349.81	549.56
350.037	538.56
350.265	558.56
350.492	556.56
350.72	555.56
350.947	549.56
351.174	542.56
351.402	565.56
351.629	551.56
351.856	562.56
352.083	551.56
352.311	578.56
352.538	548.56
352.765	530.56
352.992	531.56
353.22	517.56
353.447	539.56
353.674	528.56
353.901	521.56
354.128	546.56
354.355	543.56
354.583	535.56
354.81	530.56
355.037	553.56
355.264	559.56
355.491	572.56
355.718	552.56
355.945	561.56
356.172	562.56
356.399	563.56
356.626	553.56
356.853	556.56
357.08	541.56
357.307	532.56
357.534	560.56
357.761	565.56
357.988	538.56
358.215	546.56
358.441	578.56
358.668	551.56
358.895	541.56
359.122	532.56
359.349	555.56
359.576	546.56
359.802	538.56
360.029	565.56
360.256	530.56
360.483	553.56
360.709	530.56
360.936	548.56
361.163	551.56
361.39	558.56
361.616	552.56
361.843	548.56
362.07	564.56
362.296	547.56
362.523	541.56
362.749	551.56
362.976	547.56
363.203	548.56
363.429	540.56
363.656	542.56
363.882	537.56
364.109	525.56
364.335	537.56
364.562	542.56
364.788	566.56
365.015	555.56
365.241	528.56
365.468	545.56
365.694	557.56
365.92	551.56
366.147	543.56
366.373	534.56
366.599	553.56
366.826	548.56
367.052	520.56
367.278	537.56
367.505	554.56
367.731	560.56
367.957	555.56
368.184	541.56
368.41	558.56
368.636	552.56
368.862	553.56
369.089	552.56
369.315	565.56
369.541	585.56
369.767	567.56
369.993	557.56
370.219	557.56
370.445	553.56
370.672	587.56
370.898	582.56
371.124	582.56
371.35	614.56
371.576	587.56
371.802	600.56
372.028	597.56
372.254	603.56
372.48	579.56
372.706	615.56
372.932	625.56
373.158	610.56
373.384	591.56
373.61	596.56
373.835	597.56
374.061	590.56
374.287	611.56
374.513	621.56
374.739	618.56
374.965	662.56
375.191	642.56
375.416	667.56
375.642	652.56
375.868	636.56
376.094	632.56
376.319	618.56
376.545	605.56
376.771	591.56
376.997	598.56
377.222	609.56
377.448	590.56
377.674	628.56
377.899	598.56
378.125	599.56
378.35	596.56
378.576	593.56
378.802	582.56
379.027	568.56
379.253	582.56
379.478	580.56
379.704	579.56
379.929	567.56
380.155	574.56
380.38	577.56
380.606	580.56
380.831	576.56
381.057	577.56
381.282	589.56
381.507	582.56
381.733	601.56
381.958	601.56
382.184	602.56
382.409	621.56
382.634	636.56
382.86	634.56
383.085	642.56
383.31	628.56
383.535	621.56
383.761	652.56
383.986	692.56
384.211	685.56
384.436	708.56
384.662	715.56
384.887	720.56
385.112	699.56
385.337	691.56
385.562	720.56
385.787	704.56
386.013	729.56
386.238	713.56
386.463	734.56
386.688	696.56
386.913	698.56
387.138	685.56
387.363	702.56
387.588	723.56
387.813	692.56
388.038	700.56
388.263	737.56
388.488	716.56
388.713	685.56
388.938	709.56
389.163	692.56
389.387	673.56
389.612	690.56
389.837	684.56
390.062	700.56
390.287	684.56
390.512	674.56
390.736	684.56
390.961	690.56
391.186	735.56
391.411	764.56
391.636	744.56
391.86	808.56
392.085	827.56
392.31	833.56
392.534	771.56
392.759	765.56
392.984	753.56
393.208	729.56
393.433	733.56
393.658	754.56
393.882	788.56
394.107	758.56
394.331	744.56
394.556	740.56
394.78	775.56
395.005	766.56
395.229	761.56
395.454	798.56
395.678	801.56
395.903	810.56
396.127	765.56
396.352	749.56
396.576	747.56
396.801	742.56
397.025	737.56
397.249	730.56
397.474	776.56
397.698	776.56
397.922	767.56
398.147	773.56
398.371	768.56
398.595	848.56
398.82	847.56
399.044	895.56
399.268	1003.56
399.492	1198.56
399.717	1385.56
399.941	1357.56
400.165	1164.56
400.389	1057.56
400.613	973.56
400.837	918.56
401.062	888.56
401.286	860.56
401.51	847.56
401.734	882.56
401.958	871.56
402.182	907.56
402.406	904.56
402.63	905.56
402.854	957.56
403.078	970.56
403.302	996.56
403.526	1004.56
403.75	1046.56
403.974	1040.56
404.198	1093.56
404.422	1076.56
404.645	1047.56
404.869	1051.56
405.093	1017.56
405.317	987.56
405.541	1011.56
405.765	957.56
405.988	985.56
406.212	983.56
406.436	960.56
406.66	985.56
406.883	998.56
407.107	1074.56
407.331	1134.56
407.555	1145.56
407.778	1186.56
408.002	1126.56
408.226	1077.56
408.449	1060.56
408.673	1008.56
408.896	994.56
409.12	1032.56
409.344	1020.56
409.567	1029.56
409.791	1013.56
410.014	1060.56
410.238	1020.56
410.461	1022.56
410.685	1020.56
410.908	975.56
411.132	946.56
411.355	915.56
411.578	940.56
411.802	905.56
412.025	904.56
412.249	944.56
412.472	942.56
412.695	904.56
412.919	891.56
413.142	883.56
413.365	890.56
413.589	906.56
413.812	881.56
414.035	886.56
414.258	884.56
414.482	891.56
414.705	906.56
414.928	896.56
415.151	890.56
415.374	881.56
415.597	887.56
415.821	892.56
416.044	891.56
416.267	868.56
416.49	866.56
416.713	899.56
416.936	870.56
417.159	894.56
417.382	899.56
417.605	878.56
417.828	892.56
418.051	896.56
418.274	918.56
418.497	911.56
418.72	911.56
418.943	937.56
419.166	969.56
419.389	1042.56
419.611	983.56
419.834	971.56
420.057	910.56
420.28	910.56
420.503	860.56
420.726	871.56
420.948	860.56
421.171	875.56
421.394	891.56
421.617	876.56
421.839	890.56
422.062	888.56
422.285	884.56
422.507	917.56
422.73	916.56
422.953	890.56
423.175	948.56
423.398	939.56
423.621	980.56
423.843	972.56
424.066	980.56
424.288	976.56
424.511	985.56
424.733	978.56
424.956	946.56
425.178	919.56
425.401	896.56
425.623	925.56
425.846	877.56
426.068	888.56
426.291	882.56
426.513	864.56
426.735	841.56
426.958	835.56
427.18	798.56
427.402	812.56
427.625	832.56
427.847	795.56
428.069	795.56
428.292	801.56
428.514	794.56
428.736	781.56
428.958	804.56
429.181	781.56
429.403	782.56
429.625	773.56
429.847	781.56
430.069	796.56
430.292	775.56
430.514	768.56
430.736	772.56
430.958	771.56
431.18	773.56
431.402	807.56
431.624	793.56
431.846	829.56
432.068	799.56
432.29	800.56
432.512	794.56
432.734	808.56
432.956	803.56
433.178	808.56
433.4	809.56
433.622	781.56
433.844	801.56
434.066	823.56
434.287	807.56
434.509	855.56
434.731	907.56
434.953	903.56
435.175	932.56
435.397	934.56
435.618	883.56
435.84	840.56
436.062	811.56
436.284	788.56
436.505	792.56
436.727	841.56
436.949	818.56
437.17	828.56
437.392	801.56
437.614	794.56
437.835	776.56
438.057	785.56
438.278	776.56
438.5	766.56
438.721	770.56
438.943	773.56
439.165	777.56
439.386	780.56
439.608	797.56
439.829	820.56
440.05	823.56
440.272	790.56
440.493	807.56
440.715	829.56
440.936	844.56
441.158	865.56
441.379	886.56
441.6	908.56
441.822	950.56
442.043	944.56
442.264	930.56
442.486	898.56
442.707	896.56
442.928	911.56
443.149	891.56
443.371	900.56
443.592	922.56
443.813	913.56
444.034	933.56
444.255	954.56
444.476	1016.56
444.698	1065.56
444.919	1125.56
445.14	1210.56
445.361	1066.56
445.582	951.56
445.803	896.56
446.024	867.56
446.245	865.56
446.466	854.56
446.687	836.56
446.908	837.56
447.129	815.56
447.35	805.56
447.571	813.56
447.792	798.56
448.013	788.56
448.234	756.56
448.455	749.56
448.675	766.56
448.896	768.56
449.117	738.56
449.338	747.56
449.559	737.56
449.779	745.56
450	718.56
450.221	730.56
450.442	760.56
450.662	744.56
450.883	807.56
451.104	788.56
451.324	778.56
451.545	788.56
451.766	793.56
451.986	772.56
452.207	786.56
452.428	769.56
452.648	750.56
452.869	747.56
453.089	756.56
453.31	753.56
453.53	732.56
453.751	720.56
453.971	730.56
454.192	723.56
454.412	702.56
454.633	703.56
454.853	727.56
455.073	692.56
455.294	719.56
455.514	704.56
455.734	702.56
455.955	685.56
456.175	683.56
456.395	684.56
456.616	676.56
456.836	697.56
457.056	704.56
457.276	698.56
457.497	703.56
457.717	707.56
457.937	696.56
458.157	711.56
458.377	712.56
458.598	721.56
458.818	736.56
459.038	762.56
459.258	780.56
459.478	796.56
459.698	830.56
459.918	874.56
460.138	924.56
460.358	962.56
460.578	972.56
460.798	989.56
461.018	992.56
461.238	982.56
461.458	947.56
461.678	981.56
461.898	932.56
462.118	959.56
462.338	1046.56
462.558	1058.56
462.777	1073.56
462.997	1160.56
463.217	1317.56
463.437	1365.56
463.657	1227.56
463.876	1155.56
464.096	1148.56
464.316	1125.56
464.536	1172.56
464.755	1115.56
464.975	1066.56
465.195	1005.56
465.414	922.56
465.634	884.56
465.854	854.56
466.073	838.56
466.293	827.56
466.512	795.56
466.732	806.56
466.951	790.56
467.171	830.56
467.391	801.56
467.61	793.56
467.829	774.56
468.049	756.56
468.268	727.56
468.488	766.56
468.707	742.56
468.927	758.56
469.146	726.56
469.365	743.56
469.585	765.56
469.804	782.56
470.023	803.56
470.243	806.56
470.462	813.56
470.681	825.56
470.901	800.56
471.12	802.56
471.339	775.56
471.558	787.56
471.777	792.56
471.997	772.56
472.216	770.56
472.435	737.56
472.654	738.56
472.873	732.56
473.092	725.56
473.311	732.56
473.53	716.56
473.749	712.56
473.968	737.56
474.187	728.56
474.406	731.56
474.625	718.56
474.844	743.56
475.063	734.56
475.282	736.56
475.501	744.56
475.72	756.56
475.939	742.56
476.158	736.56
476.377	765.56
476.596	771.56
476.814	754.56
477.033	765.56
477.252	808.56
477.471	793.56
477.69	834.56
477.908	851.56
478.127	877.56
478.346	877.56
478.564	907.56
478.783	900.56
479.002	928.56
479.22	900.56
479.439	898.56
479.658	897.56
479.876	903.56
480.095	896.56
480.313	932.56
480.532	977.56
480.751	966.56
480.969	931.56
481.188	885.56
481.406	865.56
481.624	871.56
481.843	845.56
482.061	828.56
482.28	840.56
482.498	832.56
482.717	846.56
482.935	812.56
483.153	828.56
483.372	839.56
483.59	828.56
483.808	835.56
484.027	824.56
484.245	829.56
484.463	840.56
484.681	854.56
484.9	845.56
485.118	874.56
485.336	859.56
485.554	852.56
485.772	868.56
485.99	904.56
486.209	912.56
486.427	893.56
486.645	873.56
486.863	919.56
487.081	859.56
487.299	898.56
487.517	898.56
487.735	868.56
487.953	880.56
488.171	879.56
488.389	887.56
488.607	846.56
488.825	851.56
489.043	813.56
489.261	877.56
489.479	875.56
489.696	869.56
489.914	874.56
490.132	885.56
490.35	894.56
490.568	899.56
490.786	880.56
491.003	880.56
491.221	881.56
491.439	895.56
491.657	904.56
491.874	922.56
492.092	896.56
492.31	892.56
492.527	893.56
492.745	924.56
492.963	900.56
493.18	894.56
493.398	916.56
493.615	911.56
493.833	919.56
494.05	915.56
494.268	908.56
494.485	914.56
494.703	951.56
494.92	933.56
495.138	909.56
495.355	927.56
495.573	933.56
495.79	906.56
496.008	919.56
496.225	950.56
496.442	932.56
496.66	968.56
496.877	973.56
497.094	992.56
497.312	1025.56
497.529	1013.56
497.746	1020.56
497.963	1064.56
498.181	1108.56
498.398	1122.56
498.615	1193.56
498.832	1300.56
499.049	1385.56
499.267	1525.56
499.484	1658.56
499.701	1878.56
499.918	2120.56
500.135	2461.56
500.352	2845.56
500.569	3013.56
500.786	2959.56
