Data from Ni(NO3)2@0.125M.TitratingCurve.Agarose3%dH2O.NegLispCup.LampEnergy10.LIBS07252019_HRD10591_18-09-34-574.txt Node
Date: Thu Jul 25 18:09:34 EDT 2019
User: cochatt
Spectrometer: HR+D1059
Trigger mode: 1
Integration Time (sec): 1.000000E-1
Scans to average: 1
Electric dark correction enabled: true
Nonlinearity correction enabled: false
Boxcar width: 0
XAxis mode: Wavelengths
Number of Pixels in Spectrum: 2048
>>>>>Begin Spectral Data<<<<<
223.165	-16.25
223.4	-16.25
223.635	-16.25
223.869	-25.25
224.104	-20.25
224.338	-11.25
224.573	-10.25
224.808	-8.25
225.042	-1.25
225.277	-6.25
225.511	-12.25
225.746	-4.25
225.98	2.75
226.215	6.75
226.449	20.75
226.683	19.75
226.918	19.75
227.152	45.75
227.387	46.75
227.621	57.75
227.856	50.75
228.09	50.75
228.324	43.75
228.559	56.75
228.793	61.75
229.027	119.75
229.262	114.75
229.496	122.75
229.73	123.75
229.964	134.75
230.199	136.75
230.433	150.75
230.667	140.75
230.901	128.75
231.136	119.75
231.37	129.75
231.604	126.75
231.838	150.75
232.072	141.75
232.306	135.75
232.541	156.75
232.775	136.75
233.009	138.75
233.243	153.75
233.477	153.75
233.711	147.75
233.945	145.75
234.179	152.75
234.413	142.75
234.647	147.75
234.881	163.75
235.115	162.75
235.349	159.75
235.583	150.75
235.817	143.75
236.051	142.75
236.285	153.75
236.519	162.75
236.753	151.75
236.987	173.75
237.221	154.75
237.455	149.75
237.689	154.75
237.922	147.75
238.156	166.75
238.39	169.75
238.624	150.75
238.858	174.75
239.091	165.75
239.325	174.75
239.559	158.75
239.793	187.75
240.027	185.75
240.26	174.75
240.494	171.75
240.728	182.75
240.961	173.75
241.195	177.75
241.429	172.75
241.662	172.75
241.896	179.75
242.13	207.75
242.363	181.75
242.597	209.75
242.83	197.75
243.064	190.75
243.298	212.75
243.531	188.75
243.765	189.75
243.998	213.75
244.232	208.75
244.465	202.75
244.699	205.75
244.932	206.75
245.166	199.75
245.399	212.75
245.633	215.75
245.866	217.75
246.099	213.75
246.333	216.75
246.566	225.75
246.8	229.75
247.033	230.75
247.266	225.75
247.5	226.75
247.733	205.75
247.966	241.75
248.2	247.75
248.433	235.75
248.666	239.75
248.899	227.75
249.133	238.75
249.366	214.75
249.599	233.75
249.832	250.75
250.066	228.75
250.299	245.75
250.532	245.75
250.765	255.75
250.998	245.75
251.231	253.75
251.465	260.75
251.698	252.75
251.931	246.75
252.164	265.75
252.397	259.75
252.63	276.75
252.863	258.75
253.096	271.75
253.329	276.75
253.562	265.75
253.795	271.75
254.028	285.75
254.261	285.75
254.494	263.75
254.727	270.75
254.96	261.75
255.193	278.75
255.426	290.75
255.659	276.75
255.892	291.75
256.124	293.75
256.357	288.75
256.59	293.75
256.823	297.75
257.056	292.75
257.289	268.75
257.521	285.75
257.754	287.75
257.987	289.75
258.22	292.75
258.452	302.75
258.685	313.75
258.918	291.75
259.151	321.75
259.383	312.75
259.616	311.75
259.849	309.75
260.081	301.75
260.314	294.75
260.547	301.75
260.779	308.75
261.012	317.75
261.244	304.75
261.477	302.75
261.71	299.75
261.942	316.75
262.175	317.75
262.407	329.75
262.64	334.75
262.872	332.75
263.105	322.75
263.337	341.75
263.57	318.75
263.802	333.75
264.035	332.75
264.267	321.75
264.499	354.75
264.732	329.75
264.964	354.75
265.197	346.75
265.429	343.75
265.661	335.75
265.894	369.75
266.126	337.75
266.358	360.75
266.591	362.75
266.823	364.75
267.055	346.75
267.287	338.75
267.52	356.75
267.752	382.75
267.984	364.75
268.216	333.75
268.448	365.75
268.681	362.75
268.913	375.75
269.145	366.75
269.377	365.75
269.609	370.75
269.841	366.75
270.073	397.75
270.306	383.75
270.538	361.75
270.77	352.75
271.002	392.75
271.234	369.75
271.466	375.75
271.698	380.75
271.93	380.75
272.162	382.75
272.394	386.75
272.626	377.75
272.858	383.75
273.09	396.75
273.322	387.75
273.553	383.75
273.785	394.75
274.017	382.75
274.249	395.75
274.481	388.75
274.713	395.75
274.945	397.75
275.176	400.75
275.408	424.75
275.64	406.75
275.872	409.75
276.104	400.75
276.335	399.75
276.567	418.75
276.799	410.75
277.031	415.75
277.262	415.75
277.494	430.75
277.726	396.75
277.957	412.75
278.189	426.75
278.421	434.75
278.652	424.75
278.884	437.75
279.115	439.75
279.347	431.75
279.579	425.75
279.81	427.75
280.042	426.75
280.273	437.75
280.505	445.75
280.736	423.75
280.968	451.75
281.199	469.75
281.431	445.75
281.662	443.75
281.894	435.75
282.125	448.75
282.356	455.75
282.588	440.75
282.819	450.75
283.051	469.75
283.282	463.75
283.513	462.75
283.745	452.75
283.976	461.75
284.207	482.75
284.439	469.75
284.67	476.75
284.901	459.75
285.132	478.75
285.364	467.75
285.595	473.75
285.826	479.75
286.057	458.75
286.288	487.75
286.52	474.75
286.751	497.75
286.982	511.75
287.213	500.75
287.444	501.75
287.675	514.75
287.906	491.75
288.138	495.75
288.369	508.75
288.6	476.75
288.831	490.75
289.062	500.75
289.293	503.75
289.524	498.75
289.755	498.75
289.986	490.75
290.217	521.75
290.448	489.75
290.679	498.75
290.91	509.75
291.141	503.75
291.371	523.75
291.602	495.75
291.833	492.75
292.064	513.75
292.295	499.75
292.526	508.75
292.757	520.75
292.987	502.75
293.218	476.75
293.449	506.75
293.68	515.75
293.91	506.75
294.141	525.75
294.372	534.75
294.603	525.75
294.833	526.75
295.064	515.75
295.295	532.75
295.525	501.75
295.756	524.75
295.987	507.75
296.217	544.75
296.448	533.75
296.679	530.75
296.909	517.75
297.14	529.75
297.37	556.75
297.601	549.75
297.831	538.75
298.062	571.75
298.292	581.75
298.523	552.75
298.753	542.75
298.984	559.75
299.214	558.75
299.445	560.75
299.675	561.75
299.905	571.75
300.136	556.75
300.366	569.75
300.597	577.75
300.827	577.75
301.057	560.75
301.288	580.75
301.518	589.75
301.748	569.75
301.979	581.75
302.209	592.75
302.439	572.75
302.669	562.75
302.9	526.75
303.13	556.75
303.36	568.75
303.59	569.75
303.82	566.75
304.051	576.75
304.281	573.75
304.511	547.75
304.741	572.75
304.971	591.75
305.201	572.75
305.431	598.75
305.661	580.75
305.891	548.75
306.121	562.75
306.352	566.75
306.582	567.75
306.812	557.75
307.042	567.75
307.272	554.75
307.502	577.75
307.731	585.75
307.961	558.75
308.191	561.75
308.421	567.75
308.651	538.75
308.881	572.75
309.111	557.75
309.341	567.75
309.571	574.75
309.8	550.75
310.03	556.75
310.26	610.75
310.49	573.75
310.72	583.75
310.949	569.75
311.179	567.75
311.409	549.75
311.639	588.75
311.868	590.75
312.098	579.75
312.328	589.75
312.557	575.75
312.787	587.75
313.017	593.75
313.246	599.75
313.476	596.75
313.706	588.75
313.935	628.75
314.165	605.75
314.394	630.75
314.624	615.75
314.853	603.75
315.083	609.75
315.312	612.75
315.542	600.75
315.771	590.75
316.001	593.75
316.23	585.75
316.46	589.75
316.689	608.75
316.919	603.75
317.148	599.75
317.377	597.75
317.607	579.75
317.836	572.75
318.065	589.75
318.295	590.75
318.524	609.75
318.753	580.75
318.983	601.75
319.212	584.75
319.441	575.75
319.67	589.75
319.9	597.75
320.129	601.75
320.358	586.75
320.587	610.75
320.816	586.75
321.046	632.75
321.275	600.75
321.504	579.75
321.733	610.75
321.962	590.75
322.191	602.75
322.42	615.75
322.649	594.75
322.878	608.75
323.108	607.75
323.337	595.75
323.566	622.75
323.795	636.75
324.024	602.75
324.253	618.75
324.482	606.75
324.71	610.75
324.939	612.75
325.168	625.75
325.397	603.75
325.626	622.75
325.855	646.75
326.084	651.75
326.313	647.75
326.542	655.75
326.77	652.75
326.999	673.75
327.228	631.75
327.457	654.75
327.686	667.75
327.914	665.75
328.143	658.75
328.372	634.75
328.6	646.75
328.829	672.75
329.058	651.75
329.287	676.75
329.515	660.75
329.744	665.75
329.972	679.75
330.201	675.75
330.43	661.75
330.658	693.75
330.887	678.75
331.115	686.75
331.344	696.75
331.572	725.75
331.801	735.75
332.03	753.75
332.258	742.75
332.486	770.75
332.715	793.75
332.943	804.75
333.172	856.75
333.4	865.75
333.629	935.75
333.857	937.75
334.085	887.75
334.314	894.75
334.542	872.75
334.771	840.75
334.999	822.75
335.227	835.75
335.455	825.75
335.684	838.75
335.912	815.75
336.14	803.75
336.369	811.75
336.597	816.75
336.825	806.75
337.053	773.75
337.281	783.75
337.51	792.75
337.738	791.75
337.966	729.75
338.194	733.75
338.422	723.75
338.65	737.75
338.878	734.75
339.106	727.75
339.334	746.75
339.562	718.75
339.79	700.75
340.018	694.75
340.246	692.75
340.474	673.75
340.702	685.75
340.93	703.75
341.158	725.75
341.386	703.75
341.614	718.75
341.842	714.75
342.07	699.75
342.298	703.75
342.526	689.75
342.754	658.75
342.981	683.75
343.209	695.75
343.437	759.75
343.665	795.75
343.893	873.75
344.12	881.75
344.348	845.75
344.576	797.75
344.804	779.75
345.031	730.75
345.259	728.75
345.487	689.75
345.714	697.75
345.942	699.75
346.17	715.75
346.397	715.75
346.625	683.75
346.853	679.75
347.08	700.75
347.308	695.75
347.535	691.75
347.763	689.75
347.99	687.75
348.218	701.75
348.445	670.75
348.673	685.75
348.9	681.75
349.128	685.75
349.355	675.75
349.583	678.75
349.81	668.75
350.037	664.75
350.265	666.75
350.492	655.75
350.72	663.75
350.947	638.75
351.174	643.75
351.402	676.75
351.629	671.75
351.856	650.75
352.083	635.75
352.311	641.75
352.538	663.75
352.765	688.75
352.992	647.75
353.22	645.75
353.447	642.75
353.674	638.75
353.901	647.75
354.128	639.75
354.355	650.75
354.583	635.75
354.81	649.75
355.037	659.75
355.264	635.75
355.491	641.75
355.718	656.75
355.945	664.75
356.172	644.75
356.399	657.75
356.626	668.75
356.853	673.75
357.08	665.75
357.307	650.75
357.534	667.75
357.761	656.75
357.988	655.75
358.215	656.75
358.441	650.75
358.668	639.75
358.895	658.75
359.122	645.75
359.349	636.75
359.576	623.75
359.802	648.75
360.029	646.75
360.256	647.75
360.483	625.75
360.709	664.75
360.936	669.75
361.163	639.75
361.39	636.75
361.616	674.75
361.843	657.75
362.07	666.75
362.296	655.75
362.523	655.75
362.749	649.75
362.976	641.75
363.203	658.75
363.429	659.75
363.656	648.75
363.882	627.75
364.109	667.75
364.335	639.75
364.562	625.75
364.788	639.75
365.015	628.75
365.241	629.75
365.468	635.75
365.694	646.75
365.92	651.75
366.147	640.75
366.373	623.75
366.599	639.75
366.826	653.75
367.052	634.75
367.278	661.75
367.505	639.75
367.731	641.75
367.957	677.75
368.184	654.75
368.41	655.75
368.636	666.75
368.862	668.75
369.089	650.75
369.315	651.75
369.541	643.75
369.767	670.75
369.993	675.75
370.219	669.75
370.445	659.75
370.672	692.75
370.898	678.75
371.124	678.75
371.35	689.75
371.576	694.75
371.802	690.75
372.028	666.75
372.254	699.75
372.48	716.75
372.706	741.75
372.932	737.75
373.158	747.75
373.384	730.75
373.61	689.75
373.835	699.75
374.061	726.75
374.287	736.75
374.513	737.75
374.739	758.75
374.965	781.75
375.191	800.75
375.416	794.75
375.642	746.75
375.868	731.75
376.094	715.75
376.319	724.75
376.545	693.75
376.771	684.75
376.997	702.75
377.222	699.75
377.448	689.75
377.674	703.75
377.899	698.75
378.125	710.75
378.35	681.75
378.576	667.75
378.802	683.75
379.027	691.75
379.253	692.75
379.478	711.75
379.704	683.75
379.929	696.75
380.155	697.75
380.38	703.75
380.606	717.75
380.831	696.75
381.057	700.75
381.282	693.75
381.507	699.75
381.733	702.75
381.958	699.75
382.184	701.75
382.409	711.75
382.634	719.75
382.86	737.75
383.085	749.75
383.31	768.75
383.535	761.75
383.761	777.75
383.986	785.75
384.211	798.75
384.436	831.75
384.662	845.75
384.887	853.75
385.112	859.75
385.337	876.75
385.562	861.75
385.787	897.75
386.013	873.75
386.238	860.75
386.463	869.75
386.688	868.75
386.913	864.75
387.138	839.75
387.363	819.75
387.588	844.75
387.813	826.75
388.038	830.75
388.263	828.75
388.488	832.75
388.713	835.75
388.938	835.75
389.163	810.75
389.387	824.75
389.612	796.75
389.837	806.75
390.062	783.75
390.287	809.75
390.512	812.75
390.736	829.75
390.961	854.75
391.186	899.75
391.411	889.75
391.636	899.75
391.86	907.75
392.085	962.75
392.31	952.75
392.534	951.75
392.759	919.75
392.984	882.75
393.208	870.75
393.433	893.75
393.658	889.75
393.882	876.75
394.107	897.75
394.331	905.75
394.556	922.75
394.78	882.75
395.005	918.75
395.229	906.75
395.454	925.75
395.678	947.75
395.903	929.75
396.127	932.75
396.352	892.75
396.576	862.75
396.801	866.75
397.025	899.75
397.249	894.75
397.474	908.75
397.698	925.75
397.922	953.75
398.147	940.75
398.371	961.75
398.595	975.75
398.82	1013.75
399.044	1091.75
399.268	1207.75
399.492	1387.75
399.717	1647.75
399.941	1640.75
400.165	1439.75
400.389	1260.75
400.613	1139.75
400.837	1089.75
401.062	1065.75
401.286	1056.75
401.51	1026.75
401.734	1054.75
401.958	1032.75
402.182	1070.75
402.406	1075.75
402.63	1109.75
402.854	1097.75
403.078	1136.75
403.302	1144.75
403.526	1192.75
403.75	1219.75
403.974	1250.75
404.198	1232.75
404.422	1249.75
404.645	1239.75
404.869	1176.75
405.093	1224.75
405.317	1196.75
405.541	1190.75
405.765	1175.75
405.988	1127.75
406.212	1130.75
406.436	1132.75
406.66	1148.75
406.883	1174.75
407.107	1273.75
407.331	1331.75
407.555	1363.75
407.778	1387.75
408.002	1347.75
408.226	1275.75
408.449	1293.75
408.673	1226.75
408.896	1195.75
409.12	1189.75
409.344	1213.75
409.567	1192.75
409.791	1210.75
410.014	1230.75
410.238	1181.75
410.461	1191.75
410.685	1165.75
410.908	1157.75
411.132	1148.75
411.355	1107.75
411.578	1079.75
411.802	1073.75
412.025	1100.75
412.249	1109.75
412.472	1159.75
412.695	1063.75
412.919	1043.75
413.142	1051.75
413.365	1041.75
413.589	1057.75
413.812	1044.75
414.035	1054.75
414.258	1079.75
414.482	1084.75
414.705	1032.75
414.928	1071.75
415.151	1053.75
415.374	1046.75
415.597	1093.75
415.821	1051.75
416.044	1027.75
416.267	1025.75
416.49	1006.75
416.713	1047.75
416.936	1009.75
417.159	1045.75
417.382	1057.75
417.605	1053.75
417.828	1037.75
418.051	1049.75
418.274	1087.75
418.497	1035.75
418.72	1074.75
418.943	1090.75
419.166	1155.75
419.389	1231.75
419.611	1207.75
419.834	1142.75
420.057	1095.75
420.28	1085.75
420.503	1044.75
420.726	1045.75
420.948	1030.75
421.171	1029.75
421.394	1043.75
421.617	1068.75
421.839	1095.75
422.062	1090.75
422.285	1059.75
422.507	1070.75
422.73	1100.75
422.953	1045.75
423.175	1134.75
423.398	1134.75
423.621	1126.75
423.843	1149.75
424.066	1115.75
424.288	1121.75
424.511	1131.75
424.733	1113.75
424.956	1092.75
425.178	1101.75
425.401	1063.75
425.623	1075.75
425.846	1033.75
426.068	1027.75
426.291	990.75
426.513	1023.75
426.735	965.75
426.958	981.75
427.18	959.75
427.402	946.75
427.625	938.75
427.847	930.75
428.069	950.75
428.292	949.75
428.514	903.75
428.736	942.75
428.958	961.75
429.181	912.75
429.403	927.75
429.625	903.75
429.847	902.75
430.069	924.75
430.292	931.75
430.514	911.75
430.736	922.75
430.958	923.75
431.18	914.75
431.402	902.75
431.624	905.75
431.846	939.75
432.068	969.75
432.29	981.75
432.512	959.75
432.734	959.75
432.956	939.75
433.178	962.75
433.4	964.75
433.622	997.75
433.844	975.75
434.066	977.75
434.287	981.75
434.509	1028.75
434.731	1067.75
434.953	1097.75
435.175	1085.75
435.397	1090.75
435.618	1011.75
435.84	986.75
436.062	968.75
436.284	960.75
436.505	978.75
436.727	956.75
436.949	945.75
437.17	973.75
437.392	947.75
437.614	907.75
437.835	894.75
438.057	898.75
438.278	920.75
438.5	897.75
438.721	919.75
438.943	895.75
439.165	917.75
439.386	951.75
439.608	941.75
439.829	948.75
440.05	954.75
440.272	958.75
440.493	947.75
440.715	970.75
440.936	997.75
441.158	996.75
441.379	1009.75
441.6	1107.75
441.822	1066.75
442.043	1102.75
442.264	1057.75
442.486	1063.75
442.707	1060.75
442.928	1038.75
443.149	1039.75
443.371	1053.75
443.592	1105.75
443.813	1094.75
444.034	1117.75
444.255	1103.75
444.476	1171.75
444.698	1249.75
444.919	1334.75
445.14	1404.75
445.361	1223.75
445.582	1102.75
445.803	1070.75
446.024	1027.75
446.245	1009.75
446.466	1003.75
446.687	936.75
446.908	961.75
447.129	935.75
447.35	914.75
447.571	938.75
447.792	872.75
448.013	891.75
448.234	901.75
448.455	905.75
448.675	872.75
448.896	892.75
449.117	889.75
449.338	890.75
449.559	863.75
449.779	870.75
450	865.75
450.221	876.75
450.442	863.75
450.662	896.75
450.883	897.75
451.104	933.75
451.324	907.75
451.545	866.75
451.766	908.75
451.986	874.75
452.207	855.75
452.428	877.75
452.648	878.75
452.869	868.75
453.089	889.75
453.31	872.75
453.53	859.75
453.751	849.75
453.971	854.75
454.192	862.75
454.412	857.75
454.633	843.75
454.853	841.75
455.073	805.75
455.294	837.75
455.514	829.75
455.734	850.75
455.955	811.75
456.175	806.75
456.395	791.75
456.616	825.75
456.836	838.75
457.056	793.75
457.276	801.75
457.497	800.75
457.717	827.75
457.937	819.75
458.157	838.75
458.377	854.75
458.598	874.75
458.818	837.75
459.038	890.75
459.258	938.75
459.478	970.75
459.698	1049.75
459.918	1034.75
460.138	1088.75
460.358	1142.75
460.578	1153.75
460.798	1164.75
461.018	1149.75
461.238	1138.75
461.458	1147.75
461.678	1111.75
461.898	1126.75
462.118	1102.75
462.338	1192.75
462.558	1260.75
462.777	1281.75
462.997	1406.75
463.217	1561.75
463.437	1622.75
463.657	1434.75
463.876	1345.75
464.096	1319.75
464.316	1353.75
464.536	1361.75
464.755	1302.75
464.975	1242.75
465.195	1207.75
465.414	1117.75
465.634	1054.75
465.854	1028.75
466.073	977.75
466.293	973.75
466.512	947.75
466.732	915.75
466.951	933.75
467.171	920.75
467.391	913.75
467.61	930.75
467.829	900.75
468.049	883.75
468.268	889.75
468.488	852.75
468.707	868.75
468.927	887.75
469.146	854.75
469.365	895.75
469.585	929.75
469.804	904.75
470.023	946.75
470.243	923.75
470.462	979.75
470.681	978.75
470.901	971.75
471.12	921.75
471.339	908.75
471.558	913.75
471.777	917.75
471.997	897.75
472.216	875.75
472.435	851.75
472.654	858.75
472.873	831.75
473.092	845.75
473.311	860.75
473.53	867.75
473.749	855.75
473.968	854.75
474.187	842.75
474.406	854.75
474.625	891.75
474.844	873.75
475.063	864.75
475.282	887.75
475.501	868.75
475.72	851.75
475.939	889.75
476.158	850.75
476.377	876.75
476.596	885.75
476.814	894.75
477.033	906.75
477.252	944.75
477.471	969.75
477.69	962.75
477.908	962.75
478.127	1004.75
478.346	1057.75
478.564	1052.75
478.783	1054.75
479.002	1102.75
479.22	1107.75
479.439	1124.75
479.658	1102.75
479.876	1094.75
480.095	1085.75
480.313	1146.75
480.532	1201.75
480.751	1161.75
480.969	1119.75
481.188	1057.75
481.406	1023.75
481.624	1013.75
481.843	994.75
482.061	993.75
482.28	982.75
482.498	997.75
482.717	977.75
482.935	986.75
483.153	1002.75
483.372	1003.75
483.59	1029.75
483.808	997.75
484.027	975.75
484.245	995.75
484.463	998.75
484.681	1045.75
484.9	1001.75
485.118	1036.75
485.336	1030.75
485.554	1038.75
485.772	1079.75
485.99	1080.75
486.209	1050.75
486.427	1055.75
486.645	1086.75
486.863	1051.75
487.081	1047.75
487.299	1033.75
487.517	1051.75
487.735	1066.75
487.953	1038.75
488.171	1031.75
488.389	1031.75
488.607	1021.75
488.825	1042.75
489.043	998.75
489.261	1020.75
489.479	1033.75
489.696	1029.75
489.914	1061.75
490.132	1020.75
490.35	1035.75
490.568	1039.75
490.786	1068.75
491.003	1067.75
491.221	1070.75
491.439	1068.75
491.657	1028.75
491.874	1062.75
492.092	1068.75
492.31	1085.75
492.527	1076.75
492.745	1063.75
492.963	1102.75
493.18	1070.75
493.398	1059.75
493.615	1068.75
493.833	1107.75
494.05	1086.75
494.268	1093.75
494.485	1097.75
494.703	1109.75
494.92	1139.75
495.138	1118.75
495.355	1099.75
495.573	1101.75
495.79	1116.75
496.008	1117.75
496.225	1082.75
496.442	1124.75
496.66	1126.75
496.877	1138.75
497.094	1139.75
497.312	1184.75
497.529	1236.75
497.746	1245.75
497.963	1261.75
