Data from Ni(NO3)2@0.125M.TitratingCurve.Agarose3%dH2O.NegLispCup.LampEnergy10.LIBS07252019_HRD10591_18-10-58-568.txt Node
Date: Thu Jul 25 18:10:58 EDT 2019
User: cochatt
Spectrometer: HR+D1059
Trigger mode: 1
Integration Time (sec): 1.000000E-1
Scans to average: 1
Electric dark correction enabled: true
Nonlinearity correction enabled: false
Boxcar width: 0
XAxis mode: Wavelengths
Number of Pixels in Spectrum: 2048
>>>>>Begin Spectral Data<<<<<
223.165	-23.69
223.4	-23.69
223.635	-23.69
223.869	-15.69
224.104	-24.69
224.338	-13.69
224.573	-14.69
224.808	-11.69
225.042	-4.69
225.277	-1.69
225.511	-1.69
225.746	3.31
225.98	-3.69
226.215	19.31
226.449	16.31
226.683	27.31
226.918	23.31
227.152	26.31
227.387	26.31
227.621	55.31
227.856	46.31
228.09	55.31
228.324	40.31
228.559	53.31
228.793	57.31
229.027	76.31
229.262	84.31
229.496	117.31
229.73	97.31
229.964	110.31
230.199	120.31
230.433	102.31
230.667	116.31
230.901	98.31
231.136	105.31
231.37	127.31
231.604	133.31
231.838	108.31
232.072	113.31
232.306	120.31
232.541	125.31
232.775	130.31
233.009	118.31
233.243	121.31
233.477	136.31
233.711	123.31
233.945	121.31
234.179	111.31
234.413	129.31
234.647	121.31
234.881	131.31
235.115	110.31
235.349	123.31
235.583	122.31
235.817	130.31
236.051	128.31
236.285	132.31
236.519	122.31
236.753	129.31
236.987	129.31
237.221	126.31
237.455	125.31
237.689	127.31
237.922	117.31
238.156	145.31
238.39	133.31
238.624	123.31
238.858	129.31
239.091	121.31
239.325	119.31
239.559	118.31
239.793	128.31
240.027	130.31
240.26	125.31
240.494	144.31
240.728	141.31
240.961	131.31
241.195	135.31
241.429	142.31
241.662	145.31
241.896	151.31
242.13	134.31
242.363	142.31
242.597	143.31
242.83	149.31
243.064	151.31
243.298	143.31
243.531	143.31
243.765	157.31
243.998	149.31
244.232	140.31
244.465	161.31
244.699	140.31
244.932	138.31
245.166	153.31
245.399	173.31
245.633	154.31
245.866	163.31
246.099	168.31
246.333	162.31
246.566	162.31
246.8	165.31
247.033	165.31
247.266	173.31
247.5	172.31
247.733	161.31
247.966	169.31
248.2	182.31
248.433	181.31
248.666	187.31
248.899	166.31
249.133	179.31
249.366	169.31
249.599	160.31
249.832	177.31
250.066	197.31
250.299	189.31
250.532	189.31
250.765	198.31
250.998	183.31
251.231	178.31
251.465	189.31
251.698	206.31
251.931	189.31
252.164	199.31
252.397	194.31
252.63	202.31
252.863	207.31
253.096	199.31
253.329	189.31
253.562	197.31
253.795	197.31
254.028	185.31
254.261	208.31
254.494	205.31
254.727	204.31
254.96	196.31
255.193	202.31
255.426	198.31
255.659	193.31
255.892	206.31
256.124	210.31
256.357	197.31
256.59	212.31
256.823	203.31
257.056	224.31
257.289	213.31
257.521	204.31
257.754	202.31
257.987	213.31
258.22	212.31
258.452	222.31
258.685	213.31
258.918	226.31
259.151	220.31
259.383	235.31
259.616	236.31
259.849	247.31
260.081	237.31
260.314	229.31
260.547	227.31
260.779	221.31
261.012	236.31
261.244	230.31
261.477	237.31
261.71	239.31
261.942	227.31
262.175	236.31
262.407	238.31
262.64	227.31
262.872	257.31
263.105	223.31
263.337	249.31
263.57	236.31
263.802	243.31
264.035	245.31
264.267	236.31
264.499	240.31
264.732	239.31
264.964	242.31
265.197	244.31
265.429	248.31
265.661	236.31
265.894	241.31
266.126	236.31
266.358	238.31
266.591	234.31
266.823	265.31
267.055	275.31
267.287	250.31
267.52	254.31
267.752	260.31
267.984	261.31
268.216	255.31
268.448	271.31
268.681	267.31
268.913	277.31
269.145	236.31
269.377	268.31
269.609	265.31
269.841	270.31
270.073	261.31
270.306	238.31
270.538	260.31
270.77	271.31
271.002	269.31
271.234	261.31
271.466	264.31
271.698	274.31
271.93	286.31
272.162	281.31
272.394	285.31
272.626	277.31
272.858	295.31
273.09	276.31
273.322	289.31
273.553	259.31
273.785	263.31
274.017	268.31
274.249	287.31
274.481	296.31
274.713	297.31
274.945	267.31
275.176	266.31
275.408	288.31
275.64	287.31
275.872	280.31
276.104	281.31
276.335	296.31
276.567	307.31
276.799	293.31
277.031	302.31
277.262	309.31
277.494	303.31
277.726	287.31
277.957	288.31
278.189	307.31
278.421	306.31
278.652	293.31
278.884	302.31
279.115	297.31
279.347	303.31
279.579	301.31
279.81	307.31
280.042	315.31
280.273	309.31
280.505	330.31
280.736	305.31
280.968	299.31
281.199	316.31
281.431	331.31
281.662	317.31
281.894	301.31
282.125	312.31
282.356	309.31
282.588	324.31
282.819	327.31
283.051	309.31
283.282	322.31
283.513	317.31
283.745	335.31
283.976	343.31
284.207	327.31
284.439	332.31
284.67	317.31
284.901	347.31
285.132	328.31
285.364	339.31
285.595	343.31
285.826	328.31
286.057	348.31
286.288	343.31
286.52	329.31
286.751	335.31
286.982	339.31
287.213	343.31
287.444	361.31
287.675	354.31
287.906	362.31
288.138	338.31
288.369	338.31
288.6	353.31
288.831	351.31
289.062	377.31
289.293	351.31
289.524	369.31
289.755	381.31
289.986	353.31
290.217	354.31
290.448	367.31
290.679	365.31
290.91	351.31
291.141	363.31
291.371	353.31
291.602	377.31
291.833	363.31
292.064	379.31
292.295	355.31
292.526	370.31
292.757	372.31
292.987	353.31
293.218	350.31
293.449	355.31
293.68	371.31
293.91	379.31
294.141	374.31
294.372	369.31
294.603	361.31
294.833	375.31
295.064	368.31
295.295	355.31
295.525	369.31
295.756	378.31
295.987	379.31
296.217	391.31
296.448	400.31
296.679	377.31
296.909	387.31
297.14	394.31
297.37	393.31
297.601	392.31
297.831	380.31
298.062	399.31
298.292	385.31
298.523	430.31
298.753	394.31
298.984	398.31
299.214	400.31
299.445	394.31
299.675	430.31
299.905	410.31
300.136	379.31
300.366	391.31
300.597	398.31
300.827	415.31
301.057	406.31
301.288	409.31
301.518	411.31
301.748	404.31
301.979	430.31
302.209	401.31
302.439	401.31
302.669	403.31
302.9	412.31
303.13	403.31
303.36	413.31
303.59	417.31
303.82	396.31
304.051	402.31
304.281	405.31
304.511	421.31
304.741	400.31
304.971	401.31
305.201	364.31
305.431	393.31
305.661	399.31
305.891	413.31
306.121	421.31
306.352	410.31
306.582	399.31
306.812	399.31
307.042	391.31
307.272	399.31
307.502	389.31
307.731	380.31
307.961	401.31
308.191	390.31
308.421	418.31
308.651	413.31
308.881	406.31
309.111	419.31
309.341	398.31
309.571	410.31
309.8	375.31
310.03	397.31
310.26	411.31
310.49	400.31
310.72	403.31
310.949	395.31
311.179	396.31
311.409	395.31
311.639	415.31
311.868	403.31
312.098	383.31
312.328	428.31
312.557	424.31
312.787	420.31
313.017	412.31
313.246	410.31
313.476	421.31
313.706	422.31
313.935	413.31
314.165	443.31
314.394	422.31
314.624	439.31
314.853	415.31
315.083	416.31
315.312	423.31
315.542	418.31
315.771	419.31
316.001	439.31
316.23	397.31
316.46	400.31
316.689	430.31
316.919	418.31
317.148	418.31
317.377	434.31
317.607	413.31
317.836	426.31
318.065	402.31
318.295	415.31
318.524	423.31
318.753	397.31
318.983	411.31
319.212	403.31
319.441	417.31
319.67	399.31
319.9	411.31
320.129	417.31
320.358	429.31
320.587	414.31
320.816	430.31
321.046	422.31
321.275	431.31
321.504	443.31
321.733	430.31
321.962	428.31
322.191	440.31
322.42	443.31
322.649	443.31
322.878	431.31
323.108	435.31
323.337	429.31
323.566	437.31
323.795	438.31
324.024	443.31
324.253	438.31
324.482	426.31
324.71	441.31
324.939	455.31
325.168	445.31
325.397	456.31
325.626	431.31
325.855	465.31
326.084	462.31
326.313	465.31
326.542	481.31
326.77	481.31
326.999	465.31
327.228	457.31
327.457	458.31
327.686	462.31
327.914	468.31
328.143	454.31
328.372	469.31
328.6	472.31
328.829	460.31
329.058	479.31
329.287	457.31
329.515	469.31
329.744	460.31
329.972	457.31
330.201	463.31
330.43	484.31
330.658	453.31
330.887	485.31
331.115	483.31
331.344	493.31
331.572	481.31
331.801	522.31
332.03	516.31
332.258	533.31
332.486	572.31
332.715	569.31
332.943	578.31
333.172	616.31
333.4	626.31
333.629	643.31
333.857	648.31
334.085	627.31
334.314	617.31
334.542	584.31
334.771	586.31
334.999	585.31
335.227	569.31
335.455	575.31
335.684	576.31
335.912	561.31
336.14	562.31
336.369	581.31
336.597	575.31
336.825	572.31
337.053	585.31
337.281	580.31
337.51	537.31
337.738	535.31
337.966	515.31
338.194	522.31
338.422	508.31
338.65	511.31
338.878	486.31
339.106	482.31
339.334	505.31
339.562	487.31
339.79	464.31
340.018	481.31
340.246	463.31
340.474	499.31
340.702	497.31
340.93	506.31
341.158	482.31
341.386	489.31
341.614	462.31
341.842	486.31
342.07	485.31
342.298	490.31
342.526	465.31
342.754	462.31
342.981	497.31
343.209	520.31
343.437	517.31
343.665	569.31
343.893	585.31
344.12	621.31
344.348	599.31
344.576	556.31
344.804	533.31
345.031	523.31
345.259	499.31
345.487	487.31
345.714	479.31
345.942	470.31
346.17	483.31
346.397	483.31
346.625	485.31
346.853	473.31
347.08	499.31
347.308	478.31
347.535	503.31
347.763	493.31
347.99	487.31
348.218	508.31
348.445	477.31
348.673	493.31
348.9	479.31
349.128	471.31
349.355	487.31
349.583	482.31
349.81	471.31
350.037	474.31
350.265	451.31
350.492	469.31
350.72	454.31
350.947	461.31
351.174	431.31
351.402	443.31
351.629	455.31
351.856	449.31
352.083	453.31
352.311	455.31
352.538	446.31
352.765	469.31
352.992	454.31
353.22	460.31
353.447	439.31
353.674	459.31
353.901	456.31
354.128	441.31
354.355	421.31
354.583	470.31
354.81	449.31
355.037	460.31
355.264	468.31
355.491	454.31
355.718	453.31
355.945	466.31
356.172	480.31
356.399	468.31
356.626	462.31
356.853	461.31
357.08	475.31
357.307	469.31
357.534	475.31
357.761	468.31
357.988	457.31
358.215	445.31
358.441	463.31
358.668	457.31
358.895	445.31
359.122	438.31
359.349	454.31
359.576	434.31
359.802	446.31
360.029	451.31
360.256	453.31
360.483	463.31
360.709	454.31
360.936	464.31
361.163	448.31
361.39	473.31
361.616	455.31
361.843	441.31
362.07	460.31
362.296	449.31
362.523	465.31
362.749	449.31
362.976	461.31
363.203	475.31
363.429	453.31
363.656	454.31
363.882	444.31
364.109	469.31
364.335	475.31
364.562	461.31
364.788	463.31
365.015	467.31
365.241	448.31
365.468	454.31
365.694	449.31
365.92	446.31
366.147	464.31
366.373	454.31
366.599	439.31
366.826	458.31
367.052	461.31
367.278	439.31
367.505	451.31
367.731	441.31
367.957	472.31
368.184	484.31
368.41	467.31
368.636	481.31
368.862	478.31
369.089	486.31
369.315	445.31
369.541	469.31
369.767	461.31
369.993	469.31
370.219	482.31
370.445	460.31
370.672	504.31
370.898	505.31
371.124	492.31
371.35	503.31
371.576	517.31
371.802	509.31
372.028	475.31
372.254	501.31
372.48	501.31
372.706	517.31
372.932	535.31
373.158	515.31
373.384	529.31
373.61	497.31
373.835	505.31
374.061	495.31
374.287	517.31
374.513	512.31
374.739	526.31
374.965	557.31
375.191	539.31
375.416	547.31
375.642	535.31
375.868	539.31
376.094	526.31
376.319	507.31
376.545	483.31
376.771	487.31
376.997	527.31
377.222	512.31
377.448	507.31
377.674	493.31
377.899	499.31
378.125	505.31
378.35	487.31
378.576	482.31
378.802	501.31
379.027	486.31
379.253	491.31
379.478	487.31
379.704	511.31
379.929	496.31
380.155	481.31
380.38	503.31
380.606	486.31
380.831	488.31
381.057	503.31
381.282	501.31
381.507	497.31
381.733	507.31
381.958	500.31
382.184	517.31
382.409	516.31
382.634	504.31
382.86	521.31
383.085	554.31
383.31	541.31
383.535	554.31
383.761	551.31
383.986	583.31
384.211	586.31
384.436	588.31
384.662	594.31
384.887	611.31
385.112	614.31
385.337	616.31
385.562	603.31
385.787	604.31
386.013	631.31
386.238	627.31
386.463	612.31
386.688	598.31
386.913	593.31
387.138	579.31
387.363	586.31
387.588	579.31
387.813	592.31
388.038	599.31
388.263	595.31
388.488	605.31
388.713	578.31
388.938	594.31
389.163	571.31
389.387	581.31
389.612	573.31
389.837	577.31
390.062	571.31
390.287	567.31
390.512	594.31
390.736	597.31
390.961	578.31
391.186	629.31
391.411	649.31
391.636	634.31
391.86	661.31
392.085	675.31
392.31	682.31
392.534	647.31
392.759	619.31
392.984	629.31
393.208	623.31
393.433	606.31
393.658	627.31
393.882	643.31
394.107	636.31
394.331	635.31
394.556	618.31
394.78	633.31
395.005	645.31
395.229	655.31
395.454	674.31
395.678	656.31
395.903	671.31
396.127	638.31
396.352	643.31
396.576	623.31
396.801	611.31
397.025	630.31
397.249	648.31
397.474	673.31
397.698	653.31
397.922	638.31
398.147	640.31
398.371	657.31
398.595	690.31
398.82	738.31
399.044	796.31
399.268	874.31
399.492	1043.31
399.717	1140.31
399.941	1109.31
400.165	974.31
400.389	885.31
400.613	794.31
400.837	761.31
401.062	740.31
401.286	723.31
401.51	744.31
401.734	753.31
401.958	755.31
402.182	757.31
402.406	779.31
402.63	778.31
402.854	797.31
403.078	813.31
403.302	850.31
403.526	857.31
403.75	873.31
403.974	884.31
404.198	883.31
404.422	892.31
404.645	877.31
404.869	836.31
405.093	843.31
405.317	835.31
405.541	828.31
405.765	823.31
405.988	807.31
406.212	813.31
406.436	791.31
406.66	815.31
406.883	844.31
407.107	895.31
407.331	936.31
407.555	949.31
407.778	960.31
408.002	925.31
408.226	886.31
408.449	887.31
408.673	840.31
408.896	841.31
409.12	834.31
409.344	857.31
409.567	862.31
409.791	883.31
410.014	870.31
410.238	844.31
410.461	880.31
410.685	831.31
410.908	829.31
411.132	803.31
411.355	768.31
411.578	783.31
411.802	779.31
412.025	786.31
412.249	815.31
412.472	804.31
412.695	786.31
412.919	734.31
413.142	727.31
413.365	726.31
413.589	758.31
413.812	753.31
414.035	746.31
414.258	742.31
414.482	730.31
414.705	767.31
414.928	769.31
415.151	754.31
415.374	738.31
415.597	745.31
415.821	737.31
416.044	715.31
416.267	727.31
416.49	740.31
416.713	738.31
416.936	748.31
417.159	759.31
417.382	749.31
417.605	738.31
417.828	731.31
418.051	753.31
418.274	741.31
418.497	746.31
418.72	754.31
418.943	774.31
419.166	799.31
419.389	845.31
419.611	842.31
419.834	796.31
420.057	794.31
420.28	750.31
420.503	719.31
420.726	732.31
420.948	738.31
421.171	738.31
421.394	754.31
421.617	718.31
421.839	757.31
422.062	737.31
422.285	725.31
422.507	777.31
422.73	758.31
422.953	779.31
423.175	774.31
423.398	796.31
423.621	810.31
423.843	831.31
424.066	826.31
424.288	833.31
424.511	812.31
424.733	783.31
424.956	775.31
425.178	754.31
425.401	732.31
425.623	737.31
425.846	734.31
426.068	727.31
426.291	717.31
426.513	690.31
426.735	683.31
426.958	713.31
427.18	694.31
427.402	664.31
427.625	680.31
427.847	636.31
428.069	670.31
428.292	677.31
428.514	664.31
428.736	643.31
428.958	686.31
429.181	639.31
429.403	661.31
429.625	659.31
429.847	645.31
430.069	628.31
430.292	658.31
430.514	646.31
430.736	656.31
430.958	656.31
431.18	689.31
431.402	655.31
431.624	656.31
431.846	689.31
432.068	645.31
432.29	664.31
432.512	669.31
432.734	689.31
432.956	668.31
433.178	679.31
433.4	661.31
433.622	667.31
433.844	710.31
434.066	641.31
434.287	673.31
434.509	693.31
434.731	734.31
434.953	758.31
435.175	741.31
435.397	735.31
435.618	716.31
435.84	713.31
436.062	690.31
436.284	660.31
436.505	661.31
436.727	684.31
436.949	673.31
437.17	685.31
437.392	665.31
437.614	677.31
437.835	640.31
438.057	659.31
438.278	641.31
438.5	648.31
438.721	641.31
438.943	645.31
439.165	638.31
439.386	669.31
439.608	661.31
439.829	665.31
440.05	669.31
440.272	693.31
440.493	663.31
440.715	672.31
440.936	707.31
441.158	709.31
441.379	747.31
441.6	761.31
441.822	778.31
442.043	765.31
442.264	743.31
442.486	729.31
442.707	738.31
442.928	768.31
443.149	759.31
443.371	721.31
443.592	736.31
443.813	751.31
444.034	753.31
444.255	821.31
444.476	847.31
444.698	901.31
444.919	928.31
445.14	972.31
445.361	888.31
445.582	780.31
445.803	771.31
446.024	714.31
446.245	703.31
446.466	702.31
446.687	685.31
446.908	681.31
447.129	697.31
447.35	659.31
447.571	653.31
447.792	652.31
448.013	637.31
448.234	629.31
448.455	629.31
448.675	623.31
448.896	623.31
449.117	614.31
449.338	650.31
449.559	617.31
449.779	625.31
450	631.31
450.221	612.31
450.442	641.31
450.662	622.31
450.883	651.31
451.104	653.31
451.324	631.31
451.545	629.31
451.766	650.31
451.986	641.31
452.207	662.31
452.428	600.31
452.648	635.31
452.869	610.31
453.089	602.31
453.31	614.31
453.53	588.31
453.751	622.31
453.971	614.31
454.192	605.31
454.412	583.31
454.633	617.31
454.853	590.31
455.073	579.31
455.294	590.31
455.514	596.31
455.734	582.31
455.955	582.31
456.175	555.31
456.395	569.31
456.616	575.31
456.836	592.31
457.056	584.31
457.276	563.31
457.497	576.31
457.717	584.31
457.937	590.31
458.157	588.31
458.377	614.31
458.598	604.31
458.818	605.31
459.038	638.31
459.258	628.31
459.478	682.31
459.698	682.31
459.918	708.31
460.138	734.31
460.358	809.31
460.578	795.31
460.798	787.31
461.018	811.31
461.238	795.31
461.458	783.31
461.678	801.31
461.898	836.31
462.118	806.31
462.338	830.31
462.558	862.31
462.777	884.31
462.997	981.31
463.217	1086.31
463.437	1119.31
463.657	1006.31
463.876	933.31
464.096	919.31
464.316	951.31
464.536	962.31
464.755	894.31
464.975	874.31
465.195	849.31
465.414	779.31
465.634	740.31
465.854	715.31
466.073	682.31
466.293	693.31
466.512	667.31
466.732	661.31
466.951	636.31
467.171	641.31
467.391	663.31
467.61	667.31
467.829	643.31
468.049	664.31
468.268	637.31
468.488	636.31
468.707	639.31
468.927	649.31
469.146	616.31
469.365	642.31
469.585	641.31
469.804	670.31
470.023	683.31
470.243	646.31
470.462	673.31
470.681	670.31
470.901	683.31
471.12	637.31
471.339	641.31
471.558	643.31
471.777	643.31
471.997	635.31
472.216	625.31
472.435	630.31
472.654	592.31
472.873	603.31
473.092	618.31
473.311	633.31
473.53	629.31
473.749	607.31
473.968	600.31
474.187	591.31
474.406	601.31
474.625	598.31
474.844	593.31
475.063	594.31
475.282	587.31
475.501	618.31
475.72	633.31
475.939	620.31
476.158	609.31
476.377	616.31
476.596	637.31
476.814	649.31
477.033	644.31
477.252	645.31
477.471	650.31
477.69	663.31
477.908	686.31
478.127	711.31
478.346	732.31
478.564	727.31
478.783	727.31
479.002	783.31
479.22	725.31
479.439	728.31
479.658	762.31
479.876	762.31
480.095	772.31
480.313	794.31
480.532	851.31
480.751	831.31
480.969	781.31
481.188	769.31
481.406	719.31
481.624	686.31
481.843	691.31
482.061	695.31
482.28	665.31
482.498	694.31
482.717	662.31
482.935	672.31
483.153	669.31
483.372	667.31
483.59	694.31
483.808	687.31
484.027	661.31
484.245	695.31
484.463	678.31
484.681	713.31
484.9	716.31
485.118	670.31
485.336	702.31
485.554	725.31
485.772	727.31
485.99	739.31
486.209	732.31
486.427	732.31
486.645	740.31
486.863	737.31
487.081	734.31
487.299	733.31
487.517	720.31
487.735	733.31
487.953	716.31
488.171	746.31
488.389	725.31
488.607	708.31
488.825	699.31
489.043	719.31
489.261	686.31
489.479	705.31
489.696	731.31
489.914	742.31
490.132	724.31
490.35	729.31
490.568	689.31
490.786	722.31
491.003	719.31
491.221	735.31
491.439	738.31
491.657	749.31
491.874	727.31
492.092	726.31
492.31	741.31
492.527	735.31
492.745	735.31
492.963	754.31
493.18	757.31
493.398	757.31
493.615	762.31
493.833	760.31
494.05	763.31
494.268	778.31
494.485	755.31
494.703	736.31
494.92	769.31
495.138	777.31
495.355	783.31
495.573	765.31
495.79	747.31
496.008	782.31
496.225	775.31
496.442	761.31
496.66	795.31
496.877	800.31
497.094	835.31
497.312	843.31
497.529	813.31
497.746	845.31
497.963	865.31
498.181	918.31
498.398	964.31
498.615	1024.31
498.832	1073.31
499.049	1141.31
499.267	1290.31
499.484	1418.31
499.701	1533.31
499.918	1691.31
500.135	1984.31
500.352	2315.31
500.569	2456.31
500.786	2404.31
501.003	2177.31
501.22	1939.31
