Data from Ni(NO3)2@0.25M.TitratingCurve.Agarose3%dH2O.NegLispCup.LampEnergy10.LIBS07252019_HRD10591_18-03-07-565.txt Node
Date: Thu Jul 25 18:03:07 EDT 2019
User: cochatt
Spectrometer: HR+D1059
Trigger mode: 1
Integration Time (sec): 1.000000E-1
Scans to average: 1
Electric dark correction enabled: true
Nonlinearity correction enabled: false
Boxcar width: 0
XAxis mode: Wavelengths
Number of Pixels in Spectrum: 2048
>>>>>Begin Spectral Data<<<<<
223.165	-25.38
223.4	-25.38
223.635	-25.38
223.869	-15.38
224.104	-27.38
224.338	-16.38
224.573	-3.38
224.808	-17.38
225.042	-0.38
225.277	2.62
225.511	1.62
225.746	2.62
225.98	-5.38
226.215	12.62
226.449	18.62
226.683	19.62
226.918	28.62
227.152	24.62
227.387	41.62
227.621	43.62
227.856	44.62
228.09	53.62
228.324	47.62
228.559	45.62
228.793	66.62
229.027	70.62
229.262	88.62
229.496	83.62
229.73	102.62
229.964	82.62
230.199	86.62
230.433	86.62
230.667	97.62
230.901	92.62
231.136	94.62
231.37	94.62
231.604	103.62
231.838	90.62
232.072	104.62
232.306	111.62
232.541	90.62
232.775	111.62
233.009	91.62
233.243	95.62
233.477	94.62
233.711	98.62
233.945	88.62
234.179	104.62
234.413	86.62
234.647	88.62
234.881	102.62
235.115	102.62
235.349	96.62
235.583	78.62
235.817	82.62
236.051	98.62
236.285	95.62
236.519	111.62
236.753	101.62
236.987	93.62
237.221	85.62
237.455	96.62
237.689	93.62
237.922	88.62
238.156	96.62
238.39	87.62
238.624	94.62
238.858	91.62
239.091	86.62
239.325	95.62
239.559	97.62
239.793	91.62
240.027	111.62
240.26	96.62
240.494	104.62
240.728	106.62
240.961	112.62
241.195	92.62
241.429	99.62
241.662	102.62
241.896	108.62
242.13	96.62
242.363	102.62
242.597	106.62
242.83	99.62
243.064	97.62
243.298	103.62
243.531	112.62
243.765	95.62
243.998	116.62
244.232	106.62
244.465	115.62
244.699	105.62
244.932	120.62
245.166	113.62
245.399	130.62
245.633	113.62
245.866	111.62
246.099	106.62
246.333	107.62
246.566	117.62
246.8	112.62
247.033	134.62
247.266	139.62
247.5	128.62
247.733	130.62
247.966	140.62
248.2	152.62
248.433	137.62
248.666	141.62
248.899	152.62
249.133	154.62
249.366	142.62
249.599	163.62
249.832	157.62
250.066	163.62
250.299	171.62
250.532	172.62
250.765	163.62
250.998	171.62
251.231	192.62
251.465	201.62
251.698	201.62
251.931	193.62
252.164	203.62
252.397	209.62
252.63	208.62
252.863	205.62
253.096	213.62
253.329	208.62
253.562	226.62
253.795	236.62
254.028	235.62
254.261	224.62
254.494	212.62
254.727	248.62
254.96	242.62
255.193	241.62
255.426	257.62
255.659	263.62
255.892	260.62
256.124	261.62
256.357	269.62
256.59	272.62
256.823	274.62
257.056	276.62
257.289	288.62
257.521	284.62
257.754	290.62
257.987	297.62
258.22	304.62
258.452	305.62
258.685	291.62
258.918	319.62
259.151	306.62
259.383	321.62
259.616	308.62
259.849	326.62
260.081	309.62
260.314	323.62
260.547	311.62
260.779	330.62
261.012	302.62
261.244	337.62
261.477	328.62
261.71	326.62
261.942	329.62
262.175	341.62
262.407	331.62
262.64	345.62
262.872	353.62
263.105	348.62
263.337	345.62
263.57	352.62
263.802	375.62
264.035	343.62
264.267	348.62
264.499	353.62
264.732	374.62
264.964	351.62
265.197	358.62
265.429	370.62
265.661	367.62
265.894	349.62
266.126	367.62
266.358	362.62
266.591	354.62
266.823	352.62
267.055	353.62
267.287	348.62
267.52	364.62
267.752	370.62
267.984	360.62
268.216	355.62
268.448	352.62
268.681	385.62
268.913	373.62
269.145	368.62
269.377	401.62
269.609	370.62
269.841	386.62
270.073	372.62
270.306	371.62
270.538	389.62
270.77	364.62
271.002	354.62
271.234	388.62
271.466	389.62
271.698	386.62
271.93	389.62
272.162	387.62
272.394	376.62
272.626	375.62
272.858	358.62
273.09	373.62
273.322	381.62
273.553	388.62
273.785	365.62
274.017	393.62
274.249	397.62
274.481	381.62
274.713	381.62
274.945	379.62
275.176	388.62
275.408	396.62
275.64	395.62
275.872	386.62
276.104	385.62
276.335	370.62
276.567	381.62
276.799	393.62
277.031	377.62
277.262	377.62
277.494	381.62
277.726	368.62
277.957	374.62
278.189	388.62
278.421	380.62
278.652	364.62
278.884	383.62
279.115	404.62
279.347	376.62
279.579	363.62
279.81	395.62
280.042	395.62
280.273	368.62
280.505	385.62
280.736	381.62
280.968	371.62
281.199	381.62
281.431	359.62
281.662	391.62
281.894	383.62
282.125	369.62
282.356	386.62
282.588	383.62
282.819	380.62
283.051	382.62
283.282	373.62
283.513	385.62
283.745	379.62
283.976	375.62
284.207	377.62
284.439	364.62
284.67	385.62
284.901	379.62
285.132	384.62
285.364	383.62
285.595	364.62
285.826	362.62
286.057	377.62
286.288	376.62
286.52	384.62
286.751	389.62
286.982	369.62
287.213	380.62
287.444	362.62
287.675	389.62
287.906	380.62
288.138	383.62
288.369	369.62
288.6	364.62
288.831	387.62
289.062	371.62
289.293	374.62
289.524	372.62
289.755	375.62
289.986	379.62
290.217	378.62
290.448	368.62
290.679	367.62
290.91	357.62
291.141	360.62
291.371	345.62
291.602	359.62
291.833	373.62
292.064	383.62
292.295	345.62
292.526	375.62
292.757	357.62
292.987	378.62
293.218	346.62
293.449	350.62
293.68	353.62
293.91	379.62
294.141	351.62
294.372	359.62
294.603	357.62
294.833	369.62
295.064	362.62
295.295	361.62
295.525	341.62
295.756	367.62
295.987	343.62
296.217	348.62
296.448	367.62
296.679	374.62
296.909	356.62
297.14	369.62
297.37	364.62
297.601	377.62
297.831	363.62
298.062	362.62
298.292	363.62
298.523	367.62
298.753	352.62
298.984	351.62
299.214	393.62
299.445	369.62
299.675	369.62
299.905	380.62
300.136	370.62
300.366	364.62
300.597	378.62
300.827	377.62
301.057	371.62
301.288	393.62
301.518	375.62
301.748	365.62
301.979	377.62
302.209	395.62
302.439	384.62
302.669	375.62
302.9	380.62
303.13	387.62
303.36	383.62
303.59	397.62
303.82	396.62
304.051	411.62
304.281	406.62
304.511	428.62
304.741	393.62
304.971	411.62
305.201	405.62
305.431	392.62
305.661	398.62
305.891	394.62
306.121	399.62
306.352	433.62
306.582	431.62
306.812	408.62
307.042	409.62
307.272	420.62
307.502	421.62
307.731	391.62
307.961	417.62
308.191	429.62
308.421	444.62
308.651	446.62
308.881	424.62
309.111	426.62
309.341	410.62
309.571	439.62
309.8	447.62
310.03	442.62
310.26	474.62
310.49	454.62
310.72	466.62
310.949	480.62
311.179	456.62
311.409	472.62
311.639	467.62
311.868	485.62
312.098	515.62
312.328	483.62
312.557	492.62
312.787	516.62
313.017	507.62
313.246	516.62
313.476	489.62
313.706	504.62
313.935	523.62
314.165	543.62
314.394	548.62
314.624	539.62
314.853	542.62
315.083	546.62
315.312	556.62
315.542	567.62
315.771	545.62
316.001	594.62
316.23	590.62
316.46	564.62
316.689	601.62
316.919	602.62
317.148	597.62
317.377	626.62
317.607	590.62
317.836	580.62
318.065	623.62
318.295	629.62
318.524	635.62
318.753	633.62
318.983	622.62
319.212	629.62
319.441	645.62
319.67	664.62
319.9	653.62
320.129	641.62
320.358	681.62
320.587	665.62
320.816	701.62
321.046	715.62
321.275	696.62
321.504	722.62
321.733	711.62
321.962	719.62
322.191	761.62
322.42	719.62
322.649	717.62
322.878	752.62
323.108	744.62
323.337	746.62
323.566	773.62
323.795	772.62
324.024	796.62
324.253	794.62
324.482	799.62
324.71	793.62
324.939	798.62
325.168	797.62
325.397	808.62
325.626	823.62
325.855	820.62
326.084	856.62
326.313	858.62
326.542	870.62
326.77	859.62
326.999	866.62
327.228	866.62
327.457	873.62
327.686	874.62
327.914	892.62
328.143	912.62
328.372	905.62
328.6	947.62
328.829	930.62
329.058	902.62
329.287	931.62
329.515	943.62
329.744	964.62
329.972	958.62
330.201	938.62
330.43	994.62
330.658	972.62
330.887	971.62
331.115	975.62
331.344	974.62
331.572	966.62
331.801	989.62
332.03	1007.62
332.258	970.62
332.486	1005.62
332.715	997.62
332.943	997.62
333.172	1037.62
333.4	1031.62
333.629	1046.62
333.857	1033.62
334.085	1055.62
334.314	1041.62
334.542	1035.62
334.771	1041.62
334.999	1050.62
335.227	1049.62
335.455	1060.62
335.684	1065.62
335.912	1095.62
336.14	1069.62
336.369	1097.62
336.597	1079.62
336.825	1061.62
337.053	1107.62
337.281	1061.62
337.51	1115.62
337.738	1092.62
337.966	1075.62
338.194	1082.62
338.422	1105.62
338.65	1091.62
338.878	1097.62
339.106	1088.62
339.334	1129.62
339.562	1096.62
339.79	1073.62
340.018	1093.62
340.246	1101.62
340.474	1088.62
340.702	1084.62
340.93	1076.62
341.158	1101.62
341.386	1076.62
341.614	1071.62
341.842	1095.62
342.07	1083.62
342.298	1095.62
342.526	1097.62
342.754	1092.62
342.981	1092.62
343.209	1087.62
343.437	1123.62
343.665	1117.62
343.893	1119.62
344.12	1130.62
344.348	1112.62
344.576	1149.62
344.804	1108.62
345.031	1100.62
345.259	1100.62
345.487	1102.62
345.714	1149.62
345.942	1085.62
346.17	1105.62
346.397	1110.62
346.625	1088.62
346.853	1085.62
347.08	1098.62
347.308	1113.62
347.535	1103.62
347.763	1094.62
347.99	1078.62
348.218	1089.62
348.445	1063.62
348.673	1067.62
348.9	1084.62
349.128	1103.62
349.355	1043.62
349.583	1062.62
349.81	1073.62
350.037	1064.62
350.265	1051.62
350.492	1075.62
350.72	1095.62
350.947	1055.62
351.174	1062.62
351.402	1059.62
351.629	1076.62
351.856	1051.62
352.083	1055.62
352.311	1058.62
352.538	1066.62
352.765	1061.62
352.992	1057.62
353.22	1051.62
353.447	1043.62
353.674	1044.62
353.901	1057.62
354.128	1071.62
354.355	1053.62
354.583	1050.62
354.81	1033.62
355.037	1035.62
355.264	1036.62
355.491	1037.62
355.718	1091.62
355.945	1058.62
356.172	1067.62
356.399	1040.62
356.626	1055.62
356.853	1035.62
357.08	1056.62
357.307	1012.62
357.534	1067.62
357.761	1023.62
357.988	1029.62
358.215	1033.62
358.441	1048.62
358.668	1045.62
358.895	1024.62
359.122	1048.62
359.349	1045.62
359.576	1032.62
359.802	1050.62
360.029	1013.62
360.256	1031.62
360.483	1036.62
360.709	1009.62
360.936	1031.62
361.163	1061.62
361.39	1039.62
361.616	1032.62
361.843	1037.62
362.07	1059.62
362.296	1016.62
362.523	1043.62
362.749	1016.62
362.976	992.62
363.203	1007.62
363.429	1010.62
363.656	1013.62
363.882	995.62
364.109	1068.62
364.335	1023.62
364.562	1012.62
364.788	1000.62
365.015	1002.62
365.241	1028.62
365.468	1011.62
365.694	1019.62
365.92	1024.62
366.147	968.62
366.373	1008.62
366.599	1029.62
366.826	994.62
367.052	1021.62
367.278	1005.62
367.505	1005.62
367.731	1024.62
367.957	1004.62
368.184	994.62
368.41	1005.62
368.636	969.62
368.862	1022.62
369.089	995.62
369.315	1012.62
369.541	1006.62
369.767	1019.62
369.993	988.62
370.219	1002.62
370.445	984.62
370.672	984.62
370.898	1010.62
371.124	1010.62
371.35	988.62
371.576	994.62
371.802	993.62
372.028	973.62
372.254	992.62
372.48	1012.62
372.706	995.62
372.932	1010.62
373.158	994.62
373.384	996.62
373.61	963.62
373.835	980.62
374.061	963.62
374.287	972.62
374.513	949.62
374.739	969.62
374.965	968.62
375.191	964.62
375.416	951.62
375.642	957.62
375.868	972.62
376.094	945.62
376.319	937.62
376.545	943.62
376.771	932.62
376.997	945.62
377.222	932.62
377.448	929.62
377.674	930.62
377.899	915.62
378.125	915.62
378.35	909.62
378.576	893.62
378.802	925.62
379.027	904.62
379.253	909.62
379.478	915.62
379.704	938.62
379.929	910.62
380.155	913.62
380.38	896.62
380.606	899.62
380.831	912.62
381.057	907.62
381.282	895.62
381.507	912.62
381.733	937.62
381.958	923.62
382.184	910.62
382.409	916.62
382.634	907.62
382.86	905.62
383.085	886.62
383.31	891.62
383.535	907.62
383.761	900.62
383.986	893.62
384.211	904.62
384.436	923.62
384.662	893.62
384.887	943.62
385.112	918.62
385.337	919.62
385.562	906.62
385.787	943.62
386.013	936.62
386.238	933.62
386.463	908.62
386.688	930.62
386.913	934.62
387.138	930.62
387.363	923.62
387.588	909.62
387.813	952.62
388.038	924.62
388.263	932.62
388.488	899.62
388.713	902.62
388.938	931.62
389.163	897.62
389.387	913.62
389.612	916.62
389.837	921.62
390.062	915.62
390.287	916.62
390.512	929.62
390.736	965.62
390.961	925.62
391.186	903.62
391.411	919.62
391.636	910.62
391.86	939.62
392.085	913.62
392.31	960.62
392.534	913.62
392.759	954.62
392.984	945.62
393.208	931.62
393.433	933.62
393.658	948.62
393.882	922.62
394.107	915.62
394.331	916.62
394.556	919.62
394.78	951.62
395.005	921.62
395.229	928.62
395.454	930.62
395.678	924.62
395.903	970.62
396.127	938.62
396.352	930.62
396.576	951.62
396.801	947.62
397.025	935.62
397.249	933.62
397.474	949.62
397.698	970.62
397.922	960.62
398.147	950.62
398.371	968.62
398.595	983.62
398.82	1003.62
399.044	1014.62
399.268	998.62
399.492	1049.62
399.717	1075.62
399.941	1067.62
400.165	1021.62
400.389	1036.62
400.613	1022.62
400.837	1032.62
401.062	1047.62
401.286	1044.62
401.51	1041.62
401.734	1016.62
401.958	1053.62
402.182	1053.62
402.406	1038.62
402.63	1051.62
402.854	1017.62
403.078	1027.62
403.302	1001.62
403.526	1058.62
403.75	1068.62
403.974	1065.62
404.198	1062.62
404.422	1049.62
404.645	1055.62
404.869	1036.62
405.093	1062.62
405.317	1046.62
405.541	1104.62
405.765	1044.62
405.988	1040.62
406.212	1074.62
406.436	1074.62
406.66	1065.62
406.883	1055.62
407.107	1093.62
407.331	1097.62
407.555	1152.62
407.778	1123.62
408.002	1093.62
408.226	1099.62
408.449	1117.62
408.673	1101.62
408.896	1120.62
409.12	1129.62
409.344	1129.62
409.567	1132.62
409.791	1114.62
410.014	1092.62
410.238	1100.62
410.461	1133.62
410.685	1133.62
410.908	1102.62
411.132	1108.62
411.355	1101.62
411.578	1107.62
411.802	1109.62
412.025	1099.62
412.249	1099.62
412.472	1088.62
412.695	1089.62
412.919	1112.62
413.142	1080.62
413.365	1101.62
413.589	1091.62
413.812	1112.62
414.035	1118.62
414.258	1104.62
414.482	1104.62
414.705	1105.62
414.928	1107.62
415.151	1131.62
415.374	1129.62
415.597	1120.62
415.821	1119.62
416.044	1113.62
416.267	1080.62
416.49	1112.62
416.713	1118.62
416.936	1102.62
417.159	1139.62
417.382	1069.62
417.605	1078.62
417.828	1094.62
418.051	1098.62
418.274	1119.62
418.497	1081.62
418.72	1088.62
418.943	1116.62
419.166	1131.62
419.389	1224.62
419.611	1195.62
419.834	1171.62
420.057	1129.62
420.28	1128.62
420.503	1083.62
420.726	1088.62
420.948	1113.62
421.171	1101.62
421.394	1110.62
421.617	1094.62
421.839	1148.62
422.062	1149.62
422.285	1083.62
422.507	1146.62
422.73	1126.62
422.953	1144.62
423.175	1137.62
423.398	1150.62
423.621	1109.62
423.843	1121.62
424.066	1141.62
424.288	1125.62
424.511	1132.62
424.733	1157.62
424.956	1157.62
425.178	1141.62
425.401	1152.62
425.623	1169.62
425.846	1143.62
426.068	1173.62
426.291	1148.62
426.513	1165.62
426.735	1196.62
426.958	1179.62
427.18	1153.62
427.402	1153.62
427.625	1204.62
427.847	1159.62
428.069	1175.62
428.292	1177.62
428.514	1167.62
428.736	1170.62
428.958	1163.62
429.181	1165.62
429.403	1175.62
429.625	1173.62
429.847	1164.62
430.069	1171.62
430.292	1203.62
430.514	1192.62
430.736	1215.62
430.958	1205.62
431.18	1168.62
431.402	1193.62
431.624	1153.62
431.846	1172.62
432.068	1171.62
432.29	1185.62
432.512	1177.62
432.734	1198.62
432.956	1187.62
433.178	1176.62
433.4	1212.62
433.622	1232.62
433.844	1196.62
434.066	1198.62
434.287	1189.62
434.509	1174.62
434.731	1180.62
434.953	1171.62
435.175	1203.62
435.397	1207.62
435.618	1186.62
435.84	1179.62
436.062	1205.62
436.284	1194.62
436.505	1204.62
436.727	1207.62
436.949	1183.62
437.17	1163.62
437.392	1179.62
437.614	1176.62
437.835	1125.62
438.057	1199.62
438.278	1178.62
438.5	1181.62
438.721	1202.62
438.943	1205.62
439.165	1169.62
439.386	1210.62
439.608	1239.62
439.829	1204.62
440.05	1209.62
440.272	1187.62
440.493	1193.62
440.715	1201.62
440.936	1177.62
441.158	1212.62
441.379	1187.62
441.6	1195.62
441.822	1203.62
442.043	1219.62
442.264	1231.62
442.486	1186.62
442.707	1188.62
442.928	1234.62
443.149	1258.62
443.371	1200.62
443.592	1208.62
443.813	1224.62
444.034	1219.62
444.255	1234.62
444.476	1240.62
444.698	1241.62
444.919	1259.62
445.14	1332.62
445.361	1249.62
445.582	1207.62
445.803	1180.62
446.024	1195.62
446.245	1184.62
446.466	1203.62
446.687	1204.62
446.908	1187.62
447.129	1171.62
447.35	1156.62
447.571	1163.62
447.792	1136.62
448.013	1159.62
448.234	1135.62
448.455	1144.62
448.675	1142.62
448.896	1133.62
449.117	1140.62
449.338	1117.62
449.559	1130.62
449.779	1107.62
450	1120.62
450.221	1130.62
450.442	1139.62
450.662	1137.62
450.883	1146.62
451.104	1136.62
451.324	1149.62
451.545	1107.62
451.766	1129.62
451.986	1135.62
452.207	1139.62
452.428	1108.62
452.648	1102.62
452.869	1116.62
453.089	1083.62
453.31	1138.62
453.53	1111.62
453.751	1097.62
453.971	1073.62
454.192	1100.62
454.412	1133.62
454.633	1103.62
454.853	1067.62
455.073	1058.62
455.294	1078.62
455.514	1103.62
455.734	1052.62
455.955	1068.62
456.175	1099.62
456.395	1092.62
456.616	1092.62
456.836	1084.62
457.056	1111.62
457.276	1054.62
457.497	1089.62
457.717	1079.62
457.937	1124.62
458.157	1093.62
458.377	1065.62
458.598	1098.62
458.818	1159.62
459.038	1111.62
459.258	1110.62
459.478	1121.62
459.698	1133.62
459.918	1144.62
460.138	1157.62
460.358	1172.62
460.578	1152.62
460.798	1180.62
461.018	1220.62
461.238	1171.62
461.458	1181.62
461.678	1188.62
461.898	1194.62
462.118	1172.62
462.338	1194.62
462.558	1217.62
462.777	1216.62
462.997	1193.62
463.217	1255.62
463.437	1280.62
463.657	1231.62
463.876	1226.62
464.096	1257.62
464.316	1256.62
464.536	1219.62
464.755	1209.62
464.975	1234.62
465.195	1194.62
465.414	1203.62
465.634	1204.62
465.854	1175.62
466.073	1180.62
466.293	1153.62
466.512	1163.62
466.732	1185.62
466.951	1189.62
467.171	1164.62
467.391	1177.62
467.61	1167.62
467.829	1149.62
468.049	1173.62
468.268	1155.62
468.488	1132.62
468.707	1186.62
468.927	1173.62
469.146	1171.62
469.365	1187.62
469.585	1179.62
469.804	1177.62
470.023	1187.62
470.243	1158.62
470.462	1183.62
470.681	1177.62
470.901	1196.62
471.12	1183.62
471.339	1186.62
471.558	1206.62
471.777	1208.62
471.997	1185.62
472.216	1213.62
472.435	1199.62
472.654	1174.62
472.873	1197.62
473.092	1205.62
473.311	1233.62
473.53	1225.62
473.749	1180.62
473.968	1243.62
474.187	1236.62
474.406	1243.62
474.625	1259.62
474.844	1256.62
475.063	1214.62
475.282	1224.62
475.501	1279.62
475.72	1256.62
475.939	1256.62
476.158	1299.62
476.377	1289.62
476.596	1283.62
476.814	1307.62
477.033	1253.62
477.252	1279.62
477.471	1324.62
477.69	1351.62
477.908	1335.62
478.127	1393.62
478.346	1357.62
478.564	1368.62
478.783	1327.62
479.002	1409.62
479.22	1401.62
479.439	1412.62
479.658	1391.62
479.876	1413.62
480.095	1362.62
480.313	1415.62
480.532	1396.62
480.751	1404.62
480.969	1407.62
481.188	1418.62
481.406	1386.62
481.624	1482.62
481.843	1455.62
482.061	1434.62
482.28	1420.62
482.498	1443.62
482.717	1391.62
482.935	1416.62
483.153	1459.62
483.372	1470.62
483.59	1473.62
483.808	1464.62
484.027	1465.62
484.245	1462.62
484.463	1457.62
484.681	1469.62
484.9	1507.62
485.118	1485.62
485.336	1476.62
485.554	1443.62
485.772	1493.62
485.99	1505.62
486.209	1475.62
486.427	1494.62
486.645	1503.62
486.863	1472.62
487.081	1508.62
487.299	1535.62
487.517	1539.62
487.735	1564.62
487.953	1567.62
488.171	1539.62
488.389	1540.62
488.607	1500.62
488.825	1513.62
489.043	1527.62
489.261	1512.62
489.479	1519.62
489.696	1540.62
489.914	1525.62
490.132	1530.62
490.35	1553.62
490.568	1569.62
490.786	1579.62
491.003	1569.62
491.221	1561.62
491.439	1627.62
491.657	1587.62
491.874	1588.62
492.092	1606.62
492.31	1593.62
492.527	1606.62
492.745	1628.62
492.963	1601.62
493.18	1621.62
493.398	1601.62
493.615	1591.62
493.833	1620.62
494.05	1613.62
