Data from Ni(NO3)2@0.0625M.TitratingCurve.Agarose3%dH2O.NegLispCup.LampEnergy10.LIBS07252019_HRD10591_18-14-15-569.txt Node
Date: Thu Jul 25 18:14:15 EDT 2019
User: cochatt
Spectrometer: HR+D1059
Trigger mode: 1
Integration Time (sec): 1.000000E-1
Scans to average: 1
Electric dark correction enabled: true
Nonlinearity correction enabled: false
Boxcar width: 0
XAxis mode: Wavelengths
Number of Pixels in Spectrum: 2048
>>>>>Begin Spectral Data<<<<<
223.165	-7.94
223.4	-7.94
223.635	-7.94
223.869	-26.94
224.104	-11.94
224.338	-21.94
224.573	-6.94
224.808	-13.94
225.042	-0.94
225.277	-14.94
225.511	9.06
225.746	9.06
225.98	0.06
226.215	2.06
226.449	10.06
226.683	26.06
226.918	20.06
227.152	29.06
227.387	29.06
227.621	28.06
227.856	43.06
228.09	45.06
228.324	40.06
228.559	42.06
228.793	76.06
229.027	111.06
229.262	113.06
229.496	118.06
229.73	122.06
229.964	136.06
230.199	121.06
230.433	114.06
230.667	129.06
230.901	138.06
231.136	144.06
231.37	128.06
231.604	122.06
231.838	124.06
232.072	143.06
232.306	144.06
232.541	150.06
232.775	146.06
233.009	161.06
233.243	150.06
233.477	161.06
233.711	155.06
233.945	154.06
234.179	143.06
234.413	137.06
234.647	153.06
234.881	151.06
235.115	144.06
235.349	158.06
235.583	140.06
235.817	130.06
236.051	157.06
236.285	154.06
236.519	154.06
236.753	162.06
236.987	154.06
237.221	154.06
237.455	163.06
237.689	166.06
237.922	161.06
238.156	183.06
238.39	182.06
238.624	176.06
238.858	166.06
239.091	166.06
239.325	157.06
239.559	168.06
239.793	165.06
240.027	168.06
240.26	157.06
240.494	166.06
240.728	170.06
240.961	181.06
241.195	177.06
241.429	179.06
241.662	180.06
241.896	179.06
242.13	184.06
242.363	186.06
242.597	206.06
242.83	193.06
243.064	186.06
243.298	194.06
243.531	191.06
243.765	205.06
243.998	215.06
244.232	201.06
244.465	207.06
244.699	202.06
244.932	224.06
245.166	220.06
245.399	226.06
245.633	225.06
245.866	204.06
246.099	224.06
246.333	215.06
246.566	206.06
246.8	229.06
247.033	228.06
247.266	207.06
247.5	211.06
247.733	223.06
247.966	232.06
248.2	233.06
248.433	241.06
248.666	244.06
248.899	233.06
249.133	230.06
249.366	264.06
249.599	217.06
249.832	226.06
250.066	249.06
250.299	237.06
250.532	248.06
250.765	252.06
250.998	265.06
251.231	256.06
251.465	276.06
251.698	273.06
251.931	261.06
252.164	256.06
252.397	252.06
252.63	257.06
252.863	272.06
253.096	269.06
253.329	280.06
253.562	281.06
253.795	257.06
254.028	306.06
254.261	276.06
254.494	290.06
254.727	269.06
254.96	285.06
255.193	268.06
255.426	270.06
255.659	298.06
255.892	280.06
256.124	267.06
256.357	286.06
256.59	288.06
256.823	277.06
257.056	289.06
257.289	289.06
257.521	284.06
257.754	269.06
257.987	301.06
258.22	300.06
258.452	299.06
258.685	317.06
258.918	306.06
259.151	273.06
259.383	323.06
259.616	312.06
259.849	307.06
260.081	301.06
260.314	315.06
260.547	313.06
260.779	307.06
261.012	313.06
261.244	332.06
261.477	322.06
261.71	320.06
261.942	322.06
262.175	330.06
262.407	320.06
262.64	320.06
262.872	322.06
263.105	346.06
263.337	343.06
263.57	345.06
263.802	335.06
264.035	330.06
264.267	328.06
264.499	328.06
264.732	345.06
264.964	340.06
265.197	333.06
265.429	332.06
265.661	348.06
265.894	363.06
266.126	368.06
266.358	346.06
266.591	342.06
266.823	356.06
267.055	343.06
267.287	343.06
267.52	338.06
267.752	354.06
267.984	364.06
268.216	350.06
268.448	355.06
268.681	360.06
268.913	369.06
269.145	371.06
269.377	369.06
269.609	371.06
269.841	359.06
270.073	364.06
270.306	370.06
270.538	378.06
270.77	380.06
271.002	376.06
271.234	376.06
271.466	372.06
271.698	390.06
271.93	373.06
272.162	378.06
272.394	392.06
272.626	377.06
272.858	397.06
273.09	377.06
273.322	394.06
273.553	389.06
273.785	399.06
274.017	399.06
274.249	398.06
274.481	409.06
274.713	402.06
274.945	404.06
275.176	388.06
275.408	398.06
275.64	411.06
275.872	414.06
276.104	402.06
276.335	396.06
276.567	408.06
276.799	427.06
277.031	417.06
277.262	404.06
277.494	415.06
277.726	417.06
277.957	398.06
278.189	411.06
278.421	436.06
278.652	402.06
278.884	429.06
279.115	444.06
279.347	446.06
279.579	422.06
279.81	452.06
280.042	418.06
280.273	455.06
280.505	455.06
280.736	445.06
280.968	440.06
281.199	455.06
281.431	444.06
281.662	447.06
281.894	458.06
282.125	449.06
282.356	455.06
282.588	467.06
282.819	440.06
283.051	463.06
283.282	460.06
283.513	454.06
283.745	469.06
283.976	439.06
284.207	465.06
284.439	450.06
284.67	450.06
284.901	484.06
285.132	458.06
285.364	479.06
285.595	476.06
285.826	493.06
286.057	471.06
286.288	464.06
286.52	480.06
286.751	482.06
286.982	490.06
287.213	512.06
287.444	495.06
287.675	468.06
287.906	499.06
288.138	505.06
288.369	499.06
288.6	512.06
288.831	513.06
289.062	510.06
289.293	499.06
289.524	512.06
289.755	516.06
289.986	519.06
290.217	498.06
290.448	509.06
290.679	526.06
290.91	508.06
291.141	539.06
291.371	519.06
291.602	522.06
291.833	505.06
292.064	506.06
292.295	515.06
292.526	506.06
292.757	516.06
292.987	522.06
293.218	499.06
293.449	507.06
293.68	532.06
293.91	540.06
294.141	536.06
294.372	526.06
294.603	532.06
294.833	531.06
295.064	519.06
295.295	538.06
295.525	527.06
295.756	533.06
295.987	529.06
296.217	533.06
296.448	522.06
296.679	522.06
296.909	552.06
297.14	551.06
297.37	567.06
297.601	564.06
297.831	557.06
298.062	579.06
298.292	578.06
298.523	583.06
298.753	589.06
298.984	578.06
299.214	555.06
299.445	566.06
299.675	540.06
299.905	556.06
300.136	547.06
300.366	572.06
300.597	568.06
300.827	583.06
301.057	601.06
301.288	606.06
301.518	584.06
301.748	602.06
301.979	611.06
302.209	580.06
302.439	587.06
302.669	589.06
302.9	576.06
303.13	584.06
303.36	563.06
303.59	566.06
303.82	578.06
304.051	576.06
304.281	568.06
304.511	586.06
304.741	586.06
304.971	583.06
305.201	596.06
305.431	568.06
305.661	562.06
305.891	572.06
306.121	566.06
306.352	594.06
306.582	569.06
306.812	549.06
307.042	555.06
307.272	561.06
307.502	571.06
307.731	562.06
307.961	546.06
308.191	583.06
308.421	548.06
308.651	589.06
308.881	563.06
309.111	552.06
309.341	573.06
309.571	558.06
309.8	564.06
310.03	568.06
310.26	559.06
310.49	576.06
310.72	574.06
310.949	555.06
311.179	578.06
311.409	596.06
311.639	580.06
311.868	588.06
312.098	583.06
312.328	603.06
312.557	612.06
312.787	595.06
313.017	604.06
313.246	611.06
313.476	610.06
313.706	615.06
313.935	604.06
314.165	611.06
314.394	603.06
314.624	609.06
314.853	594.06
315.083	612.06
315.312	622.06
315.542	609.06
315.771	611.06
316.001	586.06
316.23	583.06
316.46	585.06
316.689	588.06
316.919	593.06
317.148	606.06
317.377	586.06
317.607	586.06
317.836	590.06
318.065	600.06
318.295	610.06
318.524	598.06
318.753	587.06
318.983	604.06
319.212	583.06
319.441	583.06
319.67	581.06
319.9	586.06
320.129	607.06
320.358	592.06
320.587	599.06
320.816	594.06
321.046	595.06
321.275	608.06
321.504	628.06
321.733	612.06
321.962	595.06
322.191	604.06
322.42	601.06
322.649	600.06
322.878	598.06
323.108	622.06
323.337	626.06
323.566	629.06
323.795	611.06
324.024	630.06
324.253	616.06
324.482	605.06
324.71	614.06
324.939	603.06
325.168	618.06
325.397	617.06
325.626	631.06
325.855	637.06
326.084	665.06
326.313	669.06
326.542	678.06
326.77	667.06
326.999	654.06
327.228	640.06
327.457	647.06
327.686	642.06
327.914	646.06
328.143	641.06
328.372	665.06
328.6	640.06
328.829	652.06
329.058	653.06
329.287	677.06
329.515	679.06
329.744	660.06
329.972	658.06
330.201	686.06
330.43	664.06
330.658	674.06
330.887	660.06
331.115	683.06
331.344	686.06
331.572	693.06
331.801	738.06
332.03	703.06
332.258	745.06
332.486	757.06
332.715	764.06
332.943	834.06
333.172	843.06
333.4	881.06
333.629	889.06
333.857	907.06
334.085	897.06
334.314	865.06
334.542	858.06
334.771	857.06
334.999	811.06
335.227	809.06
335.455	828.06
335.684	798.06
335.912	789.06
336.14	782.06
336.369	816.06
336.597	780.06
336.825	798.06
337.053	787.06
337.281	780.06
337.51	770.06
337.738	771.06
337.966	746.06
338.194	760.06
338.422	717.06
338.65	702.06
338.878	694.06
339.106	721.06
339.334	730.06
339.562	711.06
339.79	698.06
340.018	691.06
340.246	673.06
340.474	662.06
340.702	676.06
340.93	666.06
341.158	708.06
341.386	696.06
341.614	692.06
341.842	692.06
342.07	680.06
342.298	684.06
342.526	667.06
342.754	654.06
342.981	668.06
343.209	678.06
343.437	731.06
343.665	760.06
343.893	844.06
344.12	870.06
344.348	835.06
344.576	790.06
344.804	766.06
345.031	737.06
345.259	714.06
345.487	670.06
345.714	700.06
345.942	683.06
346.17	673.06
346.397	691.06
346.625	671.06
346.853	688.06
347.08	662.06
347.308	661.06
347.535	678.06
347.763	683.06
347.99	688.06
348.218	706.06
348.445	684.06
348.673	672.06
348.9	647.06
349.128	670.06
349.355	645.06
349.583	676.06
349.81	681.06
350.037	651.06
350.265	641.06
350.492	644.06
350.72	631.06
350.947	642.06
351.174	647.06
351.402	632.06
351.629	632.06
351.856	637.06
352.083	637.06
352.311	652.06
352.538	623.06
352.765	632.06
352.992	657.06
353.22	611.06
353.447	624.06
353.674	666.06
353.901	627.06
354.128	615.06
354.355	626.06
354.583	631.06
354.81	631.06
355.037	647.06
355.264	660.06
355.491	638.06
355.718	628.06
355.945	630.06
356.172	666.06
356.399	665.06
356.626	647.06
356.853	649.06
357.08	650.06
357.307	646.06
357.534	633.06
357.761	631.06
357.988	651.06
358.215	652.06
358.441	638.06
358.668	613.06
358.895	640.06
359.122	632.06
359.349	630.06
359.576	641.06
359.802	637.06
360.029	662.06
360.256	642.06
360.483	634.06
360.709	632.06
360.936	620.06
361.163	650.06
361.39	628.06
361.616	622.06
361.843	650.06
362.07	664.06
362.296	628.06
362.523	634.06
362.749	633.06
362.976	636.06
363.203	616.06
363.429	618.06
363.656	644.06
363.882	642.06
364.109	629.06
364.335	625.06
364.562	645.06
364.788	634.06
365.015	618.06
365.241	644.06
365.468	632.06
365.694	650.06
365.92	645.06
366.147	646.06
366.373	655.06
366.599	626.06
366.826	650.06
367.052	647.06
367.278	629.06
367.505	635.06
367.731	643.06
367.957	633.06
368.184	640.06
368.41	645.06
368.636	650.06
368.862	652.06
369.089	631.06
369.315	643.06
369.541	651.06
369.767	662.06
369.993	672.06
370.219	648.06
370.445	694.06
370.672	662.06
370.898	685.06
371.124	678.06
371.35	721.06
371.576	716.06
371.802	708.06
372.028	669.06
372.254	690.06
372.48	708.06
372.706	719.06
372.932	729.06
373.158	708.06
373.384	720.06
373.61	705.06
373.835	698.06
374.061	700.06
374.287	676.06
374.513	714.06
374.739	733.06
374.965	745.06
375.191	773.06
375.416	760.06
375.642	756.06
375.868	721.06
376.094	724.06
376.319	728.06
376.545	714.06
376.771	717.06
376.997	696.06
377.222	697.06
377.448	710.06
377.674	683.06
377.899	698.06
378.125	694.06
378.35	701.06
378.576	694.06
378.802	694.06
379.027	695.06
379.253	676.06
379.478	690.06
379.704	717.06
379.929	686.06
380.155	674.06
380.38	673.06
380.606	685.06
380.831	698.06
381.057	715.06
381.282	707.06
381.507	665.06
381.733	688.06
381.958	690.06
382.184	704.06
382.409	727.06
382.634	737.06
382.86	719.06
383.085	737.06
383.31	748.06
383.535	750.06
383.761	768.06
383.986	792.06
384.211	842.06
384.436	833.06
384.662	854.06
384.887	865.06
385.112	840.06
385.337	852.06
385.562	831.06
385.787	833.06
386.013	852.06
386.238	850.06
386.463	864.06
386.688	870.06
386.913	820.06
387.138	822.06
387.363	828.06
387.588	816.06
387.813	825.06
388.038	839.06
388.263	842.06
388.488	824.06
388.713	800.06
388.938	839.06
389.163	821.06
389.387	822.06
389.612	810.06
389.837	814.06
390.062	801.06
390.287	816.06
390.512	834.06
390.736	837.06
390.961	836.06
391.186	881.06
391.411	875.06
391.636	899.06
391.86	911.06
392.085	940.06
392.31	911.06
392.534	912.06
392.759	887.06
392.984	878.06
393.208	878.06
393.433	884.06
393.658	888.06
393.882	895.06
394.107	898.06
394.331	913.06
394.556	912.06
394.78	902.06
395.005	927.06
395.229	904.06
395.454	929.06
395.678	931.06
395.903	958.06
396.127	922.06
396.352	912.06
396.576	874.06
396.801	883.06
397.025	892.06
397.249	893.06
397.474	926.06
397.698	914.06
397.922	934.06
398.147	915.06
398.371	936.06
398.595	979.06
398.82	996.06
399.044	1077.06
399.268	1212.06
399.492	1399.06
399.717	1636.06
399.941	1637.06
400.165	1447.06
400.389	1262.06
400.613	1143.06
400.837	1082.06
401.062	1065.06
401.286	1058.06
401.51	1041.06
401.734	1023.06
401.958	1052.06
402.182	1078.06
402.406	1096.06
402.63	1120.06
402.854	1147.06
403.078	1124.06
403.302	1169.06
403.526	1194.06
403.75	1194.06
403.974	1253.06
404.198	1241.06
404.422	1259.06
404.645	1243.06
404.869	1236.06
405.093	1216.06
405.317	1220.06
405.541	1202.06
405.765	1172.06
405.988	1165.06
406.212	1151.06
406.436	1144.06
406.66	1168.06
406.883	1200.06
407.107	1260.06
407.331	1333.06
407.555	1381.06
407.778	1345.06
408.002	1318.06
408.226	1264.06
408.449	1249.06
408.673	1193.06
408.896	1195.06
409.12	1179.06
409.344	1203.06
409.567	1216.06
409.791	1220.06
410.014	1220.06
410.238	1220.06
410.461	1181.06
410.685	1204.06
410.908	1180.06
411.132	1151.06
411.355	1104.06
411.578	1117.06
411.802	1102.06
412.025	1114.06
412.249	1114.06
412.472	1103.06
412.695	1072.06
412.919	1028.06
413.142	1034.06
413.365	1074.06
413.589	1069.06
413.812	1010.06
414.035	1029.06
414.258	1040.06
414.482	1044.06
414.705	1088.06
414.928	1064.06
415.151	1076.06
415.374	1033.06
415.597	1037.06
415.821	1037.06
416.044	1033.06
416.267	1010.06
416.49	1051.06
416.713	1027.06
416.936	1025.06
417.159	1039.06
417.382	1034.06
417.605	1021.06
417.828	1017.06
418.051	1054.06
418.274	1037.06
418.497	1028.06
418.72	1075.06
418.943	1079.06
419.166	1144.06
419.389	1243.06
419.611	1178.06
419.834	1117.06
420.057	1125.06
420.28	1054.06
420.503	1044.06
420.726	1024.06
420.948	1043.06
421.171	1018.06
421.394	1003.06
421.617	1028.06
421.839	1029.06
422.062	1038.06
422.285	1027.06
422.507	1074.06
422.73	1068.06
422.953	1106.06
423.175	1096.06
423.398	1123.06
423.621	1121.06
423.843	1134.06
424.066	1124.06
424.288	1102.06
424.511	1111.06
424.733	1102.06
424.956	1070.06
425.178	1066.06
425.401	1052.06
425.623	1057.06
425.846	1002.06
426.068	996.06
426.291	978.06
426.513	984.06
426.735	982.06
426.958	960.06
427.18	935.06
427.402	949.06
427.625	950.06
427.847	916.06
428.069	917.06
428.292	950.06
428.514	938.06
428.736	918.06
428.958	927.06
429.181	905.06
429.403	873.06
429.625	918.06
429.847	892.06
430.069	900.06
430.292	906.06
430.514	878.06
430.736	927.06
430.958	884.06
431.18	906.06
431.402	912.06
431.624	902.06
431.846	915.06
432.068	948.06
432.29	901.06
432.512	906.06
432.734	941.06
432.956	913.06
433.178	925.06
433.4	923.06
433.622	921.06
433.844	946.06
434.066	955.06
434.287	935.06
434.509	994.06
434.731	1044.06
434.953	1037.06
435.175	1093.06
435.397	1038.06
435.618	970.06
435.84	974.06
436.062	929.06
436.284	930.06
436.505	940.06
436.727	927.06
436.949	953.06
437.17	938.06
437.392	919.06
437.614	898.06
437.835	875.06
438.057	868.06
438.278	910.06
438.5	886.06
438.721	869.06
438.943	908.06
439.165	902.06
439.386	918.06
439.608	917.06
439.829	912.06
440.05	939.06
440.272	965.06
440.493	896.06
440.715	925.06
440.936	976.06
441.158	1009.06
441.379	1009.06
441.6	1059.06
441.822	1067.06
442.043	1078.06
442.264	1002.06
442.486	1010.06
442.707	997.06
442.928	1032.06
443.149	1044.06
443.371	1047.06
443.592	1033.06
443.813	1080.06
444.034	1056.06
444.255	1086.06
444.476	1160.06
444.698	1218.06
444.919	1306.06
445.14	1354.06
445.361	1201.06
445.582	1098.06
445.803	1020.06
446.024	994.06
446.245	990.06
446.466	958.06
446.687	948.06
446.908	950.06
447.129	910.06
447.35	915.06
447.571	915.06
447.792	886.06
448.013	903.06
448.234	885.06
448.455	865.06
448.675	864.06
448.896	856.06
449.117	835.06
449.338	859.06
449.559	832.06
449.779	836.06
450	846.06
450.221	830.06
450.442	865.06
450.662	846.06
450.883	894.06
451.104	918.06
451.324	876.06
451.545	894.06
451.766	899.06
451.986	871.06
452.207	877.06
452.428	867.06
452.648	876.06
452.869	826.06
453.089	831.06
453.31	860.06
453.53	846.06
453.751	857.06
453.971	841.06
454.192	825.06
454.412	840.06
454.633	824.06
454.853	796.06
455.073	800.06
455.294	805.06
455.514	797.06
455.734	784.06
455.955	786.06
456.175	801.06
456.395	799.06
456.616	772.06
456.836	804.06
457.056	783.06
457.276	776.06
457.497	784.06
457.717	788.06
457.937	825.06
458.157	794.06
458.377	834.06
458.598	866.06
458.818	872.06
459.038	866.06
459.258	891.06
459.478	935.06
459.698	988.06
459.918	978.06
460.138	1038.06
460.358	1121.06
460.578	1104.06
460.798	1125.06
461.018	1139.06
461.238	1117.06
461.458	1090.06
461.678	1066.06
461.898	1105.06
462.118	1110.06
462.338	1185.06
462.558	1210.06
462.777	1222.06
462.997	1379.06
463.217	1525.06
463.437	1544.06
463.657	1398.06
463.876	1329.06
464.096	1309.06
464.316	1313.06
464.536	1338.06
464.755	1310.06
464.975	1190.06
465.195	1142.06
465.414	1100.06
465.634	1010.06
465.854	989.06
466.073	962.06
466.293	944.06
466.512	926.06
466.732	935.06
466.951	908.06
467.171	911.06
467.391	918.06
467.61	868.06
467.829	893.06
468.049	882.06
468.268	870.06
468.488	890.06
468.707	862.06
468.927	884.06
469.146	832.06
469.365	869.06
469.585	885.06
469.804	888.06
470.023	907.06
470.243	917.06
470.462	918.06
470.681	925.06
470.901	952.06
471.12	906.06
471.339	898.06
471.558	894.06
471.777	862.06
471.997	883.06
472.216	852.06
472.435	854.06
472.654	840.06
472.873	847.06
473.092	839.06
473.311	833.06
473.53	845.06
473.749	828.06
473.968	837.06
474.187	828.06
474.406	804.06
474.625	814.06
474.844	839.06
475.063	834.06
475.282	838.06
475.501	834.06
475.72	842.06
475.939	860.06
476.158	859.06
476.377	880.06
476.596	880.06
476.814	871.06
477.033	887.06
477.252	902.06
477.471	924.06
477.69	947.06
477.908	979.06
478.127	983.06
478.346	980.06
478.564	1056.06
478.783	1035.06
479.002	1074.06
479.22	1070.06
479.439	1064.06
479.658	1039.06
479.876	1061.06
480.095	1042.06
480.313	1100.06
480.532	1146.06
480.751	1148.06
480.969	1063.06
481.188	1068.06
481.406	1026.06
481.624	996.06
481.843	973.06
482.061	965.06
482.28	979.06
482.498	952.06
482.717	951.06
482.935	973.06
483.153	973.06
483.372	934.06
483.59	959.06
483.808	968.06
484.027	957.06
484.245	964.06
484.463	980.06
484.681	1012.06
484.9	1001.06
485.118	1009.06
485.336	984.06
485.554	1004.06
485.772	1045.06
485.99	1034.06
486.209	1028.06
486.427	1059.06
486.645	1016.06
486.863	1034.06
487.081	1045.06
487.299	1003.06
487.517	1008.06
487.735	1034.06
487.953	1024.06
488.171	993.06
488.389	981.06
488.607	987.06
488.825	988.06
489.043	983.06
489.261	975.06
489.479	1006.06
489.696	996.06
489.914	985.06
490.132	1029.06
490.35	1012.06
490.568	969.06
490.786	1012.06
491.003	975.06
491.221	992.06
491.439	1021.06
491.657	998.06
491.874	1011.06
492.092	1010.06
492.31	1040.06
492.527	998.06
492.745	1031.06
492.963	1030.06
493.18	1052.06
493.398	1008.06
493.615	1048.06
493.833	1048.06
494.05	1068.06
494.268	1060.06
494.485	1066.06
494.703	1051.06
494.92	1076.06
495.138	1050.06
495.355	1053.06
495.573	1078.06
495.79	1058.06
496.008	1096.06
496.225	1092.06
496.442	1092.06
496.66	1093.06
496.877	1107.06
497.094	1131.06
497.312	1147.06
497.529	1170.06
497.746	1190.06
497.963	1220.06
498.181	1285.06
498.398	1346.06
