Data from Ni(NO3)2@0.125M.TitratingCurve.Agarose3%dH2O.NegLispCup.LampEnergy10.LIBS07252019_HRD10591_18-11-40-568.txt Node
Date: Thu Jul 25 18:11:40 EDT 2019
User: cochatt
Spectrometer: HR+D1059
Trigger mode: 1
Integration Time (sec): 1.000000E-1
Scans to average: 1
Electric dark correction enabled: true
Nonlinearity correction enabled: false
Boxcar width: 0
XAxis mode: Wavelengths
Number of Pixels in Spectrum: 2048
>>>>>Begin Spectral Data<<<<<
223.165	-5.62
223.4	-5.62
223.635	-5.62
223.869	-26.62
224.104	-12.62
224.338	-6.62
224.573	4.38
224.808	-14.62
225.042	-11.62
225.277	-12.62
225.511	-17.62
225.746	-6.62
225.98	3.38
226.215	13.38
226.449	18.38
226.683	19.38
226.918	27.38
227.152	28.38
227.387	39.38
227.621	45.38
227.856	40.38
228.09	39.38
228.324	53.38
228.559	71.38
228.793	78.38
229.027	107.38
229.262	115.38
229.496	125.38
229.73	123.38
229.964	121.38
230.199	149.38
230.433	141.38
230.667	140.38
230.901	148.38
231.136	138.38
231.37	153.38
231.604	151.38
231.838	149.38
232.072	151.38
232.306	146.38
232.541	155.38
232.775	156.38
233.009	168.38
233.243	169.38
233.477	179.38
233.711	167.38
233.945	164.38
234.179	162.38
234.413	159.38
234.647	171.38
234.881	160.38
235.115	152.38
235.349	161.38
235.583	171.38
235.817	144.38
236.051	171.38
236.285	176.38
236.519	169.38
236.753	178.38
236.987	181.38
237.221	191.38
237.455	173.38
237.689	171.38
237.922	187.38
238.156	175.38
238.39	174.38
238.624	181.38
238.858	203.38
239.091	182.38
239.325	174.38
239.559	191.38
239.793	176.38
240.027	200.38
240.26	195.38
240.494	192.38
240.728	197.38
240.961	200.38
241.195	204.38
241.429	204.38
241.662	216.38
241.896	203.38
242.13	227.38
242.363	211.38
242.597	213.38
242.83	240.38
243.064	224.38
243.298	227.38
243.531	234.38
243.765	234.38
243.998	237.38
244.232	230.38
244.465	248.38
244.699	224.38
244.932	229.38
245.166	228.38
245.399	248.38
245.633	252.38
245.866	249.38
246.099	231.38
246.333	245.38
246.566	259.38
246.8	239.38
247.033	249.38
247.266	257.38
247.5	244.38
247.733	260.38
247.966	253.38
248.2	278.38
248.433	250.38
248.666	267.38
248.899	287.38
249.133	276.38
249.366	274.38
249.599	287.38
249.832	291.38
250.066	310.38
250.299	275.38
250.532	289.38
250.765	287.38
250.998	297.38
251.231	281.38
251.465	316.38
251.698	282.38
251.931	332.38
252.164	294.38
252.397	308.38
252.63	309.38
252.863	316.38
253.096	323.38
253.329	319.38
253.562	312.38
253.795	326.38
254.028	310.38
254.261	324.38
254.494	315.38
254.727	311.38
254.96	319.38
255.193	319.38
255.426	320.38
255.659	330.38
255.892	327.38
256.124	325.38
256.357	325.38
256.59	332.38
256.823	328.38
257.056	342.38
257.289	355.38
257.521	344.38
257.754	358.38
257.987	347.38
258.22	347.38
258.452	356.38
258.685	359.38
258.918	354.38
259.151	336.38
259.383	350.38
259.616	340.38
259.849	368.38
260.081	363.38
260.314	362.38
260.547	393.38
260.779	369.38
261.012	379.38
261.244	371.38
261.477	368.38
261.71	377.38
261.942	383.38
262.175	389.38
262.407	385.38
262.64	363.38
262.872	383.38
263.105	369.38
263.337	383.38
263.57	386.38
263.802	393.38
264.035	395.38
264.267	374.38
264.499	397.38
264.732	381.38
264.964	392.38
265.197	385.38
265.429	407.38
265.661	394.38
265.894	407.38
266.126	402.38
266.358	412.38
266.591	419.38
266.823	423.38
267.055	421.38
267.287	419.38
267.52	408.38
267.752	435.38
267.984	452.38
268.216	441.38
268.448	431.38
268.681	433.38
268.913	436.38
269.145	430.38
269.377	435.38
269.609	453.38
269.841	450.38
270.073	437.38
270.306	442.38
270.538	448.38
270.77	431.38
271.002	455.38
271.234	441.38
271.466	460.38
271.698	436.38
271.93	448.38
272.162	447.38
272.394	462.38
272.626	432.38
272.858	471.38
273.09	490.38
273.322	477.38
273.553	448.38
273.785	467.38
274.017	475.38
274.249	469.38
274.481	472.38
274.713	467.38
274.945	481.38
275.176	483.38
275.408	476.38
275.64	503.38
275.872	486.38
276.104	500.38
276.335	509.38
276.567	478.38
276.799	486.38
277.031	513.38
277.262	482.38
277.494	507.38
277.726	495.38
277.957	502.38
278.189	512.38
278.421	500.38
278.652	506.38
278.884	516.38
279.115	499.38
279.347	525.38
279.579	514.38
279.81	531.38
280.042	519.38
280.273	513.38
280.505	530.38
280.736	530.38
280.968	516.38
281.199	550.38
281.431	547.38
281.662	539.38
281.894	530.38
282.125	547.38
282.356	551.38
282.588	538.38
282.819	557.38
283.051	543.38
283.282	540.38
283.513	570.38
283.745	571.38
283.976	567.38
284.207	542.38
284.439	595.38
284.67	569.38
284.901	567.38
285.132	592.38
285.364	571.38
285.595	546.38
285.826	565.38
286.057	579.38
286.288	597.38
286.52	560.38
286.751	595.38
286.982	587.38
287.213	594.38
287.444	582.38
287.675	601.38
287.906	592.38
288.138	604.38
288.369	626.38
288.6	605.38
288.831	583.38
289.062	609.38
289.293	603.38
289.524	616.38
289.755	601.38
289.986	621.38
290.217	630.38
290.448	629.38
290.679	621.38
290.91	627.38
291.141	617.38
291.371	649.38
291.602	612.38
291.833	614.38
292.064	598.38
292.295	608.38
292.526	627.38
292.757	620.38
292.987	607.38
293.218	588.38
293.449	592.38
293.68	606.38
293.91	637.38
294.141	611.38
294.372	607.38
294.603	629.38
294.833	626.38
295.064	632.38
295.295	628.38
295.525	637.38
295.756	617.38
295.987	615.38
296.217	626.38
296.448	631.38
296.679	638.38
296.909	644.38
297.14	662.38
297.37	670.38
297.601	651.38
297.831	656.38
298.062	669.38
298.292	677.38
298.523	689.38
298.753	709.38
298.984	691.38
299.214	656.38
299.445	681.38
299.675	663.38
299.905	663.38
300.136	666.38
300.366	679.38
300.597	689.38
300.827	695.38
301.057	706.38
301.288	721.38
301.518	704.38
301.748	710.38
301.979	714.38
302.209	714.38
302.439	720.38
302.669	688.38
302.9	707.38
303.13	709.38
303.36	696.38
303.59	681.38
303.82	691.38
304.051	702.38
304.281	688.38
304.511	690.38
304.741	715.38
304.971	697.38
305.201	676.38
305.431	694.38
305.661	689.38
305.891	693.38
306.121	677.38
306.352	693.38
306.582	704.38
306.812	693.38
307.042	693.38
307.272	680.38
307.502	679.38
307.731	684.38
307.961	698.38
308.191	675.38
308.421	699.38
308.651	677.38
308.881	667.38
309.111	695.38
309.341	697.38
309.571	686.38
309.8	697.38
310.03	678.38
310.26	689.38
310.49	672.38
310.72	712.38
310.949	693.38
311.179	695.38
311.409	675.38
311.639	715.38
311.868	735.38
312.098	712.38
312.328	710.38
312.557	738.38
312.787	726.38
313.017	735.38
313.246	695.38
313.476	752.38
313.706	750.38
313.935	739.38
314.165	758.38
314.394	729.38
314.624	740.38
314.853	740.38
315.083	741.38
315.312	721.38
315.542	716.38
315.771	756.38
316.001	719.38
316.23	738.38
316.46	736.38
316.689	711.38
316.919	736.38
317.148	740.38
317.377	724.38
317.607	709.38
317.836	734.38
318.065	705.38
318.295	729.38
318.524	722.38
318.753	717.38
318.983	719.38
319.212	738.38
319.441	697.38
319.67	730.38
319.9	747.38
320.129	695.38
320.358	736.38
320.587	727.38
320.816	693.38
321.046	758.38
321.275	735.38
321.504	744.38
321.733	732.38
321.962	717.38
322.191	727.38
322.42	733.38
322.649	771.38
322.878	741.38
323.108	752.38
323.337	747.38
323.566	732.38
323.795	732.38
324.024	756.38
324.253	756.38
324.482	726.38
324.71	749.38
324.939	745.38
325.168	767.38
325.397	779.38
325.626	778.38
325.855	778.38
326.084	791.38
326.313	791.38
326.542	817.38
326.77	826.38
326.999	787.38
327.228	807.38
327.457	788.38
327.686	800.38
327.914	767.38
328.143	797.38
328.372	781.38
328.6	811.38
328.829	800.38
329.058	809.38
329.287	811.38
329.515	811.38
329.744	823.38
329.972	820.38
330.201	801.38
330.43	817.38
330.658	824.38
330.887	811.38
331.115	832.38
331.344	849.38
331.572	868.38
331.801	859.38
332.03	876.38
332.258	921.38
332.486	970.38
332.715	972.38
332.943	1004.38
333.172	1049.38
333.4	1101.38
333.629	1139.38
333.857	1125.38
334.085	1086.38
334.314	1084.38
334.542	1041.38
334.771	1019.38
334.999	1029.38
335.227	977.38
335.455	983.38
335.684	1018.38
335.912	990.38
336.14	995.38
336.369	980.38
336.597	980.38
336.825	1000.38
337.053	984.38
337.281	944.38
337.51	949.38
337.738	905.38
337.966	899.38
338.194	893.38
338.422	876.38
338.65	891.38
338.878	889.38
339.106	862.38
339.334	888.38
339.562	888.38
339.79	852.38
340.018	861.38
340.246	863.38
340.474	807.38
340.702	835.38
340.93	861.38
341.158	852.38
341.386	829.38
341.614	816.38
341.842	861.38
342.07	841.38
342.298	863.38
342.526	821.38
342.754	840.38
342.981	816.38
343.209	863.38
343.437	897.38
343.665	947.38
343.893	1060.38
344.12	1062.38
344.348	992.38
344.576	969.38
344.804	914.38
345.031	899.38
345.259	869.38
345.487	863.38
345.714	862.38
345.942	835.38
346.17	811.38
346.397	824.38
346.625	830.38
346.853	811.38
347.08	831.38
347.308	823.38
347.535	856.38
347.763	813.38
347.99	825.38
348.218	830.38
348.445	819.38
348.673	809.38
348.9	813.38
349.128	791.38
349.355	805.38
349.583	822.38
349.81	795.38
350.037	813.38
350.265	797.38
350.492	813.38
350.72	792.38
350.947	791.38
351.174	787.38
351.402	780.38
351.629	779.38
351.856	746.38
352.083	789.38
352.311	791.38
352.538	774.38
352.765	777.38
352.992	777.38
353.22	772.38
353.447	776.38
353.674	780.38
353.901	773.38
354.128	801.38
354.355	799.38
354.583	776.38
354.81	803.38
355.037	805.38
355.264	769.38
355.491	779.38
355.718	800.38
355.945	793.38
356.172	790.38
356.399	799.38
356.626	809.38
356.853	799.38
357.08	787.38
357.307	812.38
357.534	782.38
357.761	798.38
357.988	761.38
358.215	796.38
358.441	806.38
358.668	799.38
358.895	795.38
359.122	782.38
359.349	809.38
359.576	802.38
359.802	789.38
360.029	785.38
360.256	776.38
360.483	780.38
360.709	803.38
360.936	805.38
361.163	784.38
361.39	793.38
361.616	802.38
361.843	792.38
362.07	791.38
362.296	796.38
362.523	785.38
362.749	755.38
362.976	771.38
363.203	809.38
363.429	783.38
363.656	785.38
363.882	777.38
364.109	792.38
364.335	795.38
364.562	791.38
364.788	755.38
365.015	780.38
365.241	795.38
365.468	781.38
365.694	785.38
365.92	771.38
366.147	778.38
366.373	769.38
366.599	805.38
366.826	766.38
367.052	776.38
367.278	771.38
367.505	803.38
367.731	788.38
367.957	797.38
368.184	783.38
368.41	787.38
368.636	820.38
368.862	794.38
369.089	824.38
369.315	797.38
369.541	775.38
369.767	809.38
369.993	805.38
370.219	821.38
370.445	839.38
370.672	848.38
370.898	823.38
371.124	887.38
371.35	853.38
371.576	864.38
371.802	860.38
372.028	843.38
372.254	840.38
372.48	873.38
372.706	872.38
372.932	893.38
373.158	891.38
373.384	874.38
373.61	837.38
373.835	862.38
374.061	901.38
374.287	866.38
374.513	871.38
374.739	900.38
374.965	940.38
375.191	943.38
375.416	971.38
375.642	917.38
375.868	937.38
376.094	903.38
376.319	876.38
376.545	878.38
376.771	865.38
376.997	868.38
377.222	833.38
377.448	852.38
377.674	863.38
377.899	855.38
378.125	838.38
378.35	850.38
378.576	851.38
378.802	823.38
379.027	837.38
379.253	852.38
379.478	832.38
379.704	841.38
379.929	844.38
380.155	871.38
380.38	864.38
380.606	855.38
380.831	857.38
381.057	869.38
381.282	874.38
381.507	852.38
381.733	845.38
381.958	890.38
382.184	904.38
382.409	861.38
382.634	885.38
382.86	911.38
383.085	926.38
383.31	918.38
383.535	947.38
383.761	951.38
383.986	1007.38
384.211	992.38
384.436	995.38
384.662	1008.38
384.887	1031.38
385.112	1004.38
385.337	1045.38
385.562	1050.38
385.787	1054.38
386.013	1039.38
386.238	1064.38
386.463	1045.38
386.688	1056.38
386.913	1017.38
387.138	1039.38
387.363	1020.38
387.588	992.38
387.813	1029.38
388.038	1000.38
388.263	1035.38
388.488	1061.38
388.713	1023.38
388.938	1039.38
389.163	1005.38
389.387	1035.38
389.612	1005.38
389.837	1028.38
390.062	993.38
390.287	1005.38
390.512	1032.38
390.736	1037.38
390.961	1054.38
391.186	1033.38
391.411	1079.38
391.636	1144.38
391.86	1167.38
392.085	1179.38
392.31	1170.38
392.534	1125.38
392.759	1139.38
392.984	1091.38
393.208	1107.38
393.433	1105.38
393.658	1109.38
393.882	1085.38
394.107	1106.38
394.331	1124.38
394.556	1102.38
394.78	1115.38
395.005	1120.38
395.229	1118.38
395.454	1139.38
395.678	1157.38
395.903	1169.38
396.127	1144.38
396.352	1086.38
396.576	1079.38
396.801	1092.38
397.025	1097.38
397.249	1137.38
397.474	1142.38
397.698	1185.38
397.922	1124.38
398.147	1167.38
398.371	1183.38
398.595	1203.38
398.82	1274.38
399.044	1393.38
399.268	1526.38
399.492	1757.38
399.717	2079.38
399.941	2016.38
400.165	1744.38
400.389	1570.38
400.613	1444.38
400.837	1363.38
401.062	1314.38
401.286	1312.38
401.51	1285.38
401.734	1298.38
401.958	1297.38
402.182	1310.38
402.406	1309.38
402.63	1369.38
402.854	1382.38
403.078	1422.38
403.302	1455.38
403.526	1446.38
403.75	1502.38
403.974	1549.38
404.198	1566.38
404.422	1565.38
404.645	1488.38
404.869	1494.38
405.093	1491.38
405.317	1445.38
405.541	1443.38
405.765	1455.38
405.988	1437.38
406.212	1423.38
406.436	1401.38
406.66	1457.38
406.883	1470.38
407.107	1585.38
407.331	1657.38
407.555	1713.38
407.778	1687.38
408.002	1610.38
408.226	1575.38
408.449	1569.38
408.673	1517.38
408.896	1479.38
409.12	1461.38
409.344	1492.38
409.567	1452.38
409.791	1477.38
410.014	1495.38
410.238	1461.38
410.461	1462.38
410.685	1446.38
410.908	1401.38
411.132	1425.38
411.355	1341.38
411.578	1355.38
411.802	1345.38
412.025	1376.38
412.249	1352.38
412.472	1385.38
412.695	1325.38
412.919	1299.38
413.142	1307.38
413.365	1289.38
413.589	1290.38
413.812	1326.38
414.035	1297.38
414.258	1248.38
414.482	1296.38
414.705	1375.38
414.928	1317.38
415.151	1320.38
415.374	1327.38
415.597	1299.38
415.821	1283.38
416.044	1247.38
416.267	1252.38
416.49	1267.38
416.713	1266.38
416.936	1271.38
417.159	1279.38
417.382	1261.38
417.605	1272.38
417.828	1265.38
418.051	1279.38
418.274	1304.38
418.497	1280.38
418.72	1352.38
418.943	1295.38
419.166	1414.38
419.389	1488.38
419.611	1456.38
419.834	1382.38
420.057	1399.38
420.28	1324.38
420.503	1291.38
420.726	1260.38
420.948	1272.38
421.171	1285.38
421.394	1306.38
421.617	1262.38
421.839	1278.38
422.062	1307.38
422.285	1274.38
422.507	1326.38
422.73	1333.38
422.953	1355.38
423.175	1350.38
423.398	1348.38
423.621	1379.38
423.843	1353.38
424.066	1364.38
424.288	1393.38
424.511	1342.38
424.733	1348.38
424.956	1313.38
425.178	1311.38
425.401	1289.38
425.623	1287.38
425.846	1234.38
426.068	1257.38
426.291	1249.38
426.513	1199.38
426.735	1215.38
426.958	1159.38
427.18	1184.38
427.402	1155.38
427.625	1157.38
427.847	1137.38
428.069	1164.38
428.292	1168.38
428.514	1133.38
428.736	1111.38
428.958	1127.38
429.181	1123.38
429.403	1140.38
429.625	1111.38
429.847	1101.38
430.069	1082.38
430.292	1115.38
430.514	1082.38
430.736	1119.38
430.958	1120.38
431.18	1117.38
431.402	1093.38
431.624	1138.38
431.846	1142.38
432.068	1169.38
432.29	1155.38
432.512	1097.38
432.734	1117.38
432.956	1147.38
433.178	1156.38
433.4	1150.38
433.622	1150.38
433.844	1140.38
434.066	1161.38
434.287	1167.38
434.509	1212.38
434.731	1246.38
434.953	1284.38
435.175	1319.38
435.397	1311.38
435.618	1206.38
435.84	1147.38
436.062	1151.38
436.284	1121.38
436.505	1133.38
436.727	1136.38
436.949	1144.38
437.17	1140.38
437.392	1132.38
437.614	1126.38
437.835	1087.38
438.057	1073.38
438.278	1090.38
438.5	1085.38
438.721	1099.38
438.943	1079.38
439.165	1091.38
439.386	1099.38
439.608	1115.38
439.829	1115.38
440.05	1157.38
440.272	1141.38
440.493	1126.38
440.715	1147.38
440.936	1189.38
441.158	1225.38
441.379	1211.38
441.6	1292.38
441.822	1283.38
442.043	1331.38
442.264	1268.38
442.486	1245.38
442.707	1243.38
442.928	1244.38
443.149	1286.38
443.371	1256.38
443.592	1291.38
443.813	1291.38
444.034	1312.38
444.255	1328.38
444.476	1373.38
444.698	1448.38
444.919	1587.38
445.14	1626.38
445.361	1441.38
445.582	1319.38
445.803	1270.38
446.024	1207.38
446.245	1214.38
446.466	1154.38
446.687	1144.38
446.908	1155.38
447.129	1145.38
447.35	1117.38
447.571	1086.38
447.792	1074.38
448.013	1072.38
448.234	1053.38
448.455	1061.38
448.675	1028.38
448.896	1040.38
449.117	1017.38
449.338	1062.38
449.559	1028.38
449.779	1026.38
450	1030.38
450.221	999.38
450.442	1045.38
450.662	1032.38
450.883	1073.38
451.104	1083.38
451.324	1063.38
451.545	1053.38
451.766	1059.38
451.986	1039.38
452.207	1037.38
452.428	1046.38
452.648	1039.38
452.869	1044.38
453.089	1013.38
453.31	1059.38
453.53	1016.38
453.751	1022.38
453.971	1020.38
454.192	993.38
454.412	975.38
454.633	981.38
454.853	1001.38
455.073	960.38
455.294	984.38
455.514	969.38
455.734	988.38
455.955	967.38
456.175	949.38
456.395	961.38
456.616	942.38
456.836	987.38
457.056	947.38
457.276	923.38
457.497	968.38
457.717	969.38
457.937	956.38
458.157	995.38
458.377	997.38
458.598	1010.38
458.818	1060.38
459.038	1082.38
459.258	1101.38
459.478	1151.38
459.698	1177.38
459.918	1186.38
460.138	1269.38
460.358	1315.38
460.578	1344.38
460.798	1353.38
461.018	1379.38
461.238	1336.38
461.458	1335.38
461.678	1337.38
461.898	1324.38
462.118	1342.38
462.338	1435.38
462.558	1495.38
462.777	1541.38
462.997	1683.38
463.217	1840.38
463.437	1831.38
463.657	1695.38
463.876	1596.38
464.096	1573.38
464.316	1591.38
464.536	1641.38
464.755	1528.38
464.975	1459.38
465.195	1401.38
465.414	1301.38
465.634	1209.38
465.854	1198.38
466.073	1147.38
466.293	1153.38
466.512	1130.38
466.732	1120.38
466.951	1114.38
467.171	1099.38
467.391	1087.38
467.61	1091.38
467.829	1075.38
468.049	1065.38
468.268	1067.38
468.488	1036.38
468.707	1048.38
468.927	1041.38
469.146	998.38
469.365	1050.38
469.585	1054.38
469.804	1129.38
470.023	1120.38
470.243	1152.38
470.462	1135.38
470.681	1126.38
470.901	1105.38
471.12	1107.38
471.339	1065.38
471.558	1054.38
471.777	1070.38
471.997	1035.38
472.216	1029.38
472.435	1016.38
472.654	1022.38
472.873	1017.38
473.092	1011.38
473.311	996.38
473.53	1019.38
473.749	997.38
473.968	988.38
474.187	988.38
474.406	1004.38
474.625	987.38
474.844	995.38
475.063	1002.38
475.282	996.38
475.501	1031.38
475.72	1007.38
475.939	1043.38
476.158	1041.38
476.377	1045.38
476.596	1054.38
476.814	1036.38
477.033	1055.38
477.252	1104.38
477.471	1120.38
477.69	1149.38
477.908	1156.38
478.127	1205.38
478.346	1233.38
478.564	1222.38
478.783	1232.38
479.002	1250.38
479.22	1293.38
479.439	1287.38
479.658	1267.38
479.876	1245.38
480.095	1256.38
480.313	1323.38
480.532	1397.38
480.751	1387.38
480.969	1307.38
481.188	1276.38
481.406	1227.38
481.624	1190.38
481.843	1172.38
482.061	1168.38
482.28	1146.38
482.498	1171.38
482.717	1153.38
482.935	1131.38
483.153	1173.38
483.372	1177.38
483.59	1144.38
483.808	1172.38
484.027	1150.38
484.245	1150.38
484.463	1180.38
484.681	1185.38
484.9	1220.38
485.118	1227.38
485.336	1193.38
485.554	1237.38
485.772	1231.38
485.99	1235.38
486.209	1219.38
486.427	1228.38
486.645	1253.38
486.863	1227.38
487.081	1219.38
487.299	1211.38
487.517	1239.38
487.735	1194.38
487.953	1220.38
488.171	1216.38
488.389	1198.38
488.607	1206.38
488.825	1183.38
489.043	1171.38
489.261	1186.38
489.479	1226.38
489.696	1175.38
489.914	1191.38
490.132	1240.38
490.35	1209.38
490.568	1221.38
490.786	1188.38
491.003	1201.38
491.221	1193.38
491.439	1183.38
491.657	1231.38
491.874	1210.38
492.092	1206.38
492.31	1233.38
492.527	1220.38
492.745	1246.38
492.963	1233.38
493.18	1248.38
493.398	1233.38
493.615	1297.38
493.833	1261.38
494.05	1269.38
494.268	1288.38
494.485	1308.38
494.703	1243.38
494.92	1254.38
