Data from Ni(NO3)2@0.0625M.TitratingCurve.Agarose3%dH2O.NegLispCup.LampEnergy10.LIBS07252019_HRD10591_18-13-06-568.txt Node
Date: Thu Jul 25 18:13:06 EDT 2019
User: cochatt
Spectrometer: HR+D1059
Trigger mode: 1
Integration Time (sec): 1.000000E-1
Scans to average: 1
Electric dark correction enabled: true
Nonlinearity correction enabled: false
Boxcar width: 0
XAxis mode: Wavelengths
Number of Pixels in Spectrum: 2048
>>>>>Begin Spectral Data<<<<<
223.165	-24.62
223.4	-24.62
223.635	-24.62
223.869	-29.62
224.104	-12.62
224.338	-18.62
224.573	-20.62
224.808	0.38
225.042	-10.62
225.277	-11.62
225.511	-9.62
225.746	-0.62
225.98	12.38
226.215	13.38
226.449	19.38
226.683	22.38
226.918	39.38
227.152	31.38
227.387	29.38
227.621	37.38
227.856	31.38
228.09	41.38
228.324	41.38
228.559	71.38
228.793	77.38
229.027	104.38
229.262	107.38
229.496	125.38
229.73	127.38
229.964	111.38
230.199	130.38
230.433	126.38
230.667	137.38
230.901	132.38
231.136	130.38
231.37	143.38
231.604	137.38
231.838	151.38
232.072	133.38
232.306	148.38
232.541	142.38
232.775	146.38
233.009	156.38
233.243	144.38
233.477	143.38
233.711	142.38
233.945	141.38
234.179	138.38
234.413	148.38
234.647	143.38
234.881	138.38
235.115	144.38
235.349	147.38
235.583	143.38
235.817	133.38
236.051	138.38
236.285	162.38
236.519	160.38
236.753	153.38
236.987	157.38
237.221	152.38
237.455	144.38
237.689	172.38
237.922	166.38
238.156	157.38
238.39	148.38
238.624	154.38
238.858	167.38
239.091	162.38
239.325	155.38
239.559	171.38
239.793	158.38
240.027	172.38
240.26	159.38
240.494	164.38
240.728	177.38
240.961	175.38
241.195	180.38
241.429	169.38
241.662	174.38
241.896	169.38
242.13	189.38
242.363	190.38
242.597	188.38
242.83	184.38
243.064	190.38
243.298	190.38
243.531	170.38
243.765	199.38
243.998	189.38
244.232	185.38
244.465	205.38
244.699	203.38
244.932	199.38
245.166	215.38
245.399	208.38
245.633	194.38
245.866	197.38
246.099	199.38
246.333	199.38
246.566	212.38
246.8	218.38
247.033	210.38
247.266	223.38
247.5	209.38
247.733	232.38
247.966	205.38
248.2	220.38
248.433	209.38
248.666	218.38
248.899	229.38
249.133	215.38
249.366	220.38
249.599	214.38
249.832	231.38
250.066	248.38
250.299	237.38
250.532	233.38
250.765	219.38
250.998	220.38
251.231	239.38
251.465	243.38
251.698	243.38
251.931	253.38
252.164	232.38
252.397	271.38
252.63	264.38
252.863	270.38
253.096	255.38
253.329	250.38
253.562	248.38
253.795	242.38
254.028	245.38
254.261	260.38
254.494	255.38
254.727	252.38
254.96	248.38
255.193	260.38
255.426	280.38
255.659	276.38
255.892	262.38
256.124	265.38
256.357	276.38
256.59	278.38
256.823	265.38
257.056	277.38
257.289	279.38
257.521	279.38
257.754	284.38
257.987	286.38
258.22	276.38
258.452	279.38
258.685	290.38
258.918	278.38
259.151	300.38
259.383	312.38
259.616	285.38
259.849	295.38
260.081	307.38
260.314	299.38
260.547	270.38
260.779	294.38
261.012	281.38
261.244	303.38
261.477	297.38
261.71	311.38
261.942	295.38
262.175	296.38
262.407	290.38
262.64	306.38
262.872	311.38
263.105	323.38
263.337	304.38
263.57	322.38
263.802	309.38
264.035	315.38
264.267	313.38
264.499	309.38
264.732	320.38
264.964	311.38
265.197	321.38
265.429	319.38
265.661	338.38
265.894	322.38
266.126	323.38
266.358	309.38
266.591	338.38
266.823	353.38
267.055	338.38
267.287	339.38
267.52	363.38
267.752	346.38
267.984	342.38
268.216	347.38
268.448	322.38
268.681	332.38
268.913	363.38
269.145	357.38
269.377	357.38
269.609	349.38
269.841	339.38
270.073	351.38
270.306	352.38
270.538	349.38
270.77	343.38
271.002	356.38
271.234	362.38
271.466	354.38
271.698	367.38
271.93	359.38
272.162	357.38
272.394	372.38
272.626	358.38
272.858	380.38
273.09	390.38
273.322	376.38
273.553	372.38
273.785	362.38
274.017	366.38
274.249	393.38
274.481	374.38
274.713	390.38
274.945	401.38
275.176	365.38
275.408	404.38
275.64	395.38
275.872	408.38
276.104	387.38
276.335	372.38
276.567	379.38
276.799	401.38
277.031	404.38
277.262	414.38
277.494	410.38
277.726	393.38
277.957	403.38
278.189	401.38
278.421	410.38
278.652	426.38
278.884	436.38
279.115	404.38
279.347	406.38
279.579	416.38
279.81	434.38
280.042	412.38
280.273	409.38
280.505	424.38
280.736	413.38
280.968	420.38
281.199	456.38
281.431	440.38
281.662	437.38
281.894	438.38
282.125	431.38
282.356	451.38
282.588	441.38
282.819	439.38
283.051	464.38
283.282	460.38
283.513	456.38
283.745	461.38
283.976	454.38
284.207	458.38
284.439	464.38
284.67	463.38
284.901	458.38
285.132	473.38
285.364	466.38
285.595	458.38
285.826	465.38
286.057	474.38
286.288	487.38
286.52	464.38
286.751	461.38
286.982	471.38
287.213	463.38
287.444	474.38
287.675	482.38
287.906	477.38
288.138	479.38
288.369	470.38
288.6	495.38
288.831	483.38
289.062	480.38
289.293	495.38
289.524	486.38
289.755	495.38
289.986	470.38
290.217	495.38
290.448	484.38
290.679	503.38
290.91	490.38
291.141	492.38
291.371	513.38
291.602	522.38
291.833	483.38
292.064	474.38
292.295	504.38
292.526	496.38
292.757	512.38
292.987	494.38
293.218	499.38
293.449	527.38
293.68	506.38
293.91	498.38
294.141	490.38
294.372	504.38
294.603	514.38
294.833	502.38
295.064	507.38
295.295	510.38
295.525	513.38
295.756	514.38
295.987	493.38
296.217	521.38
296.448	522.38
296.679	519.38
296.909	538.38
297.14	531.38
297.37	538.38
297.601	566.38
297.831	535.38
298.062	533.38
298.292	534.38
298.523	537.38
298.753	558.38
298.984	543.38
299.214	525.38
299.445	568.38
299.675	539.38
299.905	576.38
300.136	530.38
300.366	545.38
300.597	550.38
300.827	565.38
301.057	582.38
301.288	565.38
301.518	571.38
301.748	588.38
301.979	593.38
302.209	581.38
302.439	596.38
302.669	562.38
302.9	560.38
303.13	569.38
303.36	590.38
303.59	562.38
303.82	568.38
304.051	566.38
304.281	551.38
304.511	570.38
304.741	589.38
304.971	556.38
305.201	560.38
305.431	558.38
305.661	567.38
305.891	560.38
306.121	578.38
306.352	569.38
306.582	571.38
306.812	563.38
307.042	581.38
307.272	554.38
307.502	569.38
307.731	588.38
307.961	575.38
308.191	565.38
308.421	554.38
308.651	546.38
308.881	538.38
309.111	567.38
309.341	526.38
309.571	557.38
309.8	573.38
310.03	606.38
310.26	575.38
310.49	567.38
310.72	542.38
310.949	583.38
311.179	577.38
311.409	589.38
311.639	580.38
311.868	597.38
312.098	600.38
312.328	601.38
312.557	592.38
312.787	580.38
313.017	603.38
313.246	605.38
313.476	627.38
313.706	612.38
313.935	606.38
314.165	620.38
314.394	619.38
314.624	601.38
314.853	611.38
315.083	590.38
315.312	617.38
315.542	583.38
315.771	613.38
316.001	610.38
316.23	604.38
316.46	599.38
316.689	600.38
316.919	612.38
317.148	576.38
317.377	606.38
317.607	587.38
317.836	617.38
318.065	592.38
318.295	599.38
318.524	600.38
318.753	613.38
318.983	596.38
319.212	589.38
319.441	597.38
319.67	580.38
319.9	611.38
320.129	605.38
320.358	611.38
320.587	612.38
320.816	594.38
321.046	598.38
321.275	614.38
321.504	587.38
321.733	596.38
321.962	620.38
322.191	614.38
322.42	612.38
322.649	622.38
322.878	629.38
323.108	611.38
323.337	634.38
323.566	590.38
323.795	626.38
324.024	620.38
324.253	650.38
324.482	623.38
324.71	631.38
324.939	654.38
325.168	659.38
325.397	645.38
325.626	660.38
325.855	646.38
326.084	669.38
326.313	654.38
326.542	676.38
326.77	677.38
326.999	665.38
327.228	648.38
327.457	666.38
327.686	650.38
327.914	670.38
328.143	689.38
328.372	683.38
328.6	682.38
328.829	680.38
329.058	676.38
329.287	695.38
329.515	683.38
329.744	696.38
329.972	679.38
330.201	675.38
330.43	706.38
330.658	673.38
330.887	695.38
331.115	708.38
331.344	703.38
331.572	719.38
331.801	726.38
332.03	755.38
332.258	775.38
332.486	768.38
332.715	810.38
332.943	862.38
333.172	867.38
333.4	923.38
333.629	926.38
333.857	925.38
334.085	904.38
334.314	895.38
334.542	872.38
334.771	866.38
334.999	856.38
335.227	845.38
335.455	840.38
335.684	836.38
335.912	801.38
336.14	834.38
336.369	793.38
336.597	815.38
336.825	807.38
337.053	818.38
337.281	816.38
337.51	782.38
337.738	775.38
337.966	754.38
338.194	761.38
338.422	762.38
338.65	734.38
338.878	720.38
339.106	750.38
339.334	750.38
339.562	728.38
339.79	705.38
340.018	719.38
340.246	692.38
340.474	703.38
340.702	703.38
340.93	704.38
341.158	714.38
341.386	716.38
341.614	712.38
341.842	710.38
342.07	715.38
342.298	715.38
342.526	709.38
342.754	715.38
342.981	685.38
343.209	739.38
343.437	784.38
343.665	805.38
343.893	861.38
344.12	871.38
344.348	819.38
344.576	799.38
344.804	767.38
345.031	717.38
345.259	715.38
345.487	736.38
345.714	720.38
345.942	693.38
346.17	722.38
346.397	707.38
346.625	691.38
346.853	702.38
347.08	671.38
347.308	704.38
347.535	694.38
347.763	688.38
347.99	686.38
348.218	716.38
348.445	686.38
348.673	674.38
348.9	714.38
349.128	677.38
349.355	669.38
349.583	691.38
349.81	664.38
350.037	659.38
350.265	670.38
350.492	676.38
350.72	651.38
350.947	656.38
351.174	651.38
351.402	662.38
351.629	665.38
351.856	655.38
352.083	668.38
352.311	670.38
352.538	674.38
352.765	658.38
352.992	639.38
353.22	635.38
353.447	666.38
353.674	660.38
353.901	658.38
354.128	640.38
354.355	640.38
354.583	663.38
354.81	655.38
355.037	669.38
355.264	692.38
355.491	676.38
355.718	705.38
355.945	671.38
356.172	686.38
356.399	685.38
356.626	703.38
356.853	673.38
357.08	672.38
357.307	660.38
357.534	667.38
357.761	675.38
357.988	672.38
358.215	656.38
358.441	679.38
358.668	676.38
358.895	679.38
359.122	670.38
359.349	660.38
359.576	650.38
359.802	655.38
360.029	666.38
360.256	682.38
360.483	672.38
360.709	670.38
360.936	674.38
361.163	682.38
361.39	678.38
361.616	671.38
361.843	652.38
362.07	696.38
362.296	706.38
362.523	661.38
362.749	672.38
362.976	706.38
363.203	653.38
363.429	628.38
363.656	658.38
363.882	666.38
364.109	669.38
364.335	662.38
364.562	663.38
364.788	648.38
365.015	666.38
365.241	662.38
365.468	691.38
365.694	664.38
365.92	674.38
366.147	642.38
366.373	679.38
366.599	668.38
366.826	698.38
367.052	658.38
367.278	659.38
367.505	679.38
367.731	678.38
367.957	678.38
368.184	671.38
368.41	658.38
368.636	686.38
368.862	667.38
369.089	708.38
369.315	677.38
369.541	714.38
369.767	707.38
369.993	691.38
370.219	703.38
370.445	708.38
370.672	690.38
370.898	713.38
371.124	738.38
371.35	731.38
371.576	710.38
371.802	739.38
372.028	700.38
372.254	719.38
372.48	749.38
372.706	768.38
372.932	760.38
373.158	751.38
373.384	742.38
373.61	748.38
373.835	743.38
374.061	719.38
374.287	712.38
374.513	767.38
374.739	767.38
374.965	796.38
375.191	813.38
375.416	800.38
375.642	781.38
375.868	765.38
376.094	746.38
376.319	762.38
376.545	724.38
376.771	721.38
376.997	722.38
377.222	718.38
377.448	721.38
377.674	745.38
377.899	727.38
378.125	707.38
378.35	713.38
378.576	715.38
378.802	719.38
379.027	716.38
379.253	730.38
379.478	723.38
379.704	720.38
379.929	725.38
380.155	718.38
380.38	707.38
380.606	729.38
380.831	710.38
381.057	730.38
381.282	726.38
381.507	745.38
381.733	716.38
381.958	729.38
382.184	744.38
382.409	747.38
382.634	756.38
382.86	786.38
383.085	782.38
383.31	784.38
383.535	790.38
383.761	820.38
383.986	813.38
384.211	851.38
384.436	838.38
384.662	878.38
384.887	888.38
385.112	889.38
385.337	879.38
385.562	859.38
385.787	906.38
386.013	882.38
386.238	897.38
386.463	884.38
386.688	886.38
386.913	868.38
387.138	862.38
387.363	874.38
387.588	860.38
387.813	856.38
388.038	829.38
388.263	859.38
388.488	855.38
388.713	883.38
388.938	871.38
389.163	834.38
389.387	845.38
389.612	835.38
389.837	835.38
390.062	863.38
390.287	868.38
390.512	851.38
390.736	858.38
390.961	870.38
391.186	900.38
391.411	931.38
391.636	955.38
391.86	992.38
392.085	1015.38
392.31	986.38
392.534	987.38
392.759	941.38
392.984	931.38
393.208	915.38
393.433	928.38
393.658	914.38
393.882	953.38
394.107	934.38
394.331	934.38
394.556	924.38
394.78	969.38
395.005	973.38
395.229	926.38
395.454	963.38
395.678	992.38
395.903	978.38
396.127	968.38
396.352	939.38
396.576	930.38
396.801	922.38
397.025	933.38
397.249	964.38
397.474	990.38
397.698	1006.38
397.922	1018.38
398.147	995.38
398.371	997.38
398.595	1016.38
398.82	1088.38
399.044	1188.38
399.268	1306.38
399.492	1540.38
399.717	1750.38
399.941	1707.38
400.165	1461.38
400.389	1332.38
400.613	1230.38
400.837	1170.38
401.062	1124.38
401.286	1097.38
401.51	1119.38
401.734	1092.38
401.958	1108.38
402.182	1146.38
402.406	1133.38
402.63	1157.38
402.854	1186.38
403.078	1213.38
403.302	1272.38
403.526	1269.38
403.75	1261.38
403.974	1324.38
404.198	1314.38
404.422	1315.38
404.645	1316.38
404.869	1280.38
405.093	1252.38
405.317	1209.38
405.541	1234.38
405.765	1196.38
405.988	1222.38
406.212	1201.38
406.436	1212.38
406.66	1257.38
406.883	1239.38
407.107	1332.38
407.331	1403.38
407.555	1456.38
407.778	1410.38
408.002	1358.38
408.226	1357.38
408.449	1318.38
408.673	1253.38
408.896	1242.38
409.12	1244.38
409.344	1248.38
409.567	1247.38
409.791	1228.38
410.014	1241.38
410.238	1204.38
410.461	1226.38
410.685	1206.38
410.908	1217.38
411.132	1174.38
411.355	1151.38
411.578	1139.38
411.802	1118.38
412.025	1114.38
412.249	1168.38
412.472	1206.38
412.695	1091.38
412.919	1095.38
413.142	1102.38
413.365	1064.38
413.589	1104.38
413.812	1090.38
414.035	1067.38
414.258	1085.38
414.482	1095.38
414.705	1124.38
414.928	1108.38
415.151	1084.38
415.374	1120.38
415.597	1102.38
415.821	1084.38
416.044	1069.38
416.267	1063.38
416.49	1044.38
416.713	1082.38
416.936	1079.38
417.159	1048.38
417.382	1040.38
417.605	1074.38
417.828	1094.38
418.051	1076.38
418.274	1096.38
418.497	1063.38
418.72	1094.38
418.943	1132.38
419.166	1197.38
419.389	1210.38
419.611	1195.38
419.834	1162.38
420.057	1117.38
420.28	1078.38
420.503	1056.38
420.726	1084.38
420.948	1043.38
421.171	1081.38
421.394	1092.38
421.617	1060.38
421.839	1077.38
422.062	1094.38
422.285	1055.38
422.507	1114.38
422.73	1104.38
422.953	1125.38
423.175	1135.38
423.398	1159.38
423.621	1149.38
423.843	1187.38
424.066	1158.38
424.288	1162.38
424.511	1130.38
424.733	1157.38
424.956	1095.38
425.178	1100.38
425.401	1108.38
425.623	1090.38
425.846	1054.38
426.068	1060.38
426.291	1008.38
426.513	1005.38
426.735	1017.38
426.958	986.38
427.18	954.38
427.402	990.38
427.625	980.38
427.847	946.38
428.069	935.38
428.292	939.38
428.514	947.38
428.736	970.38
428.958	965.38
429.181	924.38
429.403	919.38
429.625	913.38
429.847	923.38
430.069	888.38
430.292	926.38
430.514	916.38
430.736	925.38
430.958	945.38
431.18	932.38
431.402	916.38
431.624	931.38
431.846	970.38
432.068	973.38
432.29	1001.38
432.512	950.38
432.734	953.38
432.956	963.38
433.178	971.38
433.4	954.38
433.622	963.38
433.844	946.38
434.066	986.38
434.287	999.38
434.509	1031.38
434.731	1059.38
434.953	1063.38
435.175	1093.38
435.397	1086.38
435.618	1028.38
435.84	1013.38
436.062	938.38
436.284	970.38
436.505	931.38
436.727	960.38
436.949	990.38
437.17	965.38
437.392	942.38
437.614	924.38
437.835	916.38
438.057	918.38
438.278	909.38
438.5	901.38
438.721	912.38
438.943	921.38
439.165	891.38
439.386	921.38
439.608	937.38
439.829	956.38
440.05	962.38
440.272	950.38
440.493	954.38
440.715	966.38
440.936	1001.38
441.158	1003.38
441.379	1030.38
441.6	1079.38
441.822	1094.38
442.043	1089.38
442.264	1094.38
442.486	1047.38
442.707	1071.38
442.928	1062.38
443.149	1045.38
443.371	1074.38
443.592	1058.38
443.813	1094.38
444.034	1110.38
444.255	1138.38
444.476	1164.38
444.698	1291.38
444.919	1331.38
445.14	1376.38
445.361	1237.38
445.582	1103.38
445.803	1059.38
446.024	1003.38
446.245	993.38
446.466	982.38
446.687	955.38
446.908	963.38
447.129	934.38
447.35	906.38
447.571	931.38
447.792	896.38
448.013	907.38
448.234	883.38
448.455	851.38
448.675	900.38
448.896	863.38
449.117	888.38
449.338	882.38
449.559	834.38
449.779	864.38
450	872.38
450.221	876.38
450.442	884.38
450.662	912.38
450.883	882.38
451.104	887.38
451.324	880.38
451.545	888.38
451.766	882.38
451.986	867.38
452.207	855.38
452.428	866.38
452.648	873.38
452.869	839.38
453.089	842.38
453.31	876.38
453.53	852.38
453.751	831.38
453.971	837.38
454.192	856.38
454.412	827.38
454.633	818.38
454.853	817.38
455.073	822.38
455.294	830.38
455.514	798.38
455.734	804.38
455.955	795.38
456.175	824.38
456.395	798.38
456.616	788.38
456.836	811.38
457.056	816.38
457.276	806.38
457.497	830.38
457.717	801.38
457.937	804.38
458.157	836.38
458.377	857.38
458.598	884.38
458.818	880.38
459.038	896.38
459.258	926.38
459.478	946.38
459.698	999.38
459.918	1023.38
460.138	1070.38
460.358	1133.38
460.578	1130.38
460.798	1160.38
461.018	1149.38
461.238	1136.38
461.458	1095.38
461.678	1120.38
461.898	1123.38
462.118	1182.38
462.338	1222.38
462.558	1258.38
462.777	1321.38
462.997	1445.38
463.217	1541.38
463.437	1582.38
463.657	1376.38
463.876	1307.38
464.096	1321.38
464.316	1326.38
464.536	1360.38
464.755	1255.38
464.975	1211.38
465.195	1184.38
465.414	1107.38
465.634	1016.38
465.854	1010.38
466.073	982.38
466.293	957.38
466.512	959.38
466.732	924.38
466.951	900.38
467.171	922.38
467.391	949.38
467.61	938.38
467.829	932.38
468.049	927.38
468.268	901.38
468.488	878.38
468.707	867.38
468.927	864.38
469.146	857.38
469.365	894.38
469.585	896.38
469.804	918.38
470.023	924.38
470.243	934.38
470.462	949.38
470.681	965.38
470.901	954.38
471.12	891.38
471.339	909.38
471.558	908.38
471.777	911.38
471.997	898.38
472.216	877.38
472.435	873.38
472.654	862.38
472.873	856.38
473.092	862.38
473.311	838.38
473.53	837.38
473.749	839.38
473.968	834.38
474.187	820.38
474.406	849.38
474.625	847.38
474.844	856.38
475.063	860.38
475.282	847.38
475.501	861.38
475.72	882.38
475.939	859.38
476.158	876.38
476.377	856.38
476.596	894.38
476.814	872.38
477.033	887.38
477.252	927.38
477.471	936.38
477.69	957.38
477.908	992.38
478.127	1021.38
478.346	1035.38
478.564	1048.38
478.783	1068.38
479.002	1092.38
479.22	1103.38
479.439	1065.38
479.658	1062.38
479.876	1056.38
480.095	1086.38
480.313	1140.38
480.532	1176.38
480.751	1172.38
480.969	1096.38
481.188	1060.38
481.406	1023.38
481.624	1014.38
481.843	982.38
482.061	1012.38
482.28	990.38
482.498	981.38
482.717	969.38
482.935	970.38
483.153	986.38
483.372	969.38
483.59	968.38
483.808	962.38
484.027	980.38
484.245	1003.38
484.463	985.38
484.681	989.38
484.9	996.38
485.118	999.38
485.336	1001.38
485.554	1004.38
485.772	1018.38
485.99	1026.38
486.209	1017.38
486.427	1034.38
486.645	1022.38
486.863	1016.38
487.081	1015.38
487.299	1034.38
487.517	1016.38
487.735	1007.38
487.953	1004.38
488.171	1023.38
488.389	1023.38
488.607	1008.38
488.825	1003.38
489.043	1018.38
489.261	1000.38
489.479	986.38
489.696	1016.38
489.914	1019.38
490.132	1034.38
490.35	996.38
490.568	1031.38
490.786	1037.38
491.003	1006.38
491.221	1051.38
491.439	1041.38
491.657	1005.38
491.874	1013.38
492.092	1032.38
492.31	1051.38
492.527	1033.38
492.745	1049.38
492.963	1061.38
493.18	1051.38
493.398	1082.38
493.615	1050.38
493.833	1046.38
494.05	1069.38
494.268	1086.38
494.485	1083.38
494.703	1103.38
494.92	1107.38
495.138	1071.38
495.355	1056.38
495.573	1081.38
495.79	1066.38
496.008	1101.38
496.225	1142.38
496.442	1106.38
496.66	1111.38
496.877	1118.38
497.094	1151.38
497.312	1142.38
497.529	1214.38
497.746	1204.38
497.963	1299.38
