Data from Ni(NO3)2@0.5M.TitratingCurve.Agarose3%dH2O.NegLispCup.LampEnergy10.LIBS07252019_HRD10591_17-57-36-564.txt Node
Date: Thu Jul 25 17:57:36 EDT 2019
User: cochatt
Spectrometer: HR+D1059
Trigger mode: 1
Integration Time (sec): 1.000000E-1
Scans to average: 1
Electric dark correction enabled: true
Nonlinearity correction enabled: false
Boxcar width: 0
XAxis mode: Wavelengths
Number of Pixels in Spectrum: 2048
>>>>>Begin Spectral Data<<<<<
223.165	-28
223.4	-28
223.635	-28
223.869	-32
224.104	-19
224.338	-5
224.573	-12
224.808	-17
225.042	-11
225.277	-6
225.511	-11
225.746	6
225.98	23
226.215	23
226.449	7
226.683	16
226.918	22
227.152	44
227.387	17
227.621	34
227.856	36
228.09	44
228.324	47
228.559	58
228.793	71
229.027	96
229.262	111
229.496	100
229.73	119
229.964	136
230.199	120
230.433	141
230.667	144
230.901	138
231.136	118
231.37	145
231.604	152
231.838	145
232.072	150
232.306	134
232.541	143
232.775	134
233.009	138
233.243	147
233.477	122
233.711	143
233.945	146
234.179	144
234.413	139
234.647	146
234.881	145
235.115	143
235.349	160
235.583	140
235.817	147
236.051	147
236.285	146
236.519	139
236.753	146
236.987	146
237.221	154
237.455	155
237.689	145
237.922	148
238.156	163
238.39	146
238.624	154
238.858	153
239.091	163
239.325	161
239.559	166
239.793	162
240.027	164
240.26	166
240.494	159
240.728	161
240.961	171
241.195	186
241.429	179
241.662	175
241.896	184
242.13	213
242.363	181
242.597	190
242.83	184
243.064	190
243.298	189
243.531	166
243.765	182
243.998	197
244.232	192
244.465	222
244.699	191
244.932	194
245.166	196
245.399	200
245.633	202
245.866	216
246.099	207
246.333	231
246.566	211
246.8	212
247.033	210
247.266	212
247.5	209
247.733	214
247.966	230
248.2	244
248.433	215
248.666	240
248.899	228
249.133	242
249.366	244
249.599	235
249.832	238
250.066	250
250.299	235
250.532	253
250.765	249
250.998	262
251.231	260
251.465	280
251.698	274
251.931	267
252.164	280
252.397	290
252.63	276
252.863	282
253.096	278
253.329	282
253.562	271
253.795	275
254.028	304
254.261	278
254.494	300
254.727	291
254.96	286
255.193	306
255.426	294
255.659	314
255.892	286
256.124	304
256.357	325
256.59	308
256.823	329
257.056	320
257.289	336
257.521	323
257.754	322
257.987	316
258.22	313
258.452	332
258.685	310
258.918	338
259.151	331
259.383	326
259.616	334
259.849	317
260.081	337
260.314	334
260.547	328
260.779	328
261.012	351
261.244	340
261.477	363
261.71	349
261.942	352
262.175	380
262.407	364
262.64	358
262.872	338
263.105	368
263.337	354
263.57	363
263.802	372
264.035	363
264.267	384
264.499	368
264.732	358
264.964	374
265.197	378
265.429	372
265.661	373
265.894	403
266.126	393
266.358	382
266.591	388
266.823	397
267.055	394
267.287	404
267.52	389
267.752	390
267.984	389
268.216	409
268.448	384
268.681	393
268.913	398
269.145	380
269.377	406
269.609	416
269.841	409
270.073	411
270.306	403
270.538	420
270.77	406
271.002	423
271.234	427
271.466	418
271.698	413
271.93	432
272.162	431
272.394	424
272.626	428
272.858	427
273.09	453
273.322	415
273.553	450
273.785	465
274.017	455
274.249	434
274.481	440
274.713	425
274.945	448
275.176	432
275.408	450
275.64	447
275.872	473
276.104	444
276.335	454
276.567	454
276.799	460
277.031	456
277.262	435
277.494	431
277.726	469
277.957	476
278.189	443
278.421	457
278.652	454
278.884	472
279.115	465
279.347	459
279.579	469
279.81	459
280.042	473
280.273	469
280.505	453
280.736	486
280.968	479
281.199	489
281.431	469
281.662	484
281.894	488
282.125	473
282.356	516
282.588	481
282.819	496
283.051	489
283.282	479
283.513	487
283.745	496
283.976	514
284.207	496
284.439	515
284.67	501
284.901	527
285.132	527
285.364	513
285.595	505
285.826	498
286.057	492
286.288	516
286.52	496
286.751	524
286.982	495
287.213	516
287.444	517
287.675	490
287.906	510
288.138	514
288.369	516
288.6	523
288.831	542
289.062	529
289.293	529
289.524	527
289.755	532
289.986	512
290.217	510
290.448	532
290.679	514
290.91	524
291.141	524
291.371	529
291.602	518
291.833	509
292.064	537
292.295	523
292.526	532
292.757	527
292.987	532
293.218	519
293.449	529
293.68	540
293.91	514
294.141	537
294.372	534
294.603	541
294.833	547
295.064	553
295.295	534
295.525	523
295.756	542
295.987	538
296.217	532
296.448	546
296.679	520
296.909	536
297.14	544
297.37	565
297.601	551
297.831	542
298.062	574
298.292	586
298.523	567
298.753	579
298.984	561
299.214	559
299.445	565
299.675	572
299.905	587
300.136	588
300.366	576
300.597	570
300.827	575
301.057	591
301.288	593
301.518	566
301.748	595
301.979	584
302.209	606
302.439	583
302.669	580
302.9	590
303.13	586
303.36	583
303.59	618
303.82	592
304.051	599
304.281	595
304.511	585
304.741	581
304.971	630
305.201	596
305.431	617
305.661	622
305.891	608
306.121	611
306.352	632
306.582	587
306.812	616
307.042	629
307.272	615
307.502	590
307.731	625
307.961	617
308.191	625
308.421	620
308.651	638
308.881	622
309.111	642
309.341	623
309.571	632
309.8	632
310.03	611
310.26	649
310.49	652
310.72	633
310.949	667
311.179	634
311.409	629
311.639	643
311.868	630
312.098	653
312.328	646
312.557	668
312.787	669
313.017	658
313.246	690
313.476	668
313.706	684
313.935	702
314.165	668
314.394	682
314.624	678
314.853	659
315.083	662
315.312	684
315.542	688
315.771	691
316.001	699
316.23	707
316.46	703
316.689	689
316.919	691
317.148	696
317.377	705
317.607	731
317.836	715
318.065	711
318.295	719
318.524	719
318.753	722
318.983	723
319.212	713
319.441	734
319.67	713
319.9	727
320.129	731
320.358	723
320.587	737
320.816	756
321.046	742
321.275	736
321.504	751
321.733	738
321.962	731
322.191	738
322.42	776
322.649	777
322.878	745
323.108	755
323.337	745
323.566	747
323.795	755
324.024	783
324.253	776
324.482	804
324.71	795
324.939	787
325.168	781
325.397	818
325.626	797
325.855	788
326.084	799
326.313	786
326.542	822
326.77	851
326.999	818
327.228	800
327.457	811
327.686	831
327.914	830
328.143	831
328.372	831
328.6	817
328.829	826
329.058	857
329.287	857
329.515	835
329.744	833
329.972	821
330.201	856
330.43	856
330.658	828
330.887	859
331.115	834
331.344	860
331.572	839
331.801	851
332.03	884
332.258	863
332.486	876
332.715	892
332.943	867
333.172	885
333.4	879
333.629	852
333.857	892
334.085	884
334.314	912
334.542	924
334.771	894
334.999	914
335.227	906
335.455	934
335.684	930
335.912	902
336.14	944
336.369	920
336.597	908
336.825	921
337.053	902
337.281	920
337.51	902
337.738	919
337.966	920
338.194	909
338.422	933
338.65	900
338.878	884
339.106	883
339.334	916
339.562	957
339.79	902
340.018	893
340.246	894
340.474	915
340.702	899
340.93	888
341.158	898
341.386	909
341.614	941
341.842	923
342.07	938
342.298	910
342.526	915
342.754	895
342.981	896
343.209	872
343.437	911
343.665	894
343.893	892
344.12	926
344.348	924
344.576	923
344.804	901
345.031	892
345.259	934
345.487	882
345.714	905
345.942	906
346.17	911
346.397	890
346.625	884
346.853	870
347.08	924
347.308	899
347.535	894
347.763	863
347.99	872
348.218	871
348.445	878
348.673	869
348.9	892
349.128	886
349.355	869
349.583	867
349.81	868
350.037	873
350.265	869
350.492	878
350.72	864
350.947	870
351.174	883
351.402	900
351.629	880
351.856	874
352.083	870
352.311	895
352.538	890
352.765	912
352.992	868
353.22	842
353.447	850
353.674	847
353.901	841
354.128	867
354.355	857
354.583	851
354.81	842
355.037	849
355.264	870
355.491	855
355.718	838
355.945	873
356.172	877
356.399	857
356.626	878
356.853	880
357.08	869
357.307	859
357.534	875
357.761	856
357.988	864
358.215	862
358.441	846
358.668	839
358.895	839
359.122	842
359.349	819
359.576	844
359.802	863
360.029	867
360.256	860
360.483	827
360.709	840
360.936	850
361.163	866
361.39	882
361.616	862
361.843	889
362.07	900
362.296	863
362.523	865
362.749	880
362.976	845
363.203	865
363.429	855
363.656	867
363.882	864
364.109	871
364.335	875
364.562	859
364.788	851
365.015	871
365.241	891
365.468	867
365.694	886
365.92	880
366.147	855
366.373	860
366.599	862
366.826	866
367.052	876
367.278	881
367.505	884
367.731	890
367.957	864
368.184	863
368.41	861
368.636	886
368.862	884
369.089	862
369.315	862
369.541	855
369.767	883
369.993	870
370.219	886
370.445	864
370.672	880
370.898	873
371.124	894
371.35	892
371.576	900
371.802	891
372.028	881
372.254	873
372.48	900
372.706	873
372.932	857
373.158	881
373.384	886
373.61	909
373.835	895
374.061	873
374.287	889
374.513	908
374.739	890
374.965	908
375.191	912
375.416	915
375.642	887
375.868	905
376.094	880
376.319	870
376.545	884
376.771	865
376.997	898
377.222	859
377.448	872
377.674	894
377.899	874
378.125	854
378.35	852
378.576	873
378.802	842
379.027	875
379.253	886
379.478	870
379.704	853
379.929	867
380.155	863
380.38	865
380.606	872
380.831	874
381.057	871
381.282	857
381.507	844
381.733	867
381.958	866
382.184	887
382.409	879
382.634	894
382.86	880
383.085	895
383.31	881
383.535	908
383.761	884
383.986	909
384.211	904
384.436	896
384.662	881
384.887	902
385.112	893
385.337	903
385.562	915
385.787	902
386.013	918
386.238	917
386.463	924
386.688	929
386.913	905
387.138	909
387.363	921
387.588	936
387.813	908
388.038	919
388.263	902
388.488	922
388.713	930
388.938	957
389.163	930
389.387	902
389.612	912
389.837	927
390.062	911
390.287	912
390.512	923
390.736	918
390.961	956
391.186	932
391.411	959
391.636	934
391.86	945
392.085	954
392.31	931
392.534	932
392.759	929
392.984	958
393.208	920
393.433	938
393.658	917
393.882	959
394.107	923
394.331	961
394.556	899
394.78	946
395.005	939
395.229	924
395.454	950
395.678	938
395.903	944
396.127	938
396.352	948
396.576	926
396.801	946
397.025	954
397.249	965
397.474	958
397.698	959
397.922	978
398.147	951
398.371	1001
398.595	981
398.82	1011
399.044	999
399.268	1035
399.492	1076
399.717	1065
399.941	1080
400.165	1063
400.389	1080
400.613	1050
400.837	1038
401.062	1024
401.286	1022
401.51	991
401.734	1001
401.958	1048
402.182	1022
402.406	984
402.63	1035
402.854	1019
403.078	1024
403.302	1026
403.526	997
403.75	1020
403.974	1036
404.198	1010
404.422	1008
404.645	1027
404.869	1046
405.093	1052
405.317	1035
405.541	1033
405.765	1050
405.988	1051
406.212	1048
406.436	1071
406.66	1088
406.883	1070
407.107	1098
407.331	1105
407.555	1114
407.778	1096
408.002	1088
408.226	1109
408.449	1104
408.673	1111
408.896	1118
409.12	1100
409.344	1105
409.567	1076
409.791	1086
410.014	1062
410.238	1078
410.461	1075
410.685	1079
410.908	1065
411.132	1035
411.355	1016
411.578	1080
411.802	1057
412.025	1054
412.249	1034
412.472	1077
412.695	1025
412.919	1022
413.142	1014
413.365	1064
413.589	1067
413.812	1046
414.035	1053
414.258	1046
414.482	1040
414.705	1023
414.928	991
415.151	1008
415.374	1034
415.597	1031
415.821	992
416.044	1020
416.267	1019
416.49	1026
416.713	1031
416.936	1006
417.159	1013
417.382	994
417.605	980
417.828	981
418.051	1036
418.274	1004
418.497	1001
418.72	1025
418.943	970
419.166	1016
419.389	1080
419.611	1083
419.834	1045
420.057	1042
420.28	1010
420.503	972
420.726	982
420.948	957
421.171	983
421.394	990
421.617	971
421.839	1001
422.062	1027
422.285	975
422.507	993
422.73	991
422.953	971
423.175	998
423.398	1012
423.621	979
423.843	990
424.066	1029
424.288	1016
424.511	994
424.733	1007
424.956	982
425.178	1012
425.401	1006
425.623	987
425.846	999
426.068	1034
426.291	1016
426.513	980
426.735	971
426.958	958
427.18	950
427.402	987
427.625	983
427.847	967
428.069	986
428.292	1018
428.514	942
428.736	967
428.958	1016
429.181	987
429.403	979
429.625	970
429.847	948
430.069	987
430.292	990
430.514	979
430.736	980
430.958	961
431.18	954
431.402	954
431.624	977
431.846	982
432.068	947
432.29	992
432.512	975
432.734	976
432.956	983
433.178	985
433.4	1003
433.622	994
433.844	1028
434.066	1002
434.287	983
434.509	983
434.731	953
434.953	968
435.175	987
435.397	1020
435.618	1015
435.84	1000
436.062	1001
436.284	988
436.505	962
436.727	992
436.949	988
437.17	976
437.392	985
437.614	981
437.835	944
438.057	936
438.278	950
438.5	948
438.721	960
438.943	1007
439.165	967
439.386	990
439.608	991
439.829	986
440.05	974
440.272	952
440.493	1006
440.715	971
440.936	998
441.158	995
441.379	1003
441.6	1028
441.822	1022
442.043	1002
442.264	997
442.486	983
442.707	1018
442.928	999
443.149	993
443.371	999
443.592	1032
443.813	1047
444.034	1014
444.255	1037
444.476	983
444.698	1017
444.919	1018
445.14	1147
445.361	1068
445.582	1023
445.803	991
446.024	1001
446.245	1004
446.466	976
446.687	962
446.908	971
447.129	973
447.35	982
447.571	927
447.792	919
448.013	965
448.234	956
448.455	915
448.675	934
448.896	930
449.117	913
449.338	921
449.559	906
449.779	917
450	914
450.221	911
450.442	905
450.662	911
450.883	883
451.104	935
451.324	919
451.545	892
451.766	895
451.986	920
452.207	899
452.428	921
452.648	914
452.869	900
453.089	867
453.31	896
453.53	879
453.751	907
453.971	895
454.192	900
454.412	892
454.633	876
454.853	897
455.073	892
455.294	884
455.514	882
455.734	898
455.955	889
456.175	896
456.395	889
456.616	887
456.836	878
457.056	891
457.276	896
457.497	894
457.717	867
457.937	872
458.157	883
458.377	862
458.598	907
458.818	904
459.038	899
459.258	907
459.478	931
459.698	960
459.918	950
460.138	959
460.358	971
460.578	970
460.798	1004
461.018	990
461.238	991
461.458	970
461.678	986
461.898	1003
462.118	973
462.338	992
462.558	1005
462.777	1035
462.997	1046
463.217	1049
463.437	1047
463.657	1055
463.876	1060
464.096	1012
464.316	1023
464.536	1046
464.755	1026
464.975	1028
465.195	980
465.414	969
465.634	956
465.854	954
466.073	968
466.293	935
466.512	959
466.732	932
466.951	956
467.171	977
467.391	932
467.61	961
467.829	933
468.049	942
468.268	922
468.488	926
468.707	942
468.927	946
469.146	947
469.365	937
469.585	943
469.804	968
470.023	986
470.243	990
470.462	990
470.681	962
470.901	939
471.12	944
471.339	935
471.558	964
471.777	965
471.997	954
472.216	948
472.435	943
472.654	933
472.873	934
473.092	969
473.311	966
473.53	953
473.749	953
473.968	956
474.187	962
474.406	955
474.625	962
474.844	1006
475.063	979
475.282	991
475.501	995
475.72	978
475.939	981
476.158	988
476.377	982
476.596	994
476.814	1018
477.033	1006
477.252	1011
477.471	1011
477.69	1052
477.908	1065
478.127	1031
478.346	1050
478.564	1064
478.783	1075
479.002	1102
479.22	1112
479.439	1109
479.658	1099
479.876	1110
480.095	1080
480.313	1087
480.532	1095
480.751	1092
480.969	1057
481.188	1105
481.406	1098
481.624	1119
481.843	1090
482.061	1098
482.28	1109
482.498	1108
482.717	1102
482.935	1112
483.153	1134
483.372	1122
483.59	1165
483.808	1129
484.027	1121
484.245	1147
484.463	1118
484.681	1178
484.9	1151
485.118	1167
485.336	1130
485.554	1144
485.772	1156
485.99	1121
486.209	1126
486.427	1164
486.645	1160
486.863	1187
487.081	1144
487.299	1189
487.517	1154
487.735	1165
487.953	1159
488.171	1190
488.389	1200
488.607	1190
488.825	1178
489.043	1127
489.261	1131
489.479	1165
489.696	1190
489.914	1163
490.132	1150
490.35	1157
490.568	1160
490.786	1179
491.003	1200
491.221	1170
491.439	1204
491.657	1193
491.874	1244
492.092	1247
492.31	1222
492.527	1207
492.745	1219
492.963	1229
493.18	1227
493.398	1194
493.615	1215
493.833	1242
494.05	1196
494.268	1225
494.485	1237
494.703	1217
494.92	1223
495.138	1224
495.355	1253
495.573	1203
495.79	1217
496.008	1239
496.225	1243
496.442	1268
496.66	1232
496.877	1249
497.094	1249
497.312	1265
497.529	1278
497.746	1287
497.963	1304
498.181	1328
498.398	1289
498.615	1350
498.832	1364
499.049	1402
499.267	1398
499.484	1487
499.701	1507
499.918	1544
500.135	1540
500.352	1594
500.569	1634
500.786	1592
501.003	1603
501.22	1568
501.437	1542
501.654	1481
501.871	1446
502.088	1402
502.305	1402
502.522	1331
502.739	1356
502.956	1306
503.172	1296
503.389	1267
503.606	1247
503.823	1250
504.04	1222
504.256	1236
504.473	1239
504.69	1232
504.907	1212
505.123	1206
505.34	1186
505.557	1154
505.773	1161
505.99	1146
506.207	1098
506.423	1088
506.64	1127
506.856	1102
507.073	1099
507.289	1099
507.506	1107
507.722	1093
507.939	1073
508.155	1055
508.372	1097
508.588	1065
508.805	1075
509.021	1031
509.238	1017
509.454	1040
509.67	1028
509.887	1022
510.103	1039
510.319	988
510.536	1019
510.752	1006
510.968	1008
511.184	1007
511.401	1001
511.617	1024
511.833	1034
512.049	976
512.265	993
512.481	986
512.698	971
512.914	996
513.13	1017
513.346	971
513.562	995
513.778	991
513.994	984
514.21	995
514.426	1004
514.642	979
514.858	992
515.074	1035
515.29	1011
515.506	1004
515.721	1012
515.937	1046
516.153	1013
516.369	1003
516.585	1021
516.801	1020
517.016	1055
517.232	1038
517.448	1042
517.664	1015
517.879	1032
518.095	1056
518.311	1014
518.527	1035
518.742	1033
518.958	1016
519.173	1014
519.389	1021
519.605	991
519.82	996
520.036	1004
520.251	981
520.467	954
520.682	978
520.898	966
521.113	954
521.329	939
521.544	934
521.76	969
521.975	906
522.19	929
522.406	912
522.621	944
522.836	929
523.052	942
523.267	922
523.482	936
523.698	951
523.913	906
524.128	900
524.343	927
524.559	922
524.774	912
524.989	930
525.204	918
525.419	915
525.634	925
525.849	912
526.064	922
526.28	912
526.495	903
526.71	893
526.925	895
527.14	892
527.355	888
527.57	901
527.785	886
527.999	883
528.214	888
528.429	921
528.644	921
528.859	905
529.074	898
529.289	884
529.503	897
529.718	899
529.933	887
530.148	870
530.363	888
530.577	874
530.792	863
531.007	859
531.221	866
531.436	884
531.651	875
531.865	886
532.08	882
532.295	854
532.509	840
532.724	892
532.938	871
533.153	849
533.367	850
533.582	839
533.796	819
534.011	864
534.225	869
534.44	844
534.654	832
534.868	845
535.083	832
535.297	826
535.511	840
535.726	829
535.94	803
536.154	842
536.369	818
536.583	805
536.797	818
537.011	831
537.225	776
537.44	821
537.654	805
537.868	805
538.082	800
538.296	796
538.51	823
538.724	815
538.938	817
539.153	831
539.367	815
539.581	784
539.795	802
540.009	802
540.222	801
540.436	809
540.65	778
540.864	783
541.078	794
541.292	789
541.506	797
541.72	826
541.934	805
542.147	815
542.361	827
542.575	814
542.789	803
543.002	784
543.216	803
543.43	789
543.644	774
543.857	780
544.071	781
544.285	774
544.498	802
544.712	784
544.925	786
545.139	795
545.352	795
545.566	816
545.779	822
545.993	805
546.206	796
546.42	803
546.633	783
546.847	785
547.06	796
547.274	792
547.487	791
547.7	792
547.914	778
548.127	752
548.34	781
548.554	766
548.767	778
548.98	758
549.193	766
549.407	757
549.62	761
549.833	768
550.046	746
550.259	782
550.473	744
550.686	752
550.899	756
551.112	761
551.325	740
551.538	752
551.751	735
551.964	736
552.177	758
552.39	722
552.603	762
552.816	752
553.029	747
553.242	752
553.455	740
553.667	771
553.88	757
554.093	743
554.306	734
554.519	712
554.732	732
554.944	743
555.157	698
555.37	723
555.583	715
555.795	704
556.008	696
556.221	686
556.433	693
556.646	690
556.859	690
557.071	667
557.284	696
557.496	684
557.709	676
557.921	687
