Data from Ni(NO3)2Standard.Agarose3%.GreenCap.LampEnergy5.5.E.O_HRD10591_14-40-18-187.txt Node
Date: Mon Jul 22 14:40:18 EDT 2019
User: cochatt
Spectrometer: HR+D1059
Trigger mode: 1
Integration Time (sec): 1.000000E-1
Scans to average: 1
Electric dark correction enabled: true
Nonlinearity correction enabled: false
Boxcar width: 0
XAxis mode: Wavelengths
Number of Pixels in Spectrum: 2048
>>>>>Begin Spectral Data<<<<<
223.165	-20.69
223.4	-20.69
223.635	-20.69
223.869	-24.69
224.104	-5.69
224.338	-5.69
224.573	-30.69
224.808	-15.69
225.042	-14.69
225.277	-4.69
225.511	-5.69
225.746	6.31
225.98	20.31
226.215	7.31
226.449	12.31
226.683	27.31
226.918	22.31
227.152	32.31
227.387	39.31
227.621	26.31
227.856	28.31
228.09	49.31
228.324	48.31
228.559	43.31
228.793	61.31
229.027	46.31
229.262	66.31
229.496	71.31
229.73	74.31
229.964	73.31
230.199	81.31
230.433	77.31
230.667	79.31
230.901	90.31
231.136	78.31
231.37	76.31
231.604	79.31
231.838	72.31
232.072	86.31
232.306	82.31
232.541	83.31
232.775	91.31
233.009	90.31
233.243	87.31
233.477	84.31
233.711	67.31
233.945	77.31
234.179	89.31
234.413	91.31
234.647	69.31
234.881	79.31
235.115	84.31
235.349	78.31
235.583	88.31
235.817	69.31
236.051	77.31
236.285	81.31
236.519	82.31
236.753	81.31
236.987	70.31
237.221	72.31
237.455	87.31
237.689	89.31
237.922	74.31
238.156	87.31
238.39	57.31
238.624	86.31
238.858	72.31
239.091	84.31
239.325	85.31
239.559	90.31
239.793	82.31
240.027	76.31
240.26	68.31
240.494	74.31
240.728	74.31
240.961	85.31
241.195	89.31
241.429	81.31
241.662	83.31
241.896	73.31
242.13	73.31
242.363	88.31
242.597	74.31
242.83	77.31
243.064	73.31
243.298	81.31
243.531	83.31
243.765	88.31
243.998	87.31
244.232	69.31
244.465	72.31
244.699	66.31
244.932	75.31
245.166	77.31
245.399	73.31
245.633	91.31
245.866	73.31
246.099	89.31
246.333	72.31
246.566	66.31
246.8	68.31
247.033	70.31
247.266	76.31
247.5	68.31
247.733	81.31
247.966	79.31
248.2	85.31
248.433	79.31
248.666	76.31
248.899	91.31
249.133	78.31
249.366	84.31
249.599	84.31
249.832	83.31
250.066	76.31
250.299	73.31
250.532	90.31
250.765	90.31
250.998	86.31
251.231	76.31
251.465	79.31
251.698	82.31
251.931	101.31
252.164	92.31
252.397	85.31
252.63	81.31
252.863	78.31
253.096	76.31
253.329	83.31
253.562	75.31
253.795	89.31
254.028	93.31
254.261	72.31
254.494	80.31
254.727	85.31
254.96	84.31
255.193	87.31
255.426	92.31
255.659	86.31
255.892	100.31
256.124	79.31
256.357	83.31
256.59	84.31
256.823	90.31
257.056	89.31
257.289	91.31
257.521	101.31
257.754	80.31
257.987	84.31
258.22	77.31
258.452	74.31
258.685	79.31
258.918	97.31
259.151	76.31
259.383	104.31
259.616	65.31
259.849	81.31
260.081	86.31
260.314	88.31
260.547	74.31
260.779	107.31
261.012	82.31
261.244	78.31
261.477	91.31
261.71	93.31
261.942	82.31
262.175	76.31
262.407	86.31
262.64	91.31
262.872	90.31
263.105	80.31
263.337	81.31
263.57	81.31
263.802	86.31
264.035	89.31
264.267	88.31
264.499	74.31
264.732	82.31
264.964	89.31
265.197	83.31
265.429	88.31
265.661	82.31
265.894	88.31
266.126	84.31
266.358	78.31
266.591	74.31
266.823	83.31
267.055	97.31
267.287	94.31
267.52	89.31
267.752	94.31
267.984	91.31
268.216	80.31
268.448	80.31
268.681	90.31
268.913	93.31
269.145	84.31
269.377	76.31
269.609	80.31
269.841	70.31
270.073	84.31
270.306	76.31
270.538	88.31
270.77	81.31
271.002	92.31
271.234	78.31
271.466	80.31
271.698	74.31
271.93	81.31
272.162	91.31
272.394	81.31
272.626	89.31
272.858	90.31
273.09	76.31
273.322	70.31
273.553	72.31
273.785	94.31
274.017	89.31
274.249	92.31
274.481	92.31
274.713	87.31
274.945	96.31
275.176	88.31
275.408	88.31
275.64	93.31
275.872	80.31
276.104	87.31
276.335	77.31
276.567	88.31
276.799	77.31
277.031	87.31
277.262	85.31
277.494	95.31
277.726	91.31
277.957	84.31
278.189	85.31
278.421	74.31
278.652	64.31
278.884	101.31
279.115	86.31
279.347	86.31
279.579	96.31
279.81	93.31
280.042	90.31
280.273	90.31
280.505	78.31
280.736	89.31
280.968	87.31
281.199	90.31
281.431	89.31
281.662	92.31
281.894	92.31
282.125	80.31
282.356	92.31
282.588	88.31
282.819	78.31
283.051	69.31
283.282	91.31
283.513	89.31
283.745	94.31
283.976	86.31
284.207	85.31
284.439	76.31
284.67	83.31
284.901	84.31
285.132	70.31
285.364	69.31
285.595	78.31
285.826	86.31
286.057	98.31
286.288	90.31
286.52	68.31
286.751	86.31
286.982	78.31
287.213	84.31
287.444	86.31
287.675	79.31
287.906	102.31
288.138	88.31
288.369	85.31
288.6	85.31
288.831	83.31
289.062	93.31
289.293	79.31
289.524	87.31
289.755	83.31
289.986	78.31
290.217	77.31
290.448	82.31
290.679	88.31
290.91	88.31
291.141	78.31
291.371	86.31
291.602	89.31
291.833	98.31
292.064	88.31
292.295	97.31
292.526	86.31
292.757	99.31
292.987	80.31
293.218	83.31
293.449	69.31
293.68	95.31
293.91	75.31
294.141	82.31
294.372	89.31
294.603	90.31
294.833	82.31
295.064	85.31
295.295	81.31
295.525	86.31
295.756	89.31
295.987	77.31
296.217	91.31
296.448	86.31
296.679	79.31
296.909	97.31
297.14	80.31
297.37	87.31
297.601	81.31
297.831	78.31
298.062	88.31
298.292	92.31
298.523	94.31
298.753	87.31
298.984	90.31
299.214	72.31
299.445	85.31
299.675	89.31
299.905	96.31
300.136	85.31
300.366	93.31
300.597	88.31
300.827	74.31
301.057	92.31
301.288	82.31
301.518	93.31
301.748	86.31
301.979	84.31
302.209	81.31
302.439	84.31
302.669	88.31
302.9	82.31
303.13	82.31
303.36	94.31
303.59	76.31
303.82	83.31
304.051	84.31
304.281	89.31
304.511	81.31
304.741	86.31
304.971	73.31
305.201	88.31
305.431	91.31
305.661	98.31
305.891	84.31
306.121	94.31
306.352	85.31
306.582	96.31
306.812	90.31
307.042	91.31
307.272	93.31
307.502	73.31
307.731	88.31
307.961	90.31
308.191	91.31
308.421	81.31
308.651	89.31
308.881	79.31
309.111	82.31
309.341	90.31
309.571	97.31
309.8	73.31
310.03	78.31
310.26	62.31
310.49	91.31
310.72	92.31
310.949	82.31
311.179	82.31
311.409	78.31
311.639	89.31
311.868	89.31
312.098	87.31
312.328	103.31
312.557	86.31
312.787	89.31
313.017	89.31
313.246	80.31
313.476	82.31
313.706	83.31
313.935	91.31
314.165	81.31
314.394	96.31
314.624	84.31
314.853	86.31
315.083	90.31
315.312	100.31
315.542	98.31
315.771	100.31
316.001	84.31
316.23	89.31
316.46	77.31
316.689	94.31
316.919	94.31
317.148	78.31
317.377	88.31
317.607	83.31
317.836	100.31
318.065	90.31
318.295	87.31
318.524	78.31
318.753	96.31
318.983	97.31
319.212	91.31
319.441	73.31
319.67	89.31
319.9	82.31
320.129	89.31
320.358	92.31
320.587	79.31
320.816	100.31
321.046	92.31
321.275	94.31
321.504	86.31
321.733	88.31
321.962	82.31
322.191	96.31
322.42	85.31
322.649	87.31
322.878	92.31
323.108	90.31
323.337	83.31
323.566	79.31
323.795	81.31
324.024	76.31
324.253	97.31
324.482	86.31
324.71	72.31
324.939	89.31
325.168	81.31
325.397	75.31
325.626	75.31
325.855	90.31
326.084	75.31
326.313	97.31
326.542	93.31
326.77	94.31
326.999	93.31
327.228	80.31
327.457	77.31
327.686	103.31
327.914	96.31
328.143	93.31
328.372	89.31
328.6	90.31
328.829	102.31
329.058	87.31
329.287	93.31
329.515	88.31
329.744	96.31
329.972	94.31
330.201	92.31
330.43	92.31
330.658	89.31
330.887	69.31
331.115	100.31
331.344	88.31
331.572	98.31
331.801	92.31
332.03	84.31
332.258	91.31
332.486	84.31
332.715	81.31
332.943	94.31
333.172	81.31
333.4	82.31
333.629	97.31
333.857	77.31
334.085	93.31
334.314	90.31
334.542	100.31
334.771	83.31
334.999	83.31
335.227	84.31
335.455	90.31
335.684	79.31
335.912	82.31
336.14	87.31
336.369	87.31
336.597	86.31
336.825	84.31
337.053	99.31
337.281	81.31
337.51	85.31
337.738	99.31
337.966	73.31
338.194	83.31
338.422	80.31
338.65	84.31
338.878	69.31
339.106	90.31
339.334	80.31
339.562	83.31
339.79	86.31
340.018	97.31
340.246	86.31
340.474	81.31
340.702	84.31
340.93	90.31
341.158	84.31
341.386	93.31
341.614	90.31
341.842	80.31
342.07	81.31
342.298	86.31
342.526	91.31
342.754	86.31
342.981	81.31
343.209	92.31
343.437	88.31
343.665	97.31
343.893	87.31
344.12	108.31
344.348	84.31
344.576	86.31
344.804	78.31
345.031	84.31
345.259	107.31
345.487	82.31
345.714	73.31
345.942	74.31
346.17	89.31
346.397	94.31
346.625	73.31
346.853	84.31
347.08	87.31
347.308	93.31
347.535	96.31
347.763	88.31
347.99	80.31
348.218	89.31
348.445	85.31
348.673	88.31
348.9	94.31
349.128	97.31
349.355	91.31
349.583	81.31
349.81	73.31
350.037	85.31
350.265	85.31
350.492	89.31
350.72	98.31
350.947	84.31
351.174	84.31
351.402	86.31
351.629	84.31
351.856	87.31
352.083	81.31
352.311	75.31
352.538	81.31
352.765	79.31
352.992	105.31
353.22	89.31
353.447	77.31
353.674	97.31
353.901	92.31
354.128	72.31
354.355	80.31
354.583	97.31
354.81	78.31
355.037	86.31
355.264	100.31
355.491	89.31
355.718	88.31
355.945	80.31
356.172	93.31
356.399	96.31
356.626	93.31
356.853	99.31
357.08	80.31
357.307	92.31
357.534	83.31
357.761	81.31
357.988	83.31
358.215	91.31
358.441	74.31
358.668	90.31
358.895	82.31
359.122	88.31
359.349	102.31
359.576	91.31
359.802	77.31
360.029	79.31
360.256	75.31
360.483	85.31
360.709	89.31
360.936	110.31
361.163	99.31
361.39	101.31
361.616	102.31
361.843	93.31
362.07	97.31
362.296	102.31
362.523	77.31
362.749	89.31
362.976	90.31
363.203	104.31
363.429	96.31
363.656	88.31
363.882	92.31
364.109	79.31
364.335	83.31
364.562	79.31
364.788	96.31
365.015	99.31
365.241	86.31
365.468	74.31
365.694	83.31
365.92	100.31
366.147	75.31
366.373	82.31
366.599	74.31
366.826	85.31
367.052	94.31
367.278	89.31
367.505	77.31
367.731	95.31
367.957	84.31
368.184	91.31
368.41	84.31
368.636	76.31
368.862	86.31
369.089	84.31
369.315	86.31
369.541	84.31
369.767	94.31
369.993	80.31
370.219	85.31
370.445	84.31
370.672	94.31
370.898	80.31
371.124	82.31
371.35	74.31
371.576	72.31
371.802	84.31
372.028	96.31
372.254	83.31
372.48	78.31
372.706	89.31
372.932	82.31
373.158	88.31
373.384	96.31
373.61	78.31
373.835	80.31
374.061	73.31
374.287	88.31
374.513	88.31
374.739	72.31
374.965	96.31
375.191	78.31
375.416	81.31
375.642	93.31
375.868	92.31
376.094	89.31
376.319	85.31
376.545	97.31
376.771	84.31
376.997	79.31
377.222	88.31
377.448	94.31
377.674	85.31
377.899	87.31
378.125	85.31
378.35	90.31
378.576	80.31
378.802	84.31
379.027	99.31
379.253	93.31
379.478	80.31
379.704	92.31
379.929	84.31
380.155	72.31
380.38	69.31
380.606	85.31
380.831	97.31
381.057	93.31
381.282	85.31
381.507	91.31
381.733	79.31
381.958	93.31
382.184	70.31
382.409	85.31
382.634	80.31
382.86	82.31
383.085	91.31
383.31	75.31
383.535	86.31
383.761	80.31
383.986	82.31
384.211	85.31
384.436	78.31
384.662	104.31
384.887	86.31
385.112	89.31
385.337	93.31
385.562	85.31
385.787	92.31
386.013	99.31
386.238	85.31
386.463	68.31
386.688	73.31
386.913	83.31
387.138	87.31
387.363	85.31
387.588	80.31
387.813	93.31
388.038	97.31
388.263	94.31
388.488	75.31
388.713	77.31
388.938	86.31
389.163	92.31
389.387	97.31
389.612	81.31
389.837	97.31
390.062	79.31
390.287	91.31
390.512	79.31
390.736	95.31
390.961	90.31
391.186	81.31
391.411	86.31
391.636	90.31
391.86	78.31
392.085	93.31
392.31	96.31
392.534	84.31
392.759	85.31
392.984	86.31
393.208	88.31
393.433	77.31
393.658	88.31
393.882	83.31
394.107	89.31
394.331	75.31
394.556	84.31
394.78	86.31
395.005	83.31
395.229	81.31
395.454	88.31
395.678	105.31
395.903	89.31
396.127	106.31
396.352	90.31
396.576	79.31
396.801	74.31
397.025	78.31
397.249	88.31
397.474	100.31
397.698	71.31
397.922	105.31
398.147	83.31
398.371	84.31
398.595	85.31
398.82	94.31
399.044	78.31
399.268	81.31
399.492	78.31
399.717	88.31
399.941	78.31
400.165	80.31
400.389	72.31
400.613	102.31
400.837	92.31
401.062	85.31
401.286	90.31
401.51	96.31
401.734	91.31
401.958	83.31
402.182	77.31
402.406	81.31
402.63	69.31
402.854	93.31
403.078	90.31
403.302	99.31
403.526	105.31
403.75	99.31
403.974	89.31
404.198	94.31
404.422	98.31
404.645	77.31
404.869	88.31
405.093	91.31
405.317	92.31
405.541	102.31
405.765	78.31
405.988	97.31
406.212	84.31
406.436	79.31
406.66	97.31
406.883	71.31
407.107	86.31
407.331	90.31
407.555	86.31
407.778	79.31
408.002	74.31
408.226	86.31
408.449	83.31
408.673	89.31
408.896	86.31
409.12	85.31
409.344	84.31
409.567	85.31
409.791	92.31
410.014	92.31
410.238	86.31
410.461	89.31
410.685	81.31
410.908	81.31
411.132	97.31
411.355	91.31
411.578	81.31
411.802	92.31
412.025	85.31
412.249	90.31
412.472	89.31
412.695	99.31
412.919	77.31
413.142	85.31
413.365	76.31
413.589	79.31
413.812	90.31
414.035	93.31
414.258	78.31
414.482	86.31
414.705	85.31
414.928	82.31
415.151	90.31
415.374	100.31
415.597	75.31
415.821	92.31
416.044	85.31
416.267	76.31
416.49	80.31
416.713	90.31
416.936	80.31
417.159	80.31
417.382	87.31
417.605	83.31
417.828	107.31
418.051	75.31
418.274	78.31
418.497	91.31
418.72	86.31
418.943	87.31
419.166	87.31
419.389	82.31
419.611	84.31
419.834	87.31
420.057	80.31
420.28	83.31
420.503	89.31
420.726	97.31
420.948	91.31
421.171	99.31
421.394	93.31
421.617	85.31
421.839	96.31
422.062	77.31
422.285	90.31
422.507	87.31
422.73	93.31
422.953	76.31
423.175	83.31
423.398	87.31
423.621	84.31
423.843	91.31
424.066	91.31
424.288	64.31
424.511	89.31
424.733	108.31
424.956	91.31
425.178	101.31
425.401	81.31
425.623	76.31
425.846	89.31
426.068	83.31
426.291	78.31
426.513	84.31
426.735	88.31
426.958	84.31
427.18	95.31
427.402	81.31
427.625	90.31
427.847	83.31
428.069	76.31
428.292	90.31
428.514	78.31
428.736	97.31
428.958	73.31
429.181	82.31
429.403	89.31
429.625	84.31
429.847	89.31
430.069	84.31
430.292	80.31
430.514	88.31
430.736	82.31
430.958	92.31
431.18	86.31
431.402	93.31
431.624	79.31
431.846	82.31
432.068	83.31
432.29	93.31
432.512	96.31
432.734	90.31
432.956	73.31
433.178	93.31
433.4	89.31
433.622	85.31
433.844	99.31
434.066	92.31
434.287	81.31
434.509	70.31
434.731	97.31
434.953	86.31
435.175	88.31
435.397	69.31
435.618	78.31
435.84	80.31
436.062	87.31
436.284	76.31
436.505	78.31
436.727	87.31
436.949	88.31
437.17	78.31
437.392	89.31
437.614	90.31
437.835	75.31
438.057	92.31
438.278	89.31
438.5	89.31
438.721	93.31
438.943	83.31
439.165	86.31
439.386	88.31
439.608	80.31
439.829	73.31
440.05	78.31
440.272	82.31
440.493	82.31
440.715	71.31
440.936	90.31
441.158	92.31
441.379	87.31
441.6	87.31
441.822	91.31
442.043	84.31
442.264	87.31
442.486	76.31
442.707	82.31
442.928	93.31
443.149	81.31
443.371	90.31
443.592	82.31
443.813	75.31
444.034	93.31
444.255	89.31
444.476	101.31
444.698	87.31
444.919	92.31
445.14	193.31
445.361	148.31
445.582	76.31
445.803	91.31
446.024	93.31
446.245	83.31
446.466	90.31
446.687	87.31
446.908	87.31
447.129	83.31
447.35	96.31
447.571	94.31
447.792	99.31
448.013	77.31
448.234	98.31
448.455	87.31
448.675	86.31
448.896	93.31
449.117	79.31
449.338	101.31
449.559	76.31
449.779	103.31
450	86.31
450.221	94.31
450.442	94.31
450.662	84.31
450.883	85.31
451.104	105.31
451.324	84.31
451.545	83.31
451.766	83.31
451.986	88.31
452.207	84.31
452.428	88.31
452.648	101.31
452.869	89.31
453.089	93.31
453.31	88.31
453.53	84.31
453.751	92.31
453.971	89.31
454.192	73.31
454.412	90.31
454.633	88.31
454.853	83.31
455.073	93.31
455.294	85.31
455.514	92.31
455.734	76.31
455.955	94.31
456.175	76.31
456.395	80.31
456.616	84.31
456.836	95.31
457.056	88.31
457.276	83.31
457.497	83.31
457.717	87.31
457.937	85.31
458.157	74.31
458.377	94.31
458.598	103.31
458.818	84.31
459.038	85.31
459.258	93.31
459.478	85.31
459.698	93.31
459.918	89.31
460.138	77.31
460.358	88.31
460.578	86.31
460.798	94.31
461.018	92.31
461.238	86.31
461.458	77.31
461.678	80.31
461.898	90.31
462.118	86.31
462.338	90.31
462.558	90.31
462.777	98.31
462.997	107.31
463.217	92.31
463.437	87.31
463.657	78.31
463.876	90.31
464.096	86.31
464.316	94.31
464.536	88.31
464.755	82.31
464.975	76.31
465.195	75.31
465.414	76.31
465.634	88.31
465.854	69.31
466.073	92.31
466.293	100.31
466.512	88.31
466.732	89.31
466.951	89.31
467.171	103.31
467.391	88.31
467.61	76.31
467.829	97.31
468.049	79.31
468.268	86.31
468.488	86.31
468.707	99.31
468.927	92.31
469.146	98.31
469.365	82.31
469.585	99.31
469.804	78.31
470.023	89.31
470.243	86.31
470.462	95.31
470.681	87.31
470.901	77.31
471.12	88.31
471.339	90.31
471.558	85.31
471.777	75.31
471.997	84.31
472.216	89.31
472.435	76.31
472.654	84.31
472.873	94.31
473.092	76.31
473.311	77.31
473.53	88.31
473.749	97.31
473.968	70.31
474.187	81.31
474.406	81.31
474.625	85.31
474.844	96.31
475.063	90.31
475.282	80.31
475.501	91.31
475.72	99.31
475.939	82.31
476.158	76.31
476.377	84.31
476.596	81.31
476.814	80.31
477.033	92.31
477.252	83.31
477.471	90.31
477.69	86.31
477.908	87.31
478.127	102.31
478.346	84.31
478.564	92.31
478.783	91.31
479.002	100.31
479.22	95.31
479.439	96.31
479.658	91.31
479.876	97.31
480.095	102.31
480.313	100.31
480.532	96.31
480.751	89.31
480.969	85.31
481.188	101.31
481.406	90.31
481.624	87.31
481.843	80.31
482.061	98.31
482.28	88.31
482.498	89.31
482.717	85.31
482.935	80.31
483.153	101.31
483.372	102.31
483.59	98.31
483.808	96.31
484.027	97.31
484.245	99.31
484.463	103.31
484.681	103.31
484.9	94.31
485.118	99.31
485.336	102.31
485.554	99.31
485.772	117.31
485.99	120.31
486.209	94.31
486.427	97.31
486.645	93.31
486.863	88.31
487.081	73.31
487.299	90.31
487.517	85.31
487.735	103.31
487.953	92.31
488.171	93.31
488.389	97.31
488.607	99.31
488.825	78.31
489.043	92.31
489.261	97.31
489.479	82.31
489.696	96.31
489.914	101.31
490.132	102.31
490.35	96.31
490.568	97.31
490.786	94.31
491.003	83.31
491.221	96.31
491.439	94.31
491.657	94.31
491.874	106.31
492.092	96.31
492.31	116.31
492.527	105.31
492.745	96.31
492.963	100.31
493.18	81.31
493.398	98.31
493.615	94.31
493.833	84.31
494.05	96.31
494.268	86.31
494.485	86.31
494.703	91.31
494.92	81.31
495.138	101.31
495.355	94.31
495.573	95.31
495.79	94.31
496.008	101.31
496.225	94.31
496.442	88.31
496.66	101.31
496.877	103.31
497.094	97.31
497.312	107.31
497.529	97.31
497.746	95.31
497.963	106.31
498.181	106.31
498.398	103.31
498.615	102.31
498.832	97.31
499.049	97.31
499.267	99.31
499.484	94.31
499.701	117.31
499.918	105.31
500.135	103.31
500.352	118.31
500.569	115.31
500.786	106.31
501.003	112.31
501.22	112.31
501.437	106.31
501.654	101.31
501.871	106.31
502.088	95.31
502.305	98.31
502.522	104.31
502.739	97.31
502.956	105.31
503.172	89.31
503.389	80.31
503.606	101.31
503.823	95.31
504.04	107.31
504.256	95.31
504.473	94.31
504.69	110.31
504.907	115.31
505.123	92.31
505.34	101.31
505.557	101.31
505.773	90.31
505.99	93.31
506.207	86.31
506.423	97.31
506.64	86.31
506.856	96.31
507.073	93.31
507.289	82.31
507.506	87.31
507.722	86.31
507.939	103.31
508.155	92.31
508.372	78.31
508.588	116.31
508.805	94.31
509.021	103.31
509.238	87.31
509.454	94.31
509.67	93.31
509.887	92.31
510.103	78.31
510.319	90.31
510.536	94.31
510.752	92.31
510.968	104.31
511.184	90.31
511.401	96.31
511.617	93.31
511.833	90.31
512.049	96.31
512.265	81.31
512.481	83.31
512.698	93.31
512.914	86.31
513.13	96.31
513.346	100.31
513.562	105.31
513.778	91.31
513.994	83.31
514.21	99.31
514.426	89.31
514.642	90.31
514.858	100.31
515.074	80.31
515.29	83.31
515.506	101.31
515.721	95.31
515.937	103.31
516.153	98.31
516.369	93.31
516.585	85.31
516.801	85.31
517.016	112.31
517.232	100.31
517.448	86.31
517.664	106.31
517.879	106.31
