Data from Ni(NO3)2@0.0625M.TitratingCurve.Agarose3%dH2O.NegLispCup.LampEnergy10.LIBS07252019_HRD10591_18-15-35-569.txt Node
Date: Thu Jul 25 18:15:35 EDT 2019
User: cochatt
Spectrometer: HR+D1059
Trigger mode: 1
Integration Time (sec): 1.000000E-1
Scans to average: 1
Electric dark correction enabled: true
Nonlinearity correction enabled: false
Boxcar width: 0
XAxis mode: Wavelengths
Number of Pixels in Spectrum: 2048
>>>>>Begin Spectral Data<<<<<
223.165	-11.56
223.4	-11.56
223.635	-11.56
223.869	-11.56
224.104	-10.56
224.338	-26.56
224.573	-24.56
224.808	0.44
225.042	-11.56
225.277	-6.56
225.511	-8.56
225.746	17.44
225.98	2.44
226.215	5.44
226.449	22.44
226.683	23.44
226.918	18.44
227.152	21.44
227.387	43.44
227.621	48.44
227.856	49.44
228.09	50.44
228.324	46.44
228.559	46.44
228.793	89.44
229.027	82.44
229.262	86.44
229.496	94.44
229.73	102.44
229.964	99.44
230.199	113.44
230.433	97.44
230.667	118.44
230.901	120.44
231.136	118.44
231.37	117.44
231.604	112.44
231.838	117.44
232.072	123.44
232.306	121.44
232.541	116.44
232.775	126.44
233.009	123.44
233.243	108.44
233.477	116.44
233.711	132.44
233.945	125.44
234.179	124.44
234.413	136.44
234.647	146.44
234.881	125.44
235.115	132.44
235.349	133.44
235.583	126.44
235.817	122.44
236.051	136.44
236.285	118.44
236.519	121.44
236.753	124.44
236.987	124.44
237.221	125.44
237.455	148.44
237.689	137.44
237.922	138.44
238.156	133.44
238.39	129.44
238.624	139.44
238.858	136.44
239.091	139.44
239.325	139.44
239.559	146.44
239.793	138.44
240.027	154.44
240.26	138.44
240.494	122.44
240.728	139.44
240.961	140.44
241.195	150.44
241.429	148.44
241.662	145.44
241.896	146.44
242.13	151.44
242.363	160.44
242.597	140.44
242.83	155.44
243.064	147.44
243.298	154.44
243.531	167.44
243.765	160.44
243.998	152.44
244.232	166.44
244.465	166.44
244.699	162.44
244.932	158.44
245.166	151.44
245.399	152.44
245.633	170.44
245.866	181.44
246.099	155.44
246.333	186.44
246.566	171.44
246.8	178.44
247.033	171.44
247.266	180.44
247.5	165.44
247.733	187.44
247.966	190.44
248.2	193.44
248.433	186.44
248.666	176.44
248.899	166.44
249.133	184.44
249.366	169.44
249.599	187.44
249.832	196.44
250.066	201.44
250.299	203.44
250.532	188.44
250.765	197.44
250.998	188.44
251.231	193.44
251.465	196.44
251.698	197.44
251.931	205.44
252.164	189.44
252.397	204.44
252.63	209.44
252.863	208.44
253.096	203.44
253.329	220.44
253.562	216.44
253.795	211.44
254.028	213.44
254.261	218.44
254.494	201.44
254.727	209.44
254.96	204.44
255.193	205.44
255.426	214.44
255.659	207.44
255.892	215.44
256.124	213.44
256.357	212.44
256.59	215.44
256.823	213.44
257.056	214.44
257.289	213.44
257.521	235.44
257.754	218.44
257.987	218.44
258.22	231.44
258.452	221.44
258.685	233.44
258.918	219.44
259.151	232.44
259.383	241.44
259.616	248.44
259.849	239.44
260.081	228.44
260.314	219.44
260.547	246.44
260.779	245.44
261.012	236.44
261.244	237.44
261.477	246.44
261.71	258.44
261.942	240.44
262.175	240.44
262.407	260.44
262.64	262.44
262.872	243.44
263.105	247.44
263.337	265.44
263.57	258.44
263.802	254.44
264.035	275.44
264.267	219.44
264.499	235.44
264.732	263.44
264.964	254.44
265.197	269.44
265.429	262.44
265.661	257.44
265.894	269.44
266.126	265.44
266.358	251.44
266.591	260.44
266.823	265.44
267.055	250.44
267.287	250.44
267.52	257.44
267.752	275.44
267.984	276.44
268.216	274.44
268.448	289.44
268.681	271.44
268.913	265.44
269.145	274.44
269.377	269.44
269.609	266.44
269.841	290.44
270.073	246.44
270.306	272.44
270.538	288.44
270.77	264.44
271.002	284.44
271.234	276.44
271.466	273.44
271.698	278.44
271.93	294.44
272.162	292.44
272.394	275.44
272.626	269.44
272.858	316.44
273.09	282.44
273.322	299.44
273.553	282.44
273.785	302.44
274.017	296.44
274.249	285.44
274.481	291.44
274.713	290.44
274.945	291.44
275.176	296.44
275.408	311.44
275.64	301.44
275.872	315.44
276.104	301.44
276.335	299.44
276.567	308.44
276.799	320.44
277.031	318.44
277.262	342.44
277.494	301.44
277.726	313.44
277.957	309.44
278.189	316.44
278.421	311.44
278.652	315.44
278.884	326.44
279.115	308.44
279.347	314.44
279.579	301.44
279.81	327.44
280.042	318.44
280.273	329.44
280.505	321.44
280.736	324.44
280.968	328.44
281.199	337.44
281.431	326.44
281.662	348.44
281.894	329.44
282.125	336.44
282.356	334.44
282.588	331.44
282.819	341.44
283.051	338.44
283.282	339.44
283.513	341.44
283.745	348.44
283.976	365.44
284.207	332.44
284.439	352.44
284.67	349.44
284.901	335.44
285.132	354.44
285.364	368.44
285.595	352.44
285.826	363.44
286.057	342.44
286.288	351.44
286.52	357.44
286.751	358.44
286.982	356.44
287.213	373.44
287.444	363.44
287.675	365.44
287.906	365.44
288.138	378.44
288.369	378.44
288.6	370.44
288.831	369.44
289.062	376.44
289.293	366.44
289.524	378.44
289.755	358.44
289.986	382.44
290.217	400.44
290.448	373.44
290.679	384.44
290.91	373.44
291.141	366.44
291.371	370.44
291.602	376.44
291.833	376.44
292.064	382.44
292.295	368.44
292.526	399.44
292.757	377.44
292.987	383.44
293.218	368.44
293.449	387.44
293.68	382.44
293.91	382.44
294.141	393.44
294.372	386.44
294.603	402.44
294.833	400.44
295.064	396.44
295.295	382.44
295.525	389.44
295.756	384.44
295.987	398.44
296.217	396.44
296.448	397.44
296.679	388.44
296.909	408.44
297.14	406.44
297.37	414.44
297.601	433.44
297.831	422.44
298.062	408.44
298.292	396.44
298.523	427.44
298.753	436.44
298.984	410.44
299.214	425.44
299.445	419.44
299.675	417.44
299.905	440.44
300.136	415.44
300.366	432.44
300.597	430.44
300.827	436.44
301.057	449.44
301.288	447.44
301.518	448.44
301.748	440.44
301.979	449.44
302.209	436.44
302.439	433.44
302.669	428.44
302.9	411.44
303.13	406.44
303.36	427.44
303.59	440.44
303.82	416.44
304.051	448.44
304.281	443.44
304.511	445.44
304.741	404.44
304.971	417.44
305.201	459.44
305.431	433.44
305.661	407.44
305.891	421.44
306.121	433.44
306.352	417.44
306.582	414.44
306.812	404.44
307.042	446.44
307.272	419.44
307.502	439.44
307.731	413.44
307.961	434.44
308.191	420.44
308.421	427.44
308.651	413.44
308.881	421.44
309.111	422.44
309.341	427.44
309.571	422.44
309.8	413.44
310.03	428.44
310.26	417.44
310.49	443.44
310.72	418.44
310.949	438.44
311.179	428.44
311.409	432.44
311.639	438.44
311.868	416.44
312.098	440.44
312.328	448.44
312.557	446.44
312.787	450.44
313.017	436.44
313.246	466.44
313.476	425.44
313.706	466.44
313.935	467.44
314.165	456.44
314.394	445.44
314.624	461.44
314.853	449.44
315.083	449.44
315.312	445.44
315.542	444.44
315.771	451.44
316.001	459.44
316.23	453.44
316.46	452.44
316.689	456.44
316.919	465.44
317.148	428.44
317.377	440.44
317.607	440.44
317.836	446.44
318.065	456.44
318.295	456.44
318.524	448.44
318.753	447.44
318.983	458.44
319.212	429.44
319.441	441.44
319.67	441.44
319.9	453.44
320.129	436.44
320.358	456.44
320.587	458.44
320.816	449.44
321.046	443.44
321.275	436.44
321.504	449.44
321.733	433.44
321.962	444.44
322.191	437.44
322.42	447.44
322.649	450.44
322.878	428.44
323.108	469.44
323.337	451.44
323.566	458.44
323.795	460.44
324.024	460.44
324.253	453.44
324.482	469.44
324.71	480.44
324.939	457.44
325.168	456.44
325.397	454.44
325.626	429.44
325.855	466.44
326.084	486.44
326.313	476.44
326.542	487.44
326.77	488.44
326.999	484.44
327.228	468.44
327.457	501.44
327.686	469.44
327.914	483.44
328.143	472.44
328.372	492.44
328.6	482.44
328.829	485.44
329.058	466.44
329.287	480.44
329.515	497.44
329.744	462.44
329.972	468.44
330.201	512.44
330.43	503.44
330.658	478.44
330.887	526.44
331.115	503.44
331.344	525.44
331.572	550.44
331.801	523.44
332.03	522.44
332.258	568.44
332.486	561.44
332.715	577.44
332.943	597.44
333.172	630.44
333.4	639.44
333.629	664.44
333.857	668.44
334.085	645.44
334.314	640.44
334.542	624.44
334.771	633.44
334.999	612.44
335.227	620.44
335.455	598.44
335.684	568.44
335.912	592.44
336.14	574.44
336.369	588.44
336.597	587.44
336.825	585.44
337.053	583.44
337.281	585.44
337.51	563.44
337.738	545.44
337.966	545.44
338.194	532.44
338.422	530.44
338.65	541.44
338.878	546.44
339.106	536.44
339.334	532.44
339.562	518.44
339.79	525.44
340.018	531.44
340.246	525.44
340.474	506.44
340.702	508.44
340.93	517.44
341.158	542.44
341.386	526.44
341.614	536.44
341.842	517.44
342.07	490.44
342.298	488.44
342.526	523.44
342.754	502.44
342.981	533.44
343.209	536.44
343.437	533.44
343.665	590.44
343.893	639.44
344.12	638.44
344.348	600.44
344.576	572.44
344.804	550.44
345.031	531.44
345.259	523.44
345.487	517.44
345.714	532.44
345.942	546.44
346.17	553.44
346.397	516.44
346.625	501.44
346.853	472.44
347.08	491.44
347.308	492.44
347.535	534.44
347.763	517.44
347.99	538.44
348.218	518.44
348.445	530.44
348.673	528.44
348.9	523.44
349.128	515.44
349.355	522.44
349.583	502.44
349.81	505.44
350.037	492.44
350.265	485.44
350.492	486.44
350.72	489.44
350.947	480.44
351.174	492.44
351.402	500.44
351.629	485.44
351.856	498.44
352.083	508.44
352.311	488.44
352.538	498.44
352.765	508.44
352.992	476.44
353.22	469.44
353.447	497.44
353.674	486.44
353.901	489.44
354.128	470.44
354.355	477.44
354.583	478.44
354.81	488.44
355.037	486.44
355.264	489.44
355.491	476.44
355.718	469.44
355.945	508.44
356.172	478.44
356.399	473.44
356.626	503.44
356.853	511.44
357.08	468.44
357.307	477.44
357.534	466.44
357.761	484.44
357.988	493.44
358.215	498.44
358.441	477.44
358.668	479.44
358.895	470.44
359.122	474.44
359.349	468.44
359.576	470.44
359.802	483.44
360.029	491.44
360.256	491.44
360.483	491.44
360.709	494.44
360.936	481.44
361.163	492.44
361.39	481.44
361.616	494.44
361.843	500.44
362.07	498.44
362.296	491.44
362.523	498.44
362.749	485.44
362.976	488.44
363.203	471.44
363.429	461.44
363.656	487.44
363.882	478.44
364.109	484.44
364.335	474.44
364.562	500.44
364.788	474.44
365.015	480.44
365.241	470.44
365.468	465.44
365.694	483.44
365.92	478.44
366.147	477.44
366.373	475.44
366.599	483.44
366.826	466.44
367.052	459.44
367.278	481.44
367.505	506.44
367.731	498.44
367.957	500.44
368.184	478.44
368.41	487.44
368.636	482.44
368.862	500.44
369.089	502.44
369.315	501.44
369.541	497.44
369.767	501.44
369.993	492.44
370.219	506.44
370.445	493.44
370.672	495.44
370.898	518.44
371.124	520.44
371.35	506.44
371.576	517.44
371.802	540.44
372.028	512.44
372.254	532.44
372.48	526.44
372.706	544.44
372.932	549.44
373.158	550.44
373.384	555.44
373.61	540.44
373.835	530.44
374.061	528.44
374.287	537.44
374.513	553.44
374.739	558.44
374.965	563.44
375.191	564.44
375.416	584.44
375.642	562.44
375.868	557.44
376.094	538.44
376.319	539.44
376.545	536.44
376.771	537.44
376.997	539.44
377.222	517.44
377.448	546.44
377.674	540.44
377.899	502.44
378.125	514.44
378.35	528.44
378.576	536.44
378.802	526.44
379.027	523.44
379.253	536.44
379.478	517.44
379.704	526.44
379.929	525.44
380.155	527.44
380.38	516.44
380.606	529.44
380.831	533.44
381.057	523.44
381.282	537.44
381.507	506.44
381.733	521.44
381.958	520.44
382.184	523.44
382.409	553.44
382.634	561.44
382.86	521.44
383.085	567.44
383.31	564.44
383.535	584.44
383.761	607.44
383.986	606.44
384.211	595.44
384.436	628.44
384.662	620.44
384.887	612.44
385.112	612.44
385.337	655.44
385.562	646.44
385.787	654.44
386.013	644.44
386.238	632.44
386.463	651.44
386.688	635.44
386.913	624.44
387.138	638.44
387.363	618.44
387.588	637.44
387.813	622.44
388.038	617.44
388.263	632.44
388.488	624.44
388.713	618.44
388.938	605.44
389.163	612.44
389.387	626.44
389.612	608.44
389.837	605.44
390.062	611.44
390.287	614.44
390.512	615.44
390.736	620.44
390.961	631.44
391.186	639.44
391.411	673.44
391.636	669.44
391.86	709.44
392.085	732.44
392.31	704.44
392.534	683.44
392.759	688.44
392.984	658.44
393.208	656.44
393.433	657.44
393.658	639.44
393.882	650.44
394.107	701.44
394.331	674.44
394.556	688.44
394.78	679.44
395.005	688.44
395.229	669.44
395.454	699.44
395.678	710.44
395.903	676.44
396.127	700.44
396.352	672.44
396.576	684.44
396.801	637.44
397.025	664.44
397.249	660.44
397.474	704.44
397.698	708.44
397.922	714.44
398.147	705.44
398.371	740.44
398.595	722.44
398.82	747.44
399.044	832.44
399.268	924.44
399.492	1048.44
399.717	1209.44
399.941	1155.44
400.165	1068.44
400.389	916.44
400.613	857.44
400.837	807.44
401.062	775.44
401.286	791.44
401.51	796.44
401.734	760.44
401.958	788.44
402.182	805.44
402.406	812.44
402.63	851.44
402.854	850.44
403.078	865.44
403.302	899.44
403.526	902.44
403.75	902.44
403.974	929.44
404.198	927.44
404.422	907.44
404.645	896.44
404.869	875.44
405.093	883.44
405.317	868.44
405.541	843.44
405.765	860.44
405.988	857.44
406.212	853.44
406.436	876.44
406.66	860.44
406.883	880.44
407.107	935.44
407.331	988.44
407.555	1026.44
407.778	1006.44
408.002	989.44
408.226	962.44
408.449	947.44
408.673	921.44
408.896	891.44
409.12	896.44
409.344	880.44
409.567	886.44
409.791	895.44
410.014	878.44
410.238	894.44
410.461	884.44
410.685	885.44
410.908	848.44
411.132	834.44
411.355	790.44
411.578	818.44
411.802	817.44
412.025	811.44
412.249	828.44
412.472	824.44
412.695	823.44
412.919	773.44
413.142	770.44
413.365	769.44
413.589	778.44
413.812	743.44
414.035	778.44
414.258	783.44
414.482	765.44
414.705	786.44
414.928	797.44
415.151	775.44
415.374	797.44
415.597	797.44
415.821	785.44
416.044	763.44
416.267	761.44
416.49	757.44
416.713	796.44
416.936	802.44
417.159	772.44
417.382	753.44
417.605	769.44
417.828	776.44
418.051	782.44
418.274	770.44
418.497	777.44
418.72	781.44
418.943	788.44
419.166	829.44
419.389	926.44
419.611	860.44
419.834	833.44
420.057	820.44
420.28	794.44
420.503	757.44
420.726	757.44
420.948	756.44
421.171	756.44
421.394	804.44
421.617	763.44
421.839	756.44
422.062	773.44
422.285	738.44
422.507	792.44
422.73	796.44
422.953	807.44
423.175	814.44
423.398	827.44
423.621	826.44
423.843	831.44
424.066	838.44
424.288	814.44
424.511	797.44
424.733	817.44
424.956	796.44
425.178	779.44
425.401	796.44
425.623	778.44
425.846	764.44
426.068	749.44
426.291	734.44
426.513	749.44
426.735	737.44
426.958	768.44
427.18	718.44
427.402	708.44
427.625	724.44
427.847	682.44
428.069	698.44
428.292	714.44
428.514	699.44
428.736	682.44
428.958	688.44
429.181	668.44
429.403	668.44
429.625	682.44
429.847	645.44
430.069	664.44
430.292	672.44
430.514	701.44
430.736	671.44
430.958	677.44
431.18	661.44
431.402	677.44
431.624	688.44
431.846	722.44
432.068	717.44
432.29	718.44
432.512	691.44
432.734	718.44
432.956	683.44
433.178	711.44
433.4	693.44
433.622	702.44
433.844	709.44
434.066	739.44
434.287	735.44
434.509	760.44
434.731	768.44
434.953	812.44
435.175	833.44
435.397	798.44
435.618	748.44
435.84	715.44
436.062	724.44
436.284	709.44
436.505	708.44
436.727	688.44
436.949	713.44
437.17	716.44
437.392	713.44
437.614	669.44
437.835	662.44
438.057	675.44
438.278	673.44
438.5	652.44
438.721	682.44
438.943	670.44
439.165	680.44
439.386	674.44
439.608	697.44
439.829	697.44
440.05	684.44
440.272	711.44
440.493	711.44
440.715	743.44
440.936	740.44
441.158	743.44
441.379	745.44
441.6	813.44
441.822	798.44
442.043	774.44
442.264	783.44
442.486	778.44
442.707	793.44
442.928	795.44
443.149	789.44
443.371	793.44
443.592	789.44
443.813	797.44
444.034	812.44
444.255	824.44
444.476	904.44
444.698	917.44
444.919	969.44
445.14	1049.44
445.361	934.44
445.582	814.44
445.803	757.44
446.024	738.44
446.245	732.44
446.466	708.44
446.687	689.44
446.908	716.44
447.129	711.44
447.35	684.44
447.571	660.44
447.792	672.44
448.013	663.44
448.234	632.44
448.455	668.44
448.675	664.44
448.896	679.44
449.117	636.44
449.338	641.44
449.559	640.44
449.779	616.44
450	635.44
450.221	646.44
450.442	665.44
450.662	639.44
450.883	664.44
451.104	689.44
451.324	648.44
451.545	658.44
451.766	648.44
451.986	678.44
452.207	644.44
452.428	655.44
452.648	634.44
452.869	632.44
453.089	645.44
453.31	668.44
453.53	634.44
453.751	641.44
453.971	643.44
454.192	627.44
454.412	615.44
454.633	648.44
454.853	619.44
455.073	610.44
455.294	614.44
455.514	618.44
455.734	595.44
455.955	626.44
456.175	583.44
456.395	586.44
456.616	604.44
456.836	595.44
457.056	604.44
457.276	610.44
457.497	619.44
457.717	620.44
457.937	615.44
458.157	617.44
458.377	629.44
458.598	645.44
458.818	644.44
459.038	686.44
459.258	686.44
459.478	713.44
459.698	730.44
459.918	750.44
460.138	786.44
460.358	841.44
460.578	837.44
460.798	846.44
461.018	876.44
461.238	820.44
461.458	803.44
461.678	825.44
461.898	814.44
462.118	854.44
462.338	888.44
462.558	944.44
462.777	937.44
462.997	1058.44
463.217	1173.44
463.437	1153.44
463.657	1070.44
463.876	998.44
464.096	984.44
464.316	976.44
464.536	1001.44
464.755	946.44
464.975	945.44
465.195	865.44
465.414	794.44
465.634	743.44
465.854	752.44
466.073	734.44
466.293	724.44
466.512	672.44
466.732	715.44
466.951	685.44
467.171	673.44
467.391	690.44
467.61	696.44
467.829	681.44
468.049	675.44
468.268	677.44
468.488	637.44
468.707	670.44
468.927	674.44
469.146	634.44
469.365	660.44
469.585	660.44
469.804	678.44
470.023	676.44
470.243	691.44
470.462	702.44
470.681	722.44
470.901	712.44
471.12	682.44
471.339	693.44
471.558	662.44
471.777	667.44
471.997	642.44
472.216	662.44
472.435	666.44
472.654	651.44
472.873	648.44
473.092	613.44
473.311	624.44
473.53	626.44
473.749	628.44
473.968	629.44
474.187	630.44
474.406	634.44
474.625	636.44
474.844	662.44
475.063	635.44
475.282	633.44
475.501	652.44
475.72	664.44
475.939	657.44
476.158	677.44
476.377	657.44
476.596	673.44
476.814	695.44
477.033	668.44
477.252	724.44
477.471	713.44
477.69	716.44
477.908	719.44
478.127	776.44
478.346	764.44
478.564	755.44
478.783	784.44
479.002	788.44
479.22	817.44
479.439	800.44
479.658	770.44
479.876	824.44
480.095	808.44
480.313	876.44
480.532	854.44
480.751	870.44
480.969	819.44
481.188	781.44
481.406	787.44
481.624	754.44
481.843	773.44
482.061	741.44
482.28	756.44
482.498	716.44
482.717	724.44
482.935	738.44
483.153	754.44
483.372	746.44
483.59	741.44
483.808	760.44
484.027	739.44
484.245	744.44
484.463	740.44
484.681	775.44
484.9	730.44
485.118	770.44
485.336	781.44
485.554	778.44
485.772	779.44
485.99	807.44
486.209	823.44
486.427	797.44
486.645	788.44
486.863	777.44
487.081	811.44
487.299	782.44
487.517	779.44
487.735	778.44
487.953	793.44
488.171	785.44
488.389	805.44
488.607	761.44
488.825	769.44
489.043	767.44
489.261	755.44
489.479	766.44
489.696	754.44
489.914	764.44
490.132	788.44
490.35	788.44
490.568	774.44
490.786	812.44
491.003	771.44
491.221	767.44
491.439	786.44
491.657	776.44
491.874	782.44
492.092	790.44
492.31	781.44
492.527	780.44
492.745	797.44
492.963	802.44
493.18	820.44
493.398	797.44
493.615	790.44
493.833	836.44
494.05	830.44
494.268	825.44
494.485	828.44
494.703	804.44
494.92	816.44
495.138	809.44
495.355	831.44
495.573	804.44
495.79	803.44
496.008	839.44
496.225	801.44
496.442	832.44
496.66	846.44
496.877	817.44
497.094	848.44
497.312	894.44
497.529	899.44
497.746	922.44
497.963	906.44
498.181	1013.44
498.398	998.44
498.615	1022.44
498.832	1123.44
499.049	1237.44
499.267	1329.44
499.484	1438.44
499.701	1589.44
499.918	1770.44
500.135	2061.44
500.352	2368.44
500.569	2439.44
500.786	2433.44
501.003	2219.44
501.22	2004.44
