Data from Ni(NO3)2Standard.Agarose3%.GreenCap.LampEnergy5.5.E.O_HRD10591_14-39-05-188.txt Node
Date: Mon Jul 22 14:39:05 EDT 2019
User: cochatt
Spectrometer: HR+D1059
Trigger mode: 1
Integration Time (sec): 1.000000E-1
Scans to average: 1
Electric dark correction enabled: true
Nonlinearity correction enabled: false
Boxcar width: 0
XAxis mode: Wavelengths
Number of Pixels in Spectrum: 2048
>>>>>Begin Spectral Data<<<<<
223.165	-13.06
223.4	-13.06
223.635	-13.06
223.869	-14.06
224.104	-20.06
224.338	-7.06
224.573	-14.06
224.808	-10.06
225.042	-8.06
225.277	-10.06
225.511	-9.06
225.746	2.94
225.98	9.94
226.215	3.94
226.449	15.94
226.683	17.94
226.918	15.94
227.152	38.94
227.387	35.94
227.621	37.94
227.856	38.94
228.09	30.94
228.324	52.94
228.559	55.94
228.793	54.94
229.027	54.94
229.262	61.94
229.496	71.94
229.73	62.94
229.964	70.94
230.199	69.94
230.433	65.94
230.667	81.94
230.901	75.94
231.136	69.94
231.37	80.94
231.604	87.94
231.838	86.94
232.072	87.94
232.306	76.94
232.541	83.94
232.775	77.94
233.009	100.94
233.243	74.94
233.477	86.94
233.711	67.94
233.945	84.94
234.179	89.94
234.413	93.94
234.647	87.94
234.881	75.94
235.115	77.94
235.349	82.94
235.583	71.94
235.817	72.94
236.051	76.94
236.285	92.94
236.519	85.94
236.753	82.94
236.987	81.94
237.221	73.94
237.455	76.94
237.689	77.94
237.922	81.94
238.156	74.94
238.39	83.94
238.624	70.94
238.858	77.94
239.091	85.94
239.325	78.94
239.559	85.94
239.793	85.94
240.027	70.94
240.26	81.94
240.494	87.94
240.728	71.94
240.961	70.94
241.195	84.94
241.429	94.94
241.662	76.94
241.896	87.94
242.13	84.94
242.363	74.94
242.597	72.94
242.83	71.94
243.064	65.94
243.298	74.94
243.531	71.94
243.765	78.94
243.998	83.94
244.232	89.94
244.465	86.94
244.699	90.94
244.932	82.94
245.166	73.94
245.399	77.94
245.633	74.94
245.866	76.94
246.099	70.94
246.333	72.94
246.566	71.94
246.8	81.94
247.033	89.94
247.266	83.94
247.5	67.94
247.733	72.94
247.966	70.94
248.2	84.94
248.433	83.94
248.666	87.94
248.899	90.94
249.133	95.94
249.366	89.94
249.599	98.94
249.832	86.94
250.066	85.94
250.299	86.94
250.532	78.94
250.765	75.94
250.998	89.94
251.231	76.94
251.465	73.94
251.698	86.94
251.931	85.94
252.164	82.94
252.397	82.94
252.63	80.94
252.863	87.94
253.096	77.94
253.329	77.94
253.562	70.94
253.795	71.94
254.028	93.94
254.261	78.94
254.494	76.94
254.727	91.94
254.96	91.94
255.193	84.94
255.426	99.94
255.659	92.94
255.892	78.94
256.124	77.94
256.357	85.94
256.59	71.94
256.823	86.94
257.056	91.94
257.289	83.94
257.521	78.94
257.754	71.94
257.987	80.94
258.22	84.94
258.452	90.94
258.685	71.94
258.918	90.94
259.151	75.94
259.383	82.94
259.616	81.94
259.849	75.94
260.081	84.94
260.314	66.94
260.547	78.94
260.779	81.94
261.012	93.94
261.244	76.94
261.477	80.94
261.71	88.94
261.942	85.94
262.175	88.94
262.407	75.94
262.64	84.94
262.872	91.94
263.105	82.94
263.337	77.94
263.57	79.94
263.802	85.94
264.035	78.94
264.267	76.94
264.499	89.94
264.732	95.94
264.964	95.94
265.197	101.94
265.429	70.94
265.661	83.94
265.894	70.94
266.126	75.94
266.358	87.94
266.591	82.94
266.823	78.94
267.055	90.94
267.287	109.94
267.52	80.94
267.752	85.94
267.984	86.94
268.216	66.94
268.448	62.94
268.681	73.94
268.913	83.94
269.145	91.94
269.377	76.94
269.609	90.94
269.841	78.94
270.073	83.94
270.306	68.94
270.538	75.94
270.77	81.94
271.002	90.94
271.234	75.94
271.466	77.94
271.698	83.94
271.93	79.94
272.162	74.94
272.394	86.94
272.626	74.94
272.858	74.94
273.09	75.94
273.322	91.94
273.553	89.94
273.785	89.94
274.017	73.94
274.249	80.94
274.481	85.94
274.713	82.94
274.945	90.94
275.176	89.94
275.408	82.94
275.64	114.94
275.872	101.94
276.104	84.94
276.335	83.94
276.567	82.94
276.799	79.94
277.031	81.94
277.262	87.94
277.494	78.94
277.726	86.94
277.957	79.94
278.189	89.94
278.421	72.94
278.652	68.94
278.884	79.94
279.115	83.94
279.347	80.94
279.579	92.94
279.81	81.94
280.042	88.94
280.273	68.94
280.505	73.94
280.736	94.94
280.968	78.94
281.199	77.94
281.431	78.94
281.662	88.94
281.894	80.94
282.125	88.94
282.356	63.94
282.588	89.94
282.819	87.94
283.051	85.94
283.282	84.94
283.513	89.94
283.745	93.94
283.976	85.94
284.207	73.94
284.439	79.94
284.67	89.94
284.901	97.94
285.132	77.94
285.364	98.94
285.595	97.94
285.826	85.94
286.057	93.94
286.288	74.94
286.52	85.94
286.751	89.94
286.982	75.94
287.213	78.94
287.444	84.94
287.675	88.94
287.906	94.94
288.138	98.94
288.369	82.94
288.6	70.94
288.831	95.94
289.062	94.94
289.293	76.94
289.524	83.94
289.755	76.94
289.986	82.94
290.217	98.94
290.448	87.94
290.679	70.94
290.91	87.94
291.141	85.94
291.371	92.94
291.602	74.94
291.833	86.94
292.064	73.94
292.295	82.94
292.526	77.94
292.757	74.94
292.987	86.94
293.218	81.94
293.449	93.94
293.68	89.94
293.91	79.94
294.141	89.94
294.372	90.94
294.603	87.94
294.833	85.94
295.064	84.94
295.295	96.94
295.525	80.94
295.756	79.94
295.987	69.94
296.217	91.94
296.448	74.94
296.679	78.94
296.909	83.94
297.14	81.94
297.37	81.94
297.601	74.94
297.831	83.94
298.062	104.94
298.292	93.94
298.523	82.94
298.753	88.94
298.984	84.94
299.214	77.94
299.445	96.94
299.675	90.94
299.905	78.94
300.136	89.94
300.366	74.94
300.597	67.94
300.827	76.94
301.057	77.94
301.288	74.94
301.518	85.94
301.748	93.94
301.979	93.94
302.209	107.94
302.439	75.94
302.669	85.94
302.9	75.94
303.13	80.94
303.36	77.94
303.59	78.94
303.82	96.94
304.051	83.94
304.281	71.94
304.511	84.94
304.741	87.94
304.971	100.94
305.201	88.94
305.431	97.94
305.661	92.94
305.891	91.94
306.121	61.94
306.352	82.94
306.582	91.94
306.812	78.94
307.042	84.94
307.272	89.94
307.502	93.94
307.731	85.94
307.961	94.94
308.191	79.94
308.421	80.94
308.651	86.94
308.881	83.94
309.111	77.94
309.341	83.94
309.571	73.94
309.8	104.94
310.03	91.94
310.26	89.94
310.49	87.94
310.72	88.94
310.949	95.94
311.179	100.94
311.409	88.94
311.639	92.94
311.868	78.94
312.098	90.94
312.328	97.94
312.557	84.94
312.787	83.94
313.017	89.94
313.246	79.94
313.476	87.94
313.706	87.94
313.935	94.94
314.165	94.94
314.394	89.94
314.624	88.94
314.853	84.94
315.083	70.94
315.312	97.94
315.542	83.94
315.771	94.94
316.001	95.94
316.23	87.94
316.46	80.94
316.689	94.94
316.919	86.94
317.148	85.94
317.377	79.94
317.607	84.94
317.836	77.94
318.065	81.94
318.295	84.94
318.524	93.94
318.753	81.94
318.983	90.94
319.212	70.94
319.441	90.94
319.67	85.94
319.9	84.94
320.129	84.94
320.358	72.94
320.587	75.94
320.816	99.94
321.046	79.94
321.275	96.94
321.504	76.94
321.733	84.94
321.962	95.94
322.191	97.94
322.42	91.94
322.649	79.94
322.878	90.94
323.108	98.94
323.337	94.94
323.566	83.94
323.795	91.94
324.024	81.94
324.253	82.94
324.482	89.94
324.71	100.94
324.939	86.94
325.168	90.94
325.397	66.94
325.626	86.94
325.855	97.94
326.084	98.94
326.313	89.94
326.542	81.94
326.77	87.94
326.999	88.94
327.228	94.94
327.457	80.94
327.686	84.94
327.914	87.94
328.143	89.94
328.372	83.94
328.6	86.94
328.829	83.94
329.058	78.94
329.287	98.94
329.515	73.94
329.744	82.94
329.972	88.94
330.201	84.94
330.43	89.94
330.658	97.94
330.887	95.94
331.115	87.94
331.344	82.94
331.572	87.94
331.801	83.94
332.03	86.94
332.258	94.94
332.486	93.94
332.715	92.94
332.943	86.94
333.172	80.94
333.4	85.94
333.629	100.94
333.857	86.94
334.085	95.94
334.314	73.94
334.542	79.94
334.771	85.94
334.999	89.94
335.227	77.94
335.455	85.94
335.684	94.94
335.912	87.94
336.14	90.94
336.369	85.94
336.597	97.94
336.825	87.94
337.053	82.94
337.281	76.94
337.51	91.94
337.738	93.94
337.966	80.94
338.194	82.94
338.422	78.94
338.65	91.94
338.878	94.94
339.106	79.94
339.334	102.94
339.562	78.94
339.79	77.94
340.018	86.94
340.246	90.94
340.474	91.94
340.702	86.94
340.93	93.94
341.158	75.94
341.386	93.94
341.614	75.94
341.842	84.94
342.07	96.94
342.298	69.94
342.526	96.94
342.754	86.94
342.981	81.94
343.209	86.94
343.437	78.94
343.665	84.94
343.893	75.94
344.12	87.94
344.348	85.94
344.576	100.94
344.804	82.94
345.031	90.94
345.259	84.94
345.487	86.94
345.714	81.94
345.942	92.94
346.17	90.94
346.397	91.94
346.625	81.94
346.853	91.94
347.08	71.94
347.308	86.94
347.535	77.94
347.763	81.94
347.99	71.94
348.218	91.94
348.445	90.94
348.673	88.94
348.9	85.94
349.128	97.94
349.355	81.94
349.583	83.94
349.81	94.94
350.037	78.94
350.265	88.94
350.492	98.94
350.72	93.94
350.947	79.94
351.174	82.94
351.402	75.94
351.629	87.94
351.856	77.94
352.083	79.94
352.311	99.94
352.538	76.94
352.765	88.94
352.992	99.94
353.22	93.94
353.447	71.94
353.674	79.94
353.901	96.94
354.128	72.94
354.355	83.94
354.583	106.94
354.81	71.94
355.037	90.94
355.264	91.94
355.491	89.94
355.718	73.94
355.945	84.94
356.172	85.94
356.399	100.94
356.626	75.94
356.853	84.94
357.08	74.94
357.307	79.94
357.534	92.94
357.761	76.94
357.988	83.94
358.215	88.94
358.441	76.94
358.668	85.94
358.895	76.94
359.122	101.94
359.349	100.94
359.576	85.94
359.802	79.94
360.029	87.94
360.256	84.94
360.483	86.94
360.709	76.94
360.936	85.94
361.163	89.94
361.39	86.94
361.616	89.94
361.843	79.94
362.07	85.94
362.296	85.94
362.523	79.94
362.749	92.94
362.976	90.94
363.203	94.94
363.429	87.94
363.656	79.94
363.882	75.94
364.109	77.94
364.335	91.94
364.562	91.94
364.788	89.94
365.015	91.94
365.241	94.94
365.468	105.94
365.694	89.94
365.92	96.94
366.147	84.94
366.373	91.94
366.599	93.94
366.826	71.94
367.052	96.94
367.278	67.94
367.505	100.94
367.731	79.94
367.957	80.94
368.184	88.94
368.41	88.94
368.636	93.94
368.862	80.94
369.089	83.94
369.315	96.94
369.541	92.94
369.767	87.94
369.993	95.94
370.219	74.94
370.445	66.94
370.672	78.94
370.898	76.94
371.124	89.94
371.35	93.94
371.576	65.94
371.802	84.94
372.028	88.94
372.254	88.94
372.48	83.94
372.706	86.94
372.932	76.94
373.158	82.94
373.384	85.94
373.61	85.94
373.835	79.94
374.061	86.94
374.287	84.94
374.513	79.94
374.739	79.94
374.965	95.94
375.191	90.94
375.416	96.94
375.642	79.94
375.868	78.94
376.094	93.94
376.319	77.94
376.545	83.94
376.771	96.94
376.997	80.94
377.222	85.94
377.448	78.94
377.674	79.94
377.899	94.94
378.125	81.94
378.35	101.94
378.576	88.94
378.802	86.94
379.027	88.94
379.253	85.94
379.478	80.94
379.704	86.94
379.929	88.94
380.155	86.94
380.38	98.94
380.606	97.94
380.831	85.94
381.057	90.94
381.282	88.94
381.507	80.94
381.733	90.94
381.958	93.94
382.184	78.94
382.409	91.94
382.634	90.94
382.86	86.94
383.085	87.94
383.31	76.94
383.535	84.94
383.761	79.94
383.986	84.94
384.211	95.94
384.436	87.94
384.662	98.94
384.887	85.94
385.112	81.94
385.337	85.94
385.562	86.94
385.787	90.94
386.013	90.94
386.238	80.94
386.463	69.94
386.688	89.94
386.913	75.94
387.138	70.94
387.363	74.94
387.588	82.94
387.813	89.94
388.038	92.94
388.263	93.94
388.488	77.94
388.713	87.94
388.938	84.94
389.163	72.94
389.387	90.94
389.612	75.94
389.837	78.94
390.062	85.94
390.287	83.94
390.512	81.94
390.736	68.94
390.961	93.94
391.186	84.94
391.411	71.94
391.636	85.94
391.86	72.94
392.085	75.94
392.31	90.94
392.534	87.94
392.759	83.94
392.984	88.94
393.208	76.94
393.433	90.94
393.658	79.94
393.882	64.94
394.107	76.94
394.331	80.94
394.556	91.94
394.78	95.94
395.005	100.94
395.229	85.94
395.454	84.94
395.678	96.94
395.903	78.94
396.127	85.94
396.352	86.94
396.576	81.94
396.801	82.94
397.025	88.94
397.249	83.94
397.474	85.94
397.698	91.94
397.922	72.94
398.147	79.94
398.371	91.94
398.595	85.94
398.82	75.94
399.044	76.94
399.268	81.94
399.492	83.94
399.717	86.94
399.941	85.94
400.165	81.94
400.389	105.94
400.613	84.94
400.837	74.94
401.062	92.94
401.286	93.94
401.51	93.94
401.734	74.94
401.958	76.94
402.182	78.94
402.406	77.94
402.63	83.94
402.854	100.94
403.078	83.94
403.302	81.94
403.526	79.94
403.75	67.94
403.974	87.94
404.198	91.94
404.422	83.94
404.645	80.94
404.869	74.94
405.093	77.94
405.317	78.94
405.541	92.94
405.765	85.94
405.988	94.94
406.212	72.94
406.436	85.94
406.66	96.94
406.883	98.94
407.107	96.94
407.331	90.94
407.555	93.94
407.778	91.94
408.002	87.94
408.226	89.94
408.449	94.94
408.673	85.94
408.896	75.94
409.12	85.94
409.344	89.94
409.567	80.94
409.791	97.94
410.014	94.94
410.238	75.94
410.461	83.94
410.685	78.94
410.908	88.94
411.132	80.94
411.355	79.94
411.578	88.94
411.802	93.94
412.025	80.94
412.249	83.94
412.472	88.94
412.695	83.94
412.919	79.94
413.142	86.94
413.365	87.94
413.589	93.94
413.812	73.94
414.035	77.94
414.258	83.94
414.482	83.94
414.705	79.94
414.928	93.94
415.151	72.94
415.374	104.94
415.597	78.94
415.821	85.94
416.044	98.94
416.267	89.94
416.49	87.94
416.713	83.94
416.936	75.94
417.159	87.94
417.382	81.94
417.605	86.94
417.828	90.94
418.051	86.94
418.274	86.94
418.497	92.94
418.72	88.94
418.943	85.94
419.166	86.94
419.389	75.94
419.611	79.94
419.834	79.94
420.057	86.94
420.28	68.94
420.503	74.94
420.726	83.94
420.948	90.94
421.171	87.94
421.394	91.94
421.617	100.94
421.839	86.94
422.062	79.94
422.285	86.94
422.507	85.94
422.73	78.94
422.953	81.94
423.175	85.94
423.398	76.94
423.621	57.94
423.843	86.94
424.066	86.94
424.288	91.94
424.511	90.94
424.733	76.94
424.956	90.94
425.178	85.94
425.401	76.94
425.623	81.94
425.846	82.94
426.068	76.94
426.291	85.94
426.513	78.94
426.735	85.94
426.958	70.94
427.18	90.94
427.402	80.94
427.625	79.94
427.847	93.94
428.069	88.94
428.292	83.94
428.514	93.94
428.736	95.94
428.958	87.94
429.181	83.94
429.403	86.94
429.625	88.94
429.847	70.94
430.069	85.94
430.292	72.94
430.514	84.94
430.736	87.94
430.958	94.94
431.18	89.94
431.402	79.94
431.624	86.94
431.846	79.94
432.068	86.94
432.29	90.94
432.512	108.94
432.734	83.94
432.956	96.94
433.178	91.94
433.4	80.94
433.622	76.94
433.844	78.94
434.066	98.94
434.287	81.94
434.509	81.94
434.731	101.94
434.953	88.94
435.175	76.94
435.397	86.94
435.618	91.94
435.84	92.94
436.062	92.94
436.284	91.94
436.505	91.94
436.727	78.94
436.949	82.94
437.17	100.94
437.392	92.94
437.614	84.94
437.835	69.94
438.057	106.94
438.278	82.94
438.5	82.94
438.721	74.94
438.943	75.94
439.165	108.94
439.386	83.94
439.608	94.94
439.829	85.94
440.05	88.94
440.272	94.94
440.493	98.94
440.715	72.94
440.936	85.94
441.158	91.94
441.379	77.94
441.6	82.94
441.822	77.94
442.043	81.94
442.264	96.94
442.486	78.94
442.707	79.94
442.928	94.94
443.149	80.94
443.371	92.94
443.592	83.94
443.813	83.94
444.034	83.94
444.255	77.94
444.476	85.94
444.698	75.94
444.919	91.94
445.14	220.94
445.361	151.94
445.582	91.94
445.803	89.94
446.024	92.94
446.245	79.94
446.466	79.94
446.687	99.94
446.908	85.94
447.129	86.94
447.35	94.94
447.571	89.94
447.792	89.94
448.013	95.94
448.234	84.94
448.455	77.94
448.675	87.94
448.896	85.94
449.117	82.94
449.338	80.94
449.559	105.94
449.779	101.94
450	85.94
450.221	76.94
450.442	73.94
450.662	90.94
450.883	94.94
451.104	87.94
451.324	81.94
451.545	102.94
451.766	90.94
451.986	92.94
452.207	86.94
452.428	74.94
452.648	100.94
452.869	81.94
453.089	72.94
453.31	89.94
453.53	94.94
453.751	81.94
453.971	85.94
454.192	103.94
454.412	86.94
454.633	97.94
454.853	87.94
455.073	79.94
455.294	84.94
455.514	98.94
455.734	73.94
455.955	80.94
456.175	82.94
456.395	82.94
456.616	82.94
456.836	80.94
457.056	78.94
457.276	71.94
457.497	84.94
457.717	74.94
457.937	76.94
458.157	86.94
458.377	95.94
458.598	97.94
458.818	73.94
459.038	80.94
459.258	76.94
459.478	78.94
459.698	89.94
459.918	95.94
460.138	86.94
460.358	92.94
460.578	84.94
460.798	83.94
461.018	90.94
461.238	79.94
461.458	89.94
461.678	85.94
461.898	85.94
462.118	78.94
462.338	97.94
462.558	89.94
462.777	92.94
462.997	85.94
463.217	79.94
463.437	83.94
463.657	88.94
463.876	78.94
464.096	83.94
464.316	83.94
464.536	87.94
464.755	78.94
464.975	102.94
465.195	97.94
465.414	95.94
465.634	89.94
465.854	99.94
466.073	94.94
466.293	88.94
466.512	79.94
466.732	88.94
466.951	72.94
467.171	87.94
467.391	89.94
467.61	84.94
467.829	84.94
468.049	86.94
468.268	84.94
468.488	84.94
468.707	72.94
468.927	87.94
469.146	93.94
469.365	92.94
469.585	96.94
469.804	98.94
470.023	93.94
470.243	89.94
470.462	80.94
470.681	75.94
470.901	90.94
471.12	78.94
471.339	89.94
471.558	91.94
471.777	79.94
471.997	83.94
472.216	83.94
472.435	80.94
472.654	87.94
472.873	88.94
473.092	83.94
473.311	94.94
473.53	82.94
473.749	87.94
473.968	99.94
474.187	93.94
474.406	85.94
474.625	92.94
474.844	89.94
475.063	84.94
475.282	90.94
475.501	76.94
475.72	97.94
475.939	93.94
476.158	85.94
476.377	85.94
476.596	92.94
476.814	87.94
477.033	92.94
477.252	90.94
477.471	99.94
477.69	85.94
477.908	90.94
478.127	87.94
478.346	94.94
478.564	78.94
478.783	84.94
479.002	89.94
479.22	87.94
479.439	85.94
479.658	87.94
479.876	82.94
480.095	80.94
480.313	98.94
480.532	93.94
480.751	90.94
480.969	77.94
481.188	91.94
481.406	94.94
481.624	100.94
481.843	106.94
482.061	89.94
482.28	86.94
482.498	92.94
482.717	82.94
482.935	88.94
483.153	89.94
483.372	97.94
483.59	91.94
483.808	84.94
484.027	87.94
484.245	101.94
484.463	105.94
484.681	92.94
484.9	92.94
485.118	101.94
485.336	103.94
485.554	87.94
485.772	100.94
485.99	93.94
486.209	83.94
486.427	89.94
486.645	83.94
486.863	93.94
487.081	108.94
487.299	78.94
487.517	85.94
487.735	92.94
487.953	99.94
488.171	103.94
488.389	103.94
488.607	96.94
488.825	93.94
489.043	92.94
489.261	114.94
489.479	94.94
489.696	97.94
489.914	85.94
490.132	92.94
490.35	92.94
490.568	104.94
490.786	108.94
491.003	105.94
491.221	102.94
491.439	98.94
491.657	109.94
491.874	112.94
492.092	105.94
492.31	105.94
492.527	106.94
492.745	94.94
492.963	102.94
493.18	91.94
493.398	102.94
493.615	115.94
493.833	95.94
494.05	82.94
494.268	97.94
494.485	93.94
494.703	93.94
494.92	107.94
495.138	113.94
495.355	97.94
495.573	93.94
495.79	101.94
496.008	98.94
496.225	91.94
496.442	92.94
496.66	89.94
496.877	88.94
497.094	80.94
497.312	89.94
497.529	84.94
497.746	93.94
497.963	91.94
498.181	93.94
498.398	98.94
498.615	100.94
498.832	105.94
499.049	93.94
499.267	89.94
499.484	95.94
499.701	94.94
499.918	98.94
500.135	105.94
500.352	99.94
500.569	107.94
500.786	106.94
501.003	107.94
501.22	107.94
501.437	96.94
501.654	102.94
501.871	97.94
502.088	91.94
502.305	85.94
502.522	101.94
502.739	95.94
502.956	116.94
503.172	89.94
503.389	91.94
503.606	98.94
503.823	97.94
504.04	100.94
504.256	98.94
504.473	100.94
504.69	86.94
504.907	109.94
505.123	101.94
505.34	78.94
505.557	84.94
505.773	97.94
505.99	93.94
506.207	82.94
506.423	78.94
506.64	92.94
506.856	98.94
507.073	95.94
507.289	97.94
507.506	97.94
507.722	100.94
507.939	84.94
508.155	91.94
508.372	75.94
508.588	83.94
508.805	86.94
509.021	89.94
509.238	91.94
509.454	102.94
509.67	91.94
509.887	93.94
510.103	94.94
510.319	83.94
510.536	116.94
510.752	92.94
510.968	84.94
511.184	73.94
511.401	75.94
511.617	91.94
511.833	80.94
512.049	88.94
512.265	96.94
512.481	88.94
512.698	98.94
512.914	81.94
513.13	69.94
513.346	91.94
513.562	104.94
513.778	89.94
513.994	88.94
514.21	93.94
514.426	85.94
514.642	90.94
514.858	95.94
515.074	75.94
515.29	82.94
515.506	84.94
515.721	73.94
515.937	92.94
516.153	89.94
516.369	94.94
516.585	91.94
516.801	99.94
517.016	104.94
517.232	99.94
517.448	80.94
517.664	94.94
517.879	91.94
518.095	97.94
518.311	90.94
