Data from Ni(NO3)2Standard.Agarose3%.GreenCap.LampEnergy5.5.E.O_HRD10591_14-41-00-188.txt Node
Date: Mon Jul 22 14:41:00 EDT 2019
User: cochatt
Spectrometer: HR+D1059
Trigger mode: 1
Integration Time (sec): 1.000000E-1
Scans to average: 1
Electric dark correction enabled: true
Nonlinearity correction enabled: false
Boxcar width: 0
XAxis mode: Wavelengths
Number of Pixels in Spectrum: 2048
>>>>>Begin Spectral Data<<<<<
223.165	-13.62
223.4	-13.62
223.635	-13.62
223.869	-13.62
224.104	-13.62
224.338	-9.62
224.573	-12.62
224.808	-18.62
225.042	0.38
225.277	2.38
225.511	-14.62
225.746	6.38
225.98	6.38
226.215	14.38
226.449	24.38
226.683	4.38
226.918	11.38
227.152	26.38
227.387	37.38
227.621	36.38
227.856	58.38
228.09	46.38
228.324	56.38
228.559	64.38
228.793	56.38
229.027	57.38
229.262	58.38
229.496	72.38
229.73	72.38
229.964	53.38
230.199	65.38
230.433	69.38
230.667	66.38
230.901	77.38
231.136	76.38
231.37	84.38
231.604	80.38
231.838	82.38
232.072	77.38
232.306	84.38
232.541	80.38
232.775	83.38
233.009	89.38
233.243	86.38
233.477	76.38
233.711	79.38
233.945	71.38
234.179	80.38
234.413	75.38
234.647	82.38
234.881	84.38
235.115	81.38
235.349	80.38
235.583	87.38
235.817	83.38
236.051	83.38
236.285	84.38
236.519	73.38
236.753	82.38
236.987	72.38
237.221	79.38
237.455	67.38
237.689	62.38
237.922	82.38
238.156	67.38
238.39	81.38
238.624	76.38
238.858	78.38
239.091	80.38
239.325	89.38
239.559	76.38
239.793	86.38
240.027	91.38
240.26	87.38
240.494	87.38
240.728	71.38
240.961	59.38
241.195	69.38
241.429	84.38
241.662	62.38
241.896	65.38
242.13	82.38
242.363	98.38
242.597	79.38
242.83	73.38
243.064	91.38
243.298	93.38
243.531	87.38
243.765	70.38
243.998	78.38
244.232	69.38
244.465	97.38
244.699	72.38
244.932	77.38
245.166	73.38
245.399	65.38
245.633	71.38
245.866	82.38
246.099	93.38
246.333	71.38
246.566	71.38
246.8	76.38
247.033	84.38
247.266	76.38
247.5	69.38
247.733	84.38
247.966	69.38
248.2	78.38
248.433	72.38
248.666	71.38
248.899	70.38
249.133	69.38
249.366	77.38
249.599	79.38
249.832	78.38
250.066	74.38
250.299	78.38
250.532	78.38
250.765	69.38
250.998	77.38
251.231	80.38
251.465	78.38
251.698	76.38
251.931	84.38
252.164	82.38
252.397	70.38
252.63	71.38
252.863	79.38
253.096	80.38
253.329	84.38
253.562	76.38
253.795	70.38
254.028	75.38
254.261	78.38
254.494	75.38
254.727	78.38
254.96	84.38
255.193	79.38
255.426	77.38
255.659	89.38
255.892	78.38
256.124	85.38
256.357	73.38
256.59	76.38
256.823	82.38
257.056	72.38
257.289	79.38
257.521	80.38
257.754	77.38
257.987	82.38
258.22	82.38
258.452	77.38
258.685	83.38
258.918	74.38
259.151	77.38
259.383	78.38
259.616	84.38
259.849	98.38
260.081	75.38
260.314	80.38
260.547	97.38
260.779	86.38
261.012	81.38
261.244	77.38
261.477	73.38
261.71	74.38
261.942	81.38
262.175	79.38
262.407	70.38
262.64	82.38
262.872	84.38
263.105	73.38
263.337	92.38
263.57	78.38
263.802	78.38
264.035	83.38
264.267	85.38
264.499	72.38
264.732	91.38
264.964	70.38
265.197	83.38
265.429	78.38
265.661	87.38
265.894	74.38
266.126	87.38
266.358	91.38
266.591	74.38
266.823	87.38
267.055	83.38
267.287	84.38
267.52	81.38
267.752	68.38
267.984	64.38
268.216	91.38
268.448	89.38
268.681	87.38
268.913	84.38
269.145	83.38
269.377	81.38
269.609	78.38
269.841	86.38
270.073	73.38
270.306	76.38
270.538	84.38
270.77	88.38
271.002	72.38
271.234	84.38
271.466	80.38
271.698	75.38
271.93	70.38
272.162	81.38
272.394	85.38
272.626	85.38
272.858	71.38
273.09	82.38
273.322	91.38
273.553	85.38
273.785	82.38
274.017	85.38
274.249	96.38
274.481	89.38
274.713	96.38
274.945	88.38
275.176	73.38
275.408	64.38
275.64	86.38
275.872	74.38
276.104	74.38
276.335	78.38
276.567	97.38
276.799	90.38
277.031	82.38
277.262	91.38
277.494	84.38
277.726	100.38
277.957	93.38
278.189	87.38
278.421	93.38
278.652	92.38
278.884	69.38
279.115	83.38
279.347	80.38
279.579	79.38
279.81	85.38
280.042	69.38
280.273	90.38
280.505	84.38
280.736	84.38
280.968	78.38
281.199	96.38
281.431	79.38
281.662	78.38
281.894	81.38
282.125	73.38
282.356	87.38
282.588	84.38
282.819	88.38
283.051	93.38
283.282	87.38
283.513	93.38
283.745	81.38
283.976	86.38
284.207	93.38
284.439	76.38
284.67	86.38
284.901	84.38
285.132	84.38
285.364	82.38
285.595	102.38
285.826	89.38
286.057	87.38
286.288	75.38
286.52	99.38
286.751	87.38
286.982	86.38
287.213	78.38
287.444	87.38
287.675	80.38
287.906	96.38
288.138	88.38
288.369	81.38
288.6	82.38
288.831	82.38
289.062	87.38
289.293	86.38
289.524	97.38
289.755	80.38
289.986	86.38
290.217	72.38
290.448	91.38
290.679	88.38
290.91	86.38
291.141	85.38
291.371	82.38
291.602	71.38
291.833	91.38
292.064	77.38
292.295	74.38
292.526	95.38
292.757	94.38
292.987	74.38
293.218	94.38
293.449	92.38
293.68	82.38
293.91	83.38
294.141	96.38
294.372	78.38
294.603	73.38
294.833	77.38
295.064	104.38
295.295	95.38
295.525	104.38
295.756	80.38
295.987	90.38
296.217	91.38
296.448	87.38
296.679	86.38
296.909	97.38
297.14	78.38
297.37	103.38
297.601	92.38
297.831	80.38
298.062	77.38
298.292	85.38
298.523	82.38
298.753	93.38
298.984	97.38
299.214	75.38
299.445	79.38
299.675	94.38
299.905	88.38
300.136	81.38
300.366	85.38
300.597	93.38
300.827	82.38
301.057	81.38
301.288	100.38
301.518	76.38
301.748	98.38
301.979	99.38
302.209	87.38
302.439	73.38
302.669	86.38
302.9	95.38
303.13	86.38
303.36	90.38
303.59	90.38
303.82	98.38
304.051	101.38
304.281	89.38
304.511	88.38
304.741	88.38
304.971	98.38
305.201	84.38
305.431	82.38
305.661	77.38
305.891	79.38
306.121	72.38
306.352	107.38
306.582	81.38
306.812	90.38
307.042	69.38
307.272	98.38
307.502	80.38
307.731	69.38
307.961	78.38
308.191	74.38
308.421	95.38
308.651	78.38
308.881	96.38
309.111	97.38
309.341	81.38
309.571	93.38
309.8	81.38
310.03	82.38
310.26	80.38
310.49	86.38
310.72	87.38
310.949	83.38
311.179	96.38
311.409	90.38
311.639	85.38
311.868	88.38
312.098	87.38
312.328	86.38
312.557	96.38
312.787	89.38
313.017	82.38
313.246	85.38
313.476	85.38
313.706	91.38
313.935	88.38
314.165	86.38
314.394	78.38
314.624	101.38
314.853	87.38
315.083	83.38
315.312	78.38
315.542	78.38
315.771	84.38
316.001	106.38
316.23	81.38
316.46	79.38
316.689	77.38
316.919	77.38
317.148	87.38
317.377	90.38
317.607	93.38
317.836	92.38
318.065	92.38
318.295	81.38
318.524	84.38
318.753	86.38
318.983	83.38
319.212	81.38
319.441	84.38
319.67	89.38
319.9	92.38
320.129	78.38
320.358	83.38
320.587	81.38
320.816	77.38
321.046	82.38
321.275	101.38
321.504	98.38
321.733	93.38
321.962	87.38
322.191	88.38
322.42	92.38
322.649	90.38
322.878	85.38
323.108	75.38
323.337	96.38
323.566	78.38
323.795	85.38
324.024	83.38
324.253	78.38
324.482	78.38
324.71	90.38
324.939	79.38
325.168	86.38
325.397	92.38
325.626	75.38
325.855	85.38
326.084	89.38
326.313	93.38
326.542	83.38
326.77	67.38
326.999	82.38
327.228	95.38
327.457	91.38
327.686	89.38
327.914	95.38
328.143	77.38
328.372	91.38
328.6	79.38
328.829	87.38
329.058	75.38
329.287	94.38
329.515	104.38
329.744	105.38
329.972	78.38
330.201	82.38
330.43	87.38
330.658	75.38
330.887	89.38
331.115	92.38
331.344	97.38
331.572	95.38
331.801	85.38
332.03	86.38
332.258	74.38
332.486	89.38
332.715	72.38
332.943	72.38
333.172	84.38
333.4	92.38
333.629	64.38
333.857	88.38
334.085	73.38
334.314	79.38
334.542	83.38
334.771	85.38
334.999	74.38
335.227	84.38
335.455	87.38
335.684	93.38
335.912	90.38
336.14	81.38
336.369	82.38
336.597	101.38
336.825	90.38
337.053	77.38
337.281	89.38
337.51	78.38
337.738	101.38
337.966	85.38
338.194	91.38
338.422	91.38
338.65	73.38
338.878	89.38
339.106	84.38
339.334	89.38
339.562	83.38
339.79	104.38
340.018	78.38
340.246	92.38
340.474	89.38
340.702	95.38
340.93	84.38
341.158	91.38
341.386	101.38
341.614	83.38
341.842	87.38
342.07	82.38
342.298	88.38
342.526	82.38
342.754	89.38
342.981	75.38
343.209	86.38
343.437	96.38
343.665	88.38
343.893	100.38
344.12	77.38
344.348	82.38
344.576	89.38
344.804	80.38
345.031	83.38
345.259	88.38
345.487	89.38
345.714	85.38
345.942	86.38
346.17	93.38
346.397	89.38
346.625	93.38
346.853	92.38
347.08	82.38
347.308	84.38
347.535	74.38
347.763	88.38
347.99	89.38
348.218	76.38
348.445	80.38
348.673	90.38
348.9	84.38
349.128	83.38
349.355	96.38
349.583	86.38
349.81	87.38
350.037	86.38
350.265	96.38
350.492	79.38
350.72	88.38
350.947	90.38
351.174	98.38
351.402	92.38
351.629	90.38
351.856	96.38
352.083	76.38
352.311	91.38
352.538	76.38
352.765	82.38
352.992	91.38
353.22	94.38
353.447	87.38
353.674	75.38
353.901	86.38
354.128	85.38
354.355	95.38
354.583	82.38
354.81	86.38
355.037	77.38
355.264	79.38
355.491	86.38
355.718	95.38
355.945	98.38
356.172	84.38
356.399	87.38
356.626	91.38
356.853	59.38
357.08	86.38
357.307	94.38
357.534	82.38
357.761	85.38
357.988	83.38
358.215	76.38
358.441	90.38
358.668	84.38
358.895	92.38
359.122	83.38
359.349	71.38
359.576	85.38
359.802	90.38
360.029	92.38
360.256	89.38
360.483	96.38
360.709	73.38
360.936	85.38
361.163	96.38
361.39	81.38
361.616	89.38
361.843	76.38
362.07	79.38
362.296	84.38
362.523	89.38
362.749	73.38
362.976	90.38
363.203	96.38
363.429	88.38
363.656	88.38
363.882	99.38
364.109	92.38
364.335	75.38
364.562	84.38
364.788	89.38
365.015	72.38
365.241	93.38
365.468	93.38
365.694	94.38
365.92	90.38
366.147	82.38
366.373	75.38
366.599	92.38
366.826	85.38
367.052	93.38
367.278	80.38
367.505	98.38
367.731	97.38
367.957	72.38
368.184	89.38
368.41	84.38
368.636	87.38
368.862	84.38
369.089	82.38
369.315	78.38
369.541	89.38
369.767	75.38
369.993	86.38
370.219	107.38
370.445	78.38
370.672	82.38
370.898	88.38
371.124	94.38
371.35	88.38
371.576	77.38
371.802	81.38
372.028	80.38
372.254	99.38
372.48	93.38
372.706	80.38
372.932	74.38
373.158	80.38
373.384	95.38
373.61	90.38
373.835	96.38
374.061	92.38
374.287	102.38
374.513	85.38
374.739	89.38
374.965	77.38
375.191	82.38
375.416	76.38
375.642	81.38
375.868	78.38
376.094	71.38
376.319	82.38
376.545	86.38
376.771	83.38
376.997	90.38
377.222	92.38
377.448	93.38
377.674	72.38
377.899	92.38
378.125	97.38
378.35	80.38
378.576	78.38
378.802	87.38
379.027	82.38
379.253	83.38
379.478	103.38
379.704	81.38
379.929	90.38
380.155	82.38
380.38	87.38
380.606	76.38
380.831	72.38
381.057	82.38
381.282	75.38
381.507	92.38
381.733	76.38
381.958	77.38
382.184	85.38
382.409	85.38
382.634	78.38
382.86	94.38
383.085	87.38
383.31	93.38
383.535	79.38
383.761	78.38
383.986	89.38
384.211	86.38
384.436	85.38
384.662	88.38
384.887	93.38
385.112	97.38
385.337	90.38
385.562	91.38
385.787	90.38
386.013	88.38
386.238	96.38
386.463	84.38
386.688	76.38
386.913	95.38
387.138	83.38
387.363	85.38
387.588	97.38
387.813	70.38
388.038	97.38
388.263	86.38
388.488	85.38
388.713	81.38
388.938	87.38
389.163	89.38
389.387	78.38
389.612	81.38
389.837	96.38
390.062	91.38
390.287	91.38
390.512	80.38
390.736	74.38
390.961	83.38
391.186	74.38
391.411	85.38
391.636	94.38
391.86	92.38
392.085	83.38
392.31	104.38
392.534	85.38
392.759	87.38
392.984	90.38
393.208	81.38
393.433	81.38
393.658	91.38
393.882	73.38
394.107	84.38
394.331	86.38
394.556	87.38
394.78	96.38
395.005	72.38
395.229	74.38
395.454	86.38
395.678	76.38
395.903	79.38
396.127	85.38
396.352	85.38
396.576	84.38
396.801	102.38
397.025	83.38
397.249	74.38
397.474	83.38
397.698	86.38
397.922	89.38
398.147	97.38
398.371	88.38
398.595	84.38
398.82	79.38
399.044	80.38
399.268	98.38
399.492	83.38
399.717	98.38
399.941	87.38
400.165	87.38
400.389	76.38
400.613	91.38
400.837	102.38
401.062	86.38
401.286	86.38
401.51	83.38
401.734	93.38
401.958	82.38
402.182	85.38
402.406	83.38
402.63	78.38
402.854	79.38
403.078	88.38
403.302	87.38
403.526	97.38
403.75	93.38
403.974	73.38
404.198	89.38
404.422	77.38
404.645	80.38
404.869	95.38
405.093	91.38
405.317	106.38
405.541	84.38
405.765	94.38
405.988	97.38
406.212	92.38
406.436	94.38
406.66	93.38
406.883	85.38
407.107	78.38
407.331	81.38
407.555	78.38
407.778	90.38
408.002	86.38
408.226	82.38
408.449	73.38
408.673	83.38
408.896	93.38
409.12	90.38
409.344	93.38
409.567	90.38
409.791	100.38
410.014	94.38
410.238	88.38
410.461	81.38
410.685	94.38
410.908	82.38
411.132	96.38
411.355	90.38
411.578	99.38
411.802	82.38
412.025	96.38
412.249	82.38
412.472	81.38
412.695	80.38
412.919	89.38
413.142	96.38
413.365	81.38
413.589	84.38
413.812	92.38
414.035	88.38
414.258	93.38
414.482	85.38
414.705	85.38
414.928	91.38
415.151	86.38
415.374	83.38
415.597	96.38
415.821	87.38
416.044	90.38
416.267	73.38
416.49	79.38
416.713	83.38
416.936	91.38
417.159	72.38
417.382	82.38
417.605	89.38
417.828	74.38
418.051	88.38
418.274	84.38
418.497	91.38
418.72	85.38
418.943	99.38
419.166	81.38
419.389	88.38
419.611	85.38
419.834	72.38
420.057	84.38
420.28	88.38
420.503	79.38
420.726	80.38
420.948	79.38
421.171	77.38
421.394	78.38
421.617	83.38
421.839	95.38
422.062	94.38
422.285	89.38
422.507	88.38
422.73	72.38
422.953	90.38
423.175	78.38
423.398	84.38
423.621	101.38
423.843	86.38
424.066	96.38
424.288	97.38
424.511	78.38
424.733	92.38
424.956	90.38
425.178	75.38
425.401	68.38
425.623	76.38
425.846	98.38
426.068	91.38
426.291	75.38
426.513	98.38
426.735	82.38
426.958	89.38
427.18	86.38
427.402	92.38
427.625	84.38
427.847	71.38
428.069	86.38
428.292	86.38
428.514	92.38
428.736	94.38
428.958	88.38
429.181	90.38
429.403	88.38
429.625	91.38
429.847	68.38
430.069	92.38
430.292	94.38
430.514	76.38
430.736	86.38
430.958	83.38
431.18	77.38
431.402	92.38
431.624	97.38
431.846	91.38
432.068	92.38
432.29	80.38
432.512	92.38
432.734	91.38
432.956	78.38
433.178	91.38
433.4	88.38
433.622	93.38
433.844	90.38
434.066	95.38
434.287	75.38
434.509	84.38
434.731	93.38
434.953	73.38
435.175	82.38
435.397	96.38
435.618	85.38
435.84	92.38
436.062	97.38
436.284	88.38
436.505	76.38
436.727	69.38
436.949	89.38
437.17	88.38
437.392	88.38
437.614	93.38
437.835	75.38
438.057	97.38
438.278	77.38
438.5	80.38
438.721	80.38
438.943	92.38
439.165	89.38
439.386	82.38
439.608	84.38
439.829	84.38
440.05	87.38
440.272	85.38
440.493	72.38
440.715	86.38
440.936	81.38
441.158	84.38
441.379	97.38
441.6	71.38
441.822	78.38
442.043	84.38
442.264	89.38
442.486	78.38
442.707	86.38
442.928	90.38
443.149	81.38
443.371	77.38
443.592	88.38
443.813	91.38
444.034	81.38
444.255	89.38
444.476	72.38
444.698	82.38
444.919	88.38
445.14	220.38
445.361	149.38
445.582	105.38
445.803	94.38
446.024	85.38
446.245	87.38
446.466	77.38
446.687	93.38
446.908	85.38
447.129	80.38
447.35	87.38
447.571	91.38
447.792	85.38
448.013	85.38
448.234	87.38
448.455	94.38
448.675	87.38
448.896	101.38
449.117	95.38
449.338	90.38
449.559	96.38
449.779	79.38
450	86.38
450.221	84.38
450.442	78.38
450.662	98.38
450.883	69.38
451.104	93.38
451.324	81.38
451.545	91.38
451.766	84.38
451.986	79.38
452.207	81.38
452.428	91.38
452.648	88.38
452.869	76.38
453.089	90.38
453.31	76.38
453.53	86.38
453.751	76.38
453.971	81.38
454.192	83.38
454.412	95.38
454.633	76.38
454.853	90.38
455.073	86.38
455.294	85.38
455.514	76.38
455.734	91.38
455.955	93.38
456.175	89.38
456.395	78.38
456.616	85.38
456.836	89.38
457.056	99.38
457.276	85.38
457.497	103.38
457.717	88.38
457.937	77.38
458.157	88.38
458.377	74.38
458.598	96.38
458.818	94.38
459.038	84.38
459.258	83.38
459.478	86.38
459.698	90.38
459.918	82.38
460.138	92.38
460.358	82.38
460.578	73.38
460.798	87.38
461.018	79.38
461.238	99.38
461.458	90.38
461.678	99.38
461.898	96.38
462.118	93.38
462.338	89.38
462.558	79.38
462.777	79.38
462.997	85.38
463.217	73.38
463.437	81.38
463.657	76.38
463.876	86.38
464.096	95.38
464.316	95.38
464.536	80.38
464.755	94.38
464.975	85.38
465.195	91.38
465.414	89.38
465.634	85.38
465.854	86.38
466.073	100.38
466.293	94.38
466.512	78.38
466.732	94.38
466.951	63.38
467.171	90.38
467.391	78.38
467.61	76.38
467.829	88.38
468.049	87.38
468.268	90.38
468.488	91.38
468.707	89.38
468.927	76.38
469.146	78.38
469.365	83.38
469.585	80.38
469.804	81.38
470.023	84.38
470.243	77.38
470.462	99.38
470.681	92.38
470.901	79.38
471.12	80.38
471.339	88.38
471.558	98.38
471.777	78.38
471.997	93.38
472.216	94.38
472.435	88.38
472.654	78.38
472.873	106.38
473.092	89.38
473.311	86.38
473.53	83.38
473.749	83.38
473.968	97.38
474.187	84.38
474.406	81.38
474.625	82.38
474.844	86.38
475.063	84.38
475.282	84.38
475.501	90.38
475.72	85.38
475.939	91.38
476.158	88.38
476.377	78.38
476.596	85.38
476.814	86.38
477.033	100.38
477.252	89.38
477.471	80.38
477.69	82.38
477.908	91.38
478.127	91.38
478.346	77.38
478.564	99.38
478.783	105.38
479.002	90.38
479.22	91.38
479.439	93.38
479.658	94.38
479.876	90.38
480.095	72.38
480.313	83.38
480.532	99.38
480.751	88.38
480.969	82.38
481.188	89.38
481.406	107.38
481.624	83.38
481.843	96.38
482.061	83.38
482.28	87.38
482.498	72.38
482.717	86.38
482.935	79.38
483.153	74.38
483.372	103.38
483.59	89.38
483.808	86.38
484.027	85.38
484.245	90.38
484.463	84.38
484.681	98.38
484.9	86.38
485.118	89.38
485.336	78.38
485.554	102.38
485.772	91.38
485.99	87.38
486.209	92.38
486.427	80.38
486.645	90.38
486.863	83.38
487.081	90.38
487.299	92.38
487.517	82.38
487.735	87.38
487.953	91.38
488.171	105.38
488.389	90.38
488.607	86.38
488.825	93.38
489.043	88.38
489.261	96.38
489.479	92.38
489.696	102.38
489.914	89.38
490.132	90.38
490.35	91.38
490.568	82.38
490.786	85.38
491.003	94.38
491.221	101.38
491.439	87.38
491.657	83.38
491.874	110.38
492.092	97.38
492.31	100.38
492.527	95.38
492.745	93.38
492.963	100.38
493.18	86.38
493.398	82.38
493.615	98.38
493.833	113.38
494.05	104.38
494.268	91.38
494.485	99.38
494.703	89.38
494.92	98.38
495.138	98.38
495.355	90.38
495.573	79.38
495.79	98.38
496.008	93.38
496.225	107.38
496.442	101.38
496.66	91.38
496.877	95.38
497.094	97.38
497.312	95.38
497.529	92.38
497.746	97.38
497.963	89.38
498.181	88.38
498.398	87.38
498.615	93.38
498.832	91.38
499.049	101.38
499.267	92.38
499.484	101.38
499.701	109.38
499.918	111.38
500.135	96.38
500.352	123.38
500.569	114.38
500.786	106.38
501.003	114.38
501.22	102.38
501.437	96.38
501.654	103.38
501.871	94.38
502.088	108.38
502.305	102.38
502.522	98.38
502.739	86.38
502.956	102.38
503.172	97.38
503.389	91.38
503.606	94.38
503.823	108.38
504.04	101.38
504.256	104.38
504.473	100.38
504.69	87.38
504.907	86.38
505.123	87.38
505.34	92.38
505.557	98.38
505.773	92.38
505.99	87.38
506.207	101.38
506.423	94.38
506.64	91.38
506.856	92.38
507.073	88.38
507.289	91.38
507.506	105.38
507.722	101.38
507.939	98.38
508.155	73.38
508.372	86.38
508.588	101.38
508.805	92.38
509.021	92.38
509.238	92.38
509.454	85.38
509.67	94.38
509.887	96.38
510.103	80.38
510.319	90.38
510.536	95.38
510.752	86.38
510.968	82.38
511.184	92.38
511.401	100.38
511.617	75.38
511.833	80.38
512.049	86.38
512.265	92.38
512.481	84.38
512.698	79.38
512.914	97.38
513.13	85.38
513.346	83.38
513.562	93.38
513.778	94.38
513.994	96.38
514.21	97.38
514.426	90.38
514.642	81.38
514.858	78.38
515.074	89.38
515.29	98.38
515.506	93.38
515.721	90.38
515.937	99.38
516.153	88.38
516.369	93.38
516.585	92.38
516.801	84.38
517.016	96.38
517.232	103.38
517.448	98.38
517.664	98.38
517.879	90.38
518.095	89.38
518.311	98.38
518.527	90.38
