Data from Ni(NO3)2Standard.Agarose3%.GreenCap.LampEnergy5.5.E.O_HRD10591_14-40-07-188.txt Node
Date: Mon Jul 22 14:40:07 EDT 2019
User: cochatt
Spectrometer: HR+D1059
Trigger mode: 1
Integration Time (sec): 1.000000E-1
Scans to average: 1
Electric dark correction enabled: true
Nonlinearity correction enabled: false
Boxcar width: 0
XAxis mode: Wavelengths
Number of Pixels in Spectrum: 2048
>>>>>Begin Spectral Data<<<<<
223.165	3.44
223.4	3.44
223.635	3.44
223.869	-2.56
224.104	-19.56
224.338	-17.56
224.573	-14.56
224.808	-18.56
225.042	-6.56
225.277	0.44
225.511	-4.56
225.746	-11.56
225.98	2.44
226.215	12.44
226.449	11.44
226.683	25.44
226.918	18.44
227.152	21.44
227.387	34.44
227.621	47.44
227.856	38.44
228.09	49.44
228.324	52.44
228.559	64.44
228.793	55.44
229.027	60.44
229.262	71.44
229.496	56.44
229.73	78.44
229.964	70.44
230.199	70.44
230.433	87.44
230.667	64.44
230.901	67.44
231.136	87.44
231.37	89.44
231.604	82.44
231.838	90.44
232.072	65.44
232.306	92.44
232.541	83.44
232.775	74.44
233.009	82.44
233.243	81.44
233.477	84.44
233.711	97.44
233.945	96.44
234.179	83.44
234.413	84.44
234.647	67.44
234.881	70.44
235.115	82.44
235.349	74.44
235.583	69.44
235.817	62.44
236.051	68.44
236.285	70.44
236.519	76.44
236.753	68.44
236.987	74.44
237.221	65.44
237.455	68.44
237.689	67.44
237.922	83.44
238.156	78.44
238.39	93.44
238.624	75.44
238.858	81.44
239.091	75.44
239.325	68.44
239.559	74.44
239.793	77.44
240.027	78.44
240.26	66.44
240.494	73.44
240.728	73.44
240.961	63.44
241.195	63.44
241.429	78.44
241.662	82.44
241.896	80.44
242.13	76.44
242.363	75.44
242.597	84.44
242.83	73.44
243.064	85.44
243.298	73.44
243.531	78.44
243.765	75.44
243.998	80.44
244.232	80.44
244.465	77.44
244.699	78.44
244.932	75.44
245.166	72.44
245.399	70.44
245.633	75.44
245.866	70.44
246.099	82.44
246.333	85.44
246.566	72.44
246.8	75.44
247.033	80.44
247.266	79.44
247.5	85.44
247.733	84.44
247.966	65.44
248.2	85.44
248.433	84.44
248.666	83.44
248.899	68.44
249.133	83.44
249.366	75.44
249.599	81.44
249.832	69.44
250.066	76.44
250.299	88.44
250.532	85.44
250.765	62.44
250.998	93.44
251.231	84.44
251.465	75.44
251.698	83.44
251.931	92.44
252.164	82.44
252.397	87.44
252.63	68.44
252.863	77.44
253.096	80.44
253.329	81.44
253.562	80.44
253.795	82.44
254.028	76.44
254.261	76.44
254.494	78.44
254.727	85.44
254.96	77.44
255.193	78.44
255.426	78.44
255.659	98.44
255.892	78.44
256.124	81.44
256.357	80.44
256.59	67.44
256.823	80.44
257.056	91.44
257.289	75.44
257.521	84.44
257.754	78.44
257.987	70.44
258.22	82.44
258.452	93.44
258.685	81.44
258.918	76.44
259.151	98.44
259.383	73.44
259.616	72.44
259.849	62.44
260.081	75.44
260.314	76.44
260.547	70.44
260.779	85.44
261.012	72.44
261.244	81.44
261.477	88.44
261.71	81.44
261.942	94.44
262.175	84.44
262.407	78.44
262.64	84.44
262.872	86.44
263.105	87.44
263.337	86.44
263.57	76.44
263.802	89.44
264.035	95.44
264.267	74.44
264.499	70.44
264.732	79.44
264.964	98.44
265.197	95.44
265.429	67.44
265.661	89.44
265.894	79.44
266.126	82.44
266.358	87.44
266.591	84.44
266.823	75.44
267.055	82.44
267.287	91.44
267.52	90.44
267.752	82.44
267.984	86.44
268.216	98.44
268.448	79.44
268.681	90.44
268.913	89.44
269.145	82.44
269.377	89.44
269.609	78.44
269.841	86.44
270.073	82.44
270.306	81.44
270.538	73.44
270.77	80.44
271.002	80.44
271.234	75.44
271.466	79.44
271.698	86.44
271.93	74.44
272.162	75.44
272.394	97.44
272.626	80.44
272.858	77.44
273.09	88.44
273.322	82.44
273.553	83.44
273.785	62.44
274.017	91.44
274.249	74.44
274.481	84.44
274.713	68.44
274.945	72.44
275.176	94.44
275.408	85.44
275.64	81.44
275.872	81.44
276.104	88.44
276.335	85.44
276.567	85.44
276.799	80.44
277.031	88.44
277.262	89.44
277.494	92.44
277.726	82.44
277.957	86.44
278.189	89.44
278.421	87.44
278.652	81.44
278.884	83.44
279.115	78.44
279.347	86.44
279.579	77.44
279.81	86.44
280.042	82.44
280.273	84.44
280.505	94.44
280.736	85.44
280.968	74.44
281.199	87.44
281.431	82.44
281.662	85.44
281.894	107.44
282.125	89.44
282.356	80.44
282.588	86.44
282.819	69.44
283.051	82.44
283.282	84.44
283.513	81.44
283.745	89.44
283.976	95.44
284.207	86.44
284.439	79.44
284.67	77.44
284.901	82.44
285.132	95.44
285.364	94.44
285.595	89.44
285.826	95.44
286.057	90.44
286.288	72.44
286.52	93.44
286.751	79.44
286.982	83.44
287.213	89.44
287.444	93.44
287.675	96.44
287.906	76.44
288.138	84.44
288.369	76.44
288.6	80.44
288.831	82.44
289.062	85.44
289.293	88.44
289.524	79.44
289.755	85.44
289.986	76.44
290.217	82.44
290.448	78.44
290.679	84.44
290.91	105.44
291.141	100.44
291.371	80.44
291.602	89.44
291.833	87.44
292.064	74.44
292.295	74.44
292.526	82.44
292.757	83.44
292.987	79.44
293.218	83.44
293.449	83.44
293.68	101.44
293.91	92.44
294.141	80.44
294.372	88.44
294.603	96.44
294.833	81.44
295.064	77.44
295.295	84.44
295.525	85.44
295.756	90.44
295.987	83.44
296.217	84.44
296.448	97.44
296.679	86.44
296.909	83.44
297.14	89.44
297.37	97.44
297.601	79.44
297.831	77.44
298.062	91.44
298.292	82.44
298.523	91.44
298.753	75.44
298.984	83.44
299.214	96.44
299.445	82.44
299.675	88.44
299.905	93.44
300.136	94.44
300.366	93.44
300.597	81.44
300.827	83.44
301.057	82.44
301.288	91.44
301.518	88.44
301.748	82.44
301.979	81.44
302.209	69.44
302.439	89.44
302.669	76.44
302.9	86.44
303.13	71.44
303.36	93.44
303.59	78.44
303.82	78.44
304.051	88.44
304.281	90.44
304.511	81.44
304.741	90.44
304.971	84.44
305.201	78.44
305.431	97.44
305.661	81.44
305.891	79.44
306.121	93.44
306.352	92.44
306.582	92.44
306.812	84.44
307.042	81.44
307.272	69.44
307.502	100.44
307.731	84.44
307.961	62.44
308.191	85.44
308.421	94.44
308.651	94.44
308.881	97.44
309.111	91.44
309.341	95.44
309.571	79.44
309.8	89.44
310.03	80.44
310.26	82.44
310.49	85.44
310.72	84.44
310.949	84.44
311.179	61.44
311.409	96.44
311.639	81.44
311.868	99.44
312.098	87.44
312.328	86.44
312.557	79.44
312.787	89.44
313.017	101.44
313.246	88.44
313.476	76.44
313.706	102.44
313.935	89.44
314.165	86.44
314.394	79.44
314.624	90.44
314.853	86.44
315.083	74.44
315.312	89.44
315.542	96.44
315.771	90.44
316.001	81.44
316.23	88.44
316.46	88.44
316.689	89.44
316.919	70.44
317.148	82.44
317.377	84.44
317.607	102.44
317.836	99.44
318.065	102.44
318.295	97.44
318.524	91.44
318.753	91.44
318.983	89.44
319.212	90.44
319.441	84.44
319.67	80.44
319.9	91.44
320.129	102.44
320.358	90.44
320.587	90.44
320.816	89.44
321.046	77.44
321.275	86.44
321.504	95.44
321.733	89.44
321.962	92.44
322.191	87.44
322.42	83.44
322.649	90.44
322.878	80.44
323.108	85.44
323.337	90.44
323.566	78.44
323.795	82.44
324.024	89.44
324.253	98.44
324.482	99.44
324.71	85.44
324.939	96.44
325.168	88.44
325.397	81.44
325.626	77.44
325.855	77.44
326.084	76.44
326.313	74.44
326.542	90.44
326.77	97.44
326.999	101.44
327.228	91.44
327.457	87.44
327.686	79.44
327.914	78.44
328.143	75.44
328.372	97.44
328.6	81.44
328.829	81.44
329.058	89.44
329.287	86.44
329.515	90.44
329.744	99.44
329.972	88.44
330.201	92.44
330.43	98.44
330.658	89.44
330.887	93.44
331.115	82.44
331.344	92.44
331.572	94.44
331.801	93.44
332.03	89.44
332.258	79.44
332.486	93.44
332.715	102.44
332.943	73.44
333.172	89.44
333.4	92.44
333.629	82.44
333.857	88.44
334.085	83.44
334.314	89.44
334.542	88.44
334.771	90.44
334.999	81.44
335.227	86.44
335.455	100.44
335.684	99.44
335.912	85.44
336.14	102.44
336.369	84.44
336.597	94.44
336.825	90.44
337.053	92.44
337.281	90.44
337.51	86.44
337.738	87.44
337.966	88.44
338.194	92.44
338.422	75.44
338.65	85.44
338.878	80.44
339.106	91.44
339.334	81.44
339.562	91.44
339.79	83.44
340.018	85.44
340.246	75.44
340.474	91.44
340.702	90.44
340.93	83.44
341.158	103.44
341.386	93.44
341.614	99.44
341.842	88.44
342.07	70.44
342.298	81.44
342.526	97.44
342.754	87.44
342.981	80.44
343.209	84.44
343.437	88.44
343.665	101.44
343.893	81.44
344.12	83.44
344.348	102.44
344.576	87.44
344.804	89.44
345.031	94.44
345.259	101.44
345.487	97.44
345.714	82.44
345.942	76.44
346.17	104.44
346.397	77.44
346.625	85.44
346.853	84.44
347.08	92.44
347.308	83.44
347.535	84.44
347.763	94.44
347.99	77.44
348.218	98.44
348.445	83.44
348.673	86.44
348.9	74.44
349.128	93.44
349.355	82.44
349.583	92.44
349.81	88.44
350.037	89.44
350.265	78.44
350.492	82.44
350.72	91.44
350.947	87.44
351.174	94.44
351.402	90.44
351.629	73.44
351.856	92.44
352.083	74.44
352.311	88.44
352.538	85.44
352.765	110.44
352.992	85.44
353.22	83.44
353.447	93.44
353.674	82.44
353.901	82.44
354.128	80.44
354.355	73.44
354.583	81.44
354.81	83.44
355.037	90.44
355.264	98.44
355.491	78.44
355.718	78.44
355.945	82.44
356.172	85.44
356.399	88.44
356.626	85.44
356.853	89.44
357.08	91.44
357.307	83.44
357.534	89.44
357.761	72.44
357.988	92.44
358.215	82.44
358.441	97.44
358.668	96.44
358.895	88.44
359.122	79.44
359.349	94.44
359.576	97.44
359.802	69.44
360.029	75.44
360.256	88.44
360.483	92.44
360.709	77.44
360.936	96.44
361.163	87.44
361.39	83.44
361.616	92.44
361.843	93.44
362.07	91.44
362.296	77.44
362.523	83.44
362.749	88.44
362.976	75.44
363.203	87.44
363.429	72.44
363.656	87.44
363.882	67.44
364.109	94.44
364.335	84.44
364.562	102.44
364.788	88.44
365.015	94.44
365.241	84.44
365.468	97.44
365.694	88.44
365.92	80.44
366.147	75.44
366.373	88.44
366.599	72.44
366.826	93.44
367.052	88.44
367.278	76.44
367.505	92.44
367.731	93.44
367.957	85.44
368.184	78.44
368.41	88.44
368.636	86.44
368.862	89.44
369.089	75.44
369.315	88.44
369.541	91.44
369.767	82.44
369.993	82.44
370.219	85.44
370.445	71.44
370.672	61.44
370.898	79.44
371.124	90.44
371.35	97.44
371.576	96.44
371.802	83.44
372.028	78.44
372.254	87.44
372.48	81.44
372.706	82.44
372.932	82.44
373.158	88.44
373.384	78.44
373.61	84.44
373.835	75.44
374.061	82.44
374.287	79.44
374.513	84.44
374.739	81.44
374.965	96.44
375.191	90.44
375.416	84.44
375.642	75.44
375.868	74.44
376.094	98.44
376.319	90.44
376.545	97.44
376.771	86.44
376.997	92.44
377.222	77.44
377.448	89.44
377.674	76.44
377.899	75.44
378.125	67.44
378.35	89.44
378.576	75.44
378.802	78.44
379.027	80.44
379.253	92.44
379.478	89.44
379.704	79.44
379.929	92.44
380.155	82.44
380.38	89.44
380.606	99.44
380.831	84.44
381.057	89.44
381.282	85.44
381.507	85.44
381.733	77.44
381.958	80.44
382.184	71.44
382.409	90.44
382.634	90.44
382.86	72.44
383.085	90.44
383.31	97.44
383.535	98.44
383.761	88.44
383.986	82.44
384.211	81.44
384.436	85.44
384.662	80.44
384.887	77.44
385.112	88.44
385.337	75.44
385.562	74.44
385.787	82.44
386.013	86.44
386.238	82.44
386.463	78.44
386.688	97.44
386.913	77.44
387.138	86.44
387.363	84.44
387.588	86.44
387.813	80.44
388.038	80.44
388.263	84.44
388.488	83.44
388.713	88.44
388.938	81.44
389.163	85.44
389.387	81.44
389.612	81.44
389.837	90.44
390.062	85.44
390.287	89.44
390.512	82.44
390.736	76.44
390.961	88.44
391.186	84.44
391.411	81.44
391.636	106.44
391.86	92.44
392.085	94.44
392.31	92.44
392.534	84.44
392.759	84.44
392.984	95.44
393.208	86.44
393.433	91.44
393.658	84.44
393.882	84.44
394.107	105.44
394.331	86.44
394.556	84.44
394.78	97.44
395.005	90.44
395.229	72.44
395.454	77.44
395.678	77.44
395.903	74.44
396.127	94.44
396.352	82.44
396.576	94.44
396.801	79.44
397.025	102.44
397.249	100.44
397.474	85.44
397.698	91.44
397.922	82.44
398.147	71.44
398.371	79.44
398.595	90.44
398.82	89.44
399.044	74.44
399.268	80.44
399.492	80.44
399.717	80.44
399.941	95.44
400.165	87.44
400.389	86.44
400.613	92.44
400.837	85.44
401.062	87.44
401.286	93.44
401.51	75.44
401.734	70.44
401.958	85.44
402.182	91.44
402.406	89.44
402.63	92.44
402.854	97.44
403.078	89.44
403.302	72.44
403.526	80.44
403.75	83.44
403.974	70.44
404.198	83.44
404.422	80.44
404.645	85.44
404.869	85.44
405.093	97.44
405.317	78.44
405.541	92.44
405.765	77.44
405.988	63.44
406.212	74.44
406.436	89.44
406.66	93.44
406.883	81.44
407.107	92.44
407.331	88.44
407.555	87.44
407.778	77.44
408.002	83.44
408.226	98.44
408.449	90.44
408.673	76.44
408.896	80.44
409.12	84.44
409.344	96.44
409.567	82.44
409.791	87.44
410.014	65.44
410.238	67.44
410.461	81.44
410.685	96.44
410.908	66.44
411.132	80.44
411.355	80.44
411.578	88.44
411.802	92.44
412.025	92.44
412.249	95.44
412.472	83.44
412.695	80.44
412.919	83.44
413.142	91.44
413.365	87.44
413.589	90.44
413.812	80.44
414.035	78.44
414.258	78.44
414.482	74.44
414.705	96.44
414.928	93.44
415.151	84.44
415.374	71.44
415.597	79.44
415.821	79.44
416.044	82.44
416.267	91.44
416.49	93.44
416.713	78.44
416.936	86.44
417.159	80.44
417.382	85.44
417.605	87.44
417.828	92.44
418.051	75.44
418.274	83.44
418.497	89.44
418.72	80.44
418.943	101.44
419.166	101.44
419.389	81.44
419.611	86.44
419.834	79.44
420.057	81.44
420.28	70.44
420.503	80.44
420.726	78.44
420.948	79.44
421.171	90.44
421.394	74.44
421.617	90.44
421.839	77.44
422.062	77.44
422.285	81.44
422.507	84.44
422.73	75.44
422.953	93.44
423.175	74.44
423.398	80.44
423.621	79.44
423.843	70.44
424.066	90.44
424.288	84.44
424.511	83.44
424.733	60.44
424.956	88.44
425.178	78.44
425.401	91.44
425.623	98.44
425.846	105.44
426.068	85.44
426.291	93.44
426.513	84.44
426.735	97.44
426.958	86.44
427.18	72.44
427.402	86.44
427.625	75.44
427.847	88.44
428.069	84.44
428.292	91.44
428.514	93.44
428.736	78.44
428.958	81.44
429.181	83.44
429.403	94.44
429.625	80.44
429.847	84.44
430.069	82.44
430.292	91.44
430.514	81.44
430.736	86.44
430.958	89.44
431.18	84.44
431.402	76.44
431.624	76.44
431.846	72.44
432.068	85.44
432.29	86.44
432.512	96.44
432.734	90.44
432.956	80.44
433.178	88.44
433.4	84.44
433.622	85.44
433.844	68.44
434.066	84.44
434.287	90.44
434.509	82.44
434.731	81.44
434.953	85.44
435.175	75.44
435.397	83.44
435.618	76.44
435.84	82.44
436.062	84.44
436.284	77.44
436.505	85.44
436.727	91.44
436.949	83.44
437.17	97.44
437.392	94.44
437.614	84.44
437.835	76.44
438.057	88.44
438.278	97.44
438.5	86.44
438.721	106.44
438.943	89.44
439.165	77.44
439.386	91.44
439.608	81.44
439.829	97.44
440.05	90.44
440.272	77.44
440.493	84.44
440.715	72.44
440.936	75.44
441.158	84.44
441.379	80.44
441.6	100.44
441.822	97.44
442.043	84.44
442.264	91.44
442.486	89.44
442.707	85.44
442.928	74.44
443.149	88.44
443.371	86.44
443.592	77.44
443.813	99.44
444.034	90.44
444.255	88.44
444.476	89.44
444.698	85.44
444.919	87.44
445.14	204.44
445.361	146.44
445.582	92.44
445.803	85.44
446.024	82.44
446.245	94.44
446.466	93.44
446.687	72.44
446.908	85.44
447.129	95.44
447.35	77.44
447.571	90.44
447.792	76.44
448.013	95.44
448.234	96.44
448.455	93.44
448.675	77.44
448.896	82.44
449.117	75.44
449.338	82.44
449.559	91.44
449.779	88.44
450	91.44
450.221	80.44
450.442	89.44
450.662	81.44
450.883	86.44
451.104	78.44
451.324	90.44
451.545	92.44
451.766	81.44
451.986	83.44
452.207	85.44
452.428	91.44
452.648	105.44
452.869	85.44
453.089	85.44
453.31	87.44
453.53	80.44
453.751	83.44
453.971	102.44
454.192	83.44
454.412	96.44
454.633	89.44
454.853	81.44
455.073	74.44
455.294	73.44
455.514	84.44
455.734	90.44
455.955	90.44
456.175	84.44
456.395	91.44
456.616	91.44
456.836	83.44
457.056	70.44
457.276	89.44
457.497	84.44
457.717	90.44
457.937	92.44
458.157	80.44
458.377	81.44
458.598	87.44
458.818	72.44
459.038	82.44
459.258	83.44
459.478	78.44
459.698	84.44
459.918	98.44
460.138	84.44
460.358	98.44
460.578	85.44
460.798	76.44
461.018	91.44
461.238	95.44
461.458	76.44
461.678	84.44
461.898	87.44
462.118	78.44
462.338	81.44
462.558	89.44
462.777	98.44
462.997	92.44
463.217	81.44
463.437	78.44
463.657	91.44
463.876	78.44
464.096	97.44
464.316	96.44
464.536	92.44
464.755	81.44
464.975	94.44
465.195	100.44
465.414	88.44
465.634	70.44
465.854	73.44
466.073	84.44
466.293	74.44
466.512	86.44
466.732	90.44
466.951	88.44
467.171	78.44
467.391	91.44
467.61	78.44
467.829	84.44
468.049	88.44
468.268	86.44
468.488	80.44
468.707	76.44
468.927	92.44
469.146	78.44
469.365	88.44
469.585	95.44
469.804	99.44
470.023	85.44
470.243	82.44
470.462	105.44
470.681	92.44
470.901	93.44
471.12	87.44
471.339	83.44
471.558	78.44
471.777	83.44
471.997	104.44
472.216	93.44
472.435	74.44
472.654	78.44
472.873	78.44
473.092	72.44
473.311	81.44
473.53	85.44
473.749	73.44
473.968	82.44
474.187	77.44
474.406	73.44
474.625	71.44
474.844	74.44
475.063	89.44
475.282	93.44
475.501	85.44
475.72	78.44
475.939	84.44
476.158	89.44
476.377	70.44
476.596	90.44
476.814	90.44
477.033	84.44
477.252	95.44
477.471	77.44
477.69	89.44
477.908	95.44
478.127	86.44
478.346	101.44
478.564	96.44
478.783	104.44
479.002	97.44
479.22	103.44
479.439	99.44
479.658	91.44
479.876	95.44
480.095	106.44
480.313	86.44
480.532	90.44
480.751	96.44
480.969	74.44
481.188	96.44
481.406	99.44
481.624	93.44
481.843	92.44
482.061	84.44
482.28	73.44
482.498	84.44
482.717	82.44
482.935	99.44
483.153	91.44
483.372	80.44
483.59	86.44
483.808	80.44
484.027	91.44
484.245	90.44
484.463	86.44
484.681	84.44
484.9	74.44
485.118	107.44
485.336	98.44
485.554	105.44
485.772	67.44
485.99	96.44
486.209	81.44
486.427	86.44
486.645	86.44
486.863	89.44
487.081	76.44
487.299	91.44
487.517	107.44
487.735	91.44
487.953	89.44
488.171	93.44
488.389	101.44
488.607	94.44
488.825	95.44
489.043	87.44
489.261	96.44
489.479	81.44
489.696	78.44
489.914	86.44
490.132	105.44
490.35	96.44
490.568	88.44
490.786	90.44
491.003	88.44
491.221	89.44
491.439	94.44
491.657	87.44
491.874	84.44
492.092	84.44
492.31	93.44
492.527	101.44
492.745	94.44
492.963	79.44
493.18	98.44
493.398	95.44
493.615	114.44
493.833	88.44
494.05	84.44
494.268	92.44
494.485	102.44
494.703	91.44
494.92	82.44
495.138	99.44
495.355	107.44
495.573	92.44
495.79	88.44
496.008	97.44
496.225	93.44
496.442	95.44
496.66	104.44
496.877	116.44
497.094	97.44
497.312	97.44
497.529	94.44
497.746	97.44
497.963	85.44
498.181	101.44
498.398	101.44
498.615	98.44
498.832	99.44
499.049	94.44
499.267	90.44
499.484	89.44
499.701	110.44
499.918	98.44
500.135	105.44
500.352	93.44
500.569	103.44
500.786	101.44
501.003	112.44
501.22	99.44
501.437	105.44
501.654	104.44
501.871	94.44
502.088	109.44
502.305	88.44
502.522	94.44
502.739	93.44
502.956	90.44
503.172	94.44
503.389	100.44
503.606	96.44
503.823	94.44
504.04	92.44
504.256	90.44
504.473	75.44
504.69	104.44
504.907	112.44
505.123	89.44
505.34	111.44
505.557	81.44
505.773	78.44
505.99	96.44
506.207	85.44
506.423	93.44
506.64	97.44
506.856	92.44
507.073	102.44
507.289	83.44
507.506	90.44
507.722	68.44
507.939	86.44
508.155	90.44
508.372	91.44
508.588	89.44
508.805	86.44
509.021	94.44
509.238	92.44
509.454	92.44
509.67	65.44
509.887	93.44
510.103	82.44
510.319	75.44
510.536	94.44
510.752	94.44
510.968	83.44
511.184	94.44
511.401	88.44
511.617	79.44
511.833	85.44
512.049	81.44
512.265	97.44
512.481	81.44
512.698	93.44
512.914	94.44
513.13	109.44
513.346	89.44
513.562	90.44
513.778	86.44
513.994	101.44
514.21	92.44
514.426	81.44
514.642	88.44
514.858	90.44
515.074	97.44
515.29	91.44
515.506	75.44
515.721	99.44
515.937	98.44
516.153	95.44
516.369	101.44
516.585	98.44
516.801	92.44
517.016	86.44
517.232	85.44
517.448	86.44
517.664	86.44
517.879	86.44
518.095	102.44
518.311	105.44
518.527	87.44
