Data from Ni(NO3)2@0.25M.TitratingCurve.Agarose3%dH2O.NegLispCup.LampEnergy10.LIBS07252019_HRD10591_18-03-39-566.txt Node
Date: Thu Jul 25 18:03:39 EDT 2019
User: cochatt
Spectrometer: HR+D1059
Trigger mode: 1
Integration Time (sec): 1.000000E-1
Scans to average: 1
Electric dark correction enabled: true
Nonlinearity correction enabled: false
Boxcar width: 0
XAxis mode: Wavelengths
Number of Pixels in Spectrum: 2048
>>>>>Begin Spectral Data<<<<<
223.165	-8.19
223.4	-8.19
223.635	-8.19
223.869	-10.19
224.104	-11.19
224.338	-16.19
224.573	-25.19
224.808	-14.19
225.042	6.81
225.277	8.81
225.511	4.81
225.746	-7.19
225.98	-5.19
226.215	10.81
226.449	9.81
226.683	15.81
226.918	14.81
227.152	25.81
227.387	34.81
227.621	45.81
227.856	53.81
228.09	64.81
228.324	45.81
228.559	57.81
228.793	72.81
229.027	139.81
229.262	145.81
229.496	154.81
229.73	157.81
229.964	157.81
230.199	174.81
230.433	187.81
230.667	156.81
230.901	171.81
231.136	176.81
231.37	168.81
231.604	192.81
231.838	187.81
232.072	200.81
232.306	195.81
232.541	180.81
232.775	185.81
233.009	184.81
233.243	188.81
233.477	189.81
233.711	193.81
233.945	198.81
234.179	185.81
234.413	173.81
234.647	193.81
234.881	189.81
235.115	215.81
235.349	202.81
235.583	177.81
235.817	198.81
236.051	205.81
236.285	203.81
236.519	191.81
236.753	202.81
236.987	214.81
237.221	216.81
237.455	202.81
237.689	209.81
237.922	223.81
238.156	211.81
238.39	204.81
238.624	193.81
238.858	217.81
239.091	222.81
239.325	210.81
239.559	219.81
239.793	232.81
240.027	225.81
240.26	230.81
240.494	227.81
240.728	239.81
240.961	239.81
241.195	245.81
241.429	263.81
241.662	262.81
241.896	257.81
242.13	280.81
242.363	260.81
242.597	266.81
242.83	268.81
243.064	272.81
243.298	257.81
243.531	271.81
243.765	297.81
243.998	274.81
244.232	283.81
244.465	276.81
244.699	285.81
244.932	310.81
245.166	316.81
245.399	298.81
245.633	289.81
245.866	283.81
246.099	289.81
246.333	277.81
246.566	303.81
246.8	304.81
247.033	297.81
247.266	303.81
247.5	314.81
247.733	316.81
247.966	320.81
248.2	338.81
248.433	344.81
248.666	333.81
248.899	361.81
249.133	335.81
249.366	364.81
249.599	361.81
249.832	353.81
250.066	388.81
250.299	374.81
250.532	384.81
250.765	376.81
250.998	389.81
251.231	385.81
251.465	394.81
251.698	403.81
251.931	410.81
252.164	388.81
252.397	426.81
252.63	398.81
252.863	421.81
253.096	439.81
253.329	449.81
253.562	441.81
253.795	441.81
254.028	443.81
254.261	462.81
254.494	449.81
254.727	460.81
254.96	459.81
255.193	463.81
255.426	473.81
255.659	481.81
255.892	479.81
256.124	475.81
256.357	493.81
256.59	487.81
256.823	462.81
257.056	492.81
257.289	476.81
257.521	500.81
257.754	492.81
257.987	514.81
258.22	509.81
258.452	516.81
258.685	519.81
258.918	509.81
259.151	516.81
259.383	533.81
259.616	518.81
259.849	517.81
260.081	544.81
260.314	547.81
260.547	555.81
260.779	535.81
261.012	557.81
261.244	570.81
261.477	576.81
261.71	570.81
261.942	550.81
262.175	571.81
262.407	569.81
262.64	574.81
262.872	560.81
263.105	565.81
263.337	569.81
263.57	591.81
263.802	596.81
264.035	598.81
264.267	609.81
264.499	589.81
264.732	621.81
264.964	606.81
265.197	598.81
265.429	609.81
265.661	613.81
265.894	584.81
266.126	613.81
266.358	622.81
266.591	625.81
266.823	624.81
267.055	613.81
267.287	634.81
267.52	635.81
267.752	620.81
267.984	634.81
268.216	640.81
268.448	659.81
268.681	659.81
268.913	644.81
269.145	657.81
269.377	626.81
269.609	646.81
269.841	672.81
270.073	678.81
270.306	670.81
270.538	673.81
270.77	656.81
271.002	675.81
271.234	678.81
271.466	673.81
271.698	672.81
271.93	676.81
272.162	702.81
272.394	659.81
272.626	686.81
272.858	715.81
273.09	692.81
273.322	696.81
273.553	689.81
273.785	692.81
274.017	704.81
274.249	696.81
274.481	722.81
274.713	717.81
274.945	696.81
275.176	715.81
275.408	737.81
275.64	715.81
275.872	733.81
276.104	718.81
276.335	722.81
276.567	737.81
276.799	737.81
277.031	732.81
277.262	717.81
277.494	726.81
277.726	730.81
277.957	742.81
278.189	753.81
278.421	745.81
278.652	750.81
278.884	753.81
279.115	766.81
279.347	762.81
279.579	728.81
279.81	768.81
280.042	735.81
280.273	779.81
280.505	753.81
280.736	760.81
280.968	765.81
281.199	780.81
281.431	783.81
281.662	781.81
281.894	772.81
282.125	761.81
282.356	787.81
282.588	810.81
282.819	785.81
283.051	788.81
283.282	794.81
283.513	794.81
283.745	811.81
283.976	779.81
284.207	804.81
284.439	783.81
284.67	812.81
284.901	824.81
285.132	816.81
285.364	799.81
285.595	818.81
285.826	830.81
286.057	816.81
286.288	832.81
286.52	831.81
286.751	827.81
286.982	812.81
287.213	829.81
287.444	830.81
287.675	826.81
287.906	833.81
288.138	852.81
288.369	859.81
288.6	828.81
288.831	828.81
289.062	796.81
289.293	835.81
289.524	813.81
289.755	830.81
289.986	836.81
290.217	832.81
290.448	858.81
290.679	862.81
290.91	852.81
291.141	848.81
291.371	864.81
291.602	848.81
291.833	832.81
292.064	858.81
292.295	831.81
292.526	830.81
292.757	856.81
292.987	832.81
293.218	815.81
293.449	871.81
293.68	847.81
293.91	844.81
294.141	832.81
294.372	850.81
294.603	834.81
294.833	833.81
295.064	839.81
295.295	857.81
295.525	854.81
295.756	863.81
295.987	833.81
296.217	868.81
296.448	865.81
296.679	862.81
296.909	872.81
297.14	896.81
297.37	874.81
297.601	898.81
297.831	896.81
298.062	868.81
298.292	895.81
298.523	901.81
298.753	923.81
298.984	890.81
299.214	891.81
299.445	897.81
299.675	914.81
299.905	917.81
300.136	914.81
300.366	918.81
300.597	944.81
300.827	920.81
301.057	917.81
301.288	924.81
301.518	955.81
301.748	933.81
301.979	955.81
302.209	935.81
302.439	943.81
302.669	934.81
302.9	949.81
303.13	948.81
303.36	966.81
303.59	958.81
303.82	956.81
304.051	974.81
304.281	956.81
304.511	941.81
304.741	948.81
304.971	968.81
305.201	998.81
305.431	1010.81
305.661	1017.81
305.891	995.81
306.121	985.81
306.352	959.81
306.582	973.81
306.812	952.81
307.042	964.81
307.272	985.81
307.502	940.81
307.731	989.81
307.961	984.81
308.191	976.81
308.421	982.81
308.651	988.81
308.881	992.81
309.111	987.81
309.341	970.81
309.571	1013.81
309.8	1018.81
310.03	989.81
310.26	1034.81
310.49	1048.81
310.72	1007.81
310.949	1022.81
311.179	1023.81
311.409	1033.81
311.639	1020.81
311.868	1007.81
312.098	1041.81
312.328	1049.81
312.557	1071.81
312.787	1017.81
313.017	1062.81
313.246	1122.81
313.476	1102.81
313.706	1090.81
313.935	1072.81
314.165	1072.81
314.394	1058.81
314.624	1095.81
314.853	1086.81
315.083	1104.81
315.312	1116.81
315.542	1106.81
315.771	1128.81
316.001	1117.81
316.23	1126.81
316.46	1133.81
316.689	1116.81
316.919	1158.81
317.148	1180.81
317.377	1135.81
317.607	1130.81
317.836	1146.81
318.065	1132.81
318.295	1150.81
318.524	1189.81
318.753	1165.81
318.983	1170.81
319.212	1144.81
319.441	1149.81
319.67	1210.81
319.9	1177.81
320.129	1195.81
320.358	1188.81
320.587	1180.81
320.816	1199.81
321.046	1224.81
321.275	1234.81
321.504	1212.81
321.733	1226.81
321.962	1248.81
322.191	1233.81
322.42	1225.81
322.649	1237.81
322.878	1271.81
323.108	1237.81
323.337	1291.81
323.566	1287.81
323.795	1260.81
324.024	1290.81
324.253	1293.81
324.482	1311.81
324.71	1322.81
324.939	1345.81
325.168	1323.81
325.397	1322.81
325.626	1352.81
325.855	1341.81
326.084	1381.81
326.313	1369.81
326.542	1369.81
326.77	1427.81
326.999	1384.81
327.228	1375.81
327.457	1382.81
327.686	1426.81
327.914	1416.81
328.143	1408.81
328.372	1381.81
328.6	1417.81
328.829	1408.81
329.058	1397.81
329.287	1439.81
329.515	1463.81
329.744	1431.81
329.972	1470.81
330.201	1489.81
330.43	1463.81
330.658	1478.81
330.887	1486.81
331.115	1489.81
331.344	1482.81
331.572	1505.81
331.801	1522.81
332.03	1537.81
332.258	1560.81
332.486	1560.81
332.715	1593.81
332.943	1617.81
333.172	1647.81
333.4	1650.81
333.629	1697.81
333.857	1700.81
334.085	1705.81
334.314	1692.81
334.542	1752.81
334.771	1766.81
334.999	1722.81
335.227	1735.81
335.455	1767.81
335.684	1753.81
335.912	1773.81
336.14	1712.81
336.369	1760.81
336.597	1742.81
336.825	1755.81
337.053	1773.81
337.281	1722.81
337.51	1688.81
337.738	1720.81
337.966	1685.81
338.194	1695.81
338.422	1693.81
338.65	1674.81
338.878	1661.81
339.106	1624.81
339.334	1693.81
339.562	1660.81
339.79	1660.81
340.018	1619.81
340.246	1611.81
340.474	1648.81
340.702	1591.81
340.93	1626.81
341.158	1643.81
341.386	1625.81
341.614	1668.81
341.842	1597.81
342.07	1624.81
342.298	1597.81
342.526	1622.81
342.754	1624.81
342.981	1602.81
343.209	1611.81
343.437	1679.81
343.665	1654.81
343.893	1698.81
344.12	1741.81
344.348	1718.81
344.576	1772.81
344.804	1743.81
345.031	1710.81
345.259	1637.81
345.487	1619.81
345.714	1630.81
345.942	1616.81
346.17	1647.81
346.397	1606.81
346.625	1562.81
346.853	1536.81
347.08	1542.81
347.308	1556.81
347.535	1553.81
347.763	1555.81
347.99	1528.81
348.218	1566.81
348.445	1544.81
348.673	1532.81
348.9	1530.81
349.128	1555.81
349.355	1525.81
349.583	1518.81
349.81	1514.81
350.037	1520.81
350.265	1469.81
350.492	1494.81
350.72	1497.81
350.947	1525.81
351.174	1528.81
351.402	1541.81
351.629	1493.81
351.856	1513.81
352.083	1508.81
352.311	1514.81
352.538	1519.81
352.765	1529.81
352.992	1455.81
353.22	1461.81
353.447	1473.81
353.674	1453.81
353.901	1472.81
354.128	1480.81
354.355	1462.81
354.583	1478.81
354.81	1466.81
355.037	1477.81
355.264	1480.81
355.491	1498.81
355.718	1500.81
355.945	1484.81
356.172	1482.81
356.399	1497.81
356.626	1476.81
356.853	1526.81
357.08	1499.81
357.307	1529.81
357.534	1514.81
357.761	1494.81
357.988	1500.81
358.215	1455.81
358.441	1472.81
358.668	1455.81
358.895	1479.81
359.122	1514.81
359.349	1514.81
359.576	1501.81
359.802	1507.81
360.029	1456.81
360.256	1482.81
360.483	1484.81
360.709	1477.81
360.936	1490.81
361.163	1506.81
361.39	1482.81
361.616	1490.81
361.843	1500.81
362.07	1515.81
362.296	1508.81
362.523	1480.81
362.749	1509.81
362.976	1468.81
363.203	1512.81
363.429	1495.81
363.656	1466.81
363.882	1485.81
364.109	1472.81
364.335	1435.81
364.562	1486.81
364.788	1477.81
365.015	1488.81
365.241	1484.81
365.468	1453.81
365.694	1474.81
365.92	1468.81
366.147	1456.81
366.373	1488.81
366.599	1482.81
366.826	1469.81
367.052	1464.81
367.278	1507.81
367.505	1491.81
367.731	1469.81
367.957	1480.81
368.184	1487.81
368.41	1493.81
368.636	1474.81
368.862	1476.81
369.089	1518.81
369.315	1468.81
369.541	1484.81
369.767	1516.81
369.993	1497.81
370.219	1495.81
370.445	1522.81
370.672	1532.81
370.898	1511.81
371.124	1578.81
371.35	1549.81
371.576	1530.81
371.802	1562.81
372.028	1524.81
372.254	1559.81
372.48	1541.81
372.706	1580.81
372.932	1528.81
373.158	1520.81
373.384	1581.81
373.61	1549.81
373.835	1553.81
374.061	1565.81
374.287	1566.81
374.513	1547.81
374.739	1599.81
374.965	1593.81
375.191	1575.81
375.416	1600.81
375.642	1587.81
375.868	1541.81
376.094	1546.81
376.319	1549.81
376.545	1551.81
376.771	1539.81
376.997	1492.81
377.222	1503.81
377.448	1474.81
377.674	1494.81
377.899	1507.81
378.125	1529.81
378.35	1497.81
378.576	1487.81
378.802	1488.81
379.027	1504.81
379.253	1499.81
379.478	1494.81
379.704	1478.81
379.929	1495.81
380.155	1479.81
380.38	1473.81
380.606	1467.81
380.831	1476.81
381.057	1492.81
381.282	1472.81
381.507	1473.81
381.733	1485.81
381.958	1494.81
382.184	1495.81
382.409	1517.81
382.634	1538.81
382.86	1533.81
383.085	1561.81
383.31	1560.81
383.535	1586.81
383.761	1549.81
383.986	1594.81
384.211	1561.81
384.436	1577.81
384.662	1583.81
384.887	1611.81
385.112	1614.81
385.337	1636.81
385.562	1643.81
385.787	1613.81
386.013	1689.81
386.238	1656.81
386.463	1658.81
386.688	1673.81
386.913	1681.81
387.138	1683.81
387.363	1675.81
387.588	1696.81
387.813	1672.81
388.038	1677.81
388.263	1698.81
388.488	1693.81
388.713	1690.81
388.938	1694.81
389.163	1664.81
389.387	1684.81
389.612	1712.81
389.837	1714.81
390.062	1681.81
390.287	1695.81
390.512	1683.81
390.736	1742.81
390.961	1786.81
391.186	1720.81
391.411	1770.81
391.636	1780.81
391.86	1776.81
392.085	1764.81
392.31	1754.81
392.534	1819.81
392.759	1784.81
392.984	1783.81
393.208	1832.81
393.433	1775.81
393.658	1743.81
393.882	1767.81
394.107	1768.81
394.331	1731.81
394.556	1757.81
394.78	1799.81
395.005	1829.81
395.229	1774.81
395.454	1802.81
395.678	1820.81
395.903	1791.81
396.127	1847.81
396.352	1842.81
396.576	1837.81
396.801	1893.81
397.025	1816.81
397.249	1878.81
397.474	1887.81
397.698	1902.81
397.922	1939.81
398.147	1921.81
398.371	1979.81
398.595	2002.81
398.82	2026.81
399.044	2129.81
399.268	2206.81
399.492	2291.81
399.717	2351.81
399.941	2400.81
400.165	2321.81
400.389	2331.81
400.613	2221.81
400.837	2188.81
401.062	2171.81
401.286	2161.81
401.51	2120.81
401.734	2061.81
401.958	2094.81
402.182	2021.81
402.406	2065.81
402.63	2066.81
402.854	2040.81
403.078	2088.81
403.302	2064.81
403.526	2066.81
403.75	2063.81
403.974	2083.81
404.198	2091.81
404.422	2093.81
404.645	2074.81
404.869	2097.81
405.093	2130.81
405.317	2123.81
405.541	2116.81
405.765	2122.81
405.988	2115.81
406.212	2164.81
406.436	2181.81
406.66	2244.81
406.883	2222.81
407.107	2276.81
407.331	2302.81
407.555	2368.81
407.778	2357.81
408.002	2316.81
408.226	2316.81
408.449	2323.81
408.673	2327.81
408.896	2257.81
409.12	2269.81
409.344	2230.81
409.567	2214.81
409.791	2220.81
410.014	2180.81
410.238	2163.81
410.461	2187.81
410.685	2139.81
410.908	2166.81
411.132	2113.81
411.355	2150.81
411.578	2135.81
411.802	2131.81
412.025	2127.81
412.249	2140.81
412.472	2144.81
412.695	2098.81
412.919	2132.81
413.142	2109.81
413.365	2100.81
413.589	2134.81
413.812	2093.81
414.035	2064.81
414.258	2114.81
414.482	2114.81
414.705	2113.81
414.928	2106.81
415.151	2078.81
415.374	2057.81
415.597	2081.81
415.821	2033.81
416.044	2026.81
416.267	2076.81
416.49	2056.81
416.713	2015.81
416.936	2025.81
417.159	1997.81
417.382	2008.81
417.605	2010.81
417.828	2013.81
418.051	2038.81
418.274	2000.81
418.497	2001.81
418.72	2049.81
418.943	2006.81
419.166	2157.81
419.389	2262.81
419.611	2209.81
419.834	2193.81
420.057	2128.81
420.28	2072.81
420.503	1992.81
420.726	1999.81
420.948	2015.81
421.171	2039.81
421.394	2023.81
421.617	2018.81
421.839	2061.81
422.062	1996.81
422.285	1966.81
422.507	2051.81
422.73	2072.81
422.953	2027.81
423.175	2033.81
423.398	2016.81
423.621	1992.81
423.843	2085.81
424.066	2029.81
424.288	2061.81
424.511	2032.81
424.733	2069.81
424.956	2023.81
425.178	2043.81
425.401	1982.81
425.623	2078.81
425.846	1994.81
426.068	2020.81
426.291	2010.81
426.513	2006.81
426.735	1990.81
426.958	2006.81
427.18	1983.81
427.402	2008.81
427.625	1999.81
427.847	1953.81
428.069	1951.81
428.292	1982.81
428.514	1977.81
428.736	1952.81
428.958	1956.81
429.181	1915.81
429.403	1936.81
429.625	1976.81
429.847	1929.81
430.069	1947.81
430.292	1965.81
430.514	1923.81
430.736	1995.81
430.958	1981.81
431.18	1931.81
431.402	1953.81
431.624	1978.81
431.846	1939.81
432.068	1960.81
432.29	2010.81
432.512	1958.81
432.734	2000.81
432.956	1982.81
433.178	1964.81
433.4	1963.81
433.622	1993.81
433.844	2023.81
434.066	2016.81
434.287	1992.81
434.509	2025.81
434.731	2037.81
434.953	2076.81
435.175	2057.81
435.397	2078.81
435.618	2029.81
435.84	2041.81
436.062	1972.81
436.284	1946.81
436.505	1957.81
436.727	1979.81
436.949	1965.81
437.17	1938.81
437.392	1941.81
437.614	1914.81
437.835	1897.81
438.057	1893.81
438.278	1844.81
438.5	1854.81
438.721	1901.81
438.943	1921.81
439.165	1905.81
439.386	1911.81
439.608	1954.81
439.829	1944.81
440.05	1923.81
440.272	1936.81
440.493	1987.81
440.715	1996.81
440.936	2014.81
441.158	2016.81
441.379	2010.81
441.6	2021.81
441.822	2035.81
442.043	2044.81
442.264	2043.81
442.486	2013.81
442.707	2052.81
442.928	2067.81
443.149	2047.81
443.371	2054.81
443.592	2109.81
443.813	2114.81
444.034	2053.81
444.255	2068.81
444.476	2127.81
444.698	2152.81
444.919	2222.81
445.14	2196.81
445.361	2186.81
445.582	2095.81
445.803	2095.81
446.024	2012.81
446.245	2025.81
446.466	2058.81
446.687	1972.81
446.908	1974.81
447.129	1934.81
447.35	1931.81
447.571	1925.81
447.792	1869.81
448.013	1876.81
448.234	1866.81
448.455	1848.81
448.675	1822.81
448.896	1865.81
449.117	1814.81
449.338	1826.81
449.559	1847.81
449.779	1799.81
450	1801.81
450.221	1817.81
450.442	1808.81
450.662	1781.81
450.883	1777.81
451.104	1836.81
451.324	1807.81
451.545	1791.81
451.766	1788.81
451.986	1781.81
452.207	1771.81
452.428	1760.81
452.648	1733.81
452.869	1718.81
453.089	1739.81
453.31	1729.81
453.53	1724.81
453.751	1732.81
453.971	1704.81
454.192	1739.81
454.412	1704.81
454.633	1729.81
454.853	1727.81
455.073	1655.81
455.294	1733.81
455.514	1716.81
455.734	1719.81
455.955	1729.81
456.175	1755.81
456.395	1698.81
456.616	1649.81
456.836	1718.81
457.056	1733.81
457.276	1704.81
457.497	1781.81
457.717	1716.81
457.937	1754.81
458.157	1761.81
458.377	1796.81
458.598	1788.81
458.818	1817.81
459.038	1860.81
459.258	1871.81
459.478	1932.81
459.698	1975.81
459.918	1992.81
460.138	2017.81
460.358	2059.81
460.578	2088.81
460.798	2108.81
461.018	2141.81
461.238	2168.81
461.458	2134.81
461.678	2137.81
461.898	2189.81
462.118	2149.81
462.338	2266.81
462.558	2309.81
462.777	2318.81
462.997	2316.81
463.217	2416.81
463.437	2415.81
463.657	2375.81
463.876	2366.81
464.096	2368.81
464.316	2310.81
464.536	2310.81
464.755	2223.81
464.975	2204.81
465.195	2140.81
465.414	2111.81
465.634	2058.81
465.854	2028.81
466.073	2009.81
466.293	1965.81
466.512	1948.81
466.732	1925.81
466.951	1904.81
467.171	1918.81
467.391	1918.81
467.61	1864.81
467.829	1874.81
468.049	1873.81
468.268	1863.81
468.488	1828.81
468.707	1846.81
468.927	1855.81
469.146	1859.81
469.365	1868.81
469.585	1827.81
469.804	1882.81
470.023	1894.81
470.243	1884.81
470.462	1879.81
470.681	1860.81
470.901	1892.81
471.12	1880.81
471.339	1896.81
471.558	1879.81
471.777	1920.81
471.997	1844.81
472.216	1872.81
472.435	1835.81
472.654	1845.81
472.873	1829.81
473.092	1857.81
473.311	1869.81
473.53	1927.81
473.749	1858.81
473.968	1863.81
474.187	1835.81
474.406	1838.81
474.625	1883.81
474.844	1829.81
475.063	1903.81
475.282	1872.81
475.501	1872.81
475.72	1901.81
475.939	1874.81
476.158	1950.81
476.377	1950.81
476.596	1920.81
476.814	2007.81
477.033	1980.81
477.252	1985.81
477.471	2020.81
477.69	2064.81
477.908	2057.81
478.127	2113.81
478.346	2149.81
478.564	2127.81
478.783	2178.81
479.002	2203.81
479.22	2189.81
479.439	2209.81
479.658	2221.81
479.876	2232.81
480.095	2218.81
480.313	2246.81
480.532	2249.81
480.751	2217.81
480.969	2218.81
481.188	2202.81
481.406	2207.81
481.624	2180.81
481.843	2166.81
482.061	2158.81
482.28	2125.81
482.498	2167.81
482.717	2146.81
482.935	2169.81
483.153	2202.81
483.372	2192.81
483.59	2191.81
483.808	2177.81
484.027	2200.81
484.245	2229.81
484.463	2212.81
484.681	2159.81
484.9	2248.81
485.118	2206.81
485.336	2176.81
485.554	2192.81
485.772	2197.81
485.99	2194.81
486.209	2169.81
486.427	2204.81
486.645	2214.81
486.863	2245.81
487.081	2186.81
487.299	2208.81
487.517	2220.81
487.735	2201.81
487.953	2268.81
488.171	2287.81
488.389	2265.81
488.607	2271.81
488.825	2234.81
489.043	2233.81
489.261	2221.81
489.479	2228.81
489.696	2173.81
489.914	2242.81
490.132	2214.81
490.35	2311.81
490.568	2300.81
