Data from Ni(NO3)2@0.25M.TitratingCurve.Agarose3%dH2O.NegLispCup.LampEnergy10.LIBS07252019_HRD10591_18-05-35-566.txt Node
Date: Thu Jul 25 18:05:35 EDT 2019
User: cochatt
Spectrometer: HR+D1059
Trigger mode: 1
Integration Time (sec): 1.000000E-1
Scans to average: 1
Electric dark correction enabled: true
Nonlinearity correction enabled: false
Boxcar width: 0
XAxis mode: Wavelengths
Number of Pixels in Spectrum: 2048
>>>>>Begin Spectral Data<<<<<
223.165	-18.31
223.4	-18.31
223.635	-18.31
223.869	-9.31
224.104	-4.31
224.338	-25.31
224.573	-24.31
224.808	-11.31
225.042	-8.31
225.277	-3.31
225.511	-0.31
225.746	-3.31
225.98	0.69
226.215	4.69
226.449	21.69
226.683	39.69
226.918	17.69
227.152	23.69
227.387	18.69
227.621	39.69
227.856	34.69
228.09	54.69
228.324	48.69
228.559	50.69
228.793	67.69
229.027	99.69
229.262	96.69
229.496	89.69
229.73	103.69
229.964	112.69
230.199	124.69
230.433	118.69
230.667	119.69
230.901	116.69
231.136	137.69
231.37	119.69
231.604	122.69
231.838	136.69
232.072	125.69
232.306	125.69
232.541	126.69
232.775	134.69
233.009	125.69
233.243	134.69
233.477	129.69
233.711	129.69
233.945	142.69
234.179	132.69
234.413	135.69
234.647	137.69
234.881	139.69
235.115	150.69
235.349	142.69
235.583	136.69
235.817	136.69
236.051	155.69
236.285	139.69
236.519	137.69
236.753	136.69
236.987	140.69
237.221	135.69
237.455	134.69
237.689	138.69
237.922	141.69
238.156	147.69
238.39	142.69
238.624	123.69
238.858	154.69
239.091	156.69
239.325	153.69
239.559	142.69
239.793	160.69
240.027	149.69
240.26	149.69
240.494	163.69
240.728	173.69
240.961	173.69
241.195	171.69
241.429	177.69
241.662	173.69
241.896	157.69
242.13	179.69
242.363	168.69
242.597	163.69
242.83	170.69
243.064	166.69
243.298	180.69
243.531	160.69
243.765	178.69
243.998	185.69
244.232	169.69
244.465	180.69
244.699	180.69
244.932	190.69
245.166	178.69
245.399	181.69
245.633	198.69
245.866	155.69
246.099	186.69
246.333	190.69
246.566	204.69
246.8	204.69
247.033	202.69
247.266	196.69
247.5	187.69
247.733	215.69
247.966	194.69
248.2	220.69
248.433	202.69
248.666	213.69
248.899	204.69
249.133	218.69
249.366	214.69
249.599	210.69
249.832	214.69
250.066	194.69
250.299	220.69
250.532	207.69
250.765	226.69
250.998	239.69
251.231	229.69
251.465	225.69
251.698	220.69
251.931	226.69
252.164	233.69
252.397	246.69
252.63	235.69
252.863	236.69
253.096	243.69
253.329	247.69
253.562	260.69
253.795	238.69
254.028	254.69
254.261	265.69
254.494	243.69
254.727	256.69
254.96	243.69
255.193	273.69
255.426	261.69
255.659	271.69
255.892	272.69
256.124	263.69
256.357	258.69
256.59	256.69
256.823	260.69
257.056	270.69
257.289	258.69
257.521	271.69
257.754	280.69
257.987	285.69
258.22	288.69
258.452	295.69
258.685	276.69
258.918	269.69
259.151	291.69
259.383	282.69
259.616	288.69
259.849	289.69
260.081	292.69
260.314	278.69
260.547	272.69
260.779	304.69
261.012	300.69
261.244	301.69
261.477	304.69
261.71	304.69
261.942	315.69
262.175	297.69
262.407	326.69
262.64	308.69
262.872	296.69
263.105	305.69
263.337	320.69
263.57	310.69
263.802	312.69
264.035	307.69
264.267	309.69
264.499	319.69
264.732	312.69
264.964	322.69
265.197	311.69
265.429	310.69
265.661	319.69
265.894	309.69
266.126	326.69
266.358	330.69
266.591	304.69
266.823	337.69
267.055	321.69
267.287	340.69
267.52	328.69
267.752	330.69
267.984	340.69
268.216	320.69
268.448	314.69
268.681	326.69
268.913	336.69
269.145	327.69
269.377	328.69
269.609	332.69
269.841	339.69
270.073	345.69
270.306	347.69
270.538	364.69
270.77	344.69
271.002	325.69
271.234	341.69
271.466	354.69
271.698	351.69
271.93	341.69
272.162	342.69
272.394	377.69
272.626	357.69
272.858	365.69
273.09	329.69
273.322	362.69
273.553	348.69
273.785	345.69
274.017	370.69
274.249	359.69
274.481	376.69
274.713	370.69
274.945	372.69
275.176	378.69
275.408	380.69
275.64	395.69
275.872	385.69
276.104	385.69
276.335	371.69
276.567	380.69
276.799	374.69
277.031	373.69
277.262	381.69
277.494	374.69
277.726	375.69
277.957	361.69
278.189	376.69
278.421	388.69
278.652	393.69
278.884	401.69
279.115	402.69
279.347	398.69
279.579	385.69
279.81	406.69
280.042	373.69
280.273	390.69
280.505	409.69
280.736	401.69
280.968	409.69
281.199	425.69
281.431	404.69
281.662	400.69
281.894	397.69
282.125	434.69
282.356	427.69
282.588	402.69
282.819	417.69
283.051	424.69
283.282	420.69
283.513	411.69
283.745	403.69
283.976	415.69
284.207	420.69
284.439	413.69
284.67	434.69
284.901	413.69
285.132	429.69
285.364	425.69
285.595	440.69
285.826	440.69
286.057	458.69
286.288	461.69
286.52	450.69
286.751	432.69
286.982	442.69
287.213	430.69
287.444	460.69
287.675	436.69
287.906	443.69
288.138	443.69
288.369	438.69
288.6	446.69
288.831	473.69
289.062	462.69
289.293	450.69
289.524	461.69
289.755	456.69
289.986	445.69
290.217	469.69
290.448	488.69
290.679	459.69
290.91	467.69
291.141	457.69
291.371	463.69
291.602	458.69
291.833	471.69
292.064	452.69
292.295	473.69
292.526	448.69
292.757	462.69
292.987	450.69
293.218	458.69
293.449	447.69
293.68	477.69
293.91	466.69
294.141	480.69
294.372	474.69
294.603	480.69
294.833	477.69
295.064	448.69
295.295	457.69
295.525	472.69
295.756	472.69
295.987	465.69
296.217	476.69
296.448	462.69
296.679	481.69
296.909	476.69
297.14	502.69
297.37	476.69
297.601	497.69
297.831	509.69
298.062	478.69
298.292	491.69
298.523	502.69
298.753	510.69
298.984	484.69
299.214	484.69
299.445	505.69
299.675	500.69
299.905	522.69
300.136	530.69
300.366	514.69
300.597	521.69
300.827	536.69
301.057	536.69
301.288	529.69
301.518	541.69
301.748	537.69
301.979	537.69
302.209	532.69
302.439	527.69
302.669	528.69
302.9	522.69
303.13	513.69
303.36	521.69
303.59	545.69
303.82	527.69
304.051	530.69
304.281	541.69
304.511	531.69
304.741	516.69
304.971	537.69
305.201	535.69
305.431	547.69
305.661	523.69
305.891	530.69
306.121	524.69
306.352	531.69
306.582	523.69
306.812	505.69
307.042	523.69
307.272	522.69
307.502	518.69
307.731	544.69
307.961	524.69
308.191	513.69
308.421	524.69
308.651	534.69
308.881	483.69
309.111	512.69
309.341	525.69
309.571	512.69
309.8	533.69
310.03	526.69
310.26	549.69
310.49	538.69
310.72	543.69
310.949	532.69
311.179	543.69
311.409	516.69
311.639	530.69
311.868	523.69
312.098	527.69
312.328	560.69
312.557	556.69
312.787	566.69
313.017	562.69
313.246	557.69
313.476	571.69
313.706	562.69
313.935	560.69
314.165	557.69
314.394	584.69
314.624	568.69
314.853	579.69
315.083	560.69
315.312	587.69
315.542	594.69
315.771	560.69
316.001	579.69
316.23	574.69
316.46	567.69
316.689	562.69
316.919	579.69
317.148	581.69
317.377	566.69
317.607	582.69
317.836	572.69
318.065	556.69
318.295	577.69
318.524	567.69
318.753	581.69
318.983	533.69
319.212	567.69
319.441	563.69
319.67	566.69
319.9	576.69
320.129	573.69
320.358	574.69
320.587	585.69
320.816	581.69
321.046	572.69
321.275	574.69
321.504	586.69
321.733	595.69
321.962	560.69
322.191	581.69
322.42	606.69
322.649	600.69
322.878	601.69
323.108	589.69
323.337	615.69
323.566	603.69
323.795	613.69
324.024	590.69
324.253	610.69
324.482	600.69
324.71	610.69
324.939	614.69
325.168	618.69
325.397	606.69
325.626	632.69
325.855	631.69
326.084	636.69
326.313	650.69
326.542	637.69
326.77	649.69
326.999	660.69
327.228	643.69
327.457	662.69
327.686	664.69
327.914	647.69
328.143	675.69
328.372	642.69
328.6	676.69
328.829	670.69
329.058	648.69
329.287	664.69
329.515	675.69
329.744	670.69
329.972	678.69
330.201	652.69
330.43	666.69
330.658	684.69
330.887	694.69
331.115	676.69
331.344	713.69
331.572	692.69
331.801	726.69
332.03	727.69
332.258	745.69
332.486	749.69
332.715	775.69
332.943	818.69
333.172	835.69
333.4	851.69
333.629	885.69
333.857	896.69
334.085	885.69
334.314	893.69
334.542	884.69
334.771	877.69
334.999	850.69
335.227	830.69
335.455	860.69
335.684	831.69
335.912	832.69
336.14	845.69
336.369	825.69
336.597	828.69
336.825	821.69
337.053	822.69
337.281	794.69
337.51	811.69
337.738	779.69
337.966	770.69
338.194	779.69
338.422	772.69
338.65	739.69
338.878	749.69
339.106	742.69
339.334	747.69
339.562	756.69
339.79	715.69
340.018	699.69
340.246	722.69
340.474	714.69
340.702	700.69
340.93	725.69
341.158	726.69
341.386	745.69
341.614	746.69
341.842	706.69
342.07	698.69
342.298	700.69
342.526	717.69
342.754	714.69
342.981	722.69
343.209	736.69
343.437	747.69
343.665	813.69
343.893	870.69
344.12	855.69
344.348	854.69
344.576	802.69
344.804	793.69
345.031	741.69
345.259	733.69
345.487	739.69
345.714	724.69
345.942	731.69
346.17	726.69
346.397	734.69
346.625	709.69
346.853	677.69
347.08	685.69
347.308	700.69
347.535	680.69
347.763	707.69
347.99	711.69
348.218	705.69
348.445	679.69
348.673	660.69
348.9	705.69
349.128	706.69
349.355	699.69
349.583	696.69
349.81	681.69
350.037	680.69
350.265	662.69
350.492	672.69
350.72	687.69
350.947	665.69
351.174	686.69
351.402	688.69
351.629	682.69
351.856	672.69
352.083	662.69
352.311	660.69
352.538	679.69
352.765	698.69
352.992	655.69
353.22	648.69
353.447	664.69
353.674	630.69
353.901	661.69
354.128	660.69
354.355	654.69
354.583	656.69
354.81	662.69
355.037	662.69
355.264	666.69
355.491	649.69
355.718	650.69
355.945	648.69
356.172	656.69
356.399	672.69
356.626	678.69
356.853	677.69
357.08	657.69
357.307	676.69
357.534	673.69
357.761	666.69
357.988	673.69
358.215	689.69
358.441	663.69
358.668	665.69
358.895	665.69
359.122	653.69
359.349	649.69
359.576	673.69
359.802	657.69
360.029	675.69
360.256	661.69
360.483	681.69
360.709	653.69
360.936	661.69
361.163	660.69
361.39	670.69
361.616	673.69
361.843	683.69
362.07	679.69
362.296	669.69
362.523	654.69
362.749	678.69
362.976	666.69
363.203	655.69
363.429	645.69
363.656	650.69
363.882	667.69
364.109	636.69
364.335	657.69
364.562	645.69
364.788	645.69
365.015	671.69
365.241	654.69
365.468	652.69
365.694	656.69
365.92	636.69
366.147	650.69
366.373	673.69
366.599	679.69
366.826	655.69
367.052	661.69
367.278	656.69
367.505	651.69
367.731	688.69
367.957	669.69
368.184	655.69
368.41	681.69
368.636	676.69
368.862	680.69
369.089	678.69
369.315	665.69
369.541	652.69
369.767	690.69
369.993	684.69
370.219	695.69
370.445	678.69
370.672	696.69
370.898	713.69
371.124	700.69
371.35	688.69
371.576	672.69
371.802	709.69
372.028	724.69
372.254	727.69
372.48	721.69
372.706	730.69
372.932	747.69
373.158	725.69
373.384	712.69
373.61	702.69
373.835	722.69
374.061	730.69
374.287	723.69
374.513	707.69
374.739	767.69
374.965	757.69
375.191	788.69
375.416	788.69
375.642	744.69
375.868	714.69
376.094	715.69
376.319	709.69
376.545	705.69
376.771	698.69
376.997	715.69
377.222	718.69
377.448	709.69
377.674	726.69
377.899	706.69
378.125	684.69
378.35	724.69
378.576	710.69
378.802	700.69
379.027	708.69
379.253	689.69
379.478	667.69
379.704	721.69
379.929	676.69
380.155	708.69
380.38	701.69
380.606	683.69
380.831	697.69
381.057	701.69
381.282	709.69
381.507	702.69
381.733	706.69
381.958	716.69
382.184	731.69
382.409	721.69
382.634	746.69
382.86	710.69
383.085	736.69
383.31	753.69
383.535	749.69
383.761	756.69
383.986	779.69
384.211	794.69
384.436	782.69
384.662	816.69
384.887	833.69
385.112	809.69
385.337	830.69
385.562	845.69
385.787	830.69
386.013	849.69
386.238	851.69
386.463	869.69
386.688	861.69
386.913	836.69
387.138	848.69
387.363	808.69
387.588	809.69
387.813	843.69
388.038	826.69
388.263	800.69
388.488	863.69
388.713	827.69
388.938	834.69
389.163	834.69
389.387	817.69
389.612	806.69
389.837	827.69
390.062	825.69
390.287	833.69
390.512	803.69
390.736	801.69
390.961	856.69
391.186	865.69
391.411	883.69
391.636	892.69
391.86	900.69
392.085	944.69
392.31	951.69
392.534	944.69
392.759	897.69
392.984	898.69
393.208	897.69
393.433	888.69
393.658	883.69
393.882	870.69
394.107	875.69
394.331	908.69
394.556	892.69
394.78	892.69
395.005	901.69
395.229	922.69
395.454	907.69
395.678	940.69
395.903	953.69
396.127	941.69
396.352	919.69
396.576	916.69
396.801	897.69
397.025	894.69
397.249	938.69
397.474	930.69
397.698	920.69
397.922	969.69
398.147	984.69
398.371	958.69
398.595	976.69
398.82	1080.69
399.044	1136.69
399.268	1276.69
399.492	1388.69
399.717	1507.69
399.941	1536.69
400.165	1381.69
400.389	1274.69
400.613	1198.69
400.837	1145.69
401.062	1108.69
401.286	1108.69
401.51	1080.69
401.734	1068.69
401.958	1052.69
402.182	1089.69
402.406	1075.69
402.63	1108.69
402.854	1130.69
403.078	1121.69
403.302	1130.69
403.526	1178.69
403.75	1176.69
403.974	1182.69
404.198	1193.69
404.422	1213.69
404.645	1194.69
404.869	1185.69
405.093	1178.69
405.317	1172.69
405.541	1174.69
405.765	1194.69
405.988	1164.69
406.212	1167.69
406.436	1170.69
406.66	1200.69
406.883	1187.69
407.107	1314.69
407.331	1339.69
407.555	1363.69
407.778	1387.69
408.002	1316.69
408.226	1284.69
408.449	1275.69
408.673	1250.69
408.896	1211.69
409.12	1184.69
409.344	1236.69
409.567	1198.69
409.791	1195.69
410.014	1183.69
410.238	1186.69
410.461	1158.69
410.685	1180.69
410.908	1147.69
411.132	1121.69
411.355	1072.69
411.578	1106.69
411.802	1124.69
412.025	1132.69
412.249	1150.69
412.472	1117.69
412.695	1106.69
412.919	1104.69
413.142	1061.69
413.365	1080.69
413.589	1096.69
413.812	1054.69
414.035	1063.69
414.258	1084.69
414.482	1097.69
414.705	1111.69
414.928	1093.69
415.151	1090.69
415.374	1088.69
415.597	1088.69
415.821	1065.69
416.044	1037.69
416.267	1045.69
416.49	1065.69
416.713	1022.69
416.936	1047.69
417.159	1038.69
417.382	1068.69
417.605	1059.69
417.828	1067.69
418.051	1078.69
418.274	1058.69
418.497	1071.69
418.72	1101.69
418.943	1106.69
419.166	1143.69
419.389	1234.69
419.611	1175.69
419.834	1177.69
420.057	1093.69
420.28	1075.69
420.503	1076.69
420.726	1073.69
420.948	1069.69
421.171	1059.69
421.394	1033.69
421.617	1059.69
421.839	1062.69
422.062	1097.69
422.285	1052.69
422.507	1099.69
422.73	1085.69
422.953	1130.69
423.175	1100.69
423.398	1103.69
423.621	1100.69
423.843	1103.69
424.066	1124.69
424.288	1121.69
424.511	1092.69
424.733	1119.69
424.956	1125.69
425.178	1074.69
425.401	1082.69
425.623	1069.69
425.846	1037.69
426.068	1031.69
426.291	1017.69
426.513	1022.69
426.735	1044.69
426.958	1012.69
427.18	1001.69
427.402	989.69
427.625	987.69
427.847	957.69
428.069	982.69
428.292	990.69
428.514	967.69
428.736	976.69
428.958	982.69
429.181	953.69
429.403	947.69
429.625	945.69
429.847	953.69
430.069	929.69
430.292	941.69
430.514	958.69
430.736	936.69
430.958	959.69
431.18	933.69
431.402	965.69
431.624	962.69
431.846	957.69
432.068	960.69
432.29	989.69
432.512	952.69
432.734	972.69
432.956	957.69
433.178	989.69
433.4	978.69
433.622	980.69
433.844	977.69
434.066	991.69
434.287	962.69
434.509	1025.69
434.731	1034.69
434.953	1046.69
435.175	1106.69
435.397	1070.69
435.618	1058.69
435.84	979.69
436.062	964.69
436.284	977.69
436.505	980.69
436.727	968.69
436.949	1010.69
437.17	970.69
437.392	980.69
437.614	943.69
437.835	927.69
438.057	935.69
438.278	903.69
438.5	929.69
438.721	954.69
438.943	969.69
439.165	948.69
439.386	957.69
439.608	963.69
439.829	964.69
440.05	992.69
440.272	983.69
440.493	1001.69
440.715	991.69
440.936	1009.69
441.158	1038.69
441.379	1074.69
441.6	1134.69
441.822	1110.69
442.043	1134.69
442.264	1082.69
442.486	1048.69
442.707	1090.69
442.928	1081.69
443.149	1051.69
443.371	1066.69
443.592	1085.69
443.813	1112.69
444.034	1115.69
444.255	1162.69
444.476	1185.69
444.698	1238.69
444.919	1290.69
445.14	1388.69
445.361	1234.69
445.582	1105.69
445.803	1089.69
446.024	1080.69
446.245	1047.69
446.466	1000.69
446.687	987.69
446.908	1034.69
447.129	979.69
447.35	948.69
447.571	995.69
447.792	937.69
448.013	924.69
448.234	924.69
448.455	910.69
448.675	914.69
448.896	913.69
449.117	909.69
449.338	896.69
449.559	889.69
449.779	876.69
450	876.69
450.221	901.69
450.442	939.69
450.662	923.69
450.883	910.69
451.104	917.69
451.324	916.69
451.545	911.69
451.766	900.69
451.986	887.69
452.207	866.69
452.428	869.69
452.648	889.69
452.869	854.69
453.089	865.69
453.31	841.69
453.53	827.69
453.751	868.69
453.971	839.69
454.192	873.69
454.412	872.69
454.633	850.69
454.853	860.69
455.073	841.69
455.294	843.69
455.514	833.69
455.734	866.69
455.955	830.69
456.175	836.69
456.395	838.69
456.616	828.69
456.836	866.69
457.056	824.69
457.276	796.69
457.497	809.69
457.717	845.69
457.937	847.69
458.157	867.69
458.377	853.69
458.598	873.69
458.818	886.69
459.038	910.69
459.258	940.69
459.478	973.69
459.698	1013.69
459.918	1031.69
460.138	1064.69
460.358	1122.69
460.578	1127.69
460.798	1137.69
461.018	1143.69
461.238	1130.69
461.458	1160.69
461.678	1137.69
461.898	1176.69
462.118	1181.69
462.338	1244.69
462.558	1248.69
462.777	1294.69
462.997	1396.69
463.217	1486.69
463.437	1493.69
463.657	1412.69
463.876	1356.69
464.096	1339.69
464.316	1324.69
464.536	1342.69
464.755	1315.69
464.975	1256.69
465.195	1176.69
465.414	1133.69
465.634	1060.69
465.854	1028.69
466.073	1012.69
466.293	981.69
466.512	978.69
466.732	934.69
466.951	962.69
467.171	925.69
467.391	984.69
467.61	937.69
467.829	928.69
468.049	938.69
468.268	896.69
468.488	902.69
468.707	906.69
468.927	923.69
469.146	892.69
469.365	930.69
469.585	915.69
469.804	964.69
470.023	944.69
470.243	981.69
470.462	939.69
470.681	983.69
470.901	974.69
471.12	937.69
471.339	967.69
471.558	957.69
471.777	923.69
471.997	920.69
472.216	898.69
472.435	901.69
472.654	878.69
472.873	859.69
473.092	865.69
473.311	885.69
473.53	860.69
473.749	889.69
473.968	859.69
474.187	867.69
474.406	858.69
474.625	911.69
474.844	886.69
475.063	933.69
475.282	917.69
475.501	906.69
475.72	896.69
475.939	888.69
476.158	916.69
476.377	925.69
476.596	899.69
476.814	918.69
477.033	925.69
477.252	944.69
477.471	942.69
477.69	989.69
477.908	1012.69
478.127	1052.69
478.346	1048.69
478.564	1050.69
478.783	1090.69
479.002	1099.69
479.22	1099.69
479.439	1074.69
479.658	1080.69
479.876	1084.69
480.095	1092.69
480.313	1124.69
480.532	1113.69
480.751	1128.69
480.969	1088.69
481.188	1064.69
481.406	1093.69
481.624	1032.69
481.843	1020.69
482.061	1002.69
482.28	998.69
482.498	971.69
482.717	985.69
482.935	997.69
483.153	1007.69
483.372	983.69
483.59	1008.69
483.808	1013.69
484.027	1002.69
484.245	1001.69
484.463	1044.69
484.681	999.69
484.9	1032.69
485.118	1043.69
485.336	1012.69
485.554	1059.69
485.772	1041.69
485.99	1026.69
486.209	1033.69
486.427	1008.69
486.645	1045.69
486.863	1068.69
487.081	1040.69
487.299	1037.69
487.517	1047.69
487.735	1036.69
487.953	1053.69
488.171	1062.69
488.389	1028.69
488.607	1058.69
488.825	1022.69
489.043	1024.69
489.261	1024.69
489.479	1031.69
489.696	1067.69
489.914	1057.69
490.132	1045.69
490.35	1032.69
490.568	1050.69
490.786	1062.69
491.003	1071.69
491.221	1064.69
491.439	1080.69
491.657	1064.69
491.874	1066.69
492.092	1078.69
492.31	1082.69
492.527	1085.69
492.745	1114.69
492.963	1069.69
493.18	1075.69
493.398	1077.69
493.615	1106.69
493.833	1082.69
494.05	1098.69
494.268	1145.69
494.485	1111.69
494.703	1109.69
494.92	1129.69
495.138	1126.69
495.355	1132.69
495.573	1113.69
495.79	1127.69
496.008	1146.69
496.225	1131.69
496.442	1172.69
496.66	1188.69
496.877	1172.69
497.094	1220.69
497.312	1221.69
497.529	1276.69
497.746	1285.69
