Data from Ni(NO3)2@0.0625M.TitratingCurve.Agarose3%dH2O.NegLispCup.LampEnergy10.LIBS07252019_HRD10591_18-14-17-568.txt Node
Date: Thu Jul 25 18:14:17 EDT 2019
User: cochatt
Spectrometer: HR+D1059
Trigger mode: 1
Integration Time (sec): 1.000000E-1
Scans to average: 1
Electric dark correction enabled: true
Nonlinearity correction enabled: false
Boxcar width: 0
XAxis mode: Wavelengths
Number of Pixels in Spectrum: 2048
>>>>>Begin Spectral Data<<<<<
223.165	-9.94
223.4	-9.94
223.635	-9.94
223.869	-27.94
224.104	-16.94
224.338	-15.94
224.573	-23.94
224.808	-10.94
225.042	-6.94
225.277	-1.94
225.511	-4.94
225.746	6.06
225.98	11.06
226.215	2.06
226.449	28.06
226.683	31.06
226.918	22.06
227.152	19.06
227.387	34.06
227.621	23.06
227.856	32.06
228.09	46.06
228.324	48.06
228.559	40.06
228.793	69.06
229.027	84.06
229.262	92.06
229.496	100.06
229.73	104.06
229.964	107.06
230.199	126.06
230.433	105.06
230.667	107.06
230.901	120.06
231.136	131.06
231.37	126.06
231.604	124.06
231.838	130.06
232.072	124.06
232.306	121.06
232.541	130.06
232.775	130.06
233.009	138.06
233.243	123.06
233.477	118.06
233.711	124.06
233.945	123.06
234.179	123.06
234.413	124.06
234.647	132.06
234.881	112.06
235.115	117.06
235.349	132.06
235.583	126.06
235.817	120.06
236.051	104.06
236.285	128.06
236.519	126.06
236.753	135.06
236.987	131.06
237.221	134.06
237.455	135.06
237.689	140.06
237.922	130.06
238.156	156.06
238.39	121.06
238.624	134.06
238.858	134.06
239.091	135.06
239.325	152.06
239.559	140.06
239.793	138.06
240.027	135.06
240.26	135.06
240.494	138.06
240.728	146.06
240.961	155.06
241.195	144.06
241.429	148.06
241.662	147.06
241.896	162.06
242.13	157.06
242.363	147.06
242.597	150.06
242.83	154.06
243.064	165.06
243.298	164.06
243.531	175.06
243.765	186.06
243.998	161.06
244.232	151.06
244.465	164.06
244.699	171.06
244.932	176.06
245.166	166.06
245.399	166.06
245.633	160.06
245.866	179.06
246.099	178.06
246.333	185.06
246.566	175.06
246.8	172.06
247.033	174.06
247.266	171.06
247.5	188.06
247.733	183.06
247.966	167.06
248.2	185.06
248.433	190.06
248.666	193.06
248.899	184.06
249.133	194.06
249.366	215.06
249.599	192.06
249.832	200.06
250.066	209.06
250.299	204.06
250.532	188.06
250.765	204.06
250.998	196.06
251.231	194.06
251.465	190.06
251.698	202.06
251.931	218.06
252.164	213.06
252.397	202.06
252.63	218.06
252.863	207.06
253.096	223.06
253.329	227.06
253.562	212.06
253.795	219.06
254.028	211.06
254.261	217.06
254.494	218.06
254.727	212.06
254.96	210.06
255.193	222.06
255.426	207.06
255.659	218.06
255.892	221.06
256.124	210.06
256.357	227.06
256.59	221.06
256.823	216.06
257.056	219.06
257.289	222.06
257.521	226.06
257.754	262.06
257.987	232.06
258.22	233.06
258.452	231.06
258.685	232.06
258.918	233.06
259.151	213.06
259.383	235.06
259.616	257.06
259.849	239.06
260.081	235.06
260.314	238.06
260.547	243.06
260.779	244.06
261.012	241.06
261.244	250.06
261.477	258.06
261.71	254.06
261.942	242.06
262.175	238.06
262.407	248.06
262.64	243.06
262.872	254.06
263.105	259.06
263.337	247.06
263.57	254.06
263.802	266.06
264.035	268.06
264.267	260.06
264.499	274.06
264.732	284.06
264.964	263.06
265.197	266.06
265.429	264.06
265.661	264.06
265.894	274.06
266.126	262.06
266.358	256.06
266.591	267.06
266.823	280.06
267.055	272.06
267.287	297.06
267.52	268.06
267.752	278.06
267.984	282.06
268.216	270.06
268.448	290.06
268.681	289.06
268.913	295.06
269.145	280.06
269.377	286.06
269.609	258.06
269.841	284.06
270.073	281.06
270.306	299.06
270.538	286.06
270.77	280.06
271.002	282.06
271.234	282.06
271.466	290.06
271.698	295.06
271.93	299.06
272.162	308.06
272.394	278.06
272.626	308.06
272.858	292.06
273.09	317.06
273.322	328.06
273.553	320.06
273.785	307.06
274.017	289.06
274.249	301.06
274.481	306.06
274.713	306.06
274.945	313.06
275.176	317.06
275.408	310.06
275.64	321.06
275.872	311.06
276.104	325.06
276.335	300.06
276.567	306.06
276.799	316.06
277.031	321.06
277.262	318.06
277.494	320.06
277.726	328.06
277.957	315.06
278.189	304.06
278.421	312.06
278.652	320.06
278.884	350.06
279.115	326.06
279.347	330.06
279.579	332.06
279.81	352.06
280.042	338.06
280.273	331.06
280.505	351.06
280.736	332.06
280.968	334.06
281.199	345.06
281.431	347.06
281.662	322.06
281.894	326.06
282.125	342.06
282.356	353.06
282.588	334.06
282.819	335.06
283.051	346.06
283.282	349.06
283.513	336.06
283.745	382.06
283.976	359.06
284.207	350.06
284.439	337.06
284.67	332.06
284.901	368.06
285.132	378.06
285.364	371.06
285.595	376.06
285.826	355.06
286.057	346.06
286.288	359.06
286.52	378.06
286.751	378.06
286.982	377.06
287.213	360.06
287.444	358.06
287.675	371.06
287.906	376.06
288.138	379.06
288.369	372.06
288.6	372.06
288.831	384.06
289.062	385.06
289.293	383.06
289.524	394.06
289.755	397.06
289.986	386.06
290.217	391.06
290.448	386.06
290.679	390.06
290.91	392.06
291.141	392.06
291.371	416.06
291.602	402.06
291.833	389.06
292.064	390.06
292.295	383.06
292.526	403.06
292.757	377.06
292.987	394.06
293.218	374.06
293.449	387.06
293.68	387.06
293.91	375.06
294.141	402.06
294.372	403.06
294.603	385.06
294.833	409.06
295.064	404.06
295.295	400.06
295.525	393.06
295.756	427.06
295.987	421.06
296.217	428.06
296.448	413.06
296.679	416.06
296.909	420.06
297.14	419.06
297.37	435.06
297.601	430.06
297.831	431.06
298.062	439.06
298.292	456.06
298.523	446.06
298.753	456.06
298.984	439.06
299.214	438.06
299.445	427.06
299.675	427.06
299.905	430.06
300.136	424.06
300.366	412.06
300.597	437.06
300.827	459.06
301.057	453.06
301.288	473.06
301.518	457.06
301.748	469.06
301.979	455.06
302.209	462.06
302.439	450.06
302.669	464.06
302.9	450.06
303.13	451.06
303.36	436.06
303.59	443.06
303.82	457.06
304.051	448.06
304.281	444.06
304.511	434.06
304.741	447.06
304.971	436.06
305.201	446.06
305.431	429.06
305.661	434.06
305.891	436.06
306.121	456.06
306.352	447.06
306.582	428.06
306.812	421.06
307.042	429.06
307.272	422.06
307.502	442.06
307.731	447.06
307.961	434.06
308.191	433.06
308.421	425.06
308.651	426.06
308.881	420.06
309.111	427.06
309.341	419.06
309.571	431.06
309.8	425.06
310.03	427.06
310.26	422.06
310.49	428.06
310.72	450.06
310.949	453.06
311.179	426.06
311.409	453.06
311.639	441.06
311.868	451.06
312.098	481.06
312.328	445.06
312.557	456.06
312.787	447.06
313.017	449.06
313.246	468.06
313.476	486.06
313.706	488.06
313.935	466.06
314.165	467.06
314.394	481.06
314.624	458.06
314.853	460.06
315.083	469.06
315.312	472.06
315.542	448.06
315.771	463.06
316.001	462.06
316.23	460.06
316.46	440.06
316.689	473.06
316.919	466.06
317.148	469.06
317.377	439.06
317.607	444.06
317.836	454.06
318.065	419.06
318.295	458.06
318.524	449.06
318.753	437.06
318.983	469.06
319.212	440.06
319.441	440.06
319.67	449.06
319.9	438.06
320.129	463.06
320.358	450.06
320.587	461.06
320.816	460.06
321.046	450.06
321.275	462.06
321.504	436.06
321.733	439.06
321.962	454.06
322.191	470.06
322.42	454.06
322.649	457.06
322.878	450.06
323.108	460.06
323.337	464.06
323.566	444.06
323.795	463.06
324.024	474.06
324.253	468.06
324.482	476.06
324.71	461.06
324.939	472.06
325.168	458.06
325.397	464.06
325.626	470.06
325.855	471.06
326.084	475.06
326.313	486.06
326.542	507.06
326.77	494.06
326.999	507.06
327.228	499.06
327.457	484.06
327.686	498.06
327.914	474.06
328.143	497.06
328.372	504.06
328.6	494.06
328.829	497.06
329.058	474.06
329.287	486.06
329.515	511.06
329.744	485.06
329.972	522.06
330.201	488.06
330.43	514.06
330.658	512.06
330.887	525.06
331.115	512.06
331.344	520.06
331.572	547.06
331.801	557.06
332.03	552.06
332.258	570.06
332.486	594.06
332.715	622.06
332.943	640.06
333.172	668.06
333.4	686.06
333.629	703.06
333.857	706.06
334.085	702.06
334.314	673.06
334.542	638.06
334.771	646.06
334.999	645.06
335.227	640.06
335.455	625.06
335.684	616.06
335.912	622.06
336.14	596.06
336.369	600.06
336.597	602.06
336.825	622.06
337.053	609.06
337.281	607.06
337.51	599.06
337.738	579.06
337.966	565.06
338.194	554.06
338.422	540.06
338.65	562.06
338.878	516.06
339.106	542.06
339.334	553.06
339.562	528.06
339.79	538.06
340.018	534.06
340.246	523.06
340.474	527.06
340.702	514.06
340.93	518.06
341.158	538.06
341.386	524.06
341.614	540.06
341.842	529.06
342.07	517.06
342.298	506.06
342.526	518.06
342.754	548.06
342.981	528.06
343.209	548.06
343.437	584.06
343.665	588.06
343.893	662.06
344.12	684.06
344.348	646.06
344.576	588.06
344.804	578.06
345.031	548.06
345.259	543.06
345.487	545.06
345.714	533.06
345.942	551.06
346.17	521.06
346.397	528.06
346.625	498.06
346.853	519.06
347.08	509.06
347.308	534.06
347.535	527.06
347.763	525.06
347.99	519.06
348.218	529.06
348.445	523.06
348.673	525.06
348.9	500.06
349.128	512.06
349.355	533.06
349.583	501.06
349.81	494.06
350.037	494.06
350.265	495.06
350.492	482.06
350.72	484.06
350.947	485.06
351.174	493.06
351.402	491.06
351.629	490.06
351.856	488.06
352.083	477.06
352.311	495.06
352.538	483.06
352.765	490.06
352.992	482.06
353.22	491.06
353.447	487.06
353.674	487.06
353.901	511.06
354.128	487.06
354.355	495.06
354.583	484.06
354.81	504.06
355.037	508.06
355.264	476.06
355.491	504.06
355.718	499.06
355.945	478.06
356.172	492.06
356.399	494.06
356.626	505.06
356.853	474.06
357.08	487.06
357.307	489.06
357.534	499.06
357.761	500.06
357.988	495.06
358.215	502.06
358.441	480.06
358.668	506.06
358.895	495.06
359.122	475.06
359.349	494.06
359.576	476.06
359.802	489.06
360.029	476.06
360.256	488.06
360.483	514.06
360.709	489.06
360.936	489.06
361.163	488.06
361.39	490.06
361.616	497.06
361.843	502.06
362.07	480.06
362.296	495.06
362.523	474.06
362.749	512.06
362.976	485.06
363.203	487.06
363.429	496.06
363.656	458.06
363.882	480.06
364.109	499.06
364.335	512.06
364.562	496.06
364.788	480.06
365.015	490.06
365.241	500.06
365.468	494.06
365.694	473.06
365.92	484.06
366.147	497.06
366.373	482.06
366.599	479.06
366.826	500.06
367.052	464.06
367.278	484.06
367.505	483.06
367.731	475.06
367.957	503.06
368.184	497.06
368.41	484.06
368.636	494.06
368.862	494.06
369.089	513.06
369.315	512.06
369.541	526.06
369.767	510.06
369.993	507.06
370.219	516.06
370.445	529.06
370.672	528.06
370.898	532.06
371.124	545.06
371.35	552.06
371.576	537.06
371.802	556.06
372.028	532.06
372.254	540.06
372.48	543.06
372.706	563.06
372.932	573.06
373.158	561.06
373.384	545.06
373.61	555.06
373.835	528.06
374.061	523.06
374.287	579.06
374.513	539.06
374.739	551.06
374.965	624.06
375.191	609.06
375.416	622.06
375.642	606.06
375.868	590.06
376.094	535.06
376.319	554.06
376.545	546.06
376.771	549.06
376.997	542.06
377.222	574.06
377.448	544.06
377.674	537.06
377.899	538.06
378.125	538.06
378.35	538.06
378.576	520.06
378.802	538.06
379.027	526.06
379.253	528.06
379.478	537.06
379.704	531.06
379.929	524.06
380.155	536.06
380.38	498.06
380.606	516.06
380.831	549.06
381.057	546.06
381.282	543.06
381.507	538.06
381.733	538.06
381.958	567.06
382.184	548.06
382.409	537.06
382.634	546.06
382.86	580.06
383.085	576.06
383.31	593.06
383.535	603.06
383.761	624.06
383.986	610.06
384.211	603.06
384.436	640.06
384.662	633.06
384.887	653.06
385.112	648.06
385.337	668.06
385.562	630.06
385.787	664.06
386.013	650.06
386.238	646.06
386.463	677.06
386.688	652.06
386.913	611.06
387.138	662.06
387.363	652.06
387.588	635.06
387.813	626.06
388.038	626.06
388.263	661.06
388.488	642.06
388.713	618.06
388.938	633.06
389.163	634.06
389.387	622.06
389.612	624.06
389.837	634.06
390.062	628.06
390.287	633.06
390.512	632.06
390.736	644.06
390.961	658.06
391.186	669.06
391.411	663.06
391.636	696.06
391.86	744.06
392.085	757.06
392.31	753.06
392.534	720.06
392.759	703.06
392.984	666.06
393.208	698.06
393.433	686.06
393.658	700.06
393.882	699.06
394.107	726.06
394.331	709.06
394.556	696.06
394.78	682.06
395.005	699.06
395.229	701.06
395.454	694.06
395.678	722.06
395.903	736.06
396.127	708.06
396.352	689.06
396.576	669.06
396.801	667.06
397.025	653.06
397.249	693.06
397.474	710.06
397.698	687.06
397.922	720.06
398.147	720.06
398.371	747.06
398.595	741.06
398.82	790.06
399.044	842.06
399.268	930.06
399.492	1134.06
399.717	1311.06
399.941	1320.06
400.165	1102.06
400.389	966.06
400.613	882.06
400.837	852.06
401.062	827.06
401.286	809.06
401.51	795.06
401.734	822.06
401.958	828.06
402.182	824.06
402.406	815.06
402.63	895.06
402.854	875.06
403.078	918.06
403.302	924.06
403.526	916.06
403.75	974.06
403.974	1010.06
404.198	992.06
404.422	975.06
404.645	970.06
404.869	992.06
405.093	939.06
405.317	910.06
405.541	904.06
405.765	906.06
405.988	909.06
406.212	928.06
406.436	874.06
406.66	884.06
406.883	934.06
407.107	993.06
407.331	1038.06
407.555	1093.06
407.778	1081.06
408.002	1046.06
408.226	1032.06
408.449	955.06
408.673	969.06
408.896	946.06
409.12	905.06
409.344	940.06
409.567	952.06
409.791	965.06
410.014	944.06
410.238	927.06
410.461	948.06
410.685	939.06
410.908	918.06
411.132	878.06
411.355	845.06
411.578	862.06
411.802	831.06
412.025	834.06
412.249	843.06
412.472	879.06
412.695	827.06
412.919	812.06
413.142	811.06
413.365	811.06
413.589	799.06
413.812	819.06
414.035	786.06
414.258	786.06
414.482	789.06
414.705	814.06
414.928	828.06
415.151	832.06
415.374	831.06
415.597	815.06
415.821	790.06
416.044	820.06
416.267	789.06
416.49	810.06
416.713	789.06
416.936	792.06
417.159	807.06
417.382	815.06
417.605	816.06
417.828	796.06
418.051	794.06
418.274	798.06
418.497	831.06
418.72	827.06
418.943	830.06
419.166	887.06
419.389	950.06
419.611	921.06
419.834	878.06
420.057	870.06
420.28	821.06
420.503	785.06
420.726	816.06
420.948	810.06
421.171	816.06
421.394	804.06
421.617	789.06
421.839	818.06
422.062	847.06
422.285	828.06
422.507	868.06
422.73	859.06
422.953	885.06
423.175	861.06
423.398	865.06
423.621	880.06
423.843	885.06
424.066	895.06
424.288	915.06
424.511	906.06
424.733	868.06
424.956	854.06
425.178	805.06
425.401	828.06
425.623	800.06
425.846	796.06
426.068	777.06
426.291	772.06
426.513	759.06
426.735	759.06
426.958	780.06
427.18	746.06
427.402	708.06
427.625	732.06
427.847	731.06
428.069	716.06
428.292	719.06
428.514	733.06
428.736	704.06
428.958	720.06
429.181	695.06
429.403	676.06
429.625	673.06
429.847	706.06
430.069	711.06
430.292	715.06
430.514	706.06
430.736	712.06
430.958	699.06
431.18	709.06
431.402	698.06
431.624	692.06
431.846	714.06
432.068	731.06
432.29	756.06
432.512	729.06
432.734	700.06
432.956	723.06
433.178	717.06
433.4	738.06
433.622	729.06
433.844	727.06
434.066	715.06
434.287	724.06
434.509	766.06
434.731	818.06
434.953	831.06
435.175	846.06
435.397	847.06
435.618	779.06
435.84	773.06
436.062	743.06
436.284	729.06
436.505	750.06
436.727	723.06
436.949	737.06
437.17	731.06
437.392	722.06
437.614	721.06
437.835	683.06
438.057	709.06
438.278	694.06
438.5	694.06
438.721	671.06
438.943	699.06
439.165	679.06
439.386	708.06
439.608	713.06
439.829	725.06
440.05	758.06
440.272	727.06
440.493	732.06
440.715	738.06
440.936	772.06
441.158	762.06
441.379	759.06
441.6	839.06
441.822	851.06
442.043	835.06
442.264	804.06
442.486	809.06
442.707	829.06
442.928	830.06
443.149	796.06
443.371	807.06
443.592	819.06
443.813	808.06
444.034	871.06
444.255	850.06
444.476	912.06
444.698	990.06
444.919	1024.06
445.14	1094.06
445.361	972.06
445.582	863.06
445.803	810.06
446.024	784.06
446.245	754.06
446.466	747.06
446.687	752.06
446.908	765.06
447.129	736.06
447.35	707.06
447.571	707.06
447.792	695.06
448.013	688.06
448.234	671.06
448.455	683.06
448.675	665.06
448.896	679.06
449.117	646.06
449.338	672.06
449.559	653.06
449.779	680.06
450	660.06
450.221	661.06
450.442	676.06
450.662	656.06
450.883	692.06
451.104	712.06
451.324	680.06
451.545	694.06
451.766	684.06
451.986	662.06
452.207	659.06
452.428	701.06
452.648	684.06
452.869	666.06
453.089	664.06
453.31	640.06
453.53	677.06
453.751	678.06
453.971	647.06
454.192	665.06
454.412	655.06
454.633	633.06
454.853	650.06
455.073	629.06
455.294	622.06
455.514	632.06
455.734	616.06
455.955	613.06
456.175	622.06
456.395	624.06
456.616	628.06
456.836	632.06
457.056	632.06
457.276	618.06
457.497	644.06
457.717	622.06
457.937	634.06
458.157	642.06
458.377	655.06
458.598	663.06
458.818	684.06
459.038	698.06
459.258	700.06
459.478	760.06
459.698	739.06
459.918	771.06
460.138	806.06
460.358	886.06
460.578	908.06
460.798	894.06
461.018	898.06
461.238	858.06
461.458	873.06
461.678	880.06
461.898	884.06
462.118	890.06
462.338	963.06
462.558	980.06
462.777	1007.06
462.997	1073.06
463.217	1227.06
463.437	1218.06
463.657	1089.06
463.876	1047.06
464.096	1038.06
464.316	1054.06
464.536	1050.06
464.755	1032.06
464.975	931.06
465.195	908.06
465.414	851.06
465.634	817.06
465.854	777.06
466.073	755.06
466.293	752.06
466.512	715.06
466.732	714.06
466.951	729.06
467.171	698.06
467.391	709.06
467.61	705.06
467.829	697.06
468.049	692.06
468.268	682.06
468.488	662.06
468.707	672.06
468.927	686.06
469.146	668.06
469.365	678.06
469.585	683.06
469.804	710.06
470.023	734.06
470.243	718.06
470.462	745.06
470.681	754.06
470.901	744.06
471.12	699.06
471.339	720.06
471.558	708.06
471.777	695.06
471.997	669.06
472.216	651.06
472.435	671.06
472.654	654.06
472.873	647.06
473.092	666.06
473.311	665.06
473.53	633.06
473.749	633.06
473.968	636.06
474.187	652.06
474.406	648.06
474.625	655.06
474.844	658.06
475.063	638.06
475.282	657.06
475.501	663.06
475.72	681.06
475.939	658.06
476.158	661.06
476.377	691.06
476.596	662.06
476.814	685.06
477.033	708.06
477.252	688.06
477.471	729.06
477.69	737.06
477.908	732.06
478.127	794.06
478.346	802.06
478.564	799.06
478.783	789.06
479.002	828.06
479.22	828.06
479.439	808.06
479.658	815.06
479.876	800.06
480.095	831.06
480.313	878.06
480.532	920.06
480.751	893.06
480.969	853.06
481.188	834.06
481.406	797.06
481.624	780.06
481.843	748.06
482.061	734.06
482.28	745.06
482.498	758.06
482.717	752.06
482.935	756.06
483.153	762.06
483.372	723.06
483.59	757.06
483.808	755.06
484.027	754.06
484.245	775.06
484.463	750.06
484.681	795.06
484.9	768.06
485.118	758.06
485.336	770.06
485.554	768.06
485.772	808.06
485.99	813.06
486.209	806.06
486.427	806.06
486.645	835.06
486.863	806.06
487.081	808.06
487.299	764.06
487.517	788.06
487.735	784.06
487.953	777.06
488.171	790.06
488.389	792.06
488.607	801.06
488.825	774.06
489.043	781.06
489.261	752.06
489.479	792.06
489.696	775.06
489.914	785.06
490.132	790.06
490.35	794.06
490.568	756.06
490.786	777.06
491.003	792.06
491.221	789.06
491.439	798.06
491.657	795.06
491.874	806.06
492.092	804.06
492.31	786.06
492.527	803.06
492.745	806.06
492.963	786.06
493.18	842.06
493.398	815.06
493.615	827.06
493.833	844.06
494.05	826.06
494.268	841.06
494.485	843.06
494.703	829.06
494.92	812.06
495.138	819.06
495.355	840.06
495.573	819.06
495.79	834.06
496.008	852.06
496.225	850.06
496.442	802.06
496.66	844.06
496.877	842.06
497.094	878.06
497.312	905.06
497.529	907.06
497.746	912.06
497.963	942.06
498.181	969.06
498.398	1017.06
498.615	1108.06
498.832	1190.06
499.049	1275.06
499.267	1336.06
499.484	1534.06
499.701	1690.06
499.918	1892.06
500.135	2232.06
500.352	2598.06
500.569	2788.06
500.786	2778.06
501.003	2505.06
501.22	2203.06
