Data from Ni(NO3)2@0.125M.TitratingCurve.Agarose3%dH2O.NegLispCup.LampEnergy10.LIBS07252019_HRD10591_18-10-10-568.txt Node
Date: Thu Jul 25 18:10:10 EDT 2019
User: cochatt
Spectrometer: HR+D1059
Trigger mode: 1
Integration Time (sec): 1.000000E-1
Scans to average: 1
Electric dark correction enabled: true
Nonlinearity correction enabled: false
Boxcar width: 0
XAxis mode: Wavelengths
Number of Pixels in Spectrum: 2048
>>>>>Begin Spectral Data<<<<<
223.165	-28.94
223.4	-28.94
223.635	-28.94
223.869	-27.94
224.104	-19.94
224.338	-2.94
224.573	6.06
224.808	-14.94
225.042	-24.94
225.277	-20.94
225.511	-11.94
225.746	12.06
225.98	20.06
226.215	7.06
226.449	20.06
226.683	25.06
226.918	17.06
227.152	45.06
227.387	45.06
227.621	43.06
227.856	40.06
228.09	65.06
228.324	54.06
228.559	69.06
228.793	68.06
229.027	121.06
229.262	112.06
229.496	142.06
229.73	131.06
229.964	130.06
230.199	141.06
230.433	150.06
230.667	141.06
230.901	167.06
231.136	129.06
231.37	143.06
231.604	149.06
231.838	151.06
232.072	148.06
232.306	169.06
232.541	157.06
232.775	159.06
233.009	176.06
233.243	160.06
233.477	172.06
233.711	149.06
233.945	150.06
234.179	157.06
234.413	169.06
234.647	162.06
234.881	147.06
235.115	159.06
235.349	172.06
235.583	169.06
235.817	186.06
236.051	168.06
236.285	162.06
236.519	184.06
236.753	176.06
236.987	173.06
237.221	182.06
237.455	170.06
237.689	161.06
237.922	181.06
238.156	176.06
238.39	177.06
238.624	189.06
238.858	186.06
239.091	195.06
239.325	181.06
239.559	200.06
239.793	179.06
240.027	186.06
240.26	189.06
240.494	176.06
240.728	197.06
240.961	204.06
241.195	214.06
241.429	197.06
241.662	204.06
241.896	213.06
242.13	220.06
242.363	221.06
242.597	232.06
242.83	228.06
243.064	214.06
243.298	206.06
243.531	206.06
243.765	233.06
243.998	245.06
244.232	230.06
244.465	242.06
244.699	244.06
244.932	253.06
245.166	250.06
245.399	246.06
245.633	228.06
245.866	258.06
246.099	244.06
246.333	260.06
246.566	262.06
246.8	258.06
247.033	260.06
247.266	259.06
247.5	250.06
247.733	263.06
247.966	272.06
248.2	263.06
248.433	271.06
248.666	275.06
248.899	274.06
249.133	261.06
249.366	285.06
249.599	274.06
249.832	295.06
250.066	291.06
250.299	282.06
250.532	289.06
250.765	286.06
250.998	299.06
251.231	300.06
251.465	295.06
251.698	306.06
251.931	304.06
252.164	311.06
252.397	315.06
252.63	320.06
252.863	315.06
253.096	308.06
253.329	307.06
253.562	325.06
253.795	312.06
254.028	329.06
254.261	325.06
254.494	325.06
254.727	312.06
254.96	330.06
255.193	335.06
255.426	333.06
255.659	343.06
255.892	346.06
256.124	336.06
256.357	333.06
256.59	332.06
256.823	338.06
257.056	334.06
257.289	353.06
257.521	344.06
257.754	359.06
257.987	354.06
258.22	368.06
258.452	350.06
258.685	354.06
258.918	364.06
259.151	350.06
259.383	374.06
259.616	372.06
259.849	374.06
260.081	375.06
260.314	357.06
260.547	358.06
260.779	372.06
261.012	388.06
261.244	399.06
261.477	381.06
261.71	395.06
261.942	392.06
262.175	382.06
262.407	411.06
262.64	392.06
262.872	394.06
263.105	402.06
263.337	383.06
263.57	402.06
263.802	411.06
264.035	384.06
264.267	404.06
264.499	394.06
264.732	411.06
264.964	413.06
265.197	389.06
265.429	413.06
265.661	399.06
265.894	415.06
266.126	420.06
266.358	422.06
266.591	424.06
266.823	440.06
267.055	427.06
267.287	406.06
267.52	430.06
267.752	429.06
267.984	435.06
268.216	420.06
268.448	439.06
268.681	425.06
268.913	427.06
269.145	437.06
269.377	459.06
269.609	445.06
269.841	433.06
270.073	426.06
270.306	448.06
270.538	452.06
270.77	478.06
271.002	446.06
271.234	435.06
271.466	471.06
271.698	474.06
271.93	430.06
272.162	444.06
272.394	463.06
272.626	461.06
272.858	471.06
273.09	481.06
273.322	474.06
273.553	470.06
273.785	489.06
274.017	480.06
274.249	493.06
274.481	468.06
274.713	475.06
274.945	481.06
275.176	500.06
275.408	488.06
275.64	508.06
275.872	504.06
276.104	497.06
276.335	490.06
276.567	492.06
276.799	500.06
277.031	528.06
277.262	496.06
277.494	535.06
277.726	507.06
277.957	511.06
278.189	541.06
278.421	534.06
278.652	538.06
278.884	522.06
279.115	532.06
279.347	536.06
279.579	528.06
279.81	537.06
280.042	521.06
280.273	533.06
280.505	554.06
280.736	534.06
280.968	541.06
281.199	551.06
281.431	534.06
281.662	540.06
281.894	571.06
282.125	565.06
282.356	569.06
282.588	555.06
282.819	573.06
283.051	545.06
283.282	560.06
283.513	564.06
283.745	594.06
283.976	569.06
284.207	572.06
284.439	578.06
284.67	595.06
284.901	585.06
285.132	580.06
285.364	601.06
285.595	578.06
285.826	598.06
286.057	582.06
286.288	564.06
286.52	597.06
286.751	600.06
286.982	609.06
287.213	594.06
287.444	600.06
287.675	602.06
287.906	612.06
288.138	615.06
288.369	618.06
288.6	620.06
288.831	625.06
289.062	626.06
289.293	620.06
289.524	636.06
289.755	612.06
289.986	617.06
290.217	624.06
290.448	646.06
290.679	640.06
290.91	636.06
291.141	608.06
291.371	643.06
291.602	640.06
291.833	626.06
292.064	632.06
292.295	635.06
292.526	627.06
292.757	603.06
292.987	629.06
293.218	634.06
293.449	660.06
293.68	634.06
293.91	638.06
294.141	648.06
294.372	645.06
294.603	628.06
294.833	636.06
295.064	649.06
295.295	671.06
295.525	614.06
295.756	644.06
295.987	630.06
296.217	678.06
296.448	643.06
296.679	641.06
296.909	648.06
297.14	666.06
297.37	666.06
297.601	668.06
297.831	697.06
298.062	694.06
298.292	668.06
298.523	706.06
298.753	692.06
298.984	679.06
299.214	692.06
299.445	677.06
299.675	682.06
299.905	690.06
300.136	690.06
300.366	720.06
300.597	700.06
300.827	739.06
301.057	700.06
301.288	741.06
301.518	715.06
301.748	711.06
301.979	731.06
302.209	733.06
302.439	717.06
302.669	717.06
302.9	722.06
303.13	704.06
303.36	732.06
303.59	717.06
303.82	702.06
304.051	707.06
304.281	724.06
304.511	715.06
304.741	715.06
304.971	698.06
305.201	701.06
305.431	705.06
305.661	714.06
305.891	709.06
306.121	716.06
306.352	699.06
306.582	714.06
306.812	680.06
307.042	696.06
307.272	669.06
307.502	694.06
307.731	693.06
307.961	690.06
308.191	705.06
308.421	706.06
308.651	704.06
308.881	685.06
309.111	707.06
309.341	681.06
309.571	686.06
309.8	709.06
310.03	700.06
310.26	702.06
310.49	710.06
310.72	715.06
310.949	736.06
311.179	715.06
311.409	741.06
311.639	732.06
311.868	698.06
312.098	722.06
312.328	745.06
312.557	719.06
312.787	746.06
313.017	756.06
313.246	759.06
313.476	767.06
313.706	766.06
313.935	764.06
314.165	765.06
314.394	754.06
314.624	764.06
314.853	776.06
315.083	747.06
315.312	733.06
315.542	761.06
315.771	779.06
316.001	746.06
316.23	758.06
316.46	730.06
316.689	770.06
316.919	748.06
317.148	765.06
317.377	741.06
317.607	745.06
317.836	740.06
318.065	759.06
318.295	758.06
318.524	745.06
318.753	732.06
318.983	743.06
319.212	740.06
319.441	762.06
319.67	796.06
319.9	757.06
320.129	757.06
320.358	748.06
320.587	743.06
320.816	747.06
321.046	777.06
321.275	753.06
321.504	741.06
321.733	729.06
321.962	784.06
322.191	792.06
322.42	758.06
322.649	749.06
322.878	772.06
323.108	780.06
323.337	799.06
323.566	772.06
323.795	757.06
324.024	799.06
324.253	802.06
324.482	814.06
324.71	792.06
324.939	777.06
325.168	804.06
325.397	794.06
325.626	779.06
325.855	802.06
326.084	804.06
326.313	832.06
326.542	837.06
326.77	864.06
326.999	833.06
327.228	816.06
327.457	843.06
327.686	820.06
327.914	828.06
328.143	853.06
328.372	815.06
328.6	824.06
328.829	840.06
329.058	832.06
329.287	843.06
329.515	833.06
329.744	860.06
329.972	844.06
330.201	845.06
330.43	874.06
330.658	871.06
330.887	885.06
331.115	882.06
331.344	884.06
331.572	898.06
331.801	914.06
332.03	925.06
332.258	973.06
332.486	961.06
332.715	1030.06
332.943	1082.06
333.172	1129.06
333.4	1157.06
333.629	1206.06
333.857	1181.06
334.085	1122.06
334.314	1112.06
334.542	1098.06
334.771	1102.06
334.999	1103.06
335.227	1088.06
335.455	1043.06
335.684	1028.06
335.912	1025.06
336.14	1017.06
336.369	1022.06
336.597	1033.06
336.825	1026.06
337.053	991.06
337.281	1010.06
337.51	981.06
337.738	983.06
337.966	950.06
338.194	933.06
338.422	923.06
338.65	930.06
338.878	931.06
339.106	918.06
339.334	924.06
339.562	910.06
339.79	902.06
340.018	884.06
340.246	870.06
340.474	877.06
340.702	880.06
340.93	891.06
341.158	884.06
341.386	884.06
341.614	885.06
341.842	865.06
342.07	868.06
342.298	866.06
342.526	876.06
342.754	867.06
342.981	875.06
343.209	906.06
343.437	946.06
343.665	1017.06
343.893	1082.06
344.12	1101.06
344.348	1049.06
344.576	1032.06
344.804	974.06
345.031	934.06
345.259	913.06
345.487	884.06
345.714	892.06
345.942	858.06
346.17	867.06
346.397	844.06
346.625	860.06
346.853	877.06
347.08	824.06
347.308	839.06
347.535	850.06
347.763	856.06
347.99	846.06
348.218	884.06
348.445	870.06
348.673	835.06
348.9	860.06
349.128	845.06
349.355	840.06
349.583	842.06
349.81	837.06
350.037	842.06
350.265	837.06
350.492	831.06
350.72	827.06
350.947	832.06
351.174	834.06
351.402	840.06
351.629	835.06
351.856	836.06
352.083	811.06
352.311	816.06
352.538	798.06
352.765	795.06
352.992	812.06
353.22	797.06
353.447	787.06
353.674	804.06
353.901	843.06
354.128	830.06
354.355	821.06
354.583	814.06
354.81	809.06
355.037	805.06
355.264	828.06
355.491	812.06
355.718	830.06
355.945	820.06
356.172	830.06
356.399	824.06
356.626	806.06
356.853	817.06
357.08	840.06
357.307	840.06
357.534	825.06
357.761	831.06
357.988	827.06
358.215	822.06
358.441	830.06
358.668	805.06
358.895	825.06
359.122	803.06
359.349	840.06
359.576	842.06
359.802	827.06
360.029	809.06
360.256	820.06
360.483	792.06
360.709	796.06
360.936	802.06
361.163	820.06
361.39	817.06
361.616	830.06
361.843	839.06
362.07	809.06
362.296	808.06
362.523	807.06
362.749	816.06
362.976	809.06
363.203	818.06
363.429	828.06
363.656	822.06
363.882	829.06
364.109	817.06
364.335	844.06
364.562	783.06
364.788	822.06
365.015	814.06
365.241	813.06
365.468	808.06
365.694	832.06
365.92	823.06
366.147	825.06
366.373	825.06
366.599	826.06
366.826	804.06
367.052	807.06
367.278	814.06
367.505	797.06
367.731	825.06
367.957	836.06
368.184	826.06
368.41	835.06
368.636	824.06
368.862	829.06
369.089	849.06
369.315	846.06
369.541	835.06
369.767	837.06
369.993	834.06
370.219	870.06
370.445	851.06
370.672	870.06
370.898	852.06
371.124	867.06
371.35	892.06
371.576	893.06
371.802	885.06
372.028	886.06
372.254	892.06
372.48	902.06
372.706	924.06
372.932	928.06
373.158	890.06
373.384	886.06
373.61	907.06
373.835	892.06
374.061	894.06
374.287	908.06
374.513	903.06
374.739	947.06
374.965	1003.06
375.191	1002.06
375.416	991.06
375.642	962.06
375.868	953.06
376.094	917.06
376.319	930.06
376.545	892.06
376.771	890.06
376.997	904.06
377.222	896.06
377.448	900.06
377.674	921.06
377.899	902.06
378.125	888.06
378.35	880.06
378.576	836.06
378.802	881.06
379.027	914.06
379.253	880.06
379.478	886.06
379.704	861.06
379.929	856.06
380.155	883.06
380.38	894.06
380.606	894.06
380.831	877.06
381.057	838.06
381.282	890.06
381.507	874.06
381.733	898.06
381.958	894.06
382.184	926.06
382.409	945.06
382.634	920.06
382.86	912.06
383.085	970.06
383.31	952.06
383.535	986.06
383.761	989.06
383.986	1028.06
384.211	1050.06
384.436	1036.06
384.662	1043.06
384.887	1101.06
385.112	1094.06
385.337	1121.06
385.562	1098.06
385.787	1090.06
386.013	1080.06
386.238	1088.06
386.463	1043.06
386.688	1114.06
386.913	1086.06
387.138	1091.06
387.363	1078.06
387.588	1051.06
387.813	1079.06
388.038	1049.06
388.263	1068.06
388.488	1078.06
388.713	1056.06
388.938	1063.06
389.163	1029.06
389.387	1072.06
389.612	1052.06
389.837	1076.06
390.062	1029.06
390.287	1062.06
390.512	1028.06
390.736	1081.06
390.961	1080.06
391.186	1110.06
391.411	1165.06
391.636	1154.06
391.86	1193.06
392.085	1206.06
392.31	1239.06
392.534	1171.06
392.759	1165.06
392.984	1146.06
393.208	1100.06
393.433	1138.06
393.658	1163.06
393.882	1141.06
394.107	1154.06
394.331	1144.06
394.556	1143.06
394.78	1173.06
395.005	1151.06
395.229	1153.06
395.454	1183.06
395.678	1200.06
395.903	1224.06
396.127	1169.06
396.352	1145.06
396.576	1111.06
396.801	1128.06
397.025	1122.06
397.249	1143.06
397.474	1218.06
397.698	1185.06
397.922	1188.06
398.147	1184.06
398.371	1219.06
398.595	1261.06
398.82	1324.06
399.044	1420.06
399.268	1591.06
399.492	1853.06
399.717	2109.06
399.941	2141.06
400.165	1827.06
400.389	1646.06
400.613	1469.06
400.837	1414.06
401.062	1390.06
401.286	1354.06
401.51	1350.06
401.734	1343.06
401.958	1396.06
402.182	1389.06
402.406	1373.06
402.63	1404.06
402.854	1452.06
403.078	1466.06
403.302	1499.06
403.526	1562.06
403.75	1584.06
403.974	1597.06
404.198	1596.06
404.422	1604.06
404.645	1616.06
404.869	1568.06
405.093	1576.06
405.317	1479.06
405.541	1492.06
405.765	1463.06
405.988	1479.06
406.212	1483.06
406.436	1490.06
406.66	1514.06
406.883	1554.06
407.107	1629.06
407.331	1722.06
407.555	1776.06
407.778	1761.06
408.002	1721.06
408.226	1673.06
408.449	1615.06
408.673	1535.06
408.896	1567.06
409.12	1535.06
409.344	1544.06
409.567	1547.06
409.791	1559.06
410.014	1531.06
410.238	1515.06
410.461	1493.06
410.685	1492.06
410.908	1508.06
411.132	1446.06
411.355	1410.06
411.578	1389.06
411.802	1421.06
412.025	1421.06
412.249	1418.06
412.472	1442.06
412.695	1424.06
412.919	1345.06
413.142	1346.06
413.365	1348.06
413.589	1377.06
413.812	1330.06
414.035	1331.06
414.258	1341.06
414.482	1358.06
414.705	1373.06
414.928	1395.06
415.151	1357.06
415.374	1386.06
415.597	1335.06
415.821	1326.06
416.044	1293.06
416.267	1315.06
416.49	1301.06
416.713	1302.06
416.936	1341.06
417.159	1322.06
417.382	1319.06
417.605	1346.06
417.828	1323.06
418.051	1364.06
418.274	1321.06
418.497	1332.06
418.72	1362.06
418.943	1348.06
419.166	1441.06
419.389	1568.06
419.611	1518.06
419.834	1485.06
420.057	1392.06
420.28	1341.06
420.503	1311.06
420.726	1333.06
420.948	1337.06
421.171	1325.06
421.394	1331.06
421.617	1331.06
421.839	1357.06
422.062	1355.06
422.285	1354.06
422.507	1387.06
422.73	1385.06
422.953	1369.06
423.175	1407.06
423.398	1452.06
423.621	1461.06
423.843	1426.06
424.066	1429.06
424.288	1432.06
424.511	1423.06
424.733	1422.06
424.956	1370.06
425.178	1351.06
425.401	1344.06
425.623	1354.06
425.846	1318.06
426.068	1285.06
426.291	1257.06
426.513	1283.06
426.735	1251.06
426.958	1259.06
427.18	1224.06
427.402	1204.06
427.625	1227.06
427.847	1174.06
428.069	1176.06
428.292	1193.06
428.514	1173.06
428.736	1150.06
428.958	1208.06
429.181	1141.06
429.403	1114.06
429.625	1166.06
429.847	1136.06
430.069	1132.06
430.292	1150.06
430.514	1149.06
430.736	1133.06
430.958	1146.06
431.18	1182.06
431.402	1169.06
431.624	1154.06
431.846	1196.06
432.068	1216.06
432.29	1194.06
432.512	1166.06
432.734	1187.06
432.956	1184.06
433.178	1189.06
433.4	1188.06
433.622	1197.06
433.844	1221.06
434.066	1226.06
434.287	1202.06
434.509	1266.06
434.731	1292.06
434.953	1333.06
435.175	1373.06
435.397	1329.06
435.618	1285.06
435.84	1213.06
436.062	1164.06
436.284	1171.06
436.505	1166.06
436.727	1196.06
436.949	1202.06
437.17	1204.06
437.392	1147.06
437.614	1146.06
437.835	1162.06
438.057	1162.06
438.278	1142.06
438.5	1114.06
438.721	1173.06
438.943	1139.06
439.165	1132.06
439.386	1122.06
439.608	1139.06
439.829	1178.06
440.05	1170.06
440.272	1173.06
440.493	1198.06
440.715	1224.06
440.936	1218.06
441.158	1233.06
441.379	1269.06
441.6	1367.06
441.822	1372.06
442.043	1357.06
442.264	1303.06
442.486	1295.06
442.707	1310.06
442.928	1356.06
443.149	1308.06
443.371	1315.06
443.592	1304.06
443.813	1356.06
444.034	1365.06
444.255	1411.06
444.476	1497.06
444.698	1567.06
444.919	1671.06
445.14	1667.06
445.361	1517.06
445.582	1388.06
445.803	1302.06
446.024	1256.06
446.245	1221.06
446.466	1216.06
446.687	1197.06
446.908	1186.06
447.129	1131.06
447.35	1145.06
447.571	1141.06
447.792	1105.06
448.013	1098.06
448.234	1074.06
448.455	1078.06
448.675	1094.06
448.896	1085.06
449.117	1058.06
449.338	1059.06
449.559	1084.06
449.779	1049.06
450	1059.06
450.221	1058.06
450.442	1064.06
450.662	1057.06
450.883	1105.06
451.104	1131.06
451.324	1121.06
451.545	1097.06
451.766	1069.06
451.986	1101.06
452.207	1082.06
452.428	1075.06
452.648	1070.06
452.869	1060.06
453.089	1057.06
453.31	1092.06
453.53	1037.06
453.751	1017.06
453.971	1034.06
454.192	1021.06
454.412	1022.06
454.633	1037.06
454.853	1003.06
455.073	1014.06
455.294	1018.06
455.514	1021.06
455.734	986.06
455.955	988.06
456.175	1010.06
456.395	990.06
456.616	1000.06
456.836	1020.06
457.056	1012.06
457.276	1017.06
457.497	983.06
457.717	993.06
457.937	1024.06
458.157	1012.06
458.377	1039.06
458.598	1064.06
458.818	1072.06
459.038	1101.06
459.258	1149.06
459.478	1169.06
459.698	1239.06
459.918	1249.06
460.138	1314.06
460.358	1386.06
460.578	1406.06
460.798	1406.06
461.018	1437.06
461.238	1411.06
461.458	1398.06
461.678	1401.06
461.898	1407.06
462.118	1433.06
462.338	1486.06
462.558	1534.06
462.777	1588.06
462.997	1751.06
463.217	1938.06
463.437	1963.06
463.657	1754.06
463.876	1626.06
464.096	1614.06
464.316	1673.06
464.536	1664.06
464.755	1620.06
464.975	1509.06
465.195	1473.06
465.414	1378.06
465.634	1274.06
465.854	1200.06
466.073	1214.06
466.293	1167.06
466.512	1179.06
466.732	1140.06
466.951	1162.06
467.171	1162.06
467.391	1150.06
467.61	1122.06
467.829	1148.06
468.049	1097.06
468.268	1080.06
468.488	1087.06
468.707	1078.06
468.927	1064.06
469.146	1054.06
469.365	1053.06
469.585	1091.06
469.804	1130.06
470.023	1172.06
470.243	1172.06
470.462	1179.06
470.681	1178.06
470.901	1176.06
471.12	1159.06
471.339	1120.06
471.558	1122.06
471.777	1085.06
471.997	1056.06
472.216	1062.06
472.435	1082.06
472.654	1076.06
472.873	1060.06
473.092	1042.06
473.311	1039.06
473.53	1026.06
473.749	1051.06
473.968	1066.06
474.187	1035.06
474.406	1022.06
474.625	1052.06
474.844	1044.06
475.063	1058.06
475.282	1053.06
475.501	1038.06
475.72	1056.06
475.939	1076.06
476.158	1081.06
476.377	1075.06
476.596	1062.06
476.814	1106.06
477.033	1080.06
477.252	1116.06
477.471	1133.06
477.69	1184.06
477.908	1241.06
478.127	1264.06
478.346	1272.06
478.564	1282.06
478.783	1293.06
479.002	1351.06
479.22	1334.06
479.439	1347.06
479.658	1285.06
479.876	1314.06
480.095	1330.06
480.313	1404.06
480.532	1460.06
480.751	1466.06
480.969	1361.06
481.188	1302.06
481.406	1290.06
481.624	1253.06
481.843	1221.06
482.061	1210.06
482.28	1188.06
482.498	1207.06
482.717	1175.06
482.935	1181.06
483.153	1187.06
483.372	1197.06
483.59	1182.06
483.808	1201.06
484.027	1211.06
484.245	1204.06
484.463	1203.06
484.681	1208.06
484.9	1242.06
485.118	1225.06
485.336	1238.06
485.554	1240.06
485.772	1258.06
485.99	1272.06
486.209	1244.06
486.427	1252.06
486.645	1250.06
486.863	1292.06
487.081	1260.06
487.299	1264.06
487.517	1240.06
487.735	1260.06
487.953	1291.06
488.171	1257.06
488.389	1256.06
488.607	1237.06
488.825	1213.06
489.043	1237.06
489.261	1227.06
489.479	1227.06
489.696	1241.06
489.914	1267.06
490.132	1282.06
490.35	1260.06
490.568	1255.06
490.786	1243.06
491.003	1248.06
491.221	1283.06
491.439	1266.06
491.657	1280.06
491.874	1273.06
492.092	1278.06
492.31	1240.06
492.527	1303.06
492.745	1307.06
492.963	1286.06
493.18	1281.06
493.398	1295.06
493.615	1346.06
493.833	1307.06
494.05	1346.06
494.268	1332.06
494.485	1339.06
