Data from Ni(NO3)2@0.0625M.TitratingCurve.Agarose3%dH2O.NegLispCup.LampEnergy10.LIBS07252019_HRD10591_18-14-56-569.txt Node
Date: Thu Jul 25 18:14:56 EDT 2019
User: cochatt
Spectrometer: HR+D1059
Trigger mode: 1
Integration Time (sec): 1.000000E-1
Scans to average: 1
Electric dark correction enabled: true
Nonlinearity correction enabled: false
Boxcar width: 0
XAxis mode: Wavelengths
Number of Pixels in Spectrum: 2048
>>>>>Begin Spectral Data<<<<<
223.165	3.62
223.4	3.62
223.635	3.62
223.869	-17.38
224.104	-20.38
224.338	-11.38
224.573	-20.38
224.808	-5.38
225.042	-13.38
225.277	-5.38
225.511	4.62
225.746	7.62
225.98	-3.38
226.215	4.62
226.449	9.62
226.683	19.62
226.918	21.62
227.152	25.62
227.387	18.62
227.621	38.62
227.856	38.62
228.09	28.62
228.324	41.62
228.559	54.62
228.793	67.62
229.027	103.62
229.262	101.62
229.496	95.62
229.73	106.62
229.964	116.62
230.199	118.62
230.433	114.62
230.667	118.62
230.901	116.62
231.136	127.62
231.37	130.62
231.604	115.62
231.838	138.62
232.072	119.62
232.306	139.62
232.541	123.62
232.775	129.62
233.009	113.62
233.243	131.62
233.477	116.62
233.711	114.62
233.945	117.62
234.179	124.62
234.413	125.62
234.647	140.62
234.881	134.62
235.115	120.62
235.349	116.62
235.583	133.62
235.817	136.62
236.051	134.62
236.285	133.62
236.519	137.62
236.753	134.62
236.987	151.62
237.221	137.62
237.455	131.62
237.689	140.62
237.922	139.62
238.156	135.62
238.39	129.62
238.624	157.62
238.858	133.62
239.091	147.62
239.325	141.62
239.559	140.62
239.793	130.62
240.027	156.62
240.26	150.62
240.494	154.62
240.728	147.62
240.961	148.62
241.195	150.62
241.429	161.62
241.662	149.62
241.896	153.62
242.13	157.62
242.363	165.62
242.597	162.62
242.83	169.62
243.064	141.62
243.298	146.62
243.531	159.62
243.765	189.62
243.998	171.62
244.232	167.62
244.465	159.62
244.699	176.62
244.932	180.62
245.166	173.62
245.399	171.62
245.633	194.62
245.866	199.62
246.099	169.62
246.333	158.62
246.566	170.62
246.8	184.62
247.033	185.62
247.266	192.62
247.5	167.62
247.733	184.62
247.966	192.62
248.2	195.62
248.433	194.62
248.666	184.62
248.899	189.62
249.133	193.62
249.366	188.62
249.599	188.62
249.832	196.62
250.066	193.62
250.299	210.62
250.532	204.62
250.765	201.62
250.998	184.62
251.231	190.62
251.465	209.62
251.698	217.62
251.931	196.62
252.164	200.62
252.397	217.62
252.63	203.62
252.863	207.62
253.096	195.62
253.329	202.62
253.562	206.62
253.795	214.62
254.028	224.62
254.261	217.62
254.494	215.62
254.727	220.62
254.96	212.62
255.193	215.62
255.426	233.62
255.659	226.62
255.892	223.62
256.124	212.62
256.357	237.62
256.59	220.62
256.823	217.62
257.056	216.62
257.289	236.62
257.521	228.62
257.754	229.62
257.987	218.62
258.22	231.62
258.452	229.62
258.685	245.62
258.918	245.62
259.151	234.62
259.383	232.62
259.616	230.62
259.849	246.62
260.081	237.62
260.314	231.62
260.547	245.62
260.779	252.62
261.012	244.62
261.244	242.62
261.477	263.62
261.71	266.62
261.942	238.62
262.175	253.62
262.407	239.62
262.64	248.62
262.872	255.62
263.105	233.62
263.337	257.62
263.57	259.62
263.802	264.62
264.035	281.62
264.267	265.62
264.499	252.62
264.732	269.62
264.964	281.62
265.197	262.62
265.429	275.62
265.661	284.62
265.894	280.62
266.126	263.62
266.358	264.62
266.591	261.62
266.823	279.62
267.055	282.62
267.287	264.62
267.52	278.62
267.752	260.62
267.984	274.62
268.216	280.62
268.448	288.62
268.681	285.62
268.913	286.62
269.145	256.62
269.377	279.62
269.609	270.62
269.841	272.62
270.073	289.62
270.306	292.62
270.538	299.62
270.77	274.62
271.002	293.62
271.234	289.62
271.466	286.62
271.698	288.62
271.93	281.62
272.162	299.62
272.394	284.62
272.626	316.62
272.858	309.62
273.09	288.62
273.322	315.62
273.553	298.62
273.785	318.62
274.017	318.62
274.249	312.62
274.481	294.62
274.713	326.62
274.945	318.62
275.176	309.62
275.408	304.62
275.64	312.62
275.872	319.62
276.104	314.62
276.335	315.62
276.567	305.62
276.799	308.62
277.031	318.62
277.262	304.62
277.494	312.62
277.726	315.62
277.957	326.62
278.189	332.62
278.421	348.62
278.652	344.62
278.884	319.62
279.115	339.62
279.347	340.62
279.579	328.62
279.81	321.62
280.042	332.62
280.273	338.62
280.505	338.62
280.736	330.62
280.968	349.62
281.199	340.62
281.431	321.62
281.662	350.62
281.894	349.62
282.125	352.62
282.356	355.62
282.588	345.62
282.819	339.62
283.051	355.62
283.282	361.62
283.513	332.62
283.745	362.62
283.976	372.62
284.207	345.62
284.439	366.62
284.67	357.62
284.901	357.62
285.132	356.62
285.364	381.62
285.595	352.62
285.826	384.62
286.057	364.62
286.288	357.62
286.52	379.62
286.751	364.62
286.982	370.62
287.213	390.62
287.444	375.62
287.675	389.62
287.906	373.62
288.138	367.62
288.369	383.62
288.6	371.62
288.831	355.62
289.062	375.62
289.293	384.62
289.524	375.62
289.755	398.62
289.986	406.62
290.217	393.62
290.448	390.62
290.679	393.62
290.91	385.62
291.141	388.62
291.371	413.62
291.602	396.62
291.833	406.62
292.064	412.62
292.295	408.62
292.526	392.62
292.757	403.62
292.987	363.62
293.218	408.62
293.449	401.62
293.68	389.62
293.91	388.62
294.141	392.62
294.372	396.62
294.603	382.62
294.833	401.62
295.064	399.62
295.295	413.62
295.525	406.62
295.756	414.62
295.987	397.62
296.217	416.62
296.448	400.62
296.679	402.62
296.909	399.62
297.14	414.62
297.37	444.62
297.601	416.62
297.831	436.62
298.062	426.62
298.292	429.62
298.523	439.62
298.753	419.62
298.984	417.62
299.214	444.62
299.445	424.62
299.675	418.62
299.905	426.62
300.136	434.62
300.366	449.62
300.597	456.62
300.827	452.62
301.057	472.62
301.288	444.62
301.518	452.62
301.748	465.62
301.979	461.62
302.209	457.62
302.439	453.62
302.669	458.62
302.9	437.62
303.13	433.62
303.36	439.62
303.59	422.62
303.82	438.62
304.051	444.62
304.281	468.62
304.511	450.62
304.741	438.62
304.971	472.62
305.201	471.62
305.431	443.62
305.661	460.62
305.891	453.62
306.121	433.62
306.352	450.62
306.582	453.62
306.812	444.62
307.042	434.62
307.272	434.62
307.502	437.62
307.731	464.62
307.961	427.62
308.191	440.62
308.421	406.62
308.651	408.62
308.881	446.62
309.111	456.62
309.341	455.62
309.571	444.62
309.8	448.62
310.03	447.62
310.26	453.62
310.49	452.62
310.72	425.62
310.949	438.62
311.179	432.62
311.409	440.62
311.639	441.62
311.868	461.62
312.098	446.62
312.328	438.62
312.557	463.62
312.787	448.62
313.017	458.62
313.246	466.62
313.476	452.62
313.706	462.62
313.935	464.62
314.165	480.62
314.394	449.62
314.624	499.62
314.853	471.62
315.083	459.62
315.312	469.62
315.542	466.62
315.771	470.62
316.001	462.62
316.23	456.62
316.46	445.62
316.689	456.62
316.919	445.62
317.148	450.62
317.377	452.62
317.607	468.62
317.836	468.62
318.065	459.62
318.295	460.62
318.524	445.62
318.753	442.62
318.983	451.62
319.212	450.62
319.441	443.62
319.67	452.62
319.9	471.62
320.129	449.62
320.358	457.62
320.587	464.62
320.816	463.62
321.046	456.62
321.275	467.62
321.504	448.62
321.733	455.62
321.962	470.62
322.191	462.62
322.42	458.62
322.649	454.62
322.878	485.62
323.108	463.62
323.337	472.62
323.566	454.62
323.795	480.62
324.024	473.62
324.253	469.62
324.482	454.62
324.71	493.62
324.939	481.62
325.168	477.62
325.397	482.62
325.626	489.62
325.855	476.62
326.084	486.62
326.313	497.62
326.542	516.62
326.77	513.62
326.999	504.62
327.228	500.62
327.457	496.62
327.686	505.62
327.914	477.62
328.143	515.62
328.372	496.62
328.6	508.62
328.829	508.62
329.058	508.62
329.287	480.62
329.515	520.62
329.744	513.62
329.972	510.62
330.201	523.62
330.43	535.62
330.658	524.62
330.887	522.62
331.115	527.62
331.344	528.62
331.572	532.62
331.801	550.62
332.03	544.62
332.258	567.62
332.486	576.62
332.715	605.62
332.943	628.62
333.172	660.62
333.4	669.62
333.629	704.62
333.857	667.62
334.085	668.62
334.314	650.62
334.542	673.62
334.771	658.62
334.999	623.62
335.227	634.62
335.455	619.62
335.684	634.62
335.912	632.62
336.14	615.62
336.369	617.62
336.597	616.62
336.825	625.62
337.053	605.62
337.281	598.62
337.51	570.62
337.738	597.62
337.966	575.62
338.194	567.62
338.422	548.62
338.65	560.62
338.878	560.62
339.106	549.62
339.334	558.62
339.562	561.62
339.79	522.62
340.018	508.62
340.246	501.62
340.474	527.62
340.702	537.62
340.93	529.62
341.158	533.62
341.386	541.62
341.614	544.62
341.842	510.62
342.07	513.62
342.298	521.62
342.526	521.62
342.754	529.62
342.981	533.62
343.209	509.62
343.437	553.62
343.665	603.62
343.893	664.62
344.12	648.62
344.348	647.62
344.576	608.62
344.804	592.62
345.031	541.62
345.259	546.62
345.487	535.62
345.714	530.62
345.942	557.62
346.17	549.62
346.397	552.62
346.625	525.62
346.853	510.62
347.08	538.62
347.308	538.62
347.535	544.62
347.763	559.62
347.99	529.62
348.218	537.62
348.445	538.62
348.673	536.62
348.9	540.62
349.128	526.62
349.355	512.62
349.583	526.62
349.81	502.62
350.037	494.62
350.265	491.62
350.492	517.62
350.72	512.62
350.947	497.62
351.174	508.62
351.402	518.62
351.629	502.62
351.856	517.62
352.083	508.62
352.311	510.62
352.538	508.62
352.765	502.62
352.992	509.62
353.22	506.62
353.447	501.62
353.674	482.62
353.901	487.62
354.128	474.62
354.355	495.62
354.583	487.62
354.81	516.62
355.037	504.62
355.264	498.62
355.491	516.62
355.718	486.62
355.945	488.62
356.172	502.62
356.399	506.62
356.626	518.62
356.853	494.62
357.08	515.62
357.307	491.62
357.534	508.62
357.761	499.62
357.988	493.62
358.215	497.62
358.441	480.62
358.668	506.62
358.895	486.62
359.122	510.62
359.349	513.62
359.576	500.62
359.802	502.62
360.029	509.62
360.256	514.62
360.483	519.62
360.709	524.62
360.936	499.62
361.163	497.62
361.39	505.62
361.616	492.62
361.843	498.62
362.07	498.62
362.296	544.62
362.523	506.62
362.749	504.62
362.976	509.62
363.203	508.62
363.429	495.62
363.656	491.62
363.882	512.62
364.109	512.62
364.335	504.62
364.562	500.62
364.788	497.62
365.015	489.62
365.241	473.62
365.468	487.62
365.694	496.62
365.92	500.62
366.147	488.62
366.373	492.62
366.599	505.62
366.826	504.62
367.052	482.62
367.278	493.62
367.505	508.62
367.731	481.62
367.957	493.62
368.184	520.62
368.41	500.62
368.636	506.62
368.862	518.62
369.089	494.62
369.315	512.62
369.541	536.62
369.767	516.62
369.993	527.62
370.219	529.62
370.445	546.62
370.672	543.62
370.898	553.62
371.124	533.62
371.35	551.62
371.576	549.62
371.802	543.62
372.028	548.62
372.254	569.62
372.48	552.62
372.706	548.62
372.932	585.62
373.158	584.62
373.384	560.62
373.61	537.62
373.835	537.62
374.061	550.62
374.287	543.62
374.513	573.62
374.739	577.62
374.965	604.62
375.191	621.62
375.416	630.62
375.642	581.62
375.868	579.62
376.094	561.62
376.319	562.62
376.545	577.62
376.771	548.62
376.997	562.62
377.222	549.62
377.448	544.62
377.674	570.62
377.899	542.62
378.125	544.62
378.35	536.62
378.576	525.62
378.802	533.62
379.027	554.62
379.253	536.62
379.478	528.62
379.704	554.62
379.929	544.62
380.155	532.62
380.38	514.62
380.606	520.62
380.831	557.62
381.057	539.62
381.282	555.62
381.507	540.62
381.733	549.62
381.958	560.62
382.184	531.62
382.409	562.62
382.634	570.62
382.86	580.62
383.085	591.62
383.31	597.62
383.535	598.62
383.761	625.62
383.986	638.62
384.211	643.62
384.436	643.62
384.662	638.62
384.887	662.62
385.112	628.62
385.337	675.62
385.562	655.62
385.787	660.62
386.013	666.62
386.238	648.62
386.463	666.62
386.688	650.62
386.913	647.62
387.138	645.62
387.363	641.62
387.588	646.62
387.813	635.62
388.038	646.62
388.263	643.62
388.488	656.62
388.713	646.62
388.938	638.62
389.163	633.62
389.387	618.62
389.612	632.62
389.837	625.62
390.062	643.62
390.287	657.62
390.512	637.62
390.736	656.62
390.961	634.62
391.186	682.62
391.411	690.62
391.636	714.62
391.86	750.62
392.085	746.62
392.31	737.62
392.534	722.62
392.759	718.62
392.984	695.62
393.208	668.62
393.433	698.62
393.658	701.62
393.882	698.62
394.107	716.62
394.331	706.62
394.556	707.62
394.78	711.62
395.005	716.62
395.229	722.62
395.454	736.62
395.678	732.62
395.903	753.62
396.127	724.62
396.352	709.62
396.576	698.62
396.801	669.62
397.025	680.62
397.249	723.62
397.474	737.62
397.698	723.62
397.922	741.62
398.147	721.62
398.371	724.62
398.595	757.62
398.82	798.62
399.044	874.62
399.268	986.62
399.492	1125.62
399.717	1254.62
399.941	1276.62
400.165	1074.62
400.389	971.62
400.613	873.62
400.837	836.62
401.062	803.62
401.286	808.62
401.51	822.62
401.734	806.62
401.958	836.62
402.182	833.62
402.406	872.62
402.63	851.62
402.854	872.62
403.078	874.62
403.302	906.62
403.526	906.62
403.75	946.62
403.974	973.62
404.198	973.62
404.422	984.62
404.645	956.62
404.869	919.62
405.093	929.62
405.317	923.62
405.541	910.62
405.765	893.62
405.988	881.62
406.212	909.62
406.436	903.62
406.66	919.62
406.883	930.62
407.107	983.62
407.331	1056.62
407.555	1104.62
407.778	1062.62
408.002	1054.62
408.226	996.62
408.449	983.62
408.673	957.62
408.896	937.62
409.12	933.62
409.344	936.62
409.567	922.62
409.791	931.62
410.014	947.62
410.238	953.62
410.461	944.62
410.685	945.62
410.908	888.62
411.132	880.62
411.355	859.62
411.578	832.62
411.802	868.62
412.025	867.62
412.249	850.62
412.472	856.62
412.695	820.62
412.919	799.62
413.142	821.62
413.365	818.62
413.589	833.62
413.812	824.62
414.035	783.62
414.258	838.62
414.482	818.62
414.705	865.62
414.928	839.62
415.151	834.62
415.374	799.62
415.597	844.62
415.821	817.62
416.044	807.62
416.267	801.62
416.49	798.62
416.713	804.62
416.936	796.62
417.159	788.62
417.382	794.62
417.605	780.62
417.828	814.62
418.051	794.62
418.274	807.62
418.497	818.62
418.72	842.62
418.943	830.62
419.166	874.62
419.389	948.62
419.611	916.62
419.834	884.62
420.057	846.62
420.28	829.62
420.503	798.62
420.726	796.62
420.948	805.62
421.171	809.62
421.394	804.62
421.617	779.62
421.839	819.62
422.062	846.62
422.285	813.62
422.507	834.62
422.73	833.62
422.953	841.62
423.175	857.62
423.398	870.62
423.621	883.62
423.843	876.62
424.066	883.62
424.288	848.62
424.511	878.62
424.733	853.62
424.956	846.62
425.178	825.62
425.401	824.62
425.623	828.62
425.846	783.62
426.068	787.62
426.291	792.62
426.513	761.62
426.735	761.62
426.958	757.62
427.18	716.62
427.402	733.62
427.625	739.62
427.847	752.62
428.069	731.62
428.292	734.62
428.514	732.62
428.736	714.62
428.958	719.62
429.181	704.62
429.403	700.62
429.625	723.62
429.847	683.62
430.069	715.62
430.292	693.62
430.514	690.62
430.736	702.62
430.958	714.62
431.18	702.62
431.402	708.62
431.624	698.62
431.846	726.62
432.068	737.62
432.29	745.62
432.512	729.62
432.734	731.62
432.956	732.62
433.178	717.62
433.4	724.62
433.622	746.62
433.844	728.62
434.066	755.62
434.287	736.62
434.509	782.62
434.731	834.62
434.953	863.62
435.175	851.62
435.397	820.62
435.618	798.62
435.84	772.62
436.062	736.62
436.284	755.62
436.505	741.62
436.727	750.62
436.949	749.62
437.17	714.62
437.392	709.62
437.614	712.62
437.835	689.62
438.057	695.62
438.278	706.62
438.5	717.62
438.721	718.62
438.943	698.62
439.165	696.62
439.386	716.62
439.608	730.62
439.829	745.62
440.05	744.62
440.272	734.62
440.493	740.62
440.715	778.62
440.936	726.62
441.158	760.62
441.379	788.62
441.6	819.62
441.822	833.62
442.043	859.62
442.264	823.62
442.486	806.62
442.707	817.62
442.928	826.62
443.149	780.62
443.371	800.62
443.592	830.62
443.813	843.62
444.034	834.62
444.255	856.62
444.476	926.62
444.698	958.62
444.919	995.62
445.14	1048.62
445.361	952.62
445.582	826.62
445.803	786.62
446.024	770.62
446.245	752.62
446.466	766.62
446.687	744.62
446.908	752.62
447.129	733.62
447.35	696.62
447.571	715.62
447.792	686.62
448.013	669.62
448.234	666.62
448.455	692.62
448.675	676.62
448.896	666.62
449.117	665.62
449.338	649.62
449.559	670.62
449.779	675.62
450	664.62
450.221	670.62
450.442	685.62
450.662	674.62
450.883	716.62
451.104	705.62
451.324	712.62
451.545	688.62
451.766	711.62
451.986	692.62
452.207	686.62
452.428	674.62
452.648	695.62
452.869	692.62
453.089	672.62
453.31	682.62
453.53	681.62
453.751	661.62
453.971	649.62
454.192	658.62
454.412	628.62
454.633	642.62
454.853	638.62
455.073	672.62
455.294	662.62
455.514	658.62
455.734	650.62
455.955	632.62
456.175	650.62
456.395	633.62
456.616	640.62
456.836	640.62
457.056	637.62
457.276	605.62
457.497	638.62
457.717	621.62
457.937	643.62
458.157	630.62
458.377	642.62
458.598	658.62
458.818	665.62
459.038	716.62
459.258	734.62
459.478	731.62
459.698	771.62
459.918	778.62
460.138	837.62
460.358	889.62
460.578	880.62
460.798	903.62
461.018	902.62
461.238	875.62
461.458	844.62
461.678	873.62
461.898	869.62
462.118	899.62
462.338	948.62
462.558	981.62
462.777	978.62
462.997	1077.62
463.217	1184.62
463.437	1210.62
463.657	1103.62
463.876	1046.62
464.096	1030.62
464.316	1029.62
464.536	1039.62
464.755	978.62
464.975	951.62
465.195	883.62
465.414	862.62
465.634	820.62
465.854	769.62
466.073	765.62
466.293	758.62
466.512	716.62
466.732	726.62
466.951	740.62
467.171	732.62
467.391	727.62
467.61	705.62
467.829	723.62
468.049	710.62
468.268	668.62
468.488	689.62
468.707	695.62
468.927	693.62
469.146	692.62
469.365	722.62
469.585	684.62
469.804	718.62
470.023	716.62
470.243	742.62
470.462	745.62
470.681	754.62
470.901	760.62
471.12	720.62
471.339	709.62
471.558	681.62
471.777	712.62
471.997	701.62
472.216	697.62
472.435	683.62
472.654	659.62
472.873	669.62
473.092	679.62
473.311	669.62
473.53	656.62
473.749	656.62
473.968	674.62
474.187	649.62
474.406	657.62
474.625	644.62
474.844	675.62
475.063	667.62
475.282	682.62
475.501	682.62
475.72	664.62
475.939	703.62
476.158	694.62
476.377	718.62
476.596	685.62
476.814	715.62
477.033	733.62
477.252	684.62
477.471	732.62
477.69	752.62
477.908	779.62
478.127	778.62
478.346	806.62
478.564	800.62
478.783	811.62
479.002	810.62
479.22	838.62
479.439	827.62
479.658	807.62
479.876	835.62
480.095	854.62
480.313	892.62
480.532	906.62
480.751	920.62
480.969	862.62
481.188	840.62
481.406	813.62
481.624	802.62
481.843	770.62
482.061	777.62
482.28	753.62
482.498	772.62
482.717	778.62
482.935	761.62
483.153	757.62
483.372	768.62
483.59	800.62
483.808	782.62
484.027	767.62
484.245	764.62
484.463	786.62
484.681	817.62
484.9	799.62
485.118	788.62
485.336	804.62
485.554	818.62
485.772	816.62
485.99	835.62
486.209	842.62
486.427	821.62
486.645	845.62
486.863	819.62
487.081	801.62
487.299	837.62
487.517	821.62
487.735	810.62
487.953	820.62
488.171	807.62
488.389	792.62
488.607	809.62
488.825	789.62
489.043	765.62
489.261	797.62
489.479	802.62
489.696	810.62
489.914	793.62
490.132	852.62
490.35	821.62
490.568	812.62
490.786	803.62
491.003	822.62
491.221	823.62
491.439	837.62
491.657	814.62
491.874	828.62
492.092	832.62
492.31	826.62
492.527	819.62
492.745	824.62
492.963	812.62
493.18	824.62
493.398	841.62
493.615	837.62
493.833	830.62
494.05	844.62
494.268	848.62
494.485	854.62
494.703	848.62
494.92	852.62
495.138	836.62
495.355	840.62
495.573	820.62
495.79	861.62
496.008	857.62
496.225	862.62
496.442	843.62
496.66	886.62
496.877	902.62
497.094	887.62
497.312	893.62
497.529	893.62
497.746	932.62
497.963	974.62
498.181	994.62
498.398	1014.62
498.615	1137.62
498.832	1162.62
499.049	1296.62
499.267	1388.62
499.484	1484.62
499.701	1676.62
499.918	1863.62
500.135	2154.62
500.352	2463.62
500.569	2618.62
500.786	2626.62
501.003	2383.62
501.22	2137.62
