Data from Ni(NO3)2@0.25M.TitratingCurve.Agarose3%dH2O.NegLispCup.LampEnergy10.LIBS07252019_HRD10591_18-05-32-566.txt Node
Date: Thu Jul 25 18:05:32 EDT 2019
User: cochatt
Spectrometer: HR+D1059
Trigger mode: 1
Integration Time (sec): 1.000000E-1
Scans to average: 1
Electric dark correction enabled: true
Nonlinearity correction enabled: false
Boxcar width: 0
XAxis mode: Wavelengths
Number of Pixels in Spectrum: 2048
>>>>>Begin Spectral Data<<<<<
223.165	-2.69
223.4	-2.69
223.635	-2.69
223.869	-19.69
224.104	-14.69
224.338	-24.69
224.573	-11.69
224.808	-4.69
225.042	-11.69
225.277	-6.69
225.511	-11.69
225.746	3.31
225.98	8.31
226.215	13.31
226.449	5.31
226.683	12.31
226.918	36.31
227.152	29.31
227.387	28.31
227.621	42.31
227.856	45.31
228.09	47.31
228.324	53.31
228.559	53.31
228.793	62.31
229.027	83.31
229.262	88.31
229.496	111.31
229.73	108.31
229.964	111.31
230.199	117.31
230.433	113.31
230.667	99.31
230.901	108.31
231.136	117.31
231.37	107.31
231.604	128.31
231.838	119.31
232.072	139.31
232.306	114.31
232.541	121.31
232.775	139.31
233.009	125.31
233.243	123.31
233.477	132.31
233.711	135.31
233.945	131.31
234.179	129.31
234.413	124.31
234.647	119.31
234.881	116.31
235.115	131.31
235.349	127.31
235.583	126.31
235.817	125.31
236.051	114.31
236.285	127.31
236.519	143.31
236.753	128.31
236.987	139.31
237.221	141.31
237.455	144.31
237.689	138.31
237.922	139.31
238.156	139.31
238.39	122.31
238.624	138.31
238.858	142.31
239.091	148.31
239.325	146.31
239.559	141.31
239.793	145.31
240.027	151.31
240.26	140.31
240.494	137.31
240.728	148.31
240.961	157.31
241.195	146.31
241.429	149.31
241.662	150.31
241.896	166.31
242.13	156.31
242.363	156.31
242.597	160.31
242.83	152.31
243.064	170.31
243.298	160.31
243.531	168.31
243.765	171.31
243.998	157.31
244.232	160.31
244.465	165.31
244.699	177.31
244.932	181.31
245.166	164.31
245.399	160.31
245.633	178.31
245.866	171.31
246.099	185.31
246.333	190.31
246.566	179.31
246.8	189.31
247.033	183.31
247.266	181.31
247.5	167.31
247.733	175.31
247.966	196.31
248.2	189.31
248.433	193.31
248.666	187.31
248.899	186.31
249.133	195.31
249.366	208.31
249.599	225.31
249.832	196.31
250.066	211.31
250.299	200.31
250.532	199.31
250.765	201.31
250.998	212.31
251.231	214.31
251.465	216.31
251.698	212.31
251.931	220.31
252.164	211.31
252.397	225.31
252.63	236.31
252.863	236.31
253.096	210.31
253.329	232.31
253.562	211.31
253.795	225.31
254.028	211.31
254.261	235.31
254.494	223.31
254.727	227.31
254.96	220.31
255.193	244.31
255.426	215.31
255.659	243.31
255.892	232.31
256.124	250.31
256.357	231.31
256.59	244.31
256.823	234.31
257.056	239.31
257.289	249.31
257.521	241.31
257.754	244.31
257.987	249.31
258.22	265.31
258.452	258.31
258.685	257.31
258.918	261.31
259.151	273.31
259.383	268.31
259.616	248.31
259.849	261.31
260.081	283.31
260.314	269.31
260.547	245.31
260.779	283.31
261.012	266.31
261.244	275.31
261.477	283.31
261.71	287.31
261.942	261.31
262.175	279.31
262.407	255.31
262.64	271.31
262.872	288.31
263.105	291.31
263.337	281.31
263.57	313.31
263.802	272.31
264.035	265.31
264.267	290.31
264.499	296.31
264.732	289.31
264.964	291.31
265.197	289.31
265.429	298.31
265.661	303.31
265.894	287.31
266.126	299.31
266.358	298.31
266.591	284.31
266.823	317.31
267.055	319.31
267.287	311.31
267.52	307.31
267.752	298.31
267.984	317.31
268.216	294.31
268.448	313.31
268.681	292.31
268.913	326.31
269.145	314.31
269.377	299.31
269.609	326.31
269.841	316.31
270.073	315.31
270.306	306.31
270.538	307.31
270.77	321.31
271.002	314.31
271.234	314.31
271.466	319.31
271.698	336.31
271.93	326.31
272.162	323.31
272.394	325.31
272.626	333.31
272.858	320.31
273.09	312.31
273.322	324.31
273.553	332.31
273.785	327.31
274.017	332.31
274.249	341.31
274.481	339.31
274.713	344.31
274.945	336.31
275.176	346.31
275.408	343.31
275.64	341.31
275.872	329.31
276.104	356.31
276.335	350.31
276.567	359.31
276.799	353.31
277.031	347.31
277.262	357.31
277.494	346.31
277.726	360.31
277.957	358.31
278.189	365.31
278.421	351.31
278.652	352.31
278.884	356.31
279.115	360.31
279.347	342.31
279.579	357.31
279.81	385.31
280.042	379.31
280.273	351.31
280.505	395.31
280.736	380.31
280.968	369.31
281.199	373.31
281.431	361.31
281.662	376.31
281.894	384.31
282.125	372.31
282.356	385.31
282.588	383.31
282.819	387.31
283.051	375.31
283.282	401.31
283.513	400.31
283.745	385.31
283.976	401.31
284.207	397.31
284.439	381.31
284.67	404.31
284.901	403.31
285.132	395.31
285.364	399.31
285.595	403.31
285.826	410.31
286.057	404.31
286.288	377.31
286.52	393.31
286.751	402.31
286.982	405.31
287.213	411.31
287.444	417.31
287.675	406.31
287.906	392.31
288.138	407.31
288.369	410.31
288.6	416.31
288.831	403.31
289.062	427.31
289.293	436.31
289.524	405.31
289.755	406.31
289.986	417.31
290.217	421.31
290.448	406.31
290.679	417.31
290.91	398.31
291.141	432.31
291.371	439.31
291.602	425.31
291.833	409.31
292.064	417.31
292.295	429.31
292.526	417.31
292.757	422.31
292.987	407.31
293.218	418.31
293.449	413.31
293.68	444.31
293.91	436.31
294.141	445.31
294.372	432.31
294.603	413.31
294.833	427.31
295.064	432.31
295.295	423.31
295.525	428.31
295.756	433.31
295.987	443.31
296.217	440.31
296.448	439.31
296.679	438.31
296.909	421.31
297.14	433.31
297.37	469.31
297.601	447.31
297.831	428.31
298.062	445.31
298.292	472.31
298.523	475.31
298.753	449.31
298.984	463.31
299.214	445.31
299.445	456.31
299.675	459.31
299.905	438.31
300.136	453.31
300.366	477.31
300.597	477.31
300.827	481.31
301.057	466.31
301.288	484.31
301.518	500.31
301.748	471.31
301.979	474.31
302.209	492.31
302.439	477.31
302.669	483.31
302.9	473.31
303.13	481.31
303.36	482.31
303.59	478.31
303.82	493.31
304.051	502.31
304.281	486.31
304.511	468.31
304.741	481.31
304.971	465.31
305.201	492.31
305.431	501.31
305.661	487.31
305.891	469.31
306.121	476.31
306.352	498.31
306.582	472.31
306.812	473.31
307.042	478.31
307.272	480.31
307.502	461.31
307.731	474.31
307.961	464.31
308.191	475.31
308.421	485.31
308.651	471.31
308.881	479.31
309.111	482.31
309.341	485.31
309.571	480.31
309.8	479.31
310.03	515.31
310.26	495.31
310.49	489.31
310.72	501.31
310.949	476.31
311.179	483.31
311.409	477.31
311.639	492.31
311.868	493.31
312.098	497.31
312.328	496.31
312.557	516.31
312.787	504.31
313.017	517.31
313.246	515.31
313.476	520.31
313.706	534.31
313.935	521.31
314.165	515.31
314.394	516.31
314.624	520.31
314.853	521.31
315.083	526.31
315.312	511.31
315.542	531.31
315.771	530.31
316.001	507.31
316.23	515.31
316.46	514.31
316.689	514.31
316.919	540.31
317.148	521.31
317.377	527.31
317.607	489.31
317.836	519.31
318.065	517.31
318.295	510.31
318.524	536.31
318.753	522.31
318.983	520.31
319.212	542.31
319.441	516.31
319.67	509.31
319.9	531.31
320.129	512.31
320.358	539.31
320.587	526.31
320.816	543.31
321.046	527.31
321.275	551.31
321.504	542.31
321.733	533.31
321.962	541.31
322.191	531.31
322.42	533.31
322.649	562.31
322.878	552.31
323.108	555.31
323.337	549.31
323.566	580.31
323.795	545.31
324.024	582.31
324.253	565.31
324.482	547.31
324.71	549.31
324.939	563.31
325.168	559.31
325.397	557.31
325.626	573.31
325.855	564.31
326.084	586.31
326.313	604.31
326.542	616.31
326.77	610.31
326.999	595.31
327.228	602.31
327.457	583.31
327.686	590.31
327.914	587.31
328.143	589.31
328.372	581.31
328.6	589.31
328.829	598.31
329.058	610.31
329.287	595.31
329.515	611.31
329.744	626.31
329.972	632.31
330.201	586.31
330.43	627.31
330.658	631.31
330.887	632.31
331.115	624.31
331.344	623.31
331.572	638.31
331.801	660.31
332.03	634.31
332.258	681.31
332.486	696.31
332.715	720.31
332.943	741.31
333.172	765.31
333.4	757.31
333.629	787.31
333.857	790.31
334.085	765.31
334.314	803.31
334.542	778.31
334.771	771.31
334.999	749.31
335.227	775.31
335.455	773.31
335.684	777.31
335.912	773.31
336.14	732.31
336.369	738.31
336.597	730.31
336.825	745.31
337.053	748.31
337.281	763.31
337.51	732.31
337.738	725.31
337.966	687.31
338.194	692.31
338.422	704.31
338.65	657.31
338.878	672.31
339.106	662.31
339.334	697.31
339.562	678.31
339.79	655.31
340.018	669.31
340.246	643.31
340.474	660.31
340.702	665.31
340.93	684.31
341.158	628.31
341.386	671.31
341.614	699.31
341.842	681.31
342.07	638.31
342.298	645.31
342.526	651.31
342.754	640.31
342.981	630.31
343.209	656.31
343.437	698.31
343.665	738.31
343.893	765.31
344.12	793.31
344.348	767.31
344.576	744.31
344.804	716.31
345.031	668.31
345.259	672.31
345.487	667.31
345.714	669.31
345.942	645.31
346.17	643.31
346.397	651.31
346.625	651.31
346.853	620.31
347.08	637.31
347.308	619.31
347.535	647.31
347.763	618.31
347.99	639.31
348.218	637.31
348.445	635.31
348.673	633.31
348.9	617.31
349.128	628.31
349.355	620.31
349.583	654.31
349.81	625.31
350.037	603.31
350.265	634.31
350.492	630.31
350.72	626.31
350.947	607.31
351.174	619.31
351.402	629.31
351.629	623.31
351.856	602.31
352.083	599.31
352.311	596.31
352.538	594.31
352.765	632.31
352.992	626.31
353.22	594.31
353.447	596.31
353.674	599.31
353.901	623.31
354.128	609.31
354.355	591.31
354.583	593.31
354.81	602.31
355.037	589.31
355.264	597.31
355.491	589.31
355.718	606.31
355.945	614.31
356.172	618.31
356.399	612.31
356.626	596.31
356.853	611.31
357.08	615.31
357.307	584.31
357.534	597.31
357.761	582.31
357.988	607.31
358.215	613.31
358.441	592.31
358.668	610.31
358.895	605.31
359.122	615.31
359.349	616.31
359.576	600.31
359.802	612.31
360.029	611.31
360.256	606.31
360.483	626.31
360.709	629.31
360.936	631.31
361.163	612.31
361.39	608.31
361.616	605.31
361.843	629.31
362.07	622.31
362.296	613.31
362.523	612.31
362.749	615.31
362.976	606.31
363.203	613.31
363.429	609.31
363.656	612.31
363.882	624.31
364.109	612.31
364.335	602.31
364.562	609.31
364.788	600.31
365.015	595.31
365.241	589.31
365.468	615.31
365.694	607.31
365.92	569.31
366.147	619.31
366.373	604.31
366.599	593.31
366.826	583.31
367.052	611.31
367.278	631.31
367.505	609.31
367.731	607.31
367.957	610.31
368.184	610.31
368.41	618.31
368.636	603.31
368.862	616.31
369.089	624.31
369.315	619.31
369.541	629.31
369.767	628.31
369.993	632.31
370.219	613.31
370.445	630.31
370.672	633.31
370.898	653.31
371.124	633.31
371.35	653.31
371.576	659.31
371.802	659.31
372.028	637.31
372.254	627.31
372.48	685.31
372.706	673.31
372.932	662.31
373.158	668.31
373.384	691.31
373.61	655.31
373.835	666.31
374.061	660.31
374.287	656.31
374.513	650.31
374.739	664.31
374.965	687.31
375.191	719.31
375.416	711.31
375.642	689.31
375.868	681.31
376.094	672.31
376.319	640.31
376.545	653.31
376.771	645.31
376.997	666.31
377.222	660.31
377.448	651.31
377.674	651.31
377.899	659.31
378.125	635.31
378.35	642.31
378.576	630.31
378.802	616.31
379.027	653.31
379.253	644.31
379.478	633.31
379.704	646.31
379.929	654.31
380.155	645.31
380.38	627.31
380.606	624.31
380.831	628.31
381.057	665.31
381.282	631.31
381.507	656.31
381.733	649.31
381.958	650.31
382.184	665.31
382.409	649.31
382.634	661.31
382.86	688.31
383.085	684.31
383.31	674.31
383.535	675.31
383.761	721.31
383.986	696.31
384.211	713.31
384.436	699.31
384.662	744.31
384.887	757.31
385.112	756.31
385.337	753.31
385.562	763.31
385.787	748.31
386.013	803.31
386.238	793.31
386.463	740.31
386.688	786.31
386.913	783.31
387.138	748.31
387.363	775.31
387.588	790.31
387.813	775.31
388.038	775.31
388.263	780.31
388.488	782.31
388.713	764.31
388.938	774.31
389.163	751.31
389.387	738.31
389.612	724.31
389.837	763.31
390.062	767.31
390.287	740.31
390.512	733.31
390.736	773.31
390.961	808.31
391.186	797.31
391.411	835.31
391.636	839.31
391.86	863.31
392.085	869.31
392.31	864.31
392.534	858.31
392.759	838.31
392.984	825.31
393.208	827.31
393.433	816.31
393.658	826.31
393.882	830.31
394.107	837.31
394.331	807.31
394.556	827.31
394.78	824.31
395.005	845.31
395.229	822.31
395.454	880.31
395.678	882.31
395.903	881.31
396.127	869.31
396.352	840.31
396.576	824.31
396.801	848.31
397.025	877.31
397.249	863.31
397.474	883.31
397.698	903.31
397.922	903.31
398.147	883.31
398.371	903.31
398.595	944.31
398.82	972.31
399.044	1061.31
399.268	1132.31
399.492	1286.31
399.717	1361.31
399.941	1356.31
400.165	1257.31
400.389	1168.31
400.613	1096.31
400.837	1047.31
401.062	1016.31
401.286	1027.31
401.51	1011.31
401.734	967.31
401.958	1023.31
402.182	1004.31
402.406	1012.31
402.63	1023.31
402.854	1007.31
403.078	1043.31
403.302	1036.31
403.526	1067.31
403.75	1057.31
403.974	1078.31
404.198	1095.31
404.422	1111.31
404.645	1061.31
404.869	1043.31
405.093	1064.31
405.317	1043.31
405.541	1082.31
405.765	1092.31
405.988	1081.31
406.212	1035.31
406.436	1043.31
406.66	1069.31
406.883	1130.31
407.107	1165.31
407.331	1192.31
407.555	1238.31
407.778	1236.31
408.002	1214.31
408.226	1171.31
408.449	1153.31
408.673	1129.31
408.896	1121.31
409.12	1089.31
409.344	1112.31
409.567	1119.31
409.791	1095.31
410.014	1076.31
410.238	1108.31
410.461	1105.31
410.685	1055.31
410.908	1078.31
411.132	1034.31
411.355	1019.31
411.578	1003.31
411.802	1003.31
412.025	1048.31
412.249	1036.31
412.472	1031.31
412.695	992.31
412.919	1021.31
413.142	1000.31
413.365	991.31
413.589	1007.31
413.812	962.31
414.035	1002.31
414.258	955.31
414.482	986.31
414.705	988.31
414.928	992.31
415.151	980.31
415.374	984.31
415.597	986.31
415.821	974.31
416.044	961.31
416.267	956.31
416.49	948.31
416.713	953.31
416.936	980.31
417.159	952.31
417.382	937.31
417.605	955.31
417.828	972.31
418.051	973.31
418.274	981.31
418.497	959.31
418.72	1015.31
418.943	991.31
419.166	1050.31
419.389	1119.31
419.611	1087.31
419.834	1048.31
420.057	1007.31
420.28	975.31
420.503	1000.31
420.726	982.31
420.948	973.31
421.171	955.31
421.394	965.31
421.617	967.31
421.839	944.31
422.062	992.31
422.285	946.31
422.507	987.31
422.73	989.31
422.953	986.31
423.175	990.31
423.398	1014.31
423.621	997.31
423.843	1033.31
424.066	997.31
424.288	986.31
424.511	1003.31
424.733	1008.31
424.956	969.31
425.178	998.31
425.401	981.31
425.623	1009.31
425.846	961.31
426.068	940.31
426.291	939.31
426.513	932.31
426.735	927.31
426.958	919.31
427.18	891.31
427.402	938.31
427.625	892.31
427.847	923.31
428.069	901.31
428.292	900.31
428.514	891.31
428.736	892.31
428.958	902.31
429.181	877.31
429.403	847.31
429.625	875.31
429.847	855.31
430.069	836.31
430.292	874.31
430.514	869.31
430.736	857.31
430.958	867.31
431.18	857.31
431.402	868.31
431.624	907.31
431.846	913.31
432.068	890.31
432.29	902.31
432.512	879.31
432.734	891.31
432.956	889.31
433.178	889.31
433.4	896.31
433.622	896.31
433.844	880.31
434.066	920.31
434.287	921.31
434.509	948.31
434.731	957.31
434.953	995.31
435.175	986.31
435.397	995.31
435.618	940.31
435.84	917.31
436.062	899.31
436.284	934.31
436.505	874.31
436.727	874.31
436.949	882.31
437.17	903.31
437.392	862.31
437.614	883.31
437.835	859.31
438.057	842.31
438.278	895.31
438.5	858.31
438.721	872.31
438.943	887.31
439.165	851.31
439.386	845.31
439.608	922.31
439.829	892.31
440.05	899.31
440.272	921.31
440.493	890.31
440.715	884.31
440.936	925.31
441.158	929.31
441.379	930.31
441.6	984.31
441.822	988.31
442.043	1025.31
442.264	987.31
442.486	968.31
442.707	1016.31
442.928	978.31
443.149	1017.31
443.371	992.31
443.592	999.31
443.813	995.31
444.034	999.31
444.255	1059.31
444.476	1049.31
444.698	1131.31
444.919	1137.31
445.14	1241.31
445.361	1102.31
445.582	1032.31
445.803	978.31
446.024	967.31
446.245	960.31
446.466	920.31
446.687	910.31
446.908	924.31
447.129	899.31
447.35	914.31
447.571	850.31
447.792	832.31
448.013	875.31
448.234	834.31
448.455	836.31
448.675	822.31
448.896	835.31
449.117	817.31
449.338	823.31
449.559	787.31
449.779	817.31
450	800.31
450.221	823.31
450.442	824.31
450.662	819.31
450.883	815.31
451.104	841.31
451.324	814.31
451.545	790.31
451.766	805.31
451.986	809.31
452.207	816.31
452.428	804.31
452.648	777.31
452.869	786.31
453.089	809.31
453.31	792.31
453.53	773.31
453.751	783.31
453.971	778.31
454.192	765.31
454.412	767.31
454.633	779.31
454.853	771.31
455.073	805.31
455.294	780.31
455.514	775.31
455.734	775.31
455.955	782.31
456.175	753.31
456.395	775.31
456.616	755.31
456.836	774.31
457.056	780.31
457.276	749.31
457.497	761.31
457.717	767.31
457.937	751.31
458.157	758.31
458.377	806.31
458.598	804.31
458.818	811.31
459.038	840.31
459.258	853.31
459.478	901.31
459.698	923.31
459.918	947.31
460.138	989.31
460.358	1048.31
460.578	1008.31
460.798	1059.31
461.018	1063.31
461.238	1018.31
461.458	1037.31
461.678	1049.31
461.898	1071.31
462.118	1043.31
462.338	1092.31
462.558	1133.31
462.777	1183.31
462.997	1204.31
463.217	1318.31
463.437	1317.31
463.657	1240.31
463.876	1208.31
464.096	1191.31
464.316	1196.31
464.536	1196.31
464.755	1147.31
464.975	1128.31
465.195	1072.31
465.414	1013.31
465.634	986.31
465.854	931.31
466.073	905.31
466.293	873.31
466.512	884.31
466.732	867.31
466.951	842.31
467.171	845.31
467.391	837.31
467.61	860.31
467.829	843.31
468.049	864.31
468.268	837.31
468.488	795.31
468.707	805.31
468.927	850.31
469.146	815.31
469.365	860.31
469.585	857.31
469.804	856.31
470.023	853.31
470.243	839.31
470.462	871.31
470.681	900.31
470.901	900.31
471.12	884.31
471.339	855.31
471.558	856.31
471.777	845.31
471.997	828.31
472.216	818.31
472.435	796.31
472.654	779.31
472.873	780.31
473.092	779.31
473.311	796.31
473.53	830.31
473.749	805.31
473.968	811.31
474.187	791.31
474.406	789.31
474.625	796.31
474.844	811.31
475.063	811.31
475.282	779.31
475.501	828.31
475.72	818.31
475.939	833.31
476.158	845.31
476.377	835.31
476.596	828.31
476.814	843.31
477.033	839.31
477.252	855.31
477.471	888.31
477.69	917.31
477.908	927.31
478.127	956.31
478.346	926.31
478.564	947.31
478.783	981.31
479.002	966.31
479.22	991.31
479.439	980.31
479.658	957.31
479.876	1015.31
480.095	990.31
480.313	1044.31
480.532	1036.31
480.751	1004.31
480.969	984.31
481.188	974.31
481.406	957.31
481.624	931.31
481.843	948.31
482.061	918.31
482.28	919.31
482.498	906.31
482.717	888.31
482.935	893.31
483.153	917.31
483.372	909.31
483.59	929.31
483.808	918.31
484.027	930.31
484.245	923.31
484.463	932.31
484.681	945.31
484.9	915.31
485.118	951.31
485.336	926.31
485.554	956.31
485.772	927.31
485.99	929.31
486.209	950.31
486.427	943.31
486.645	934.31
486.863	963.31
487.081	947.31
487.299	953.31
487.517	978.31
487.735	955.31
487.953	994.31
488.171	970.31
488.389	974.31
488.607	921.31
488.825	934.31
489.043	937.31
489.261	935.31
489.479	940.31
489.696	940.31
489.914	965.31
490.132	967.31
490.35	960.31
490.568	976.31
490.786	970.31
491.003	1001.31
491.221	983.31
491.439	997.31
491.657	1004.31
491.874	983.31
492.092	1001.31
492.31	994.31
492.527	1009.31
492.745	1025.31
492.963	1009.31
493.18	993.31
493.398	1013.31
493.615	1013.31
493.833	1003.31
494.05	1002.31
494.268	1025.31
494.485	1011.31
494.703	1035.31
494.92	1031.31
495.138	1042.31
495.355	1017.31
495.573	1043.31
495.79	1046.31
496.008	1076.31
496.225	1060.31
496.442	1105.31
496.66	1112.31
496.877	1090.31
497.094	1141.31
497.312	1119.31
497.529	1147.31
497.746	1164.31
497.963	1240.31
498.181	1281.31
498.398	1320.31
498.615	1415.31
498.832	1439.31
499.049	1603.31
499.267	1712.31
499.484	1787.31
499.701	2001.31
