Data from Ni(NO3)2@0.125M.TitratingCurve.Agarose3%dH2O.NegLispCup.LampEnergy10.LIBS07252019_HRD10591_18-10-01-578.txt Node
Date: Thu Jul 25 18:10:01 EDT 2019
User: cochatt
Spectrometer: HR+D1059
Trigger mode: 1
Integration Time (sec): 1.000000E-1
Scans to average: 1
Electric dark correction enabled: true
Nonlinearity correction enabled: false
Boxcar width: 0
XAxis mode: Wavelengths
Number of Pixels in Spectrum: 2048
>>>>>Begin Spectral Data<<<<<
223.165	-20.81
223.4	-20.81
223.635	-20.81
223.869	-17.81
224.104	-28.81
224.338	-16.81
224.573	-23.81
224.808	-4.81
225.042	7.19
225.277	-9.81
225.511	3.19
225.746	1.19
225.98	-8.81
226.215	26.19
226.449	15.19
226.683	29.19
226.918	18.19
227.152	31.19
227.387	37.19
227.621	44.19
227.856	49.19
228.09	57.19
228.324	49.19
228.559	64.19
228.793	56.19
229.027	94.19
229.262	77.19
229.496	101.19
229.73	98.19
229.964	107.19
230.199	120.19
230.433	104.19
230.667	103.19
230.901	100.19
231.136	91.19
231.37	133.19
231.604	115.19
231.838	120.19
232.072	112.19
232.306	129.19
232.541	133.19
232.775	134.19
233.009	126.19
233.243	121.19
233.477	126.19
233.711	107.19
233.945	123.19
234.179	111.19
234.413	118.19
234.647	121.19
234.881	127.19
235.115	121.19
235.349	116.19
235.583	119.19
235.817	129.19
236.051	125.19
236.285	124.19
236.519	134.19
236.753	120.19
236.987	121.19
237.221	136.19
237.455	132.19
237.689	125.19
237.922	115.19
238.156	129.19
238.39	123.19
238.624	147.19
238.858	131.19
239.091	124.19
239.325	140.19
239.559	126.19
239.793	125.19
240.027	145.19
240.26	142.19
240.494	144.19
240.728	145.19
240.961	128.19
241.195	129.19
241.429	144.19
241.662	144.19
241.896	127.19
242.13	144.19
242.363	154.19
242.597	140.19
242.83	140.19
243.064	134.19
243.298	144.19
243.531	139.19
243.765	137.19
243.998	150.19
244.232	153.19
244.465	144.19
244.699	170.19
244.932	153.19
245.166	149.19
245.399	150.19
245.633	151.19
245.866	144.19
246.099	157.19
246.333	174.19
246.566	161.19
246.8	166.19
247.033	161.19
247.266	161.19
247.5	173.19
247.733	171.19
247.966	159.19
248.2	158.19
248.433	172.19
248.666	163.19
248.899	188.19
249.133	168.19
249.366	173.19
249.599	165.19
249.832	174.19
250.066	170.19
250.299	171.19
250.532	175.19
250.765	190.19
250.998	184.19
251.231	168.19
251.465	173.19
251.698	191.19
251.931	176.19
252.164	187.19
252.397	192.19
252.63	169.19
252.863	192.19
253.096	193.19
253.329	182.19
253.562	189.19
253.795	210.19
254.028	188.19
254.261	209.19
254.494	191.19
254.727	203.19
254.96	191.19
255.193	177.19
255.426	200.19
255.659	198.19
255.892	197.19
256.124	225.19
256.357	217.19
256.59	191.19
256.823	219.19
257.056	212.19
257.289	207.19
257.521	213.19
257.754	216.19
257.987	199.19
258.22	204.19
258.452	209.19
258.685	231.19
258.918	207.19
259.151	203.19
259.383	221.19
259.616	215.19
259.849	204.19
260.081	224.19
260.314	228.19
260.547	221.19
260.779	211.19
261.012	210.19
261.244	220.19
261.477	231.19
261.71	223.19
261.942	221.19
262.175	220.19
262.407	204.19
262.64	213.19
262.872	225.19
263.105	235.19
263.337	245.19
263.57	219.19
263.802	236.19
264.035	244.19
264.267	222.19
264.499	244.19
264.732	219.19
264.964	219.19
265.197	225.19
265.429	249.19
265.661	241.19
265.894	239.19
266.126	248.19
266.358	243.19
266.591	225.19
266.823	243.19
267.055	240.19
267.287	265.19
267.52	234.19
267.752	255.19
267.984	244.19
268.216	237.19
268.448	243.19
268.681	238.19
268.913	254.19
269.145	244.19
269.377	263.19
269.609	247.19
269.841	274.19
270.073	254.19
270.306	267.19
270.538	249.19
270.77	243.19
271.002	248.19
271.234	266.19
271.466	256.19
271.698	258.19
271.93	247.19
272.162	255.19
272.394	273.19
272.626	264.19
272.858	273.19
273.09	267.19
273.322	271.19
273.553	272.19
273.785	272.19
274.017	277.19
274.249	279.19
274.481	273.19
274.713	276.19
274.945	283.19
275.176	267.19
275.408	295.19
275.64	265.19
275.872	264.19
276.104	267.19
276.335	275.19
276.567	295.19
276.799	279.19
277.031	288.19
277.262	277.19
277.494	267.19
277.726	278.19
277.957	278.19
278.189	293.19
278.421	297.19
278.652	276.19
278.884	296.19
279.115	268.19
279.347	303.19
279.579	297.19
279.81	293.19
280.042	295.19
280.273	274.19
280.505	300.19
280.736	270.19
280.968	291.19
281.199	303.19
281.431	315.19
281.662	315.19
281.894	286.19
282.125	283.19
282.356	307.19
282.588	323.19
282.819	310.19
283.051	325.19
283.282	300.19
283.513	309.19
283.745	316.19
283.976	316.19
284.207	316.19
284.439	303.19
284.67	312.19
284.901	326.19
285.132	327.19
285.364	319.19
285.595	305.19
285.826	323.19
286.057	311.19
286.288	330.19
286.52	312.19
286.751	324.19
286.982	332.19
287.213	328.19
287.444	312.19
287.675	338.19
287.906	335.19
288.138	317.19
288.369	331.19
288.6	347.19
288.831	347.19
289.062	354.19
289.293	340.19
289.524	344.19
289.755	345.19
289.986	347.19
290.217	345.19
290.448	345.19
290.679	351.19
290.91	349.19
291.141	343.19
291.371	350.19
291.602	327.19
291.833	346.19
292.064	343.19
292.295	339.19
292.526	340.19
292.757	346.19
292.987	361.19
293.218	337.19
293.449	364.19
293.68	335.19
293.91	332.19
294.141	342.19
294.372	346.19
294.603	345.19
294.833	352.19
295.064	346.19
295.295	363.19
295.525	363.19
295.756	346.19
295.987	350.19
296.217	348.19
296.448	346.19
296.679	347.19
296.909	341.19
297.14	371.19
297.37	375.19
297.601	375.19
297.831	360.19
298.062	359.19
298.292	375.19
298.523	377.19
298.753	394.19
298.984	385.19
299.214	373.19
299.445	380.19
299.675	374.19
299.905	368.19
300.136	377.19
300.366	396.19
300.597	382.19
300.827	405.19
301.057	392.19
301.288	376.19
301.518	396.19
301.748	400.19
301.979	400.19
302.209	384.19
302.439	382.19
302.669	388.19
302.9	387.19
303.13	386.19
303.36	377.19
303.59	362.19
303.82	389.19
304.051	387.19
304.281	385.19
304.511	381.19
304.741	368.19
304.971	397.19
305.201	373.19
305.431	373.19
305.661	377.19
305.891	380.19
306.121	387.19
306.352	389.19
306.582	375.19
306.812	375.19
307.042	379.19
307.272	393.19
307.502	378.19
307.731	380.19
307.961	369.19
308.191	391.19
308.421	377.19
308.651	380.19
308.881	379.19
309.111	392.19
309.341	398.19
309.571	381.19
309.8	356.19
310.03	362.19
310.26	371.19
310.49	382.19
310.72	385.19
310.949	383.19
311.179	383.19
311.409	400.19
311.639	368.19
311.868	378.19
312.098	387.19
312.328	407.19
312.557	396.19
312.787	404.19
313.017	393.19
313.246	403.19
313.476	409.19
313.706	380.19
313.935	394.19
314.165	400.19
314.394	379.19
314.624	408.19
314.853	393.19
315.083	380.19
315.312	380.19
315.542	394.19
315.771	412.19
316.001	401.19
316.23	398.19
316.46	384.19
316.689	388.19
316.919	392.19
317.148	404.19
317.377	393.19
317.607	411.19
317.836	418.19
318.065	386.19
318.295	382.19
318.524	388.19
318.753	376.19
318.983	400.19
319.212	396.19
319.441	387.19
319.67	393.19
319.9	390.19
320.129	404.19
320.358	397.19
320.587	391.19
320.816	399.19
321.046	395.19
321.275	401.19
321.504	412.19
321.733	417.19
321.962	412.19
322.191	404.19
322.42	399.19
322.649	399.19
322.878	407.19
323.108	412.19
323.337	409.19
323.566	392.19
323.795	409.19
324.024	415.19
324.253	436.19
324.482	403.19
324.71	414.19
324.939	407.19
325.168	420.19
325.397	431.19
325.626	448.19
325.855	400.19
326.084	429.19
326.313	431.19
326.542	454.19
326.77	462.19
326.999	439.19
327.228	434.19
327.457	435.19
327.686	436.19
327.914	429.19
328.143	449.19
328.372	433.19
328.6	462.19
328.829	448.19
329.058	438.19
329.287	448.19
329.515	459.19
329.744	453.19
329.972	438.19
330.201	453.19
330.43	437.19
330.658	432.19
330.887	458.19
331.115	472.19
331.344	457.19
331.572	458.19
331.801	452.19
332.03	475.19
332.258	497.19
332.486	503.19
332.715	533.19
332.943	561.19
333.172	581.19
333.4	591.19
333.629	600.19
333.857	606.19
334.085	581.19
334.314	567.19
334.542	567.19
334.771	567.19
334.999	551.19
335.227	554.19
335.455	545.19
335.684	546.19
335.912	558.19
336.14	537.19
336.369	537.19
336.597	533.19
336.825	539.19
337.053	548.19
337.281	525.19
337.51	509.19
337.738	529.19
337.966	494.19
338.194	491.19
338.422	486.19
338.65	491.19
338.878	493.19
339.106	494.19
339.334	500.19
339.562	500.19
339.79	483.19
340.018	453.19
340.246	447.19
340.474	467.19
340.702	468.19
340.93	467.19
341.158	480.19
341.386	479.19
341.614	474.19
341.842	486.19
342.07	463.19
342.298	447.19
342.526	458.19
342.754	464.19
342.981	441.19
343.209	473.19
343.437	516.19
343.665	525.19
343.893	570.19
344.12	580.19
344.348	560.19
344.576	497.19
344.804	504.19
345.031	477.19
345.259	459.19
345.487	477.19
345.714	465.19
345.942	469.19
346.17	465.19
346.397	463.19
346.625	460.19
346.853	453.19
347.08	465.19
347.308	454.19
347.535	487.19
347.763	473.19
347.99	471.19
348.218	463.19
348.445	459.19
348.673	469.19
348.9	463.19
349.128	443.19
349.355	459.19
349.583	465.19
349.81	424.19
350.037	432.19
350.265	449.19
350.492	457.19
350.72	451.19
350.947	445.19
351.174	448.19
351.402	440.19
351.629	436.19
351.856	440.19
352.083	455.19
352.311	430.19
352.538	421.19
352.765	448.19
352.992	443.19
353.22	437.19
353.447	444.19
353.674	424.19
353.901	427.19
354.128	447.19
354.355	451.19
354.583	438.19
354.81	440.19
355.037	431.19
355.264	432.19
355.491	443.19
355.718	435.19
355.945	433.19
356.172	455.19
356.399	455.19
356.626	424.19
356.853	449.19
357.08	445.19
357.307	442.19
357.534	421.19
357.761	453.19
357.988	442.19
358.215	460.19
358.441	437.19
358.668	436.19
358.895	433.19
359.122	440.19
359.349	433.19
359.576	452.19
359.802	453.19
360.029	419.19
360.256	439.19
360.483	442.19
360.709	442.19
360.936	440.19
361.163	461.19
361.39	437.19
361.616	447.19
361.843	429.19
362.07	444.19
362.296	430.19
362.523	446.19
362.749	428.19
362.976	445.19
363.203	435.19
363.429	429.19
363.656	441.19
363.882	455.19
364.109	446.19
364.335	436.19
364.562	439.19
364.788	420.19
365.015	440.19
365.241	438.19
365.468	440.19
365.694	428.19
365.92	432.19
366.147	430.19
366.373	429.19
366.599	418.19
366.826	425.19
367.052	430.19
367.278	439.19
367.505	448.19
367.731	438.19
367.957	440.19
368.184	454.19
368.41	432.19
368.636	447.19
368.862	454.19
369.089	445.19
369.315	438.19
369.541	439.19
369.767	436.19
369.993	452.19
370.219	446.19
370.445	447.19
370.672	470.19
370.898	474.19
371.124	462.19
371.35	477.19
371.576	475.19
371.802	489.19
372.028	473.19
372.254	468.19
372.48	475.19
372.706	474.19
372.932	469.19
373.158	533.19
373.384	482.19
373.61	471.19
373.835	474.19
374.061	455.19
374.287	463.19
374.513	474.19
374.739	521.19
374.965	507.19
375.191	553.19
375.416	524.19
375.642	515.19
375.868	505.19
376.094	504.19
376.319	478.19
376.545	474.19
376.771	471.19
376.997	473.19
377.222	453.19
377.448	472.19
377.674	471.19
377.899	468.19
378.125	456.19
378.35	457.19
378.576	470.19
378.802	469.19
379.027	447.19
379.253	466.19
379.478	452.19
379.704	468.19
379.929	469.19
380.155	478.19
380.38	465.19
380.606	435.19
380.831	463.19
381.057	486.19
381.282	465.19
381.507	477.19
381.733	467.19
381.958	481.19
382.184	469.19
382.409	483.19
382.634	503.19
382.86	501.19
383.085	495.19
383.31	505.19
383.535	513.19
383.761	516.19
383.986	541.19
384.211	556.19
384.436	570.19
384.662	535.19
384.887	552.19
385.112	573.19
385.337	559.19
385.562	547.19
385.787	556.19
386.013	544.19
386.238	544.19
386.463	570.19
386.688	575.19
386.913	551.19
387.138	559.19
387.363	556.19
387.588	531.19
387.813	548.19
388.038	533.19
388.263	547.19
388.488	541.19
388.713	539.19
388.938	572.19
389.163	536.19
389.387	555.19
389.612	536.19
389.837	525.19
390.062	553.19
390.287	541.19
390.512	527.19
390.736	543.19
390.961	555.19
391.186	564.19
391.411	603.19
391.636	597.19
391.86	611.19
392.085	630.19
392.31	639.19
392.534	601.19
392.759	577.19
392.984	565.19
393.208	599.19
393.433	589.19
393.658	594.19
393.882	603.19
394.107	605.19
394.331	604.19
394.556	592.19
394.78	595.19
395.005	607.19
395.229	594.19
395.454	621.19
395.678	629.19
395.903	631.19
396.127	619.19
396.352	558.19
396.576	585.19
396.801	589.19
397.025	583.19
397.249	570.19
397.474	615.19
397.698	616.19
397.922	607.19
398.147	622.19
398.371	616.19
398.595	650.19
398.82	677.19
399.044	723.19
399.268	778.19
399.492	929.19
399.717	1049.19
399.941	1026.19
400.165	912.19
400.389	826.19
400.613	751.19
400.837	713.19
401.062	697.19
401.286	695.19
401.51	660.19
401.734	705.19
401.958	693.19
402.182	694.19
402.406	719.19
402.63	712.19
402.854	726.19
403.078	748.19
403.302	757.19
403.526	775.19
403.75	798.19
403.974	800.19
404.198	810.19
404.422	814.19
404.645	797.19
404.869	769.19
405.093	784.19
405.317	779.19
405.541	785.19
405.765	760.19
405.988	755.19
406.212	765.19
406.436	740.19
406.66	775.19
406.883	773.19
407.107	827.19
407.331	868.19
407.555	894.19
407.778	879.19
408.002	856.19
408.226	845.19
408.449	853.19
408.673	785.19
408.896	778.19
409.12	801.19
409.344	781.19
409.567	828.19
409.791	825.19
410.014	821.19
410.238	807.19
410.461	785.19
410.685	790.19
410.908	763.19
411.132	743.19
411.355	734.19
411.578	727.19
411.802	721.19
412.025	727.19
412.249	734.19
412.472	734.19
412.695	714.19
412.919	689.19
413.142	686.19
413.365	691.19
413.589	670.19
413.812	693.19
414.035	676.19
414.258	684.19
414.482	689.19
414.705	726.19
414.928	704.19
415.151	663.19
415.374	694.19
415.597	709.19
415.821	686.19
416.044	679.19
416.267	687.19
416.49	657.19
416.713	690.19
416.936	683.19
417.159	699.19
417.382	673.19
417.605	701.19
417.828	715.19
418.051	679.19
418.274	683.19
418.497	687.19
418.72	716.19
418.943	715.19
419.166	777.19
419.389	815.19
419.611	759.19
419.834	734.19
420.057	724.19
420.28	717.19
420.503	702.19
420.726	711.19
420.948	659.19
421.171	716.19
421.394	688.19
421.617	718.19
421.839	687.19
422.062	719.19
422.285	700.19
422.507	709.19
422.73	732.19
422.953	721.19
423.175	731.19
423.398	741.19
423.621	750.19
423.843	756.19
424.066	758.19
424.288	758.19
424.511	752.19
424.733	722.19
424.956	717.19
425.178	735.19
425.401	716.19
425.623	720.19
425.846	684.19
426.068	693.19
426.291	665.19
426.513	672.19
426.735	654.19
426.958	656.19
427.18	620.19
427.402	636.19
427.625	632.19
427.847	639.19
428.069	635.19
428.292	650.19
428.514	617.19
428.736	620.19
428.958	640.19
429.181	608.19
429.403	625.19
429.625	591.19
429.847	611.19
430.069	577.19
430.292	597.19
430.514	611.19
430.736	648.19
430.958	612.19
431.18	620.19
431.402	617.19
431.624	603.19
431.846	641.19
432.068	623.19
432.29	631.19
432.512	615.19
432.734	637.19
432.956	624.19
433.178	631.19
433.4	625.19
433.622	634.19
433.844	680.19
434.066	619.19
434.287	653.19
434.509	650.19
434.731	687.19
434.953	707.19
435.175	732.19
435.397	699.19
435.618	679.19
435.84	659.19
436.062	650.19
436.284	637.19
436.505	641.19
436.727	639.19
436.949	616.19
437.17	639.19
437.392	645.19
437.614	669.19
437.835	612.19
438.057	601.19
438.278	580.19
438.5	627.19
438.721	613.19
438.943	644.19
439.165	621.19
439.386	611.19
439.608	641.19
439.829	630.19
440.05	661.19
440.272	673.19
440.493	648.19
440.715	660.19
440.936	654.19
441.158	699.19
441.379	703.19
441.6	693.19
441.822	755.19
442.043	719.19
442.264	717.19
442.486	693.19
442.707	699.19
442.928	718.19
443.149	716.19
443.371	699.19
443.592	723.19
443.813	721.19
444.034	727.19
444.255	765.19
444.476	765.19
444.698	855.19
444.919	878.19
445.14	918.19
445.361	807.19
445.582	748.19
445.803	695.19
446.024	676.19
446.245	690.19
446.466	678.19
446.687	667.19
446.908	635.19
447.129	646.19
447.35	617.19
447.571	611.19
447.792	621.19
448.013	593.19
448.234	621.19
448.455	623.19
448.675	585.19
448.896	615.19
449.117	597.19
449.338	588.19
449.559	597.19
449.779	591.19
450	603.19
450.221	595.19
450.442	606.19
450.662	618.19
450.883	605.19
451.104	590.19
451.324	638.19
451.545	609.19
451.766	606.19
451.986	583.19
452.207	617.19
452.428	589.19
452.648	599.19
452.869	581.19
453.089	588.19
453.31	599.19
453.53	587.19
453.751	579.19
453.971	573.19
454.192	580.19
454.412	565.19
454.633	560.19
454.853	575.19
455.073	580.19
455.294	577.19
455.514	561.19
455.734	564.19
455.955	550.19
456.175	542.19
456.395	560.19
456.616	543.19
456.836	560.19
457.056	559.19
457.276	533.19
457.497	549.19
457.717	577.19
457.937	566.19
458.157	560.19
458.377	564.19
458.598	565.19
458.818	585.19
459.038	603.19
459.258	626.19
459.478	642.19
459.698	657.19
459.918	673.19
460.138	704.19
460.358	748.19
460.578	741.19
460.798	760.19
461.018	754.19
461.238	744.19
461.458	748.19
461.678	744.19
461.898	772.19
462.118	779.19
462.338	803.19
462.558	830.19
462.777	822.19
462.997	901.19
463.217	990.19
463.437	995.19
463.657	968.19
463.876	903.19
464.096	878.19
464.316	883.19
464.536	890.19
464.755	841.19
464.975	799.19
465.195	776.19
465.414	739.19
465.634	688.19
465.854	669.19
466.073	653.19
466.293	640.19
466.512	649.19
466.732	661.19
466.951	630.19
467.171	634.19
467.391	624.19
467.61	622.19
467.829	596.19
468.049	592.19
468.268	601.19
468.488	582.19
468.707	573.19
468.927	570.19
469.146	563.19
469.365	599.19
469.585	597.19
469.804	627.19
470.023	627.19
470.243	616.19
470.462	635.19
470.681	630.19
470.901	651.19
471.12	627.19
471.339	641.19
471.558	592.19
471.777	606.19
471.997	596.19
472.216	598.19
472.435	568.19
472.654	590.19
472.873	550.19
473.092	581.19
473.311	567.19
473.53	569.19
473.749	571.19
473.968	574.19
474.187	564.19
474.406	559.19
474.625	579.19
474.844	571.19
475.063	591.19
475.282	574.19
475.501	584.19
475.72	583.19
475.939	597.19
476.158	592.19
476.377	600.19
476.596	602.19
476.814	580.19
477.033	611.19
477.252	597.19
477.471	658.19
477.69	665.19
477.908	661.19
478.127	656.19
478.346	684.19
478.564	678.19
478.783	710.19
479.002	705.19
479.22	718.19
479.439	727.19
479.658	668.19
479.876	715.19
480.095	704.19
480.313	720.19
480.532	755.19
480.751	782.19
480.969	735.19
481.188	691.19
481.406	681.19
481.624	659.19
481.843	664.19
482.061	639.19
482.28	637.19
482.498	631.19
482.717	647.19
482.935	655.19
483.153	676.19
483.372	674.19
483.59	647.19
483.808	651.19
484.027	647.19
484.245	654.19
484.463	657.19
484.681	669.19
484.9	684.19
485.118	688.19
485.336	705.19
485.554	695.19
485.772	709.19
485.99	701.19
486.209	713.19
486.427	696.19
486.645	699.19
486.863	682.19
487.081	693.19
487.299	682.19
487.517	675.19
487.735	689.19
487.953	716.19
488.171	706.19
488.389	708.19
488.607	674.19
488.825	675.19
489.043	692.19
489.261	709.19
489.479	676.19
489.696	686.19
489.914	699.19
490.132	667.19
490.35	676.19
490.568	673.19
490.786	683.19
491.003	678.19
491.221	711.19
491.439	700.19
491.657	692.19
491.874	702.19
492.092	755.19
492.31	744.19
492.527	687.19
492.745	698.19
492.963	698.19
493.18	721.19
493.398	716.19
493.615	719.19
493.833	715.19
494.05	720.19
494.268	747.19
494.485	731.19
494.703	737.19
494.92	744.19
495.138	734.19
495.355	727.19
495.573	736.19
495.79	731.19
496.008	733.19
496.225	746.19
496.442	760.19
496.66	740.19
496.877	762.19
497.094	771.19
497.312	783.19
497.529	801.19
497.746	828.19
497.963	806.19
498.181	870.19
498.398	907.19
498.615	949.19
498.832	1007.19
499.049	1092.19
499.267	1139.19
499.484	1269.19
499.701	1448.19
499.918	1587.19
500.135	1811.19
500.352	2128.19
500.569	2227.19
500.786	2185.19
501.003	2032.19
501.22	1804.19
501.437	1581.19
