Data from Ni(NO3)2@0.0625M.TitratingCurve.Agarose3%dH2O.NegLispCup.LampEnergy10.LIBS07252019_HRD10591_18-15-30-569.txt Node
Date: Thu Jul 25 18:15:30 EDT 2019
User: cochatt
Spectrometer: HR+D1059
Trigger mode: 1
Integration Time (sec): 1.000000E-1
Scans to average: 1
Electric dark correction enabled: true
Nonlinearity correction enabled: false
Boxcar width: 0
XAxis mode: Wavelengths
Number of Pixels in Spectrum: 2048
>>>>>Begin Spectral Data<<<<<
223.165	-16.5
223.4	-16.5
223.635	-16.5
223.869	-22.5
224.104	-25.5
224.338	-10.5
224.573	-15.5
224.808	3.5
225.042	-15.5
225.277	-12.5
225.511	-9.5
225.746	-5.5
225.98	10.5
226.215	16.5
226.449	12.5
226.683	22.5
226.918	26.5
227.152	41.5
227.387	36.5
227.621	47.5
227.856	63.5
228.09	64.5
228.324	52.5
228.559	49.5
228.793	90.5
229.027	92.5
229.262	84.5
229.496	99.5
229.73	109.5
229.964	133.5
230.199	127.5
230.433	134.5
230.667	125.5
230.901	127.5
231.136	132.5
231.37	127.5
231.604	123.5
231.838	121.5
232.072	132.5
232.306	136.5
232.541	144.5
232.775	132.5
233.009	132.5
233.243	132.5
233.477	136.5
233.711	143.5
233.945	136.5
234.179	136.5
234.413	137.5
234.647	148.5
234.881	135.5
235.115	119.5
235.349	131.5
235.583	131.5
235.817	139.5
236.051	120.5
236.285	135.5
236.519	125.5
236.753	137.5
236.987	142.5
237.221	141.5
237.455	151.5
237.689	134.5
237.922	131.5
238.156	134.5
238.39	137.5
238.624	134.5
238.858	144.5
239.091	144.5
239.325	149.5
239.559	157.5
239.793	149.5
240.027	156.5
240.26	146.5
240.494	142.5
240.728	154.5
240.961	156.5
241.195	159.5
241.429	163.5
241.662	185.5
241.896	159.5
242.13	159.5
242.363	173.5
242.597	155.5
242.83	174.5
243.064	166.5
243.298	173.5
243.531	164.5
243.765	161.5
243.998	169.5
244.232	182.5
244.465	171.5
244.699	168.5
244.932	181.5
245.166	176.5
245.399	172.5
245.633	179.5
245.866	188.5
246.099	170.5
246.333	181.5
246.566	187.5
246.8	176.5
247.033	204.5
247.266	187.5
247.5	165.5
247.733	195.5
247.966	190.5
248.2	195.5
248.433	183.5
248.666	188.5
248.899	196.5
249.133	190.5
249.366	202.5
249.599	207.5
249.832	193.5
250.066	206.5
250.299	204.5
250.532	203.5
250.765	202.5
250.998	202.5
251.231	212.5
251.465	210.5
251.698	216.5
251.931	200.5
252.164	209.5
252.397	218.5
252.63	208.5
252.863	217.5
253.096	211.5
253.329	219.5
253.562	217.5
253.795	216.5
254.028	231.5
254.261	224.5
254.494	214.5
254.727	210.5
254.96	223.5
255.193	236.5
255.426	210.5
255.659	227.5
255.892	227.5
256.124	243.5
256.357	235.5
256.59	246.5
256.823	231.5
257.056	240.5
257.289	231.5
257.521	233.5
257.754	239.5
257.987	254.5
258.22	240.5
258.452	237.5
258.685	244.5
258.918	224.5
259.151	231.5
259.383	246.5
259.616	250.5
259.849	263.5
260.081	258.5
260.314	255.5
260.547	246.5
260.779	235.5
261.012	243.5
261.244	253.5
261.477	263.5
261.71	259.5
261.942	266.5
262.175	255.5
262.407	237.5
262.64	263.5
262.872	267.5
263.105	265.5
263.337	264.5
263.57	280.5
263.802	267.5
264.035	265.5
264.267	263.5
264.499	277.5
264.732	262.5
264.964	269.5
265.197	276.5
265.429	278.5
265.661	297.5
265.894	287.5
266.126	295.5
266.358	286.5
266.591	296.5
266.823	271.5
267.055	277.5
267.287	282.5
267.52	270.5
267.752	296.5
267.984	299.5
268.216	266.5
268.448	299.5
268.681	292.5
268.913	316.5
269.145	269.5
269.377	298.5
269.609	286.5
269.841	301.5
270.073	281.5
270.306	294.5
270.538	300.5
270.77	299.5
271.002	297.5
271.234	308.5
271.466	281.5
271.698	285.5
271.93	309.5
272.162	285.5
272.394	292.5
272.626	307.5
272.858	291.5
273.09	296.5
273.322	327.5
273.553	291.5
273.785	304.5
274.017	288.5
274.249	325.5
274.481	299.5
274.713	304.5
274.945	319.5
275.176	323.5
275.408	319.5
275.64	301.5
275.872	325.5
276.104	326.5
276.335	332.5
276.567	333.5
276.799	338.5
277.031	326.5
277.262	332.5
277.494	332.5
277.726	337.5
277.957	321.5
278.189	336.5
278.421	355.5
278.652	346.5
278.884	362.5
279.115	344.5
279.347	350.5
279.579	343.5
279.81	342.5
280.042	328.5
280.273	332.5
280.505	342.5
280.736	350.5
280.968	368.5
281.199	353.5
281.431	354.5
281.662	348.5
281.894	349.5
282.125	353.5
282.356	346.5
282.588	367.5
282.819	376.5
283.051	363.5
283.282	339.5
283.513	366.5
283.745	372.5
283.976	362.5
284.207	385.5
284.439	385.5
284.67	379.5
284.901	381.5
285.132	389.5
285.364	383.5
285.595	368.5
285.826	378.5
286.057	393.5
286.288	383.5
286.52	398.5
286.751	381.5
286.982	403.5
287.213	372.5
287.444	372.5
287.675	406.5
287.906	390.5
288.138	399.5
288.369	405.5
288.6	382.5
288.831	409.5
289.062	397.5
289.293	393.5
289.524	401.5
289.755	399.5
289.986	398.5
290.217	396.5
290.448	382.5
290.679	410.5
290.91	413.5
291.141	388.5
291.371	418.5
291.602	405.5
291.833	392.5
292.064	391.5
292.295	419.5
292.526	427.5
292.757	388.5
292.987	395.5
293.218	405.5
293.449	417.5
293.68	402.5
293.91	387.5
294.141	416.5
294.372	415.5
294.603	427.5
294.833	417.5
295.064	395.5
295.295	429.5
295.525	414.5
295.756	420.5
295.987	417.5
296.217	416.5
296.448	435.5
296.679	393.5
296.909	408.5
297.14	416.5
297.37	446.5
297.601	430.5
297.831	448.5
298.062	427.5
298.292	433.5
298.523	453.5
298.753	469.5
298.984	444.5
299.214	433.5
299.445	436.5
299.675	428.5
299.905	451.5
300.136	433.5
300.366	461.5
300.597	465.5
300.827	484.5
301.057	467.5
301.288	477.5
301.518	473.5
301.748	459.5
301.979	476.5
302.209	458.5
302.439	478.5
302.669	447.5
302.9	457.5
303.13	446.5
303.36	465.5
303.59	449.5
303.82	443.5
304.051	470.5
304.281	451.5
304.511	465.5
304.741	440.5
304.971	471.5
305.201	461.5
305.431	458.5
305.661	457.5
305.891	454.5
306.121	432.5
306.352	447.5
306.582	450.5
306.812	453.5
307.042	448.5
307.272	431.5
307.502	459.5
307.731	449.5
307.961	456.5
308.191	451.5
308.421	447.5
308.651	436.5
308.881	443.5
309.111	454.5
309.341	440.5
309.571	433.5
309.8	454.5
310.03	436.5
310.26	463.5
310.49	464.5
310.72	458.5
310.949	455.5
311.179	458.5
311.409	468.5
311.639	445.5
311.868	452.5
312.098	456.5
312.328	479.5
312.557	481.5
312.787	481.5
313.017	482.5
313.246	474.5
313.476	479.5
313.706	479.5
313.935	484.5
314.165	488.5
314.394	468.5
314.624	489.5
314.853	482.5
315.083	464.5
315.312	473.5
315.542	476.5
315.771	466.5
316.001	474.5
316.23	470.5
316.46	478.5
316.689	477.5
316.919	462.5
317.148	461.5
317.377	488.5
317.607	473.5
317.836	460.5
318.065	471.5
318.295	471.5
318.524	478.5
318.753	486.5
318.983	468.5
319.212	468.5
319.441	460.5
319.67	446.5
319.9	469.5
320.129	485.5
320.358	461.5
320.587	486.5
320.816	481.5
321.046	471.5
321.275	467.5
321.504	480.5
321.733	479.5
321.962	463.5
322.191	494.5
322.42	447.5
322.649	470.5
322.878	483.5
323.108	476.5
323.337	486.5
323.566	488.5
323.795	489.5
324.024	472.5
324.253	501.5
324.482	507.5
324.71	472.5
324.939	483.5
325.168	495.5
325.397	485.5
325.626	522.5
325.855	512.5
326.084	502.5
326.313	523.5
326.542	521.5
326.77	528.5
326.999	534.5
327.228	517.5
327.457	517.5
327.686	523.5
327.914	524.5
328.143	542.5
328.372	517.5
328.6	519.5
328.829	534.5
329.058	517.5
329.287	544.5
329.515	523.5
329.744	541.5
329.972	525.5
330.201	536.5
330.43	541.5
330.658	543.5
330.887	543.5
331.115	520.5
331.344	555.5
331.572	555.5
331.801	569.5
332.03	575.5
332.258	573.5
332.486	580.5
332.715	631.5
332.943	649.5
333.172	677.5
333.4	719.5
333.629	712.5
333.857	716.5
334.085	688.5
334.314	693.5
334.542	680.5
334.771	674.5
334.999	663.5
335.227	639.5
335.455	647.5
335.684	641.5
335.912	656.5
336.14	639.5
336.369	638.5
336.597	617.5
336.825	638.5
337.053	637.5
337.281	644.5
337.51	596.5
337.738	592.5
337.966	594.5
338.194	587.5
338.422	575.5
338.65	562.5
338.878	581.5
339.106	573.5
339.334	584.5
339.562	570.5
339.79	570.5
340.018	569.5
340.246	533.5
340.474	545.5
340.702	552.5
340.93	552.5
341.158	551.5
341.386	540.5
341.614	545.5
341.842	559.5
342.07	551.5
342.298	532.5
342.526	553.5
342.754	537.5
342.981	548.5
343.209	541.5
343.437	589.5
343.665	623.5
343.893	653.5
344.12	682.5
344.348	658.5
344.576	643.5
344.804	608.5
345.031	563.5
345.259	600.5
345.487	571.5
345.714	560.5
345.942	565.5
346.17	573.5
346.397	556.5
346.625	541.5
346.853	558.5
347.08	542.5
347.308	549.5
347.535	545.5
347.763	563.5
347.99	567.5
348.218	540.5
348.445	539.5
348.673	516.5
348.9	535.5
349.128	535.5
349.355	541.5
349.583	539.5
349.81	541.5
350.037	512.5
350.265	503.5
350.492	510.5
350.72	526.5
350.947	517.5
351.174	512.5
351.402	520.5
351.629	519.5
351.856	512.5
352.083	528.5
352.311	534.5
352.538	542.5
352.765	536.5
352.992	508.5
353.22	523.5
353.447	499.5
353.674	513.5
353.901	543.5
354.128	502.5
354.355	530.5
354.583	537.5
354.81	527.5
355.037	508.5
355.264	517.5
355.491	534.5
355.718	517.5
355.945	517.5
356.172	525.5
356.399	524.5
356.626	520.5
356.853	523.5
357.08	528.5
357.307	516.5
357.534	536.5
357.761	525.5
357.988	547.5
358.215	526.5
358.441	518.5
358.668	516.5
358.895	529.5
359.122	525.5
359.349	531.5
359.576	504.5
359.802	525.5
360.029	548.5
360.256	520.5
360.483	527.5
360.709	528.5
360.936	528.5
361.163	513.5
361.39	522.5
361.616	533.5
361.843	549.5
362.07	515.5
362.296	525.5
362.523	511.5
362.749	516.5
362.976	503.5
363.203	522.5
363.429	499.5
363.656	503.5
363.882	520.5
364.109	526.5
364.335	527.5
364.562	526.5
364.788	511.5
365.015	512.5
365.241	524.5
365.468	520.5
365.694	511.5
365.92	526.5
366.147	499.5
366.373	520.5
366.599	520.5
366.826	519.5
367.052	528.5
367.278	511.5
367.505	506.5
367.731	522.5
367.957	515.5
368.184	509.5
368.41	547.5
368.636	526.5
368.862	543.5
369.089	547.5
369.315	536.5
369.541	540.5
369.767	540.5
369.993	526.5
370.219	544.5
370.445	566.5
370.672	555.5
370.898	567.5
371.124	569.5
371.35	580.5
371.576	586.5
371.802	575.5
372.028	557.5
372.254	577.5
372.48	573.5
372.706	575.5
372.932	610.5
373.158	590.5
373.384	595.5
373.61	578.5
373.835	571.5
374.061	546.5
374.287	568.5
374.513	575.5
374.739	606.5
374.965	620.5
375.191	611.5
375.416	626.5
375.642	618.5
375.868	603.5
376.094	608.5
376.319	583.5
376.545	583.5
376.771	583.5
376.997	564.5
377.222	571.5
377.448	577.5
377.674	571.5
377.899	556.5
378.125	566.5
378.35	566.5
378.576	556.5
378.802	565.5
379.027	570.5
379.253	553.5
379.478	547.5
379.704	547.5
379.929	543.5
380.155	552.5
380.38	567.5
380.606	571.5
380.831	583.5
381.057	583.5
381.282	551.5
381.507	567.5
381.733	552.5
381.958	560.5
382.184	580.5
382.409	602.5
382.634	587.5
382.86	594.5
383.085	594.5
383.31	620.5
383.535	619.5
383.761	633.5
383.986	649.5
384.211	653.5
384.436	668.5
384.662	669.5
384.887	653.5
385.112	643.5
385.337	682.5
385.562	671.5
385.787	663.5
386.013	698.5
386.238	712.5
386.463	694.5
386.688	683.5
386.913	634.5
387.138	678.5
387.363	630.5
387.588	665.5
387.813	646.5
388.038	657.5
388.263	653.5
388.488	689.5
388.713	644.5
388.938	665.5
389.163	677.5
389.387	672.5
389.612	665.5
389.837	637.5
390.062	658.5
390.287	659.5
390.512	654.5
390.736	671.5
390.961	668.5
391.186	702.5
391.411	709.5
391.636	730.5
391.86	734.5
392.085	759.5
392.31	725.5
392.534	705.5
392.759	718.5
392.984	711.5
393.208	684.5
393.433	719.5
393.658	726.5
393.882	701.5
394.107	707.5
394.331	736.5
394.556	711.5
394.78	720.5
395.005	748.5
395.229	725.5
395.454	740.5
395.678	761.5
395.903	749.5
396.127	738.5
396.352	735.5
396.576	702.5
396.801	682.5
397.025	711.5
397.249	707.5
397.474	735.5
397.698	731.5
397.922	728.5
398.147	738.5
398.371	767.5
398.595	796.5
398.82	824.5
399.044	886.5
399.268	979.5
399.492	1115.5
399.717	1259.5
399.941	1258.5
400.165	1094.5
400.389	986.5
400.613	934.5
400.837	881.5
401.062	839.5
401.286	824.5
401.51	827.5
401.734	836.5
401.958	844.5
402.182	852.5
402.406	874.5
402.63	851.5
402.854	876.5
403.078	920.5
403.302	901.5
403.526	938.5
403.75	961.5
403.974	979.5
404.198	980.5
404.422	983.5
404.645	971.5
404.869	979.5
405.093	947.5
405.317	920.5
405.541	910.5
405.765	913.5
405.988	917.5
406.212	906.5
406.436	909.5
406.66	931.5
406.883	974.5
407.107	999.5
407.331	1063.5
407.555	1108.5
407.778	1110.5
408.002	1079.5
408.226	1052.5
408.449	990.5
408.673	967.5
408.896	966.5
409.12	962.5
409.344	965.5
409.567	948.5
409.791	967.5
410.014	957.5
410.238	939.5
410.461	951.5
410.685	932.5
410.908	885.5
411.132	878.5
411.355	870.5
411.578	856.5
411.802	853.5
412.025	847.5
412.249	875.5
412.472	875.5
412.695	820.5
412.919	836.5
413.142	853.5
413.365	836.5
413.589	840.5
413.812	835.5
414.035	820.5
414.258	830.5
414.482	841.5
414.705	841.5
414.928	863.5
415.151	848.5
415.374	843.5
415.597	835.5
415.821	843.5
416.044	835.5
416.267	836.5
416.49	794.5
416.713	805.5
416.936	835.5
417.159	842.5
417.382	836.5
417.605	811.5
417.828	816.5
418.051	847.5
418.274	805.5
418.497	819.5
418.72	851.5
418.943	856.5
419.166	907.5
419.389	930.5
419.611	936.5
419.834	891.5
420.057	870.5
420.28	854.5
420.503	851.5
420.726	807.5
420.948	842.5
421.171	825.5
421.394	810.5
421.617	814.5
421.839	837.5
422.062	844.5
422.285	819.5
422.507	856.5
422.73	853.5
422.953	855.5
423.175	848.5
423.398	880.5
423.621	883.5
423.843	905.5
424.066	917.5
424.288	903.5
424.511	885.5
424.733	864.5
424.956	841.5
425.178	853.5
425.401	821.5
425.623	820.5
425.846	809.5
426.068	806.5
426.291	814.5
426.513	823.5
426.735	801.5
426.958	792.5
427.18	779.5
427.402	762.5
427.625	771.5
427.847	764.5
428.069	755.5
428.292	759.5
428.514	720.5
428.736	726.5
428.958	746.5
429.181	726.5
429.403	718.5
429.625	733.5
429.847	714.5
430.069	713.5
430.292	715.5
430.514	706.5
430.736	711.5
430.958	719.5
431.18	730.5
431.402	740.5
431.624	741.5
431.846	732.5
432.068	763.5
432.29	758.5
432.512	755.5
432.734	760.5
432.956	724.5
433.178	755.5
433.4	763.5
433.622	731.5
433.844	749.5
434.066	740.5
434.287	751.5
434.509	791.5
434.731	812.5
434.953	823.5
435.175	848.5
435.397	828.5
435.618	802.5
435.84	784.5
436.062	742.5
436.284	738.5
436.505	725.5
436.727	756.5
436.949	743.5
437.17	732.5
437.392	736.5
437.614	731.5
437.835	698.5
438.057	728.5
438.278	699.5
438.5	701.5
438.721	713.5
438.943	723.5
439.165	701.5
439.386	719.5
439.608	733.5
439.829	756.5
440.05	732.5
440.272	755.5
440.493	758.5
440.715	765.5
440.936	773.5
441.158	781.5
441.379	820.5
441.6	839.5
441.822	851.5
442.043	842.5
442.264	815.5
442.486	801.5
442.707	786.5
442.928	824.5
443.149	843.5
443.371	843.5
443.592	829.5
443.813	824.5
444.034	843.5
444.255	851.5
444.476	885.5
444.698	983.5
444.919	1044.5
445.14	1085.5
445.361	937.5
445.582	871.5
445.803	789.5
446.024	779.5
446.245	783.5
446.466	765.5
446.687	749.5
446.908	752.5
447.129	745.5
447.35	737.5
447.571	709.5
447.792	677.5
448.013	691.5
448.234	684.5
448.455	685.5
448.675	688.5
448.896	698.5
449.117	691.5
449.338	693.5
449.559	684.5
449.779	661.5
450	676.5
450.221	699.5
450.442	694.5
450.662	700.5
450.883	725.5
451.104	701.5
451.324	678.5
451.545	707.5
451.766	696.5
451.986	704.5
452.207	697.5
452.428	703.5
452.648	680.5
452.869	675.5
453.089	672.5
453.31	684.5
453.53	655.5
453.751	652.5
453.971	652.5
454.192	676.5
454.412	651.5
454.633	652.5
454.853	656.5
455.073	645.5
455.294	652.5
455.514	639.5
455.734	663.5
455.955	637.5
456.175	659.5
456.395	634.5
456.616	679.5
456.836	645.5
457.056	650.5
457.276	626.5
457.497	640.5
457.717	632.5
457.937	648.5
458.157	660.5
458.377	661.5
458.598	686.5
458.818	676.5
459.038	686.5
459.258	705.5
459.478	773.5
459.698	783.5
459.918	816.5
460.138	837.5
460.358	871.5
460.578	853.5
460.798	894.5
461.018	899.5
461.238	877.5
461.458	871.5
461.678	889.5
461.898	896.5
462.118	903.5
462.338	951.5
462.558	937.5
462.777	995.5
462.997	1100.5
463.217	1215.5
463.437	1211.5
463.657	1102.5
463.876	1020.5
464.096	1040.5
464.316	1022.5
464.536	1064.5
464.755	1035.5
464.975	947.5
465.195	899.5
465.414	876.5
465.634	778.5
465.854	792.5
466.073	772.5
466.293	771.5
466.512	751.5
466.732	735.5
466.951	732.5
467.171	707.5
467.391	719.5
467.61	714.5
467.829	696.5
468.049	702.5
468.268	698.5
468.488	689.5
468.707	662.5
468.927	728.5
469.146	694.5
469.365	712.5
469.585	702.5
469.804	720.5
470.023	708.5
470.243	726.5
470.462	750.5
470.681	729.5
470.901	732.5
471.12	745.5
471.339	713.5
471.558	716.5
471.777	708.5
471.997	697.5
472.216	671.5
472.435	709.5
472.654	659.5
472.873	678.5
473.092	672.5
473.311	692.5
473.53	678.5
473.749	679.5
473.968	637.5
474.187	651.5
474.406	659.5
474.625	669.5
474.844	679.5
475.063	685.5
475.282	681.5
475.501	686.5
475.72	704.5
475.939	694.5
476.158	688.5
476.377	694.5
476.596	695.5
476.814	698.5
477.033	713.5
477.252	733.5
477.471	742.5
477.69	739.5
477.908	762.5
478.127	807.5
478.346	795.5
478.564	809.5
478.783	832.5
479.002	867.5
479.22	874.5
479.439	841.5
479.658	828.5
479.876	857.5
480.095	845.5
480.313	876.5
480.532	919.5
480.751	915.5
480.969	864.5
481.188	822.5
481.406	811.5
481.624	792.5
481.843	793.5
482.061	786.5
482.28	761.5
482.498	780.5
482.717	767.5
482.935	774.5
483.153	779.5
483.372	785.5
483.59	784.5
483.808	773.5
484.027	752.5
484.245	787.5
484.463	801.5
484.681	817.5
484.9	843.5
485.118	842.5
485.336	825.5
485.554	820.5
485.772	825.5
485.99	824.5
486.209	845.5
486.427	816.5
486.645	822.5
486.863	826.5
487.081	837.5
487.299	801.5
487.517	793.5
487.735	823.5
487.953	837.5
488.171	848.5
488.389	814.5
488.607	793.5
488.825	781.5
489.043	790.5
489.261	803.5
489.479	789.5
489.696	820.5
489.914	825.5
490.132	835.5
490.35	825.5
490.568	811.5
490.786	817.5
491.003	808.5
491.221	802.5
491.439	792.5
491.657	791.5
491.874	800.5
492.092	797.5
492.31	806.5
492.527	840.5
492.745	812.5
492.963	822.5
493.18	833.5
493.398	802.5
493.615	875.5
493.833	841.5
494.05	855.5
494.268	861.5
494.485	863.5
494.703	830.5
494.92	872.5
495.138	852.5
495.355	847.5
495.573	846.5
495.79	839.5
496.008	838.5
496.225	847.5
496.442	878.5
496.66	864.5
496.877	904.5
497.094	856.5
497.312	891.5
497.529	911.5
497.746	926.5
497.963	975.5
498.181	1000.5
498.398	1051.5
498.615	1115.5
498.832	1189.5
499.049	1287.5
499.267	1388.5
499.484	1481.5
499.701	1643.5
499.918	1832.5
500.135	2143.5
500.352	2493.5
500.569	2595.5
500.786	2536.5
501.003	2363.5
501.22	2040.5
501.437	1816.5
501.654	1597.5
501.871	1426.5
502.088	1331.5
502.305	1217.5
502.522	1175.5
502.739	1132.5
502.956	1095.5
503.172	1022.5
503.389	997.5
503.606	987.5
503.823	947.5
504.04	955.5
504.256	978.5
504.473	980.5
504.69	1021.5
504.907	994.5
505.123	942.5
505.34	889.5
505.557	832.5
505.773	824.5
505.99	790.5
506.207	806.5
506.423	762.5
506.64	775.5
506.856	754.5
507.073	770.5
507.289	756.5
507.506	782.5
507.722	759.5
507.939	739.5
508.155	703.5
508.372	725.5
508.588	706.5
508.805	744.5
509.021	709.5
509.238	722.5
509.454	692.5
509.67	687.5
509.887	682.5
510.103	701.5
510.319	708.5
510.536	681.5
510.752	689.5
510.968	683.5
511.184	702.5
511.401	688.5
511.617	675.5
511.833	676.5
512.049	684.5
512.265	673.5
512.481	714.5
512.698	685.5
512.914	681.5
513.13	669.5
513.346	697.5
513.562	667.5
513.778	675.5
513.994	697.5
514.21	695.5
514.426	685.5
514.642	718.5
514.858	688.5
515.074	709.5
515.29	732.5
515.506	692.5
515.721	730.5
515.937	732.5
516.153	732.5
516.369	744.5
516.585	753.5
516.801	799.5
517.016	835.5
517.232	876.5
517.448	925.5
517.664	925.5
517.879	967.5
518.095	942.5
518.311	929.5
518.527	878.5
518.742	856.5
