Data from Ni(NO3)2@0.125M.TitratingCurve.Agarose3%dH2O.NegLispCup.LampEnergy10.LIBS07252019_HRD10591_18-10-08-567.txt Node
Date: Thu Jul 25 18:10:08 EDT 2019
User: cochatt
Spectrometer: HR+D1059
Trigger mode: 1
Integration Time (sec): 1.000000E-1
Scans to average: 1
Electric dark correction enabled: true
Nonlinearity correction enabled: false
Boxcar width: 0
XAxis mode: Wavelengths
Number of Pixels in Spectrum: 2048
>>>>>Begin Spectral Data<<<<<
223.165	-13.69
223.4	-13.69
223.635	-13.69
223.869	-22.69
224.104	-21.69
224.338	-17.69
224.573	-18.69
224.808	-14.69
225.042	-22.69
225.277	-0.69
225.511	2.31
225.746	1.31
225.98	3.31
226.215	25.31
226.449	23.31
226.683	16.31
226.918	34.31
227.152	26.31
227.387	37.31
227.621	34.31
227.856	53.31
228.09	46.31
228.324	47.31
228.559	62.31
228.793	65.31
229.027	85.31
229.262	85.31
229.496	87.31
229.73	91.31
229.964	107.31
230.199	94.31
230.433	116.31
230.667	96.31
230.901	107.31
231.136	100.31
231.37	110.31
231.604	104.31
231.838	118.31
232.072	119.31
232.306	111.31
232.541	103.31
232.775	121.31
233.009	111.31
233.243	103.31
233.477	100.31
233.711	115.31
233.945	110.31
234.179	110.31
234.413	118.31
234.647	131.31
234.881	119.31
235.115	131.31
235.349	132.31
235.583	118.31
235.817	128.31
236.051	108.31
236.285	120.31
236.519	123.31
236.753	106.31
236.987	114.31
237.221	121.31
237.455	95.31
237.689	117.31
237.922	110.31
238.156	121.31
238.39	117.31
238.624	124.31
238.858	116.31
239.091	138.31
239.325	123.31
239.559	127.31
239.793	133.31
240.027	129.31
240.26	122.31
240.494	126.31
240.728	118.31
240.961	124.31
241.195	120.31
241.429	133.31
241.662	133.31
241.896	131.31
242.13	118.31
242.363	140.31
242.597	140.31
242.83	121.31
243.064	123.31
243.298	139.31
243.531	143.31
243.765	140.31
243.998	134.31
244.232	147.31
244.465	123.31
244.699	122.31
244.932	150.31
245.166	133.31
245.399	136.31
245.633	135.31
245.866	149.31
246.099	138.31
246.333	147.31
246.566	148.31
246.8	149.31
247.033	145.31
247.266	150.31
247.5	129.31
247.733	146.31
247.966	154.31
248.2	167.31
248.433	148.31
248.666	140.31
248.899	146.31
249.133	171.31
249.366	170.31
249.599	178.31
249.832	162.31
250.066	162.31
250.299	153.31
250.532	172.31
250.765	160.31
250.998	165.31
251.231	163.31
251.465	173.31
251.698	167.31
251.931	171.31
252.164	173.31
252.397	174.31
252.63	158.31
252.863	172.31
253.096	178.31
253.329	167.31
253.562	161.31
253.795	194.31
254.028	181.31
254.261	175.31
254.494	171.31
254.727	157.31
254.96	180.31
255.193	178.31
255.426	185.31
255.659	162.31
255.892	170.31
256.124	171.31
256.357	186.31
256.59	180.31
256.823	184.31
257.056	179.31
257.289	168.31
257.521	172.31
257.754	184.31
257.987	190.31
258.22	196.31
258.452	176.31
258.685	184.31
258.918	202.31
259.151	198.31
259.383	188.31
259.616	207.31
259.849	184.31
260.081	182.31
260.314	205.31
260.547	203.31
260.779	194.31
261.012	197.31
261.244	200.31
261.477	208.31
261.71	205.31
261.942	205.31
262.175	199.31
262.407	205.31
262.64	196.31
262.872	210.31
263.105	204.31
263.337	214.31
263.57	198.31
263.802	212.31
264.035	186.31
264.267	199.31
264.499	195.31
264.732	213.31
264.964	225.31
265.197	214.31
265.429	219.31
265.661	212.31
265.894	220.31
266.126	222.31
266.358	223.31
266.591	226.31
266.823	228.31
267.055	216.31
267.287	215.31
267.52	217.31
267.752	215.31
267.984	224.31
268.216	230.31
268.448	224.31
268.681	207.31
268.913	244.31
269.145	220.31
269.377	219.31
269.609	234.31
269.841	224.31
270.073	214.31
270.306	228.31
270.538	223.31
270.77	227.31
271.002	233.31
271.234	226.31
271.466	227.31
271.698	224.31
271.93	227.31
272.162	220.31
272.394	232.31
272.626	228.31
272.858	237.31
273.09	260.31
273.322	252.31
273.553	239.31
273.785	252.31
274.017	242.31
274.249	247.31
274.481	231.31
274.713	242.31
274.945	236.31
275.176	240.31
275.408	243.31
275.64	234.31
275.872	247.31
276.104	250.31
276.335	248.31
276.567	233.31
276.799	241.31
277.031	243.31
277.262	238.31
277.494	244.31
277.726	244.31
277.957	255.31
278.189	272.31
278.421	267.31
278.652	232.31
278.884	263.31
279.115	237.31
279.347	244.31
279.579	268.31
279.81	263.31
280.042	261.31
280.273	250.31
280.505	260.31
280.736	255.31
280.968	253.31
281.199	266.31
281.431	272.31
281.662	290.31
281.894	272.31
282.125	288.31
282.356	282.31
282.588	256.31
282.819	256.31
283.051	288.31
283.282	256.31
283.513	274.31
283.745	285.31
283.976	286.31
284.207	278.31
284.439	276.31
284.67	280.31
284.901	297.31
285.132	276.31
285.364	284.31
285.595	272.31
285.826	280.31
286.057	294.31
286.288	270.31
286.52	276.31
286.751	274.31
286.982	293.31
287.213	282.31
287.444	297.31
287.675	290.31
287.906	293.31
288.138	299.31
288.369	291.31
288.6	287.31
288.831	292.31
289.062	292.31
289.293	303.31
289.524	298.31
289.755	306.31
289.986	288.31
290.217	298.31
290.448	291.31
290.679	308.31
290.91	306.31
291.141	281.31
291.371	306.31
291.602	312.31
291.833	308.31
292.064	290.31
292.295	294.31
292.526	324.31
292.757	297.31
292.987	301.31
293.218	308.31
293.449	322.31
293.68	302.31
293.91	300.31
294.141	308.31
294.372	306.31
294.603	312.31
294.833	306.31
295.064	288.31
295.295	300.31
295.525	310.31
295.756	300.31
295.987	303.31
296.217	336.31
296.448	314.31
296.679	329.31
296.909	319.31
297.14	315.31
297.37	329.31
297.601	330.31
297.831	307.31
298.062	324.31
298.292	321.31
298.523	328.31
298.753	337.31
298.984	330.31
299.214	339.31
299.445	318.31
299.675	338.31
299.905	351.31
300.136	317.31
300.366	321.31
300.597	340.31
300.827	327.31
301.057	342.31
301.288	343.31
301.518	362.31
301.748	356.31
301.979	345.31
302.209	345.31
302.439	348.31
302.669	335.31
302.9	330.31
303.13	344.31
303.36	338.31
303.59	326.31
303.82	332.31
304.051	338.31
304.281	354.31
304.511	360.31
304.741	339.31
304.971	349.31
305.201	329.31
305.431	321.31
305.661	359.31
305.891	332.31
306.121	338.31
306.352	334.31
306.582	359.31
306.812	327.31
307.042	331.31
307.272	332.31
307.502	324.31
307.731	324.31
307.961	316.31
308.191	330.31
308.421	339.31
308.651	336.31
308.881	339.31
309.111	325.31
309.341	322.31
309.571	307.31
309.8	319.31
310.03	332.31
310.26	316.31
310.49	316.31
310.72	357.31
310.949	330.31
311.179	333.31
311.409	315.31
311.639	345.31
311.868	337.31
312.098	345.31
312.328	325.31
312.557	358.31
312.787	347.31
313.017	340.31
313.246	347.31
313.476	336.31
313.706	341.31
313.935	361.31
314.165	357.31
314.394	362.31
314.624	351.31
314.853	358.31
315.083	346.31
315.312	358.31
315.542	343.31
315.771	354.31
316.001	340.31
316.23	349.31
316.46	342.31
316.689	341.31
316.919	336.31
317.148	348.31
317.377	350.31
317.607	336.31
317.836	332.31
318.065	348.31
318.295	336.31
318.524	364.31
318.753	340.31
318.983	332.31
319.212	346.31
319.441	344.31
319.67	353.31
319.9	341.31
320.129	350.31
320.358	363.31
320.587	342.31
320.816	350.31
321.046	348.31
321.275	358.31
321.504	342.31
321.733	326.31
321.962	344.31
322.191	350.31
322.42	352.31
322.649	333.31
322.878	364.31
323.108	351.31
323.337	366.31
323.566	357.31
323.795	375.31
324.024	374.31
324.253	370.31
324.482	351.31
324.71	354.31
324.939	347.31
325.168	348.31
325.397	351.31
325.626	350.31
325.855	376.31
326.084	372.31
326.313	382.31
326.542	384.31
326.77	408.31
326.999	391.31
327.228	380.31
327.457	381.31
327.686	382.31
327.914	397.31
328.143	398.31
328.372	390.31
328.6	386.31
328.829	390.31
329.058	374.31
329.287	390.31
329.515	363.31
329.744	386.31
329.972	391.31
330.201	390.31
330.43	381.31
330.658	375.31
330.887	388.31
331.115	395.31
331.344	390.31
331.572	394.31
331.801	405.31
332.03	417.31
332.258	427.31
332.486	448.31
332.715	452.31
332.943	466.31
333.172	494.31
333.4	502.31
333.629	502.31
333.857	517.31
334.085	516.31
334.314	483.31
334.542	486.31
334.771	491.31
334.999	470.31
335.227	479.31
335.455	471.31
335.684	502.31
335.912	470.31
336.14	476.31
336.369	462.31
336.597	466.31
336.825	493.31
337.053	468.31
337.281	455.31
337.51	446.31
337.738	427.31
337.966	407.31
338.194	450.31
338.422	434.31
338.65	403.31
338.878	418.31
339.106	430.31
339.334	424.31
339.562	405.31
339.79	410.31
340.018	406.31
340.246	399.31
340.474	396.31
340.702	392.31
340.93	406.31
341.158	425.31
341.386	428.31
341.614	419.31
341.842	401.31
342.07	387.31
342.298	399.31
342.526	407.31
342.754	397.31
342.981	398.31
343.209	423.31
343.437	446.31
343.665	476.31
343.893	493.31
344.12	500.31
344.348	476.31
344.576	454.31
344.804	437.31
345.031	426.31
345.259	407.31
345.487	422.31
345.714	405.31
345.942	424.31
346.17	410.31
346.397	421.31
346.625	419.31
346.853	391.31
347.08	407.31
347.308	396.31
347.535	418.31
347.763	416.31
347.99	402.31
348.218	395.31
348.445	399.31
348.673	407.31
348.9	423.31
349.128	419.31
349.355	398.31
349.583	389.31
349.81	396.31
350.037	403.31
350.265	394.31
350.492	378.31
350.72	390.31
350.947	381.31
351.174	388.31
351.402	383.31
351.629	388.31
351.856	373.31
352.083	366.31
352.311	384.31
352.538	386.31
352.765	403.31
352.992	382.31
353.22	380.31
353.447	365.31
353.674	370.31
353.901	386.31
354.128	396.31
354.355	398.31
354.583	367.31
354.81	397.31
355.037	380.31
355.264	384.31
355.491	384.31
355.718	378.31
355.945	392.31
356.172	377.31
356.399	393.31
356.626	386.31
356.853	393.31
357.08	393.31
357.307	381.31
357.534	379.31
357.761	385.31
357.988	391.31
358.215	396.31
358.441	387.31
358.668	375.31
358.895	381.31
359.122	370.31
359.349	386.31
359.576	371.31
359.802	379.31
360.029	380.31
360.256	388.31
360.483	378.31
360.709	394.31
360.936	390.31
361.163	384.31
361.39	388.31
361.616	391.31
361.843	364.31
362.07	370.31
362.296	393.31
362.523	353.31
362.749	370.31
362.976	355.31
363.203	399.31
363.429	370.31
363.656	364.31
363.882	375.31
364.109	385.31
364.335	366.31
364.562	384.31
364.788	377.31
365.015	383.31
365.241	371.31
365.468	378.31
365.694	375.31
365.92	395.31
366.147	356.31
366.373	375.31
366.599	392.31
366.826	394.31
367.052	372.31
367.278	384.31
367.505	377.31
367.731	395.31
367.957	377.31
368.184	374.31
368.41	395.31
368.636	385.31
368.862	389.31
369.089	384.31
369.315	401.31
369.541	371.31
369.767	392.31
369.993	409.31
370.219	410.31
370.445	407.31
370.672	416.31
370.898	392.31
371.124	405.31
371.35	412.31
371.576	413.31
371.802	411.31
372.028	413.31
372.254	416.31
372.48	398.31
372.706	424.31
372.932	436.31
373.158	426.31
373.384	397.31
373.61	411.31
373.835	419.31
374.061	404.31
374.287	411.31
374.513	431.31
374.739	463.31
374.965	454.31
375.191	448.31
375.416	470.31
375.642	446.31
375.868	429.31
376.094	410.31
376.319	444.31
376.545	425.31
376.771	420.31
376.997	412.31
377.222	410.31
377.448	409.31
377.674	407.31
377.899	425.31
378.125	424.31
378.35	381.31
378.576	394.31
378.802	397.31
379.027	403.31
379.253	395.31
379.478	382.31
379.704	395.31
379.929	379.31
380.155	396.31
380.38	416.31
380.606	407.31
380.831	406.31
381.057	422.31
381.282	401.31
381.507	416.31
381.733	391.31
381.958	410.31
382.184	414.31
382.409	423.31
382.634	415.31
382.86	419.31
383.085	427.31
383.31	452.31
383.535	439.31
383.761	447.31
383.986	465.31
384.211	483.31
384.436	488.31
384.662	494.31
384.887	479.31
385.112	478.31
385.337	515.31
385.562	497.31
385.787	491.31
386.013	508.31
386.238	493.31
386.463	487.31
386.688	470.31
386.913	471.31
387.138	469.31
387.363	464.31
387.588	462.31
387.813	474.31
388.038	466.31
388.263	480.31
388.488	469.31
388.713	466.31
388.938	459.31
389.163	463.31
389.387	476.31
389.612	486.31
389.837	473.31
390.062	484.31
390.287	465.31
390.512	483.31
390.736	485.31
390.961	496.31
391.186	482.31
391.411	506.31
391.636	500.31
391.86	528.31
392.085	529.31
392.31	528.31
392.534	529.31
392.759	489.31
392.984	494.31
393.208	517.31
393.433	502.31
393.658	512.31
393.882	499.31
394.107	512.31
394.331	525.31
394.556	523.31
394.78	523.31
395.005	491.31
395.229	507.31
395.454	535.31
395.678	522.31
395.903	532.31
396.127	536.31
396.352	501.31
396.576	485.31
396.801	491.31
397.025	500.31
397.249	518.31
397.474	528.31
397.698	529.31
397.922	534.31
398.147	540.31
398.371	533.31
398.595	567.31
398.82	559.31
399.044	645.31
399.268	697.31
399.492	770.31
399.717	925.31
399.941	887.31
400.165	778.31
400.389	703.31
400.613	623.31
400.837	618.31
401.062	585.31
401.286	587.31
401.51	586.31
401.734	572.31
401.958	586.31
402.182	623.31
402.406	607.31
402.63	628.31
402.854	638.31
403.078	651.31
403.302	660.31
403.526	674.31
403.75	678.31
403.974	724.31
404.198	702.31
404.422	696.31
404.645	699.31
404.869	668.31
405.093	688.31
405.317	666.31
405.541	651.31
405.765	642.31
405.988	618.31
406.212	656.31
406.436	655.31
406.66	671.31
406.883	687.31
407.107	719.31
407.331	713.31
407.555	770.31
407.778	770.31
408.002	756.31
408.226	727.31
408.449	702.31
408.673	676.31
408.896	676.31
409.12	665.31
409.344	652.31
409.567	715.31
409.791	687.31
410.014	683.31
410.238	692.31
410.461	652.31
410.685	667.31
410.908	645.31
411.132	638.31
411.355	604.31
411.578	595.31
411.802	613.31
412.025	617.31
412.249	641.31
412.472	642.31
412.695	638.31
412.919	594.31
413.142	594.31
413.365	600.31
413.589	621.31
413.812	575.31
414.035	571.31
414.258	600.31
414.482	621.31
414.705	626.31
414.928	609.31
415.151	619.31
415.374	604.31
415.597	605.31
415.821	584.31
416.044	606.31
416.267	620.31
416.49	580.31
416.713	602.31
416.936	593.31
417.159	616.31
417.382	604.31
417.605	589.31
417.828	600.31
418.051	585.31
418.274	598.31
418.497	582.31
418.72	615.31
418.943	628.31
419.166	652.31
419.389	723.31
419.611	664.31
419.834	663.31
420.057	632.31
420.28	627.31
420.503	582.31
420.726	596.31
420.948	580.31
421.171	594.31
421.394	580.31
421.617	598.31
421.839	616.31
422.062	591.31
422.285	602.31
422.507	623.31
422.73	631.31
422.953	620.31
423.175	650.31
423.398	670.31
423.621	633.31
423.843	657.31
424.066	667.31
424.288	627.31
424.511	636.31
424.733	630.31
424.956	625.31
425.178	618.31
425.401	594.31
425.623	598.31
425.846	603.31
426.068	574.31
426.291	566.31
426.513	572.31
426.735	595.31
426.958	562.31
427.18	556.31
427.402	573.31
427.625	567.31
427.847	539.31
428.069	546.31
428.292	540.31
428.514	546.31
428.736	550.31
428.958	551.31
429.181	525.31
429.403	528.31
429.625	546.31
429.847	531.31
430.069	535.31
430.292	539.31
430.514	532.31
430.736	527.31
430.958	535.31
431.18	547.31
431.402	546.31
431.624	561.31
431.846	560.31
432.068	549.31
432.29	554.31
432.512	550.31
432.734	544.31
432.956	546.31
433.178	542.31
433.4	550.31
433.622	565.31
433.844	565.31
434.066	555.31
434.287	570.31
434.509	559.31
434.731	606.31
434.953	617.31
435.175	631.31
435.397	627.31
435.618	592.31
435.84	570.31
436.062	580.31
436.284	555.31
436.505	563.31
436.727	565.31
436.949	565.31
437.17	570.31
437.392	534.31
437.614	543.31
437.835	535.31
438.057	517.31
438.278	537.31
438.5	535.31
438.721	532.31
438.943	538.31
439.165	528.31
439.386	542.31
439.608	564.31
439.829	556.31
440.05	570.31
440.272	574.31
440.493	563.31
440.715	576.31
440.936	606.31
441.158	581.31
441.379	610.31
441.6	624.31
441.822	637.31
442.043	621.31
442.264	626.31
442.486	630.31
442.707	607.31
442.928	634.31
443.149	594.31
443.371	626.31
443.592	614.31
443.813	617.31
444.034	638.31
444.255	650.31
444.476	680.31
444.698	716.31
444.919	738.31
445.14	814.31
445.361	701.31
445.582	619.31
445.803	618.31
446.024	585.31
446.245	566.31
446.466	568.31
446.687	583.31
446.908	564.31
447.129	550.31
447.35	537.31
447.571	547.31
447.792	539.31
448.013	509.31
448.234	530.31
448.455	536.31
448.675	515.31
448.896	529.31
449.117	540.31
449.338	532.31
449.559	522.31
449.779	514.31
450	532.31
450.221	528.31
450.442	528.31
450.662	541.31
450.883	521.31
451.104	553.31
451.324	525.31
451.545	547.31
451.766	526.31
451.986	538.31
452.207	530.31
452.428	526.31
452.648	538.31
452.869	526.31
453.089	510.31
453.31	499.31
453.53	504.31
453.751	517.31
453.971	521.31
454.192	524.31
454.412	484.31
454.633	477.31
454.853	488.31
455.073	516.31
455.294	482.31
455.514	488.31
455.734	460.31
455.955	480.31
456.175	471.31
456.395	471.31
456.616	501.31
456.836	489.31
457.056	476.31
457.276	473.31
457.497	472.31
457.717	474.31
457.937	480.31
458.157	490.31
458.377	489.31
458.598	513.31
458.818	522.31
459.038	536.31
459.258	528.31
459.478	583.31
459.698	570.31
459.918	597.31
460.138	621.31
460.358	654.31
460.578	643.31
460.798	662.31
461.018	665.31
461.238	651.31
461.458	645.31
461.678	636.31
461.898	656.31
462.118	650.31
462.338	685.31
462.558	735.31
462.777	708.31
462.997	789.31
463.217	904.31
463.437	894.31
463.657	802.31
463.876	761.31
464.096	749.31
464.316	774.31
464.536	776.31
464.755	735.31
464.975	711.31
465.195	666.31
465.414	622.31
465.634	596.31
465.854	586.31
466.073	576.31
466.293	586.31
466.512	540.31
466.732	547.31
466.951	535.31
467.171	545.31
467.391	534.31
467.61	570.31
467.829	526.31
468.049	534.31
468.268	516.31
468.488	507.31
468.707	519.31
468.927	514.31
469.146	528.31
469.365	526.31
469.585	501.31
469.804	539.31
470.023	570.31
470.243	549.31
470.462	550.31
470.681	562.31
470.901	562.31
471.12	556.31
471.339	562.31
471.558	548.31
471.777	530.31
471.997	538.31
472.216	491.31
472.435	507.31
472.654	514.31
472.873	502.31
473.092	482.31
473.311	494.31
473.53	499.31
473.749	484.31
473.968	503.31
474.187	501.31
474.406	482.31
474.625	507.31
474.844	516.31
475.063	516.31
475.282	547.31
475.501	482.31
475.72	534.31
475.939	520.31
476.158	510.31
476.377	517.31
476.596	506.31
476.814	540.31
477.033	524.31
477.252	546.31
477.471	571.31
477.69	548.31
477.908	604.31
478.127	592.31
478.346	602.31
478.564	600.31
478.783	603.31
479.002	631.31
479.22	618.31
479.439	610.31
479.658	619.31
479.876	618.31
480.095	571.31
480.313	650.31
480.532	686.31
480.751	651.31
480.969	642.31
481.188	626.31
481.406	589.31
481.624	596.31
481.843	564.31
482.061	580.31
482.28	555.31
482.498	574.31
482.717	559.31
482.935	568.31
483.153	563.31
483.372	590.31
483.59	603.31
483.808	583.31
484.027	578.31
484.245	568.31
484.463	571.31
484.681	613.31
484.9	594.31
485.118	591.31
485.336	585.31
485.554	593.31
485.772	607.31
485.99	583.31
486.209	628.31
486.427	599.31
486.645	615.31
486.863	612.31
487.081	622.31
487.299	591.31
487.517	607.31
487.735	582.31
487.953	613.31
488.171	629.31
488.389	620.31
488.607	592.31
488.825	586.31
489.043	597.31
489.261	590.31
489.479	550.31
489.696	594.31
489.914	584.31
490.132	592.31
490.35	600.31
490.568	618.31
490.786	587.31
491.003	591.31
491.221	620.31
491.439	618.31
491.657	592.31
491.874	611.31
492.092	614.31
492.31	613.31
492.527	635.31
492.745	643.31
492.963	607.31
493.18	626.31
493.398	611.31
493.615	636.31
493.833	647.31
494.05	624.31
494.268	636.31
494.485	637.31
494.703	664.31
494.92	632.31
495.138	629.31
495.355	623.31
495.573	631.31
495.79	619.31
496.008	652.31
496.225	645.31
496.442	665.31
496.66	681.31
496.877	681.31
497.094	670.31
497.312	685.31
497.529	666.31
497.746	710.31
497.963	723.31
498.181	744.31
498.398	766.31
498.615	783.31
498.832	852.31
499.049	943.31
499.267	999.31
499.484	1115.31
499.701	1246.31
499.918	1348.31
500.135	1573.31
500.352	1839.31
500.569	1944.31
500.786	1894.31
501.003	1734.31
501.22	1530.31
501.437	1340.31
