Data from Ni(NO3)2Standard.Agarose3%.GreenCap.LampEnergy5.5.E.O_HRD10591_14-40-25-188.txt Node
Date: Mon Jul 22 14:40:25 EDT 2019
User: cochatt
Spectrometer: HR+D1059
Trigger mode: 1
Integration Time (sec): 1.000000E-1
Scans to average: 1
Electric dark correction enabled: true
Nonlinearity correction enabled: false
Boxcar width: 0
XAxis mode: Wavelengths
Number of Pixels in Spectrum: 2048
>>>>>Begin Spectral Data<<<<<
223.165	-27.62
223.4	-27.62
223.635	-27.62
223.869	-9.62
224.104	-8.62
224.338	1.38
224.573	-17.62
224.808	-7.62
225.042	-8.62
225.277	-10.62
225.511	-10.62
225.746	-10.62
225.98	12.38
226.215	15.38
226.449	11.38
226.683	26.38
226.918	26.38
227.152	18.38
227.387	38.38
227.621	42.38
227.856	35.38
228.09	45.38
228.324	51.38
228.559	59.38
228.793	70.38
229.027	65.38
229.262	70.38
229.496	73.38
229.73	80.38
229.964	68.38
230.199	68.38
230.433	73.38
230.667	82.38
230.901	76.38
231.136	97.38
231.37	72.38
231.604	89.38
231.838	90.38
232.072	91.38
232.306	89.38
232.541	76.38
232.775	91.38
233.009	91.38
233.243	84.38
233.477	83.38
233.711	86.38
233.945	80.38
234.179	87.38
234.413	84.38
234.647	83.38
234.881	81.38
235.115	81.38
235.349	85.38
235.583	83.38
235.817	70.38
236.051	69.38
236.285	75.38
236.519	74.38
236.753	63.38
236.987	83.38
237.221	101.38
237.455	89.38
237.689	69.38
237.922	85.38
238.156	78.38
238.39	74.38
238.624	74.38
238.858	82.38
239.091	84.38
239.325	74.38
239.559	75.38
239.793	88.38
240.027	87.38
240.26	73.38
240.494	65.38
240.728	79.38
240.961	85.38
241.195	89.38
241.429	83.38
241.662	72.38
241.896	75.38
242.13	90.38
242.363	80.38
242.597	83.38
242.83	73.38
243.064	82.38
243.298	87.38
243.531	76.38
243.765	84.38
243.998	85.38
244.232	82.38
244.465	86.38
244.699	68.38
244.932	86.38
245.166	101.38
245.399	85.38
245.633	80.38
245.866	76.38
246.099	85.38
246.333	66.38
246.566	81.38
246.8	88.38
247.033	89.38
247.266	69.38
247.5	69.38
247.733	82.38
247.966	82.38
248.2	78.38
248.433	75.38
248.666	77.38
248.899	88.38
249.133	77.38
249.366	83.38
249.599	88.38
249.832	87.38
250.066	90.38
250.299	79.38
250.532	56.38
250.765	81.38
250.998	90.38
251.231	91.38
251.465	87.38
251.698	93.38
251.931	69.38
252.164	71.38
252.397	75.38
252.63	92.38
252.863	86.38
253.096	98.38
253.329	72.38
253.562	82.38
253.795	90.38
254.028	87.38
254.261	67.38
254.494	71.38
254.727	86.38
254.96	98.38
255.193	83.38
255.426	93.38
255.659	73.38
255.892	85.38
256.124	93.38
256.357	74.38
256.59	83.38
256.823	85.38
257.056	95.38
257.289	89.38
257.521	70.38
257.754	78.38
257.987	83.38
258.22	86.38
258.452	82.38
258.685	84.38
258.918	74.38
259.151	71.38
259.383	73.38
259.616	85.38
259.849	83.38
260.081	91.38
260.314	101.38
260.547	80.38
260.779	98.38
261.012	79.38
261.244	91.38
261.477	82.38
261.71	82.38
261.942	68.38
262.175	80.38
262.407	72.38
262.64	90.38
262.872	91.38
263.105	87.38
263.337	81.38
263.57	85.38
263.802	89.38
264.035	85.38
264.267	71.38
264.499	74.38
264.732	83.38
264.964	78.38
265.197	94.38
265.429	85.38
265.661	90.38
265.894	80.38
266.126	76.38
266.358	85.38
266.591	79.38
266.823	88.38
267.055	76.38
267.287	83.38
267.52	85.38
267.752	95.38
267.984	90.38
268.216	85.38
268.448	85.38
268.681	88.38
268.913	90.38
269.145	84.38
269.377	91.38
269.609	84.38
269.841	85.38
270.073	90.38
270.306	80.38
270.538	82.38
270.77	97.38
271.002	89.38
271.234	86.38
271.466	87.38
271.698	83.38
271.93	74.38
272.162	81.38
272.394	84.38
272.626	81.38
272.858	79.38
273.09	68.38
273.322	92.38
273.553	73.38
273.785	92.38
274.017	92.38
274.249	88.38
274.481	93.38
274.713	95.38
274.945	81.38
275.176	80.38
275.408	91.38
275.64	87.38
275.872	91.38
276.104	90.38
276.335	81.38
276.567	82.38
276.799	82.38
277.031	98.38
277.262	79.38
277.494	83.38
277.726	86.38
277.957	81.38
278.189	76.38
278.421	71.38
278.652	80.38
278.884	98.38
279.115	80.38
279.347	89.38
279.579	86.38
279.81	78.38
280.042	79.38
280.273	77.38
280.505	98.38
280.736	92.38
280.968	83.38
281.199	80.38
281.431	89.38
281.662	93.38
281.894	74.38
282.125	89.38
282.356	96.38
282.588	92.38
282.819	97.38
283.051	80.38
283.282	88.38
283.513	79.38
283.745	85.38
283.976	82.38
284.207	97.38
284.439	86.38
284.67	93.38
284.901	97.38
285.132	87.38
285.364	91.38
285.595	78.38
285.826	89.38
286.057	87.38
286.288	82.38
286.52	89.38
286.751	95.38
286.982	85.38
287.213	75.38
287.444	91.38
287.675	88.38
287.906	77.38
288.138	79.38
288.369	86.38
288.6	79.38
288.831	90.38
289.062	84.38
289.293	91.38
289.524	87.38
289.755	99.38
289.986	77.38
290.217	85.38
290.448	94.38
290.679	99.38
290.91	84.38
291.141	94.38
291.371	84.38
291.602	81.38
291.833	91.38
292.064	85.38
292.295	92.38
292.526	79.38
292.757	85.38
292.987	103.38
293.218	80.38
293.449	75.38
293.68	83.38
293.91	88.38
294.141	84.38
294.372	80.38
294.603	91.38
294.833	78.38
295.064	83.38
295.295	83.38
295.525	90.38
295.756	90.38
295.987	81.38
296.217	94.38
296.448	97.38
296.679	88.38
296.909	74.38
297.14	85.38
297.37	98.38
297.601	91.38
297.831	96.38
298.062	83.38
298.292	92.38
298.523	90.38
298.753	98.38
298.984	89.38
299.214	97.38
299.445	93.38
299.675	99.38
299.905	82.38
300.136	93.38
300.366	81.38
300.597	91.38
300.827	82.38
301.057	86.38
301.288	77.38
301.518	73.38
301.748	98.38
301.979	94.38
302.209	83.38
302.439	81.38
302.669	100.38
302.9	88.38
303.13	95.38
303.36	104.38
303.59	94.38
303.82	75.38
304.051	87.38
304.281	86.38
304.511	86.38
304.741	81.38
304.971	90.38
305.201	75.38
305.431	87.38
305.661	99.38
305.891	97.38
306.121	91.38
306.352	99.38
306.582	79.38
306.812	90.38
307.042	88.38
307.272	83.38
307.502	97.38
307.731	88.38
307.961	83.38
308.191	88.38
308.421	83.38
308.651	93.38
308.881	97.38
309.111	73.38
309.341	93.38
309.571	91.38
309.8	83.38
310.03	78.38
310.26	80.38
310.49	84.38
310.72	79.38
310.949	99.38
311.179	94.38
311.409	93.38
311.639	95.38
311.868	95.38
312.098	79.38
312.328	81.38
312.557	87.38
312.787	87.38
313.017	95.38
313.246	89.38
313.476	90.38
313.706	96.38
313.935	89.38
314.165	85.38
314.394	98.38
314.624	90.38
314.853	85.38
315.083	91.38
315.312	78.38
315.542	92.38
315.771	91.38
316.001	93.38
316.23	92.38
316.46	90.38
316.689	86.38
316.919	73.38
317.148	87.38
317.377	95.38
317.607	93.38
317.836	85.38
318.065	84.38
318.295	97.38
318.524	101.38
318.753	83.38
318.983	82.38
319.212	94.38
319.441	93.38
319.67	102.38
319.9	90.38
320.129	84.38
320.358	71.38
320.587	93.38
320.816	106.38
321.046	91.38
321.275	108.38
321.504	96.38
321.733	86.38
321.962	92.38
322.191	94.38
322.42	80.38
322.649	94.38
322.878	88.38
323.108	85.38
323.337	92.38
323.566	93.38
323.795	80.38
324.024	102.38
324.253	92.38
324.482	89.38
324.71	98.38
324.939	100.38
325.168	101.38
325.397	98.38
325.626	96.38
325.855	85.38
326.084	79.38
326.313	101.38
326.542	72.38
326.77	99.38
326.999	91.38
327.228	101.38
327.457	81.38
327.686	89.38
327.914	70.38
328.143	75.38
328.372	86.38
328.6	79.38
328.829	90.38
329.058	96.38
329.287	104.38
329.515	99.38
329.744	93.38
329.972	99.38
330.201	75.38
330.43	80.38
330.658	91.38
330.887	89.38
331.115	90.38
331.344	87.38
331.572	91.38
331.801	102.38
332.03	88.38
332.258	89.38
332.486	87.38
332.715	82.38
332.943	97.38
333.172	99.38
333.4	97.38
333.629	100.38
333.857	97.38
334.085	89.38
334.314	96.38
334.542	77.38
334.771	84.38
334.999	94.38
335.227	96.38
335.455	94.38
335.684	98.38
335.912	91.38
336.14	90.38
336.369	81.38
336.597	85.38
336.825	88.38
337.053	91.38
337.281	99.38
337.51	105.38
337.738	91.38
337.966	77.38
338.194	83.38
338.422	75.38
338.65	92.38
338.878	86.38
339.106	101.38
339.334	89.38
339.562	88.38
339.79	92.38
340.018	86.38
340.246	82.38
340.474	73.38
340.702	92.38
340.93	85.38
341.158	101.38
341.386	97.38
341.614	87.38
341.842	80.38
342.07	89.38
342.298	77.38
342.526	92.38
342.754	77.38
342.981	83.38
343.209	85.38
343.437	90.38
343.665	98.38
343.893	97.38
344.12	85.38
344.348	96.38
344.576	85.38
344.804	78.38
345.031	84.38
345.259	85.38
345.487	85.38
345.714	87.38
345.942	98.38
346.17	94.38
346.397	99.38
346.625	98.38
346.853	102.38
347.08	86.38
347.308	101.38
347.535	92.38
347.763	103.38
347.99	98.38
348.218	92.38
348.445	79.38
348.673	86.38
348.9	81.38
349.128	101.38
349.355	87.38
349.583	82.38
349.81	84.38
350.037	96.38
350.265	85.38
350.492	85.38
350.72	94.38
350.947	74.38
351.174	91.38
351.402	88.38
351.629	84.38
351.856	83.38
352.083	72.38
352.311	111.38
352.538	104.38
352.765	94.38
352.992	75.38
353.22	85.38
353.447	83.38
353.674	81.38
353.901	98.38
354.128	98.38
354.355	88.38
354.583	89.38
354.81	70.38
355.037	89.38
355.264	86.38
355.491	78.38
355.718	73.38
355.945	84.38
356.172	95.38
356.399	86.38
356.626	96.38
356.853	83.38
357.08	86.38
357.307	94.38
357.534	94.38
357.761	100.38
357.988	86.38
358.215	93.38
358.441	79.38
358.668	94.38
358.895	76.38
359.122	105.38
359.349	77.38
359.576	81.38
359.802	89.38
360.029	87.38
360.256	85.38
360.483	98.38
360.709	85.38
360.936	74.38
361.163	91.38
361.39	99.38
361.616	86.38
361.843	91.38
362.07	78.38
362.296	100.38
362.523	101.38
362.749	79.38
362.976	85.38
363.203	85.38
363.429	96.38
363.656	86.38
363.882	93.38
364.109	91.38
364.335	103.38
364.562	87.38
364.788	84.38
365.015	92.38
365.241	90.38
365.468	77.38
365.694	87.38
365.92	75.38
366.147	74.38
366.373	90.38
366.599	82.38
366.826	81.38
367.052	87.38
367.278	76.38
367.505	75.38
367.731	100.38
367.957	94.38
368.184	71.38
368.41	85.38
368.636	77.38
368.862	79.38
369.089	69.38
369.315	95.38
369.541	81.38
369.767	75.38
369.993	93.38
370.219	85.38
370.445	99.38
370.672	87.38
370.898	87.38
371.124	80.38
371.35	95.38
371.576	78.38
371.802	92.38
372.028	99.38
372.254	76.38
372.48	83.38
372.706	85.38
372.932	88.38
373.158	85.38
373.384	91.38
373.61	83.38
373.835	98.38
374.061	86.38
374.287	84.38
374.513	98.38
374.739	93.38
374.965	92.38
375.191	76.38
375.416	93.38
375.642	77.38
375.868	79.38
376.094	89.38
376.319	92.38
376.545	70.38
376.771	71.38
376.997	77.38
377.222	98.38
377.448	99.38
377.674	71.38
377.899	82.38
378.125	102.38
378.35	103.38
378.576	87.38
378.802	82.38
379.027	94.38
379.253	86.38
379.478	85.38
379.704	89.38
379.929	97.38
380.155	83.38
380.38	89.38
380.606	93.38
380.831	87.38
381.057	90.38
381.282	102.38
381.507	87.38
381.733	88.38
381.958	87.38
382.184	74.38
382.409	92.38
382.634	86.38
382.86	91.38
383.085	100.38
383.31	94.38
383.535	98.38
383.761	85.38
383.986	98.38
384.211	89.38
384.436	92.38
384.662	78.38
384.887	78.38
385.112	87.38
385.337	77.38
385.562	83.38
385.787	79.38
386.013	89.38
386.238	91.38
386.463	91.38
386.688	89.38
386.913	98.38
387.138	74.38
387.363	85.38
387.588	103.38
387.813	94.38
388.038	96.38
388.263	86.38
388.488	78.38
388.713	95.38
388.938	83.38
389.163	79.38
389.387	94.38
389.612	91.38
389.837	84.38
390.062	87.38
390.287	72.38
390.512	73.38
390.736	72.38
390.961	84.38
391.186	70.38
391.411	95.38
391.636	79.38
391.86	85.38
392.085	103.38
392.31	93.38
392.534	83.38
392.759	103.38
392.984	85.38
393.208	99.38
393.433	88.38
393.658	101.38
393.882	89.38
394.107	87.38
394.331	89.38
394.556	87.38
394.78	77.38
395.005	86.38
395.229	81.38
395.454	79.38
395.678	103.38
395.903	90.38
396.127	89.38
396.352	92.38
396.576	91.38
396.801	89.38
397.025	64.38
397.249	91.38
397.474	87.38
397.698	85.38
397.922	90.38
398.147	91.38
398.371	95.38
398.595	87.38
398.82	82.38
399.044	90.38
399.268	89.38
399.492	93.38
399.717	95.38
399.941	87.38
400.165	82.38
400.389	84.38
400.613	86.38
400.837	105.38
401.062	74.38
401.286	81.38
401.51	95.38
401.734	90.38
401.958	83.38
402.182	92.38
402.406	89.38
402.63	91.38
402.854	89.38
403.078	83.38
403.302	82.38
403.526	88.38
403.75	87.38
403.974	90.38
404.198	93.38
404.422	70.38
404.645	92.38
404.869	84.38
405.093	93.38
405.317	92.38
405.541	81.38
405.765	90.38
405.988	98.38
406.212	74.38
406.436	79.38
406.66	87.38
406.883	84.38
407.107	95.38
407.331	97.38
407.555	85.38
407.778	76.38
408.002	84.38
408.226	92.38
408.449	89.38
408.673	100.38
408.896	90.38
409.12	86.38
409.344	87.38
409.567	76.38
409.791	90.38
410.014	90.38
410.238	76.38
410.461	86.38
410.685	80.38
410.908	84.38
411.132	89.38
411.355	93.38
411.578	88.38
411.802	94.38
412.025	82.38
412.249	87.38
412.472	83.38
412.695	72.38
412.919	94.38
413.142	90.38
413.365	98.38
413.589	94.38
413.812	92.38
414.035	89.38
414.258	91.38
414.482	84.38
414.705	89.38
414.928	80.38
415.151	77.38
415.374	78.38
415.597	98.38
415.821	77.38
416.044	93.38
416.267	79.38
416.49	82.38
416.713	94.38
416.936	89.38
417.159	93.38
417.382	87.38
417.605	94.38
417.828	93.38
418.051	80.38
418.274	89.38
418.497	89.38
418.72	96.38
418.943	98.38
419.166	89.38
419.389	85.38
419.611	81.38
419.834	95.38
420.057	82.38
420.28	108.38
420.503	89.38
420.726	83.38
420.948	79.38
421.171	84.38
421.394	87.38
421.617	95.38
421.839	88.38
422.062	89.38
422.285	91.38
422.507	101.38
422.73	92.38
422.953	94.38
423.175	85.38
423.398	83.38
423.621	85.38
423.843	87.38
424.066	75.38
424.288	103.38
424.511	77.38
424.733	86.38
424.956	87.38
425.178	83.38
425.401	98.38
425.623	103.38
425.846	89.38
426.068	77.38
426.291	91.38
426.513	85.38
426.735	75.38
426.958	98.38
427.18	79.38
427.402	105.38
427.625	91.38
427.847	85.38
428.069	93.38
428.292	93.38
428.514	83.38
428.736	82.38
428.958	77.38
429.181	93.38
429.403	89.38
429.625	97.38
429.847	84.38
430.069	94.38
430.292	91.38
430.514	94.38
430.736	69.38
430.958	89.38
431.18	90.38
431.402	87.38
431.624	87.38
431.846	94.38
432.068	89.38
432.29	83.38
432.512	78.38
432.734	90.38
432.956	80.38
433.178	72.38
433.4	87.38
433.622	79.38
433.844	84.38
434.066	73.38
434.287	89.38
434.509	91.38
434.731	85.38
434.953	86.38
435.175	79.38
435.397	81.38
435.618	88.38
435.84	77.38
436.062	83.38
436.284	105.38
436.505	79.38
436.727	74.38
436.949	82.38
437.17	91.38
437.392	96.38
437.614	100.38
437.835	96.38
438.057	96.38
438.278	70.38
438.5	83.38
438.721	97.38
438.943	86.38
439.165	91.38
439.386	87.38
439.608	94.38
439.829	95.38
440.05	90.38
440.272	87.38
440.493	81.38
440.715	87.38
440.936	87.38
441.158	91.38
441.379	95.38
441.6	84.38
441.822	94.38
442.043	99.38
442.264	77.38
442.486	99.38
442.707	84.38
442.928	79.38
443.149	95.38
443.371	93.38
443.592	90.38
443.813	89.38
444.034	82.38
444.255	77.38
444.476	97.38
444.698	78.38
444.919	86.38
445.14	201.38
445.361	137.38
445.582	90.38
445.803	89.38
446.024	98.38
446.245	99.38
446.466	93.38
446.687	96.38
446.908	83.38
447.129	91.38
447.35	92.38
447.571	90.38
447.792	86.38
448.013	83.38
448.234	83.38
448.455	82.38
448.675	80.38
448.896	101.38
449.117	85.38
449.338	84.38
449.559	88.38
449.779	93.38
450	86.38
450.221	87.38
450.442	82.38
450.662	80.38
450.883	96.38
451.104	93.38
451.324	74.38
451.545	88.38
451.766	94.38
451.986	83.38
452.207	94.38
452.428	85.38
452.648	89.38
452.869	84.38
453.089	82.38
453.31	79.38
453.53	60.38
453.751	84.38
453.971	85.38
454.192	86.38
454.412	90.38
454.633	79.38
454.853	90.38
455.073	88.38
455.294	92.38
455.514	102.38
455.734	93.38
455.955	100.38
456.175	62.38
456.395	78.38
456.616	86.38
456.836	86.38
457.056	84.38
457.276	87.38
457.497	75.38
457.717	89.38
457.937	78.38
458.157	91.38
458.377	82.38
458.598	93.38
458.818	80.38
459.038	89.38
459.258	73.38
459.478	80.38
459.698	74.38
459.918	84.38
460.138	97.38
460.358	87.38
460.578	85.38
460.798	90.38
461.018	93.38
461.238	92.38
461.458	100.38
461.678	89.38
461.898	84.38
462.118	89.38
462.338	97.38
462.558	76.38
462.777	82.38
462.997	90.38
463.217	93.38
463.437	80.38
463.657	76.38
463.876	99.38
464.096	86.38
464.316	98.38
464.536	82.38
464.755	90.38
464.975	104.38
465.195	85.38
465.414	86.38
465.634	95.38
465.854	102.38
466.073	88.38
466.293	79.38
466.512	94.38
466.732	86.38
466.951	93.38
467.171	94.38
467.391	96.38
467.61	95.38
467.829	90.38
468.049	81.38
468.268	96.38
468.488	90.38
468.707	94.38
468.927	93.38
469.146	97.38
469.365	91.38
469.585	85.38
469.804	84.38
470.023	95.38
470.243	89.38
470.462	97.38
470.681	96.38
470.901	81.38
471.12	87.38
471.339	77.38
471.558	93.38
471.777	86.38
471.997	76.38
472.216	93.38
472.435	88.38
472.654	91.38
472.873	96.38
473.092	85.38
473.311	92.38
473.53	88.38
473.749	93.38
473.968	87.38
474.187	86.38
474.406	86.38
474.625	88.38
474.844	93.38
475.063	91.38
475.282	99.38
475.501	104.38
475.72	95.38
475.939	82.38
476.158	78.38
476.377	94.38
476.596	106.38
476.814	89.38
477.033	97.38
477.252	89.38
477.471	81.38
477.69	97.38
477.908	87.38
478.127	88.38
478.346	77.38
478.564	98.38
478.783	96.38
479.002	100.38
479.22	98.38
479.439	93.38
479.658	83.38
479.876	94.38
480.095	101.38
480.313	89.38
480.532	93.38
480.751	88.38
480.969	112.38
481.188	91.38
481.406	91.38
481.624	97.38
481.843	90.38
482.061	96.38
482.28	94.38
482.498	94.38
482.717	82.38
482.935	97.38
483.153	92.38
483.372	105.38
483.59	100.38
483.808	73.38
484.027	85.38
484.245	100.38
484.463	90.38
484.681	94.38
484.9	94.38
485.118	95.38
485.336	96.38
485.554	90.38
485.772	94.38
485.99	98.38
486.209	100.38
486.427	92.38
486.645	114.38
486.863	86.38
487.081	87.38
487.299	86.38
487.517	110.38
487.735	91.38
487.953	101.38
488.171	102.38
488.389	89.38
488.607	102.38
488.825	99.38
489.043	90.38
489.261	95.38
489.479	103.38
489.696	92.38
489.914	79.38
490.132	97.38
490.35	97.38
490.568	89.38
490.786	102.38
491.003	104.38
491.221	101.38
491.439	116.38
491.657	99.38
491.874	100.38
492.092	98.38
492.31	100.38
492.527	102.38
492.745	107.38
492.963	103.38
493.18	101.38
493.398	87.38
493.615	89.38
493.833	110.38
494.05	73.38
494.268	86.38
494.485	101.38
494.703	96.38
494.92	94.38
495.138	97.38
495.355	106.38
495.573	103.38
495.79	89.38
496.008	110.38
496.225	98.38
496.442	106.38
496.66	99.38
496.877	93.38
497.094	87.38
497.312	102.38
497.529	94.38
497.746	98.38
497.963	104.38
498.181	90.38
498.398	100.38
498.615	104.38
498.832	97.38
499.049	108.38
499.267	111.38
499.484	102.38
499.701	107.38
499.918	109.38
500.135	107.38
500.352	108.38
500.569	99.38
500.786	114.38
501.003	98.38
501.22	120.38
501.437	117.38
501.654	107.38
501.871	105.38
502.088	92.38
502.305	98.38
502.522	114.38
502.739	104.38
502.956	108.38
503.172	119.38
503.389	99.38
503.606	79.38
503.823	93.38
504.04	101.38
504.256	99.38
504.473	103.38
504.69	98.38
504.907	97.38
505.123	106.38
505.34	107.38
505.557	104.38
505.773	104.38
505.99	101.38
506.207	101.38
506.423	100.38
506.64	90.38
506.856	101.38
507.073	92.38
507.289	102.38
507.506	87.38
507.722	96.38
507.939	92.38
508.155	109.38
508.372	101.38
508.588	103.38
508.805	93.38
509.021	89.38
509.238	105.38
509.454	87.38
509.67	82.38
509.887	95.38
510.103	81.38
510.319	92.38
510.536	87.38
510.752	97.38
510.968	85.38
511.184	102.38
511.401	94.38
511.617	91.38
511.833	99.38
512.049	102.38
512.265	88.38
512.481	99.38
512.698	86.38
512.914	105.38
513.13	85.38
513.346	93.38
513.562	93.38
513.778	99.38
513.994	87.38
514.21	94.38
514.426	114.38
514.642	81.38
514.858	98.38
515.074	99.38
515.29	90.38
515.506	96.38
515.721	96.38
515.937	99.38
516.153	96.38
516.369	102.38
516.585	85.38
516.801	105.38
517.016	88.38
517.232	92.38
517.448	94.38
517.664	114.38
