Data from Ni(NO3)2Standard.Agarose3%.GreenCap.LampEnergy5.5.E.O_HRD10591_14-41-15-188.txt Node
Date: Mon Jul 22 14:41:15 EDT 2019
User: cochatt
Spectrometer: HR+D1059
Trigger mode: 1
Integration Time (sec): 1.000000E-1
Scans to average: 1
Electric dark correction enabled: true
Nonlinearity correction enabled: false
Boxcar width: 0
XAxis mode: Wavelengths
Number of Pixels in Spectrum: 2048
>>>>>Begin Spectral Data<<<<<
223.165	-18.12
223.4	-18.12
223.635	-18.12
223.869	-24.12
224.104	-6.12
224.338	-10.12
224.573	-0.12
224.808	-20.12
225.042	-14.12
225.277	-0.12
225.511	0.88
225.746	2.88
225.98	4.88
226.215	2.88
226.449	23.88
226.683	7.88
226.918	26.88
227.152	22.88
227.387	35.88
227.621	49.88
227.856	33.88
228.09	45.88
228.324	51.88
228.559	58.88
228.793	58.88
229.027	56.88
229.262	76.88
229.496	72.88
229.73	65.88
229.964	86.88
230.199	57.88
230.433	60.88
230.667	77.88
230.901	83.88
231.136	77.88
231.37	82.88
231.604	70.88
231.838	74.88
232.072	73.88
232.306	85.88
232.541	89.88
232.775	70.88
233.009	90.88
233.243	71.88
233.477	77.88
233.711	72.88
233.945	90.88
234.179	81.88
234.413	71.88
234.647	67.88
234.881	72.88
235.115	83.88
235.349	85.88
235.583	83.88
235.817	75.88
236.051	72.88
236.285	73.88
236.519	87.88
236.753	77.88
236.987	71.88
237.221	87.88
237.455	87.88
237.689	78.88
237.922	73.88
238.156	85.88
238.39	78.88
238.624	75.88
238.858	75.88
239.091	77.88
239.325	90.88
239.559	79.88
239.793	89.88
240.027	76.88
240.26	79.88
240.494	75.88
240.728	76.88
240.961	60.88
241.195	73.88
241.429	75.88
241.662	67.88
241.896	67.88
242.13	80.88
242.363	80.88
242.597	67.88
242.83	77.88
243.064	76.88
243.298	82.88
243.531	67.88
243.765	79.88
243.998	78.88
244.232	72.88
244.465	71.88
244.699	79.88
244.932	75.88
245.166	68.88
245.399	78.88
245.633	81.88
245.866	76.88
246.099	84.88
246.333	77.88
246.566	64.88
246.8	80.88
247.033	72.88
247.266	67.88
247.5	88.88
247.733	81.88
247.966	89.88
248.2	78.88
248.433	82.88
248.666	74.88
248.899	85.88
249.133	80.88
249.366	98.88
249.599	85.88
249.832	73.88
250.066	79.88
250.299	72.88
250.532	80.88
250.765	83.88
250.998	72.88
251.231	73.88
251.465	81.88
251.698	76.88
251.931	71.88
252.164	75.88
252.397	80.88
252.63	77.88
252.863	71.88
253.096	84.88
253.329	90.88
253.562	76.88
253.795	75.88
254.028	66.88
254.261	74.88
254.494	88.88
254.727	79.88
254.96	82.88
255.193	76.88
255.426	81.88
255.659	83.88
255.892	80.88
256.124	75.88
256.357	76.88
256.59	85.88
256.823	88.88
257.056	80.88
257.289	76.88
257.521	92.88
257.754	57.88
257.987	75.88
258.22	62.88
258.452	77.88
258.685	69.88
258.918	80.88
259.151	67.88
259.383	78.88
259.616	98.88
259.849	91.88
260.081	89.88
260.314	74.88
260.547	79.88
260.779	89.88
261.012	83.88
261.244	84.88
261.477	92.88
261.71	86.88
261.942	81.88
262.175	95.88
262.407	77.88
262.64	96.88
262.872	72.88
263.105	88.88
263.337	93.88
263.57	79.88
263.802	81.88
264.035	90.88
264.267	79.88
264.499	80.88
264.732	88.88
264.964	88.88
265.197	82.88
265.429	76.88
265.661	83.88
265.894	85.88
266.126	87.88
266.358	70.88
266.591	72.88
266.823	70.88
267.055	86.88
267.287	84.88
267.52	84.88
267.752	100.88
267.984	87.88
268.216	83.88
268.448	60.88
268.681	75.88
268.913	88.88
269.145	80.88
269.377	84.88
269.609	72.88
269.841	79.88
270.073	83.88
270.306	74.88
270.538	74.88
270.77	77.88
271.002	86.88
271.234	65.88
271.466	73.88
271.698	79.88
271.93	95.88
272.162	83.88
272.394	83.88
272.626	67.88
272.858	87.88
273.09	93.88
273.322	95.88
273.553	81.88
273.785	89.88
274.017	78.88
274.249	89.88
274.481	79.88
274.713	83.88
274.945	89.88
275.176	65.88
275.408	64.88
275.64	83.88
275.872	88.88
276.104	81.88
276.335	79.88
276.567	99.88
276.799	87.88
277.031	76.88
277.262	75.88
277.494	91.88
277.726	69.88
277.957	73.88
278.189	93.88
278.421	97.88
278.652	93.88
278.884	86.88
279.115	93.88
279.347	85.88
279.579	89.88
279.81	81.88
280.042	86.88
280.273	89.88
280.505	76.88
280.736	84.88
280.968	81.88
281.199	89.88
281.431	87.88
281.662	105.88
281.894	75.88
282.125	74.88
282.356	78.88
282.588	73.88
282.819	76.88
283.051	82.88
283.282	77.88
283.513	73.88
283.745	93.88
283.976	92.88
284.207	77.88
284.439	80.88
284.67	86.88
284.901	84.88
285.132	90.88
285.364	87.88
285.595	85.88
285.826	72.88
286.057	83.88
286.288	90.88
286.52	85.88
286.751	84.88
286.982	86.88
287.213	84.88
287.444	92.88
287.675	77.88
287.906	87.88
288.138	84.88
288.369	83.88
288.6	76.88
288.831	85.88
289.062	81.88
289.293	90.88
289.524	86.88
289.755	81.88
289.986	80.88
290.217	88.88
290.448	79.88
290.679	77.88
290.91	95.88
291.141	82.88
291.371	76.88
291.602	84.88
291.833	81.88
292.064	97.88
292.295	83.88
292.526	88.88
292.757	75.88
292.987	67.88
293.218	74.88
293.449	84.88
293.68	92.88
293.91	74.88
294.141	76.88
294.372	80.88
294.603	76.88
294.833	88.88
295.064	82.88
295.295	98.88
295.525	89.88
295.756	85.88
295.987	82.88
296.217	83.88
296.448	81.88
296.679	84.88
296.909	99.88
297.14	89.88
297.37	76.88
297.601	78.88
297.831	95.88
298.062	92.88
298.292	84.88
298.523	87.88
298.753	93.88
298.984	88.88
299.214	82.88
299.445	81.88
299.675	99.88
299.905	76.88
300.136	88.88
300.366	78.88
300.597	81.88
300.827	95.88
301.057	81.88
301.288	81.88
301.518	86.88
301.748	77.88
301.979	84.88
302.209	96.88
302.439	96.88
302.669	88.88
302.9	89.88
303.13	69.88
303.36	82.88
303.59	86.88
303.82	79.88
304.051	84.88
304.281	94.88
304.511	83.88
304.741	82.88
304.971	88.88
305.201	95.88
305.431	77.88
305.661	76.88
305.891	96.88
306.121	87.88
306.352	77.88
306.582	78.88
306.812	84.88
307.042	79.88
307.272	94.88
307.502	82.88
307.731	92.88
307.961	81.88
308.191	87.88
308.421	76.88
308.651	86.88
308.881	90.88
309.111	72.88
309.341	83.88
309.571	95.88
309.8	101.88
310.03	83.88
310.26	68.88
310.49	78.88
310.72	78.88
310.949	96.88
311.179	83.88
311.409	87.88
311.639	93.88
311.868	84.88
312.098	83.88
312.328	91.88
312.557	85.88
312.787	82.88
313.017	84.88
313.246	80.88
313.476	99.88
313.706	78.88
313.935	78.88
314.165	93.88
314.394	80.88
314.624	81.88
314.853	91.88
315.083	87.88
315.312	77.88
315.542	90.88
315.771	81.88
316.001	89.88
316.23	84.88
316.46	95.88
316.689	80.88
316.919	83.88
317.148	77.88
317.377	86.88
317.607	91.88
317.836	78.88
318.065	82.88
318.295	92.88
318.524	74.88
318.753	69.88
318.983	88.88
319.212	102.88
319.441	89.88
319.67	90.88
319.9	77.88
320.129	88.88
320.358	96.88
320.587	87.88
320.816	78.88
321.046	79.88
321.275	91.88
321.504	76.88
321.733	97.88
321.962	92.88
322.191	68.88
322.42	83.88
322.649	91.88
322.878	81.88
323.108	74.88
323.337	96.88
323.566	72.88
323.795	73.88
324.024	83.88
324.253	76.88
324.482	89.88
324.71	93.88
324.939	90.88
325.168	84.88
325.397	78.88
325.626	84.88
325.855	82.88
326.084	102.88
326.313	75.88
326.542	79.88
326.77	79.88
326.999	92.88
327.228	81.88
327.457	93.88
327.686	79.88
327.914	82.88
328.143	83.88
328.372	83.88
328.6	81.88
328.829	91.88
329.058	74.88
329.287	93.88
329.515	96.88
329.744	99.88
329.972	84.88
330.201	74.88
330.43	77.88
330.658	80.88
330.887	95.88
331.115	89.88
331.344	90.88
331.572	82.88
331.801	82.88
332.03	87.88
332.258	82.88
332.486	85.88
332.715	82.88
332.943	73.88
333.172	88.88
333.4	83.88
333.629	81.88
333.857	85.88
334.085	79.88
334.314	88.88
334.542	82.88
334.771	88.88
334.999	91.88
335.227	80.88
335.455	85.88
335.684	90.88
335.912	94.88
336.14	81.88
336.369	83.88
336.597	92.88
336.825	88.88
337.053	85.88
337.281	76.88
337.51	83.88
337.738	92.88
337.966	79.88
338.194	64.88
338.422	92.88
338.65	90.88
338.878	81.88
339.106	77.88
339.334	81.88
339.562	81.88
339.79	93.88
340.018	80.88
340.246	81.88
340.474	98.88
340.702	89.88
340.93	77.88
341.158	89.88
341.386	90.88
341.614	81.88
341.842	93.88
342.07	87.88
342.298	83.88
342.526	92.88
342.754	71.88
342.981	84.88
343.209	83.88
343.437	75.88
343.665	80.88
343.893	90.88
344.12	99.88
344.348	89.88
344.576	85.88
344.804	88.88
345.031	86.88
345.259	84.88
345.487	84.88
345.714	82.88
345.942	86.88
346.17	80.88
346.397	92.88
346.625	94.88
346.853	81.88
347.08	88.88
347.308	91.88
347.535	88.88
347.763	76.88
347.99	83.88
348.218	78.88
348.445	92.88
348.673	95.88
348.9	103.88
349.128	81.88
349.355	82.88
349.583	90.88
349.81	76.88
350.037	91.88
350.265	90.88
350.492	79.88
350.72	96.88
350.947	96.88
351.174	92.88
351.402	79.88
351.629	74.88
351.856	78.88
352.083	82.88
352.311	84.88
352.538	87.88
352.765	75.88
352.992	79.88
353.22	71.88
353.447	80.88
353.674	70.88
353.901	85.88
354.128	94.88
354.355	94.88
354.583	83.88
354.81	80.88
355.037	81.88
355.264	81.88
355.491	87.88
355.718	80.88
355.945	89.88
356.172	89.88
356.399	96.88
356.626	78.88
356.853	76.88
357.08	85.88
357.307	85.88
357.534	87.88
357.761	79.88
357.988	90.88
358.215	95.88
358.441	72.88
358.668	92.88
358.895	97.88
359.122	90.88
359.349	81.88
359.576	76.88
359.802	82.88
360.029	95.88
360.256	92.88
360.483	83.88
360.709	86.88
360.936	95.88
361.163	92.88
361.39	92.88
361.616	81.88
361.843	84.88
362.07	68.88
362.296	81.88
362.523	91.88
362.749	73.88
362.976	79.88
363.203	101.88
363.429	84.88
363.656	101.88
363.882	84.88
364.109	83.88
364.335	88.88
364.562	102.88
364.788	89.88
365.015	105.88
365.241	78.88
365.468	80.88
365.694	95.88
365.92	82.88
366.147	74.88
366.373	84.88
366.599	92.88
366.826	86.88
367.052	89.88
367.278	80.88
367.505	106.88
367.731	76.88
367.957	91.88
368.184	74.88
368.41	67.88
368.636	81.88
368.862	93.88
369.089	77.88
369.315	84.88
369.541	85.88
369.767	92.88
369.993	101.88
370.219	80.88
370.445	90.88
370.672	91.88
370.898	89.88
371.124	81.88
371.35	86.88
371.576	88.88
371.802	85.88
372.028	65.88
372.254	87.88
372.48	77.88
372.706	93.88
372.932	75.88
373.158	88.88
373.384	90.88
373.61	81.88
373.835	95.88
374.061	79.88
374.287	87.88
374.513	81.88
374.739	81.88
374.965	91.88
375.191	74.88
375.416	88.88
375.642	77.88
375.868	77.88
376.094	78.88
376.319	83.88
376.545	78.88
376.771	87.88
376.997	95.88
377.222	92.88
377.448	91.88
377.674	87.88
377.899	74.88
378.125	88.88
378.35	84.88
378.576	78.88
378.802	77.88
379.027	89.88
379.253	92.88
379.478	81.88
379.704	94.88
379.929	68.88
380.155	77.88
380.38	83.88
380.606	77.88
380.831	95.88
381.057	86.88
381.282	68.88
381.507	85.88
381.733	74.88
381.958	76.88
382.184	79.88
382.409	83.88
382.634	60.88
382.86	87.88
383.085	92.88
383.31	92.88
383.535	91.88
383.761	69.88
383.986	82.88
384.211	99.88
384.436	72.88
384.662	91.88
384.887	92.88
385.112	98.88
385.337	80.88
385.562	81.88
385.787	77.88
386.013	71.88
386.238	97.88
386.463	76.88
386.688	87.88
386.913	79.88
387.138	78.88
387.363	76.88
387.588	73.88
387.813	84.88
388.038	71.88
388.263	100.88
388.488	92.88
388.713	96.88
388.938	85.88
389.163	99.88
389.387	71.88
389.612	83.88
389.837	74.88
390.062	84.88
390.287	87.88
390.512	83.88
390.736	84.88
390.961	77.88
391.186	79.88
391.411	89.88
391.636	90.88
391.86	92.88
392.085	83.88
392.31	85.88
392.534	80.88
392.759	83.88
392.984	89.88
393.208	73.88
393.433	71.88
393.658	70.88
393.882	71.88
394.107	92.88
394.331	82.88
394.556	74.88
394.78	78.88
395.005	66.88
395.229	92.88
395.454	90.88
395.678	89.88
395.903	86.88
396.127	85.88
396.352	84.88
396.576	95.88
396.801	85.88
397.025	76.88
397.249	105.88
397.474	79.88
397.698	81.88
397.922	80.88
398.147	80.88
398.371	83.88
398.595	78.88
398.82	82.88
399.044	75.88
399.268	82.88
399.492	69.88
399.717	89.88
399.941	86.88
400.165	80.88
400.389	89.88
400.613	97.88
400.837	85.88
401.062	89.88
401.286	84.88
401.51	87.88
401.734	71.88
401.958	91.88
402.182	82.88
402.406	89.88
402.63	83.88
402.854	77.88
403.078	85.88
403.302	80.88
403.526	87.88
403.75	80.88
403.974	86.88
404.198	90.88
404.422	79.88
404.645	77.88
404.869	83.88
405.093	77.88
405.317	84.88
405.541	76.88
405.765	76.88
405.988	90.88
406.212	86.88
406.436	92.88
406.66	92.88
406.883	91.88
407.107	87.88
407.331	78.88
407.555	83.88
407.778	87.88
408.002	96.88
408.226	92.88
408.449	79.88
408.673	86.88
408.896	68.88
409.12	75.88
409.344	86.88
409.567	92.88
409.791	88.88
410.014	85.88
410.238	73.88
410.461	88.88
410.685	83.88
410.908	88.88
411.132	86.88
411.355	81.88
411.578	88.88
411.802	89.88
412.025	91.88
412.249	84.88
412.472	85.88
412.695	84.88
412.919	77.88
413.142	87.88
413.365	89.88
413.589	84.88
413.812	84.88
414.035	80.88
414.258	102.88
414.482	97.88
414.705	86.88
414.928	81.88
415.151	76.88
415.374	75.88
415.597	86.88
415.821	88.88
416.044	74.88
416.267	87.88
416.49	93.88
416.713	92.88
416.936	97.88
417.159	87.88
417.382	78.88
417.605	76.88
417.828	89.88
418.051	82.88
418.274	89.88
418.497	85.88
418.72	87.88
418.943	77.88
419.166	82.88
419.389	75.88
419.611	82.88
419.834	90.88
420.057	85.88
420.28	84.88
420.503	84.88
420.726	89.88
420.948	83.88
421.171	87.88
421.394	89.88
421.617	82.88
421.839	85.88
422.062	101.88
422.285	85.88
422.507	73.88
422.73	87.88
422.953	77.88
423.175	76.88
423.398	74.88
423.621	76.88
423.843	83.88
424.066	87.88
424.288	87.88
424.511	91.88
424.733	84.88
424.956	79.88
425.178	85.88
425.401	85.88
425.623	86.88
425.846	79.88
426.068	79.88
426.291	84.88
426.513	81.88
426.735	86.88
426.958	71.88
427.18	74.88
427.402	86.88
427.625	93.88
427.847	75.88
428.069	92.88
428.292	73.88
428.514	68.88
428.736	92.88
428.958	98.88
429.181	85.88
429.403	90.88
429.625	84.88
429.847	63.88
430.069	75.88
430.292	75.88
430.514	84.88
430.736	94.88
430.958	76.88
431.18	65.88
431.402	84.88
431.624	80.88
431.846	83.88
432.068	87.88
432.29	91.88
432.512	88.88
432.734	89.88
432.956	79.88
433.178	81.88
433.4	96.88
433.622	104.88
433.844	88.88
434.066	68.88
434.287	90.88
434.509	88.88
434.731	83.88
434.953	85.88
435.175	81.88
435.397	88.88
435.618	84.88
435.84	86.88
436.062	92.88
436.284	73.88
436.505	73.88
436.727	78.88
436.949	71.88
437.17	71.88
437.392	59.88
437.614	79.88
437.835	79.88
438.057	88.88
438.278	95.88
438.5	87.88
438.721	73.88
438.943	75.88
439.165	76.88
439.386	82.88
439.608	84.88
439.829	85.88
440.05	99.88
440.272	88.88
440.493	81.88
440.715	84.88
440.936	86.88
441.158	82.88
441.379	81.88
441.6	77.88
441.822	84.88
442.043	74.88
442.264	84.88
442.486	87.88
442.707	84.88
442.928	99.88
443.149	87.88
443.371	85.88
443.592	93.88
443.813	85.88
444.034	94.88
444.255	99.88
444.476	80.88
444.698	88.88
444.919	85.88
445.14	200.88
445.361	132.88
445.582	74.88
445.803	91.88
446.024	81.88
446.245	80.88
446.466	77.88
446.687	73.88
446.908	83.88
447.129	71.88
447.35	98.88
447.571	73.88
447.792	93.88
448.013	84.88
448.234	100.88
448.455	87.88
448.675	64.88
448.896	76.88
449.117	73.88
449.338	76.88
449.559	91.88
449.779	91.88
450	88.88
450.221	93.88
450.442	85.88
450.662	79.88
450.883	69.88
451.104	92.88
451.324	76.88
451.545	93.88
451.766	82.88
451.986	82.88
452.207	87.88
452.428	78.88
452.648	73.88
452.869	71.88
453.089	86.88
453.31	89.88
453.53	88.88
453.751	82.88
453.971	79.88
454.192	70.88
454.412	86.88
454.633	87.88
454.853	92.88
455.073	88.88
455.294	80.88
455.514	93.88
455.734	86.88
455.955	80.88
456.175	82.88
456.395	80.88
456.616	76.88
456.836	90.88
457.056	70.88
457.276	81.88
457.497	80.88
457.717	80.88
457.937	88.88
458.157	76.88
458.377	86.88
458.598	74.88
458.818	81.88
459.038	88.88
459.258	80.88
459.478	76.88
459.698	84.88
459.918	92.88
460.138	76.88
460.358	90.88
460.578	70.88
460.798	78.88
461.018	75.88
461.238	84.88
461.458	88.88
461.678	70.88
461.898	84.88
462.118	89.88
462.338	88.88
462.558	97.88
462.777	73.88
462.997	73.88
463.217	87.88
463.437	85.88
463.657	89.88
463.876	81.88
464.096	89.88
464.316	82.88
464.536	88.88
464.755	85.88
464.975	79.88
465.195	92.88
465.414	90.88
465.634	89.88
465.854	80.88
466.073	79.88
466.293	87.88
466.512	97.88
466.732	84.88
466.951	83.88
467.171	79.88
467.391	81.88
467.61	77.88
467.829	87.88
468.049	88.88
468.268	74.88
468.488	80.88
468.707	76.88
468.927	81.88
469.146	84.88
469.365	90.88
469.585	77.88
469.804	69.88
470.023	88.88
470.243	91.88
470.462	87.88
470.681	87.88
470.901	75.88
471.12	92.88
471.339	86.88
471.558	107.88
471.777	83.88
471.997	96.88
472.216	96.88
472.435	77.88
472.654	100.88
472.873	91.88
473.092	81.88
473.311	96.88
473.53	78.88
473.749	80.88
473.968	83.88
474.187	96.88
474.406	76.88
474.625	71.88
474.844	89.88
475.063	89.88
475.282	100.88
475.501	84.88
475.72	77.88
475.939	78.88
476.158	100.88
476.377	90.88
476.596	80.88
476.814	83.88
477.033	85.88
477.252	90.88
477.471	85.88
477.69	83.88
477.908	88.88
478.127	80.88
478.346	85.88
478.564	92.88
478.783	96.88
479.002	89.88
479.22	93.88
479.439	82.88
479.658	89.88
479.876	87.88
480.095	75.88
480.313	74.88
480.532	84.88
480.751	77.88
480.969	80.88
481.188	81.88
481.406	93.88
481.624	90.88
481.843	75.88
482.061	90.88
482.28	86.88
482.498	88.88
482.717	91.88
482.935	94.88
483.153	75.88
483.372	80.88
483.59	95.88
483.808	87.88
484.027	93.88
484.245	97.88
484.463	85.88
484.681	103.88
484.9	93.88
485.118	80.88
485.336	88.88
485.554	89.88
485.772	94.88
485.99	97.88
486.209	97.88
486.427	95.88
486.645	90.88
486.863	87.88
487.081	89.88
487.299	98.88
487.517	90.88
487.735	90.88
487.953	97.88
488.171	83.88
488.389	93.88
488.607	95.88
488.825	75.88
489.043	95.88
489.261	95.88
489.479	99.88
489.696	96.88
489.914	119.88
490.132	92.88
490.35	95.88
490.568	84.88
490.786	103.88
491.003	87.88
491.221	92.88
491.439	95.88
491.657	85.88
491.874	98.88
492.092	93.88
492.31	86.88
492.527	94.88
492.745	91.88
492.963	105.88
493.18	88.88
493.398	82.88
493.615	73.88
493.833	89.88
494.05	82.88
494.268	78.88
494.485	77.88
494.703	93.88
494.92	83.88
495.138	94.88
495.355	86.88
495.573	82.88
495.79	97.88
496.008	108.88
496.225	88.88
496.442	87.88
496.66	97.88
496.877	99.88
497.094	85.88
497.312	97.88
497.529	71.88
497.746	107.88
497.963	95.88
498.181	100.88
498.398	103.88
498.615	92.88
498.832	105.88
499.049	85.88
499.267	93.88
499.484	89.88
499.701	92.88
499.918	95.88
500.135	96.88
500.352	114.88
500.569	100.88
500.786	101.88
501.003	110.88
501.22	101.88
501.437	95.88
501.654	90.88
501.871	102.88
502.088	89.88
502.305	97.88
502.522	105.88
502.739	89.88
502.956	83.88
503.172	95.88
503.389	92.88
503.606	98.88
503.823	90.88
504.04	92.88
504.256	76.88
504.473	95.88
504.69	91.88
504.907	92.88
505.123	85.88
505.34	85.88
505.557	96.88
505.773	99.88
505.99	96.88
506.207	87.88
506.423	96.88
506.64	82.88
506.856	85.88
507.073	84.88
507.289	85.88
507.506	90.88
507.722	76.88
507.939	91.88
508.155	85.88
508.372	100.88
508.588	92.88
508.805	95.88
509.021	77.88
509.238	81.88
509.454	81.88
509.67	83.88
509.887	86.88
510.103	96.88
510.319	88.88
510.536	88.88
510.752	77.88
510.968	88.88
511.184	88.88
511.401	91.88
511.617	84.88
511.833	80.88
512.049	93.88
512.265	87.88
512.481	81.88
512.698	75.88
512.914	83.88
513.13	84.88
513.346	85.88
513.562	76.88
513.778	73.88
513.994	77.88
514.21	81.88
514.426	92.88
514.642	97.88
514.858	98.88
515.074	89.88
515.29	73.88
515.506	89.88
515.721	91.88
515.937	100.88
516.153	90.88
516.369	90.88
516.585	99.88
516.801	101.88
517.016	88.88
517.232	93.88
517.448	98.88
517.664	98.88
517.879	96.88
518.095	97.88
518.311	95.88
518.527	102.88
518.742	88.88
518.958	81.88
