Data from Ni(NO3)2@0.125M.TitratingCurve.Agarose3%dH2O.NegLispCup.LampEnergy10.LIBS07252019_HRD10591_18-10-39-567.txt Node
Date: Thu Jul 25 18:10:39 EDT 2019
User: cochatt
Spectrometer: HR+D1059
Trigger mode: 1
Integration Time (sec): 1.000000E-1
Scans to average: 1
Electric dark correction enabled: true
Nonlinearity correction enabled: false
Boxcar width: 0
XAxis mode: Wavelengths
Number of Pixels in Spectrum: 2048
>>>>>Begin Spectral Data<<<<<
223.165	-17.31
223.4	-17.31
223.635	-17.31
223.869	-26.31
224.104	-24.31
224.338	-13.31
224.573	-16.31
224.808	-20.31
225.042	-12.31
225.277	3.69
225.511	-18.31
225.746	6.69
225.98	11.69
226.215	6.69
226.449	13.69
226.683	17.69
226.918	39.69
227.152	48.69
227.387	48.69
227.621	51.69
227.856	25.69
228.09	40.69
228.324	43.69
228.559	64.69
228.793	63.69
229.027	111.69
229.262	107.69
229.496	121.69
229.73	127.69
229.964	122.69
230.199	147.69
230.433	135.69
230.667	151.69
230.901	132.69
231.136	147.69
231.37	154.69
231.604	158.69
231.838	145.69
232.072	140.69
232.306	152.69
232.541	149.69
232.775	162.69
233.009	165.69
233.243	141.69
233.477	153.69
233.711	157.69
233.945	159.69
234.179	156.69
234.413	140.69
234.647	144.69
234.881	161.69
235.115	168.69
235.349	172.69
235.583	166.69
235.817	145.69
236.051	146.69
236.285	150.69
236.519	151.69
236.753	162.69
236.987	167.69
237.221	164.69
237.455	170.69
237.689	156.69
237.922	160.69
238.156	179.69
238.39	180.69
238.624	174.69
238.858	181.69
239.091	183.69
239.325	185.69
239.559	182.69
239.793	172.69
240.027	179.69
240.26	185.69
240.494	178.69
240.728	184.69
240.961	185.69
241.195	186.69
241.429	201.69
241.662	197.69
241.896	197.69
242.13	206.69
242.363	195.69
242.597	186.69
242.83	195.69
243.064	198.69
243.298	204.69
243.531	217.69
243.765	215.69
243.998	207.69
244.232	216.69
244.465	217.69
244.699	213.69
244.932	217.69
245.166	213.69
245.399	217.69
245.633	222.69
245.866	218.69
246.099	231.69
246.333	226.69
246.566	231.69
246.8	219.69
247.033	228.69
247.266	222.69
247.5	242.69
247.733	245.69
247.966	252.69
248.2	250.69
248.433	232.69
248.666	239.69
248.899	262.69
249.133	273.69
249.366	247.69
249.599	249.69
249.832	244.69
250.066	273.69
250.299	256.69
250.532	246.69
250.765	258.69
250.998	266.69
251.231	266.69
251.465	270.69
251.698	271.69
251.931	257.69
252.164	274.69
252.397	270.69
252.63	282.69
252.863	284.69
253.096	304.69
253.329	302.69
253.562	277.69
253.795	287.69
254.028	273.69
254.261	293.69
254.494	303.69
254.727	300.69
254.96	290.69
255.193	290.69
255.426	294.69
255.659	298.69
255.892	320.69
256.124	291.69
256.357	310.69
256.59	300.69
256.823	331.69
257.056	331.69
257.289	302.69
257.521	322.69
257.754	314.69
257.987	317.69
258.22	321.69
258.452	327.69
258.685	321.69
258.918	304.69
259.151	321.69
259.383	315.69
259.616	316.69
259.849	331.69
260.081	326.69
260.314	329.69
260.547	346.69
260.779	325.69
261.012	333.69
261.244	327.69
261.477	324.69
261.71	340.69
261.942	343.69
262.175	343.69
262.407	342.69
262.64	340.69
262.872	349.69
263.105	355.69
263.337	341.69
263.57	336.69
263.802	363.69
264.035	345.69
264.267	352.69
264.499	364.69
264.732	367.69
264.964	382.69
265.197	378.69
265.429	376.69
265.661	360.69
265.894	369.69
266.126	373.69
266.358	367.69
266.591	366.69
266.823	365.69
267.055	388.69
267.287	366.69
267.52	378.69
267.752	364.69
267.984	394.69
268.216	379.69
268.448	388.69
268.681	375.69
268.913	401.69
269.145	389.69
269.377	375.69
269.609	395.69
269.841	381.69
270.073	375.69
270.306	413.69
270.538	396.69
270.77	406.69
271.002	394.69
271.234	402.69
271.466	411.69
271.698	395.69
271.93	411.69
272.162	409.69
272.394	393.69
272.626	415.69
272.858	407.69
273.09	424.69
273.322	433.69
273.553	416.69
273.785	417.69
274.017	421.69
274.249	416.69
274.481	429.69
274.713	423.69
274.945	469.69
275.176	425.69
275.408	432.69
275.64	436.69
275.872	437.69
276.104	429.69
276.335	444.69
276.567	453.69
276.799	437.69
277.031	452.69
277.262	431.69
277.494	439.69
277.726	460.69
277.957	451.69
278.189	472.69
278.421	443.69
278.652	463.69
278.884	468.69
279.115	451.69
279.347	455.69
279.579	465.69
279.81	473.69
280.042	452.69
280.273	474.69
280.505	457.69
280.736	484.69
280.968	497.69
281.199	479.69
281.431	487.69
281.662	485.69
281.894	483.69
282.125	463.69
282.356	491.69
282.588	486.69
282.819	507.69
283.051	480.69
283.282	493.69
283.513	466.69
283.745	493.69
283.976	512.69
284.207	503.69
284.439	486.69
284.67	504.69
284.901	514.69
285.132	518.69
285.364	497.69
285.595	523.69
285.826	515.69
286.057	525.69
286.288	526.69
286.52	524.69
286.751	513.69
286.982	491.69
287.213	515.69
287.444	527.69
287.675	528.69
287.906	534.69
288.138	535.69
288.369	552.69
288.6	523.69
288.831	537.69
289.062	539.69
289.293	553.69
289.524	528.69
289.755	542.69
289.986	526.69
290.217	537.69
290.448	550.69
290.679	551.69
290.91	534.69
291.141	530.69
291.371	535.69
291.602	549.69
291.833	544.69
292.064	563.69
292.295	553.69
292.526	556.69
292.757	549.69
292.987	527.69
293.218	551.69
293.449	527.69
293.68	549.69
293.91	555.69
294.141	525.69
294.372	559.69
294.603	554.69
294.833	559.69
295.064	565.69
295.295	575.69
295.525	536.69
295.756	542.69
295.987	572.69
296.217	575.69
296.448	575.69
296.679	571.69
296.909	562.69
297.14	579.69
297.37	586.69
297.601	582.69
297.831	572.69
298.062	598.69
298.292	627.69
298.523	604.69
298.753	643.69
298.984	604.69
299.214	606.69
299.445	619.69
299.675	585.69
299.905	615.69
300.136	603.69
300.366	594.69
300.597	612.69
300.827	630.69
301.057	629.69
301.288	635.69
301.518	623.69
301.748	627.69
301.979	647.69
302.209	627.69
302.439	640.69
302.669	640.69
302.9	634.69
303.13	658.69
303.36	614.69
303.59	633.69
303.82	620.69
304.051	620.69
304.281	628.69
304.511	605.69
304.741	627.69
304.971	635.69
305.201	625.69
305.431	627.69
305.661	631.69
305.891	606.69
306.121	603.69
306.352	619.69
306.582	623.69
306.812	581.69
307.042	604.69
307.272	599.69
307.502	629.69
307.731	592.69
307.961	599.69
308.191	605.69
308.421	596.69
308.651	580.69
308.881	604.69
309.111	601.69
309.341	607.69
309.571	615.69
309.8	619.69
310.03	622.69
310.26	613.69
310.49	619.69
310.72	606.69
310.949	593.69
311.179	618.69
311.409	621.69
311.639	651.69
311.868	629.69
312.098	632.69
312.328	652.69
312.557	634.69
312.787	646.69
313.017	653.69
313.246	647.69
313.476	655.69
313.706	672.69
313.935	668.69
314.165	663.69
314.394	683.69
314.624	666.69
314.853	634.69
315.083	649.69
315.312	647.69
315.542	679.69
315.771	654.69
316.001	642.69
316.23	645.69
316.46	641.69
316.689	631.69
316.919	643.69
317.148	656.69
317.377	627.69
317.607	639.69
317.836	642.69
318.065	641.69
318.295	652.69
318.524	633.69
318.753	640.69
318.983	657.69
319.212	659.69
319.441	665.69
319.67	641.69
319.9	619.69
320.129	647.69
320.358	641.69
320.587	661.69
320.816	647.69
321.046	651.69
321.275	651.69
321.504	639.69
321.733	635.69
321.962	649.69
322.191	648.69
322.42	663.69
322.649	673.69
322.878	664.69
323.108	668.69
323.337	668.69
323.566	675.69
323.795	681.69
324.024	661.69
324.253	670.69
324.482	674.69
324.71	676.69
324.939	691.69
325.168	706.69
325.397	691.69
325.626	680.69
325.855	700.69
326.084	693.69
326.313	707.69
326.542	682.69
326.77	711.69
326.999	710.69
327.228	702.69
327.457	712.69
327.686	722.69
327.914	737.69
328.143	720.69
328.372	735.69
328.6	697.69
328.829	702.69
329.058	703.69
329.287	716.69
329.515	700.69
329.744	730.69
329.972	728.69
330.201	734.69
330.43	729.69
330.658	704.69
330.887	731.69
331.115	747.69
331.344	748.69
331.572	760.69
331.801	774.69
332.03	787.69
332.258	819.69
332.486	833.69
332.715	879.69
332.943	894.69
333.172	923.69
333.4	1007.69
333.629	1005.69
333.857	995.69
334.085	997.69
334.314	986.69
334.542	922.69
334.771	923.69
334.999	907.69
335.227	935.69
335.455	901.69
335.684	898.69
335.912	895.69
336.14	883.69
336.369	866.69
336.597	879.69
336.825	853.69
337.053	850.69
337.281	852.69
337.51	832.69
337.738	838.69
337.966	816.69
338.194	795.69
338.422	779.69
338.65	772.69
338.878	820.69
339.106	800.69
339.334	777.69
339.562	789.69
339.79	767.69
340.018	743.69
340.246	733.69
340.474	747.69
340.702	742.69
340.93	758.69
341.158	771.69
341.386	736.69
341.614	749.69
341.842	754.69
342.07	768.69
342.298	733.69
342.526	750.69
342.754	760.69
342.981	761.69
343.209	774.69
343.437	802.69
343.665	856.69
343.893	939.69
344.12	957.69
344.348	887.69
344.576	858.69
344.804	847.69
345.031	793.69
345.259	783.69
345.487	773.69
345.714	751.69
345.942	745.69
346.17	743.69
346.397	750.69
346.625	759.69
346.853	729.69
347.08	731.69
347.308	744.69
347.535	741.69
347.763	760.69
347.99	737.69
348.218	744.69
348.445	755.69
348.673	727.69
348.9	727.69
349.128	707.69
349.355	714.69
349.583	715.69
349.81	699.69
350.037	696.69
350.265	724.69
350.492	723.69
350.72	725.69
350.947	713.69
351.174	708.69
351.402	720.69
351.629	671.69
351.856	696.69
352.083	663.69
352.311	703.69
352.538	681.69
352.765	696.69
352.992	709.69
353.22	703.69
353.447	699.69
353.674	694.69
353.901	692.69
354.128	700.69
354.355	709.69
354.583	730.69
354.81	710.69
355.037	708.69
355.264	695.69
355.491	720.69
355.718	713.69
355.945	696.69
356.172	716.69
356.399	709.69
356.626	701.69
356.853	716.69
357.08	705.69
357.307	723.69
357.534	705.69
357.761	715.69
357.988	720.69
358.215	719.69
358.441	725.69
358.668	700.69
358.895	699.69
359.122	715.69
359.349	705.69
359.576	683.69
359.802	723.69
360.029	705.69
360.256	721.69
360.483	688.69
360.709	703.69
360.936	710.69
361.163	708.69
361.39	697.69
361.616	710.69
361.843	709.69
362.07	707.69
362.296	699.69
362.523	716.69
362.749	705.69
362.976	685.69
363.203	709.69
363.429	715.69
363.656	719.69
363.882	720.69
364.109	704.69
364.335	660.69
364.562	704.69
364.788	697.69
365.015	673.69
365.241	679.69
365.468	712.69
365.694	694.69
365.92	680.69
366.147	717.69
366.373	691.69
366.599	694.69
366.826	691.69
367.052	718.69
367.278	718.69
367.505	698.69
367.731	713.69
367.957	703.69
368.184	730.69
368.41	728.69
368.636	696.69
368.862	709.69
369.089	729.69
369.315	728.69
369.541	736.69
369.767	724.69
369.993	748.69
370.219	740.69
370.445	749.69
370.672	716.69
370.898	743.69
371.124	775.69
371.35	749.69
371.576	765.69
371.802	758.69
372.028	755.69
372.254	753.69
372.48	741.69
372.706	772.69
372.932	805.69
373.158	798.69
373.384	802.69
373.61	769.69
373.835	755.69
374.061	748.69
374.287	759.69
374.513	777.69
374.739	822.69
374.965	838.69
375.191	855.69
375.416	839.69
375.642	832.69
375.868	805.69
376.094	805.69
376.319	768.69
376.545	776.69
376.771	763.69
376.997	768.69
377.222	772.69
377.448	755.69
377.674	764.69
377.899	744.69
378.125	744.69
378.35	762.69
378.576	751.69
378.802	756.69
379.027	752.69
379.253	744.69
379.478	747.69
379.704	755.69
379.929	736.69
380.155	767.69
380.38	755.69
380.606	756.69
380.831	728.69
381.057	752.69
381.282	784.69
381.507	764.69
381.733	766.69
381.958	761.69
382.184	791.69
382.409	804.69
382.634	795.69
382.86	812.69
383.085	830.69
383.31	852.69
383.535	856.69
383.761	877.69
383.986	877.69
384.211	877.69
384.436	889.69
384.662	917.69
384.887	923.69
385.112	924.69
385.337	936.69
385.562	914.69
385.787	928.69
386.013	939.69
386.238	940.69
386.463	905.69
386.688	957.69
386.913	920.69
387.138	932.69
387.363	948.69
387.588	923.69
387.813	901.69
388.038	913.69
388.263	903.69
388.488	938.69
388.713	924.69
388.938	917.69
389.163	892.69
389.387	903.69
389.612	890.69
389.837	923.69
390.062	901.69
390.287	885.69
390.512	900.69
390.736	918.69
390.961	929.69
391.186	943.69
391.411	953.69
391.636	1006.69
391.86	1012.69
392.085	1079.69
392.31	1018.69
392.534	1034.69
392.759	987.69
392.984	971.69
393.208	973.69
393.433	1001.69
393.658	973.69
393.882	968.69
394.107	1033.69
394.331	979.69
394.556	977.69
394.78	973.69
395.005	1000.69
395.229	954.69
395.454	996.69
395.678	1027.69
395.903	1030.69
396.127	1017.69
396.352	986.69
396.576	975.69
396.801	973.69
397.025	998.69
397.249	1009.69
397.474	1047.69
397.698	1045.69
397.922	1029.69
398.147	1017.69
398.371	1034.69
398.595	1091.69
398.82	1123.69
399.044	1208.69
399.268	1361.69
399.492	1546.69
399.717	1803.69
399.941	1771.69
400.165	1514.69
400.389	1393.69
400.613	1287.69
400.837	1239.69
401.062	1182.69
401.286	1148.69
401.51	1141.69
401.734	1158.69
401.958	1198.69
402.182	1157.69
402.406	1217.69
402.63	1214.69
402.854	1251.69
403.078	1259.69
403.302	1290.69
403.526	1347.69
403.75	1354.69
403.974	1359.69
404.198	1390.69
404.422	1421.69
404.645	1368.69
404.869	1345.69
405.093	1312.69
405.317	1273.69
405.541	1271.69
405.765	1250.69
405.988	1266.69
406.212	1279.69
406.436	1270.69
406.66	1288.69
406.883	1307.69
407.107	1433.69
407.331	1445.69
407.555	1503.69
407.778	1493.69
408.002	1465.69
408.226	1413.69
408.449	1387.69
408.673	1356.69
408.896	1321.69
409.12	1337.69
409.344	1327.69
409.567	1303.69
409.791	1328.69
410.014	1309.69
410.238	1339.69
410.461	1307.69
410.685	1252.69
410.908	1255.69
411.132	1238.69
411.355	1209.69
411.578	1208.69
411.802	1205.69
412.025	1223.69
412.249	1227.69
412.472	1229.69
412.695	1152.69
412.919	1179.69
413.142	1144.69
413.365	1153.69
413.589	1161.69
413.812	1145.69
414.035	1143.69
414.258	1129.69
414.482	1183.69
414.705	1192.69
414.928	1186.69
415.151	1199.69
415.374	1197.69
415.597	1198.69
415.821	1150.69
416.044	1115.69
416.267	1104.69
416.49	1113.69
416.713	1112.69
416.936	1125.69
417.159	1147.69
417.382	1111.69
417.605	1108.69
417.828	1143.69
418.051	1201.69
418.274	1168.69
418.497	1152.69
418.72	1185.69
418.943	1185.69
419.166	1252.69
419.389	1319.69
419.611	1299.69
419.834	1280.69
420.057	1246.69
420.28	1134.69
420.503	1151.69
420.726	1132.69
420.948	1125.69
421.171	1130.69
421.394	1168.69
421.617	1131.69
421.839	1159.69
422.062	1181.69
422.285	1159.69
422.507	1171.69
422.73	1176.69
422.953	1147.69
423.175	1228.69
423.398	1224.69
423.621	1221.69
423.843	1256.69
424.066	1243.69
424.288	1213.69
424.511	1191.69
424.733	1200.69
424.956	1179.69
425.178	1167.69
425.401	1180.69
425.623	1152.69
425.846	1131.69
426.068	1135.69
426.291	1105.69
426.513	1100.69
426.735	1096.69
426.958	1092.69
427.18	1045.69
427.402	1063.69
427.625	1059.69
427.847	1022.69
428.069	1042.69
428.292	1023.69
428.514	999.69
428.736	1006.69
428.958	1030.69
429.181	1007.69
429.403	998.69
429.625	1001.69
429.847	969.69
430.069	990.69
430.292	1011.69
430.514	972.69
430.736	1039.69
430.958	1019.69
431.18	990.69
431.402	960.69
431.624	1014.69
431.846	1029.69
432.068	1027.69
432.29	1036.69
432.512	1006.69
432.734	1033.69
432.956	1005.69
433.178	1051.69
433.4	1019.69
433.622	1021.69
433.844	1051.69
434.066	1044.69
434.287	1051.69
434.509	1092.69
434.731	1146.69
434.953	1171.69
435.175	1198.69
435.397	1136.69
435.618	1067.69
435.84	1051.69
436.062	1021.69
436.284	1019.69
436.505	1024.69
436.727	1051.69
436.949	1047.69
437.17	1033.69
437.392	1021.69
437.614	996.69
437.835	991.69
438.057	1006.69
438.278	982.69
438.5	1005.69
438.721	1006.69
438.943	988.69
439.165	980.69
439.386	987.69
439.608	999.69
439.829	1022.69
440.05	1047.69
440.272	1044.69
440.493	1003.69
440.715	1047.69
440.936	1059.69
441.158	1057.69
441.379	1077.69
441.6	1161.69
441.822	1157.69
442.043	1190.69
442.264	1150.69
442.486	1127.69
442.707	1137.69
442.928	1136.69
443.149	1125.69
443.371	1150.69
443.592	1153.69
443.813	1144.69
444.034	1166.69
444.255	1182.69
444.476	1258.69
444.698	1366.69
444.919	1409.69
445.14	1444.69
445.361	1286.69
445.582	1187.69
445.803	1108.69
446.024	1059.69
446.245	1082.69
446.466	1041.69
446.687	1047.69
446.908	1040.69
447.129	1021.69
447.35	999.69
447.571	979.69
447.792	959.69
448.013	974.69
448.234	969.69
448.455	964.69
448.675	957.69
448.896	936.69
449.117	967.69
449.338	945.69
449.559	927.69
449.779	913.69
450	913.69
450.221	958.69
450.442	943.69
450.662	939.69
450.883	956.69
451.104	947.69
451.324	973.69
451.545	969.69
451.766	941.69
451.986	960.69
452.207	955.69
452.428	928.69
452.648	912.69
452.869	915.69
453.089	936.69
453.31	928.69
453.53	918.69
453.751	913.69
453.971	909.69
454.192	910.69
454.412	921.69
454.633	912.69
454.853	868.69
455.073	883.69
455.294	905.69
455.514	879.69
455.734	909.69
455.955	896.69
456.175	862.69
456.395	869.69
456.616	874.69
456.836	874.69
457.056	888.69
457.276	841.69
457.497	879.69
457.717	884.69
457.937	889.69
458.157	895.69
458.377	914.69
458.598	914.69
458.818	951.69
459.038	995.69
459.258	1031.69
459.478	1027.69
459.698	1068.69
459.918	1110.69
460.138	1135.69
460.358	1177.69
460.578	1212.69
460.798	1231.69
461.018	1242.69
461.238	1187.69
461.458	1217.69
461.678	1164.69
461.898	1217.69
462.118	1233.69
462.338	1314.69
462.558	1307.69
462.777	1364.69
462.997	1513.69
463.217	1619.69
463.437	1688.69
463.657	1480.69
463.876	1451.69
464.096	1435.69
464.316	1428.69
464.536	1452.69
464.755	1351.69
464.975	1337.69
465.195	1247.69
465.414	1168.69
465.634	1088.69
465.854	1091.69
466.073	1070.69
466.293	1021.69
466.512	1007.69
466.732	947.69
466.951	999.69
467.171	997.69
467.391	1006.69
467.61	986.69
467.829	1023.69
468.049	972.69
468.268	947.69
468.488	923.69
468.707	916.69
468.927	935.69
469.146	924.69
469.365	923.69
469.585	945.69
469.804	981.69
470.023	973.69
470.243	1002.69
470.462	1024.69
470.681	998.69
470.901	1033.69
471.12	1011.69
471.339	976.69
471.558	979.69
471.777	952.69
471.997	940.69
472.216	940.69
472.435	917.69
472.654	904.69
472.873	909.69
473.092	894.69
473.311	908.69
473.53	896.69
473.749	903.69
473.968	930.69
474.187	889.69
474.406	883.69
474.625	878.69
474.844	909.69
475.063	889.69
475.282	933.69
475.501	894.69
475.72	921.69
475.939	931.69
476.158	922.69
476.377	957.69
476.596	925.69
476.814	930.69
477.033	954.69
477.252	979.69
477.471	989.69
477.69	1016.69
477.908	1067.69
478.127	1095.69
478.346	1087.69
478.564	1092.69
478.783	1095.69
479.002	1152.69
479.22	1159.69
479.439	1150.69
479.658	1143.69
479.876	1132.69
480.095	1156.69
480.313	1198.69
480.532	1248.69
480.751	1244.69
480.969	1162.69
481.188	1150.69
481.406	1105.69
481.624	1107.69
481.843	1065.69
482.061	1014.69
482.28	973.69
482.498	1008.69
482.717	1052.69
482.935	1036.69
483.153	1039.69
483.372	1023.69
483.59	996.69
483.808	1029.69
484.027	1002.69
484.245	1047.69
484.463	1002.69
484.681	1053.69
484.9	1074.69
485.118	1078.69
485.336	1062.69
485.554	1106.69
485.772	1101.69
485.99	1091.69
486.209	1126.69
486.427	1115.69
486.645	1116.69
486.863	1086.69
487.081	1075.69
487.299	1088.69
487.517	1115.69
487.735	1128.69
487.953	1081.69
488.171	1104.69
488.389	1104.69
488.607	1053.69
488.825	1076.69
489.043	1054.69
489.261	1071.69
489.479	1058.69
489.696	1095.69
489.914	1099.69
490.132	1065.69
490.35	1080.69
490.568	1069.69
490.786	1075.69
491.003	1063.69
491.221	1109.69
491.439	1121.69
491.657	1087.69
491.874	1120.69
492.092	1136.69
492.31	1106.69
492.527	1097.69
492.745	1121.69
492.963	1109.69
493.18	1127.69
493.398	1146.69
493.615	1157.69
493.833	1123.69
494.05	1162.69
494.268	1124.69
494.485	1165.69
494.703	1160.69
494.92	1153.69
495.138	1176.69
495.355	1118.69
495.573	1132.69
495.79	1157.69
496.008	1151.69
496.225	1169.69
496.442	1195.69
496.66	1185.69
