Data from Ni(NO3)2@0.0625M.TitratingCurve.Agarose3%dH2O.NegLispCup.LampEnergy10.LIBS07252019_HRD10591_18-14-37-569.txt Node
Date: Thu Jul 25 18:14:37 EDT 2019
User: cochatt
Spectrometer: HR+D1059
Trigger mode: 1
Integration Time (sec): 1.000000E-1
Scans to average: 1
Electric dark correction enabled: true
Nonlinearity correction enabled: false
Boxcar width: 0
XAxis mode: Wavelengths
Number of Pixels in Spectrum: 2048
>>>>>Begin Spectral Data<<<<<
223.165	-15.88
223.4	-15.88
223.635	-15.88
223.869	-7.88
224.104	-19.88
224.338	-16.88
224.573	-18.88
224.808	-21.88
225.042	-10.88
225.277	3.12
225.511	-9.88
225.746	-3.88
225.98	6.12
226.215	16.12
226.449	21.12
226.683	20.12
226.918	25.12
227.152	34.12
227.387	34.12
227.621	39.12
227.856	53.12
228.09	52.12
228.324	38.12
228.559	54.12
228.793	72.12
229.027	103.12
229.262	120.12
229.496	106.12
229.73	126.12
229.964	128.12
230.199	122.12
230.433	140.12
230.667	144.12
230.901	124.12
231.136	124.12
231.37	137.12
231.604	138.12
231.838	156.12
232.072	157.12
232.306	146.12
232.541	139.12
232.775	144.12
233.009	144.12
233.243	138.12
233.477	147.12
233.711	141.12
233.945	131.12
234.179	157.12
234.413	144.12
234.647	154.12
234.881	162.12
235.115	156.12
235.349	160.12
235.583	153.12
235.817	154.12
236.051	145.12
236.285	150.12
236.519	149.12
236.753	170.12
236.987	157.12
237.221	157.12
237.455	161.12
237.689	162.12
237.922	177.12
238.156	164.12
238.39	156.12
238.624	163.12
238.858	173.12
239.091	166.12
239.325	179.12
239.559	166.12
239.793	173.12
240.027	176.12
240.26	156.12
240.494	179.12
240.728	192.12
240.961	178.12
241.195	183.12
241.429	179.12
241.662	183.12
241.896	199.12
242.13	190.12
242.363	196.12
242.597	188.12
242.83	211.12
243.064	189.12
243.298	201.12
243.531	201.12
243.765	202.12
243.998	197.12
244.232	208.12
244.465	202.12
244.699	210.12
244.932	212.12
245.166	219.12
245.399	203.12
245.633	217.12
245.866	242.12
246.099	218.12
246.333	241.12
246.566	240.12
246.8	210.12
247.033	215.12
247.266	238.12
247.5	213.12
247.733	228.12
247.966	213.12
248.2	232.12
248.433	232.12
248.666	229.12
248.899	232.12
249.133	235.12
249.366	263.12
249.599	237.12
249.832	232.12
250.066	261.12
250.299	242.12
250.532	258.12
250.765	249.12
250.998	234.12
251.231	258.12
251.465	253.12
251.698	264.12
251.931	263.12
252.164	264.12
252.397	257.12
252.63	268.12
252.863	248.12
253.096	261.12
253.329	270.12
253.562	268.12
253.795	264.12
254.028	286.12
254.261	282.12
254.494	282.12
254.727	273.12
254.96	270.12
255.193	272.12
255.426	266.12
255.659	296.12
255.892	284.12
256.124	296.12
256.357	286.12
256.59	288.12
256.823	283.12
257.056	307.12
257.289	282.12
257.521	285.12
257.754	294.12
257.987	297.12
258.22	289.12
258.452	297.12
258.685	306.12
258.918	311.12
259.151	292.12
259.383	308.12
259.616	307.12
259.849	292.12
260.081	323.12
260.314	310.12
260.547	313.12
260.779	289.12
261.012	312.12
261.244	299.12
261.477	320.12
261.71	320.12
261.942	323.12
262.175	339.12
262.407	319.12
262.64	325.12
262.872	346.12
263.105	329.12
263.337	333.12
263.57	320.12
263.802	327.12
264.035	344.12
264.267	329.12
264.499	343.12
264.732	360.12
264.964	319.12
265.197	338.12
265.429	347.12
265.661	344.12
265.894	368.12
266.126	353.12
266.358	361.12
266.591	345.12
266.823	354.12
267.055	364.12
267.287	368.12
267.52	355.12
267.752	352.12
267.984	356.12
268.216	356.12
268.448	355.12
268.681	355.12
268.913	378.12
269.145	371.12
269.377	360.12
269.609	345.12
269.841	362.12
270.073	371.12
270.306	380.12
270.538	374.12
270.77	377.12
271.002	351.12
271.234	374.12
271.466	380.12
271.698	378.12
271.93	379.12
272.162	381.12
272.394	373.12
272.626	381.12
272.858	386.12
273.09	394.12
273.322	378.12
273.553	389.12
273.785	402.12
274.017	385.12
274.249	399.12
274.481	392.12
274.713	394.12
274.945	393.12
275.176	403.12
275.408	395.12
275.64	417.12
275.872	393.12
276.104	412.12
276.335	396.12
276.567	394.12
276.799	394.12
277.031	399.12
277.262	421.12
277.494	419.12
277.726	410.12
277.957	425.12
278.189	415.12
278.421	413.12
278.652	439.12
278.884	420.12
279.115	424.12
279.347	396.12
279.579	425.12
279.81	428.12
280.042	445.12
280.273	437.12
280.505	433.12
280.736	439.12
280.968	447.12
281.199	433.12
281.431	440.12
281.662	429.12
281.894	441.12
282.125	445.12
282.356	455.12
282.588	477.12
282.819	433.12
283.051	453.12
283.282	467.12
283.513	462.12
283.745	454.12
283.976	482.12
284.207	451.12
284.439	480.12
284.67	471.12
284.901	471.12
285.132	483.12
285.364	473.12
285.595	481.12
285.826	468.12
286.057	493.12
286.288	480.12
286.52	482.12
286.751	487.12
286.982	494.12
287.213	493.12
287.444	485.12
287.675	491.12
287.906	490.12
288.138	510.12
288.369	520.12
288.6	504.12
288.831	491.12
289.062	504.12
289.293	517.12
289.524	512.12
289.755	505.12
289.986	507.12
290.217	502.12
290.448	489.12
290.679	511.12
290.91	529.12
291.141	485.12
291.371	483.12
291.602	508.12
291.833	525.12
292.064	499.12
292.295	519.12
292.526	523.12
292.757	512.12
292.987	505.12
293.218	520.12
293.449	500.12
293.68	521.12
293.91	532.12
294.141	510.12
294.372	536.12
294.603	522.12
294.833	530.12
295.064	521.12
295.295	525.12
295.525	525.12
295.756	528.12
295.987	527.12
296.217	535.12
296.448	528.12
296.679	541.12
296.909	521.12
297.14	554.12
297.37	541.12
297.601	557.12
297.831	569.12
298.062	549.12
298.292	534.12
298.523	584.12
298.753	538.12
298.984	570.12
299.214	571.12
299.445	554.12
299.675	547.12
299.905	561.12
300.136	568.12
300.366	568.12
300.597	571.12
300.827	585.12
301.057	614.12
301.288	586.12
301.518	586.12
301.748	582.12
301.979	598.12
302.209	591.12
302.439	596.12
302.669	574.12
302.9	587.12
303.13	559.12
303.36	595.12
303.59	583.12
303.82	571.12
304.051	568.12
304.281	585.12
304.511	568.12
304.741	592.12
304.971	597.12
305.201	585.12
305.431	552.12
305.661	578.12
305.891	564.12
306.121	570.12
306.352	583.12
306.582	565.12
306.812	576.12
307.042	570.12
307.272	558.12
307.502	585.12
307.731	553.12
307.961	555.12
308.191	553.12
308.421	531.12
308.651	589.12
308.881	541.12
309.111	599.12
309.341	546.12
309.571	570.12
309.8	573.12
310.03	570.12
310.26	561.12
310.49	573.12
310.72	553.12
310.949	590.12
311.179	592.12
311.409	569.12
311.639	587.12
311.868	573.12
312.098	594.12
312.328	605.12
312.557	581.12
312.787	581.12
313.017	596.12
313.246	606.12
313.476	601.12
313.706	620.12
313.935	601.12
314.165	616.12
314.394	608.12
314.624	609.12
314.853	607.12
315.083	629.12
315.312	634.12
315.542	607.12
315.771	576.12
316.001	605.12
316.23	598.12
316.46	585.12
316.689	608.12
316.919	584.12
317.148	601.12
317.377	589.12
317.607	594.12
317.836	592.12
318.065	570.12
318.295	594.12
318.524	602.12
318.753	582.12
318.983	576.12
319.212	597.12
319.441	608.12
319.67	575.12
319.9	581.12
320.129	603.12
320.358	593.12
320.587	593.12
320.816	576.12
321.046	602.12
321.275	596.12
321.504	602.12
321.733	584.12
321.962	588.12
322.191	602.12
322.42	582.12
322.649	612.12
322.878	587.12
323.108	588.12
323.337	616.12
323.566	604.12
323.795	605.12
324.024	601.12
324.253	603.12
324.482	616.12
324.71	602.12
324.939	613.12
325.168	618.12
325.397	613.12
325.626	623.12
325.855	621.12
326.084	651.12
326.313	684.12
326.542	672.12
326.77	656.12
326.999	634.12
327.228	638.12
327.457	638.12
327.686	639.12
327.914	637.12
328.143	658.12
328.372	658.12
328.6	637.12
328.829	650.12
329.058	651.12
329.287	647.12
329.515	637.12
329.744	657.12
329.972	671.12
330.201	638.12
330.43	670.12
330.658	672.12
330.887	674.12
331.115	668.12
331.344	676.12
331.572	696.12
331.801	706.12
332.03	703.12
332.258	765.12
332.486	772.12
332.715	757.12
332.943	806.12
333.172	848.12
333.4	860.12
333.629	890.12
333.857	888.12
334.085	878.12
334.314	893.12
334.542	845.12
334.771	806.12
334.999	825.12
335.227	806.12
335.455	823.12
335.684	818.12
335.912	825.12
336.14	778.12
336.369	749.12
336.597	804.12
336.825	816.12
337.053	792.12
337.281	756.12
337.51	760.12
337.738	739.12
337.966	726.12
338.194	750.12
338.422	717.12
338.65	705.12
338.878	710.12
339.106	712.12
339.334	712.12
339.562	721.12
339.79	679.12
340.018	685.12
340.246	680.12
340.474	690.12
340.702	690.12
340.93	694.12
341.158	684.12
341.386	684.12
341.614	682.12
341.842	681.12
342.07	678.12
342.298	689.12
342.526	698.12
342.754	676.12
342.981	678.12
343.209	682.12
343.437	736.12
343.665	781.12
343.893	828.12
344.12	883.12
344.348	822.12
344.576	759.12
344.804	763.12
345.031	732.12
345.259	682.12
345.487	701.12
345.714	676.12
345.942	687.12
346.17	693.12
346.397	681.12
346.625	669.12
346.853	692.12
347.08	685.12
347.308	667.12
347.535	694.12
347.763	690.12
347.99	684.12
348.218	676.12
348.445	700.12
348.673	660.12
348.9	680.12
349.128	692.12
349.355	672.12
349.583	654.12
349.81	660.12
350.037	640.12
350.265	634.12
350.492	661.12
350.72	626.12
350.947	637.12
351.174	644.12
351.402	652.12
351.629	637.12
351.856	656.12
352.083	627.12
352.311	631.12
352.538	655.12
352.765	645.12
352.992	594.12
353.22	624.12
353.447	646.12
353.674	665.12
353.901	626.12
354.128	644.12
354.355	645.12
354.583	637.12
354.81	639.12
355.037	646.12
355.264	629.12
355.491	640.12
355.718	635.12
355.945	624.12
356.172	635.12
356.399	635.12
356.626	668.12
356.853	642.12
357.08	651.12
357.307	627.12
357.534	638.12
357.761	640.12
357.988	643.12
358.215	634.12
358.441	646.12
358.668	635.12
358.895	655.12
359.122	646.12
359.349	638.12
359.576	655.12
359.802	643.12
360.029	616.12
360.256	654.12
360.483	646.12
360.709	634.12
360.936	652.12
361.163	634.12
361.39	641.12
361.616	622.12
361.843	653.12
362.07	653.12
362.296	643.12
362.523	654.12
362.749	645.12
362.976	620.12
363.203	638.12
363.429	638.12
363.656	638.12
363.882	643.12
364.109	653.12
364.335	630.12
364.562	633.12
364.788	654.12
365.015	647.12
365.241	640.12
365.468	638.12
365.694	634.12
365.92	632.12
366.147	648.12
366.373	646.12
366.599	626.12
366.826	642.12
367.052	634.12
367.278	640.12
367.505	644.12
367.731	663.12
367.957	654.12
368.184	635.12
368.41	638.12
368.636	652.12
368.862	652.12
369.089	649.12
369.315	644.12
369.541	665.12
369.767	648.12
369.993	700.12
370.219	668.12
370.445	689.12
370.672	677.12
370.898	668.12
371.124	675.12
371.35	694.12
371.576	728.12
371.802	713.12
372.028	692.12
372.254	701.12
372.48	722.12
372.706	702.12
372.932	728.12
373.158	708.12
373.384	711.12
373.61	682.12
373.835	700.12
374.061	702.12
374.287	695.12
374.513	727.12
374.739	734.12
374.965	742.12
375.191	806.12
375.416	768.12
375.642	743.12
375.868	700.12
376.094	742.12
376.319	720.12
376.545	710.12
376.771	722.12
376.997	711.12
377.222	714.12
377.448	721.12
377.674	705.12
377.899	701.12
378.125	711.12
378.35	684.12
378.576	670.12
378.802	673.12
379.027	705.12
379.253	690.12
379.478	695.12
379.704	677.12
379.929	692.12
380.155	685.12
380.38	696.12
380.606	681.12
380.831	680.12
381.057	714.12
381.282	685.12
381.507	703.12
381.733	715.12
381.958	710.12
382.184	724.12
382.409	716.12
382.634	736.12
382.86	717.12
383.085	737.12
383.31	758.12
383.535	782.12
383.761	795.12
383.986	790.12
384.211	823.12
384.436	832.12
384.662	840.12
384.887	837.12
385.112	860.12
385.337	853.12
385.562	851.12
385.787	857.12
386.013	854.12
386.238	865.12
386.463	851.12
386.688	856.12
386.913	833.12
387.138	817.12
387.363	828.12
387.588	807.12
387.813	842.12
388.038	817.12
388.263	825.12
388.488	836.12
388.713	829.12
388.938	825.12
389.163	796.12
389.387	819.12
389.612	839.12
389.837	838.12
390.062	835.12
390.287	811.12
390.512	842.12
390.736	832.12
390.961	845.12
391.186	868.12
391.411	872.12
391.636	932.12
391.86	938.12
392.085	941.12
392.31	942.12
392.534	908.12
392.759	896.12
392.984	870.12
393.208	894.12
393.433	880.12
393.658	905.12
393.882	891.12
394.107	921.12
394.331	905.12
394.556	898.12
394.78	906.12
395.005	892.12
395.229	916.12
395.454	933.12
395.678	970.12
395.903	914.12
396.127	910.12
396.352	880.12
396.576	895.12
396.801	884.12
397.025	891.12
397.249	870.12
397.474	898.12
397.698	939.12
397.922	926.12
398.147	916.12
398.371	943.12
398.595	972.12
398.82	1046.12
399.044	1076.12
399.268	1231.12
399.492	1426.12
399.717	1650.12
399.941	1660.12
400.165	1435.12
400.389	1291.12
400.613	1174.12
400.837	1074.12
401.062	1088.12
401.286	1048.12
401.51	1047.12
401.734	1066.12
401.958	1076.12
402.182	1059.12
402.406	1097.12
402.63	1088.12
402.854	1126.12
403.078	1154.12
403.302	1171.12
403.526	1197.12
403.75	1210.12
403.974	1245.12
404.198	1264.12
404.422	1224.12
404.645	1203.12
404.869	1204.12
405.093	1221.12
405.317	1201.12
405.541	1173.12
405.765	1167.12
405.988	1161.12
406.212	1156.12
406.436	1136.12
406.66	1186.12
406.883	1210.12
407.107	1273.12
407.331	1333.12
407.555	1355.12
407.778	1403.12
408.002	1338.12
408.226	1286.12
408.449	1272.12
408.673	1210.12
408.896	1209.12
409.12	1170.12
409.344	1227.12
409.567	1154.12
409.791	1214.12
410.014	1213.12
410.238	1192.12
410.461	1196.12
410.685	1197.12
410.908	1169.12
411.132	1129.12
411.355	1096.12
411.578	1110.12
411.802	1064.12
412.025	1139.12
412.249	1124.12
412.472	1125.12
412.695	1083.12
412.919	1050.12
413.142	1043.12
413.365	1039.12
413.589	1042.12
413.812	1063.12
414.035	1018.12
414.258	1035.12
414.482	1025.12
414.705	1076.12
414.928	1060.12
415.151	1049.12
415.374	1066.12
415.597	1061.12
415.821	1044.12
416.044	1024.12
416.267	994.12
416.49	1020.12
416.713	1028.12
416.936	1038.12
417.159	1022.12
417.382	1070.12
417.605	1034.12
417.828	1015.12
418.051	1066.12
418.274	1043.12
418.497	988.12
418.72	1064.12
418.943	1062.12
419.166	1149.12
419.389	1251.12
419.611	1178.12
419.834	1132.12
420.057	1109.12
420.28	1080.12
420.503	1026.12
420.726	1043.12
420.948	1035.12
421.171	1041.12
421.394	1033.12
421.617	1042.12
421.839	1019.12
422.062	1037.12
422.285	1047.12
422.507	1081.12
422.73	1060.12
422.953	1068.12
423.175	1098.12
423.398	1115.12
423.621	1099.12
423.843	1083.12
424.066	1105.12
424.288	1131.12
424.511	1128.12
424.733	1124.12
424.956	1090.12
425.178	1073.12
425.401	1078.12
425.623	1076.12
425.846	989.12
426.068	985.12
426.291	960.12
426.513	969.12
426.735	970.12
426.958	968.12
427.18	936.12
427.402	946.12
427.625	960.12
427.847	908.12
428.069	930.12
428.292	956.12
428.514	927.12
428.736	915.12
428.958	916.12
429.181	898.12
429.403	903.12
429.625	888.12
429.847	905.12
430.069	885.12
430.292	908.12
430.514	908.12
430.736	909.12
430.958	909.12
431.18	901.12
431.402	890.12
431.624	924.12
431.846	912.12
432.068	920.12
432.29	935.12
432.512	917.12
432.734	916.12
432.956	902.12
433.178	916.12
433.4	937.12
433.622	937.12
433.844	937.12
434.066	951.12
434.287	957.12
434.509	958.12
434.731	999.12
434.953	1064.12
435.175	1059.12
435.397	1056.12
435.618	1000.12
435.84	965.12
436.062	972.12
436.284	925.12
436.505	932.12
436.727	916.12
436.949	922.12
437.17	941.12
437.392	916.12
437.614	905.12
437.835	901.12
438.057	921.12
438.278	871.12
438.5	859.12
438.721	880.12
438.943	900.12
439.165	902.12
439.386	866.12
439.608	903.12
439.829	928.12
440.05	934.12
440.272	908.12
440.493	962.12
440.715	952.12
440.936	979.12
441.158	984.12
441.379	1024.12
441.6	1053.12
441.822	1064.12
442.043	1084.12
442.264	1046.12
442.486	1026.12
442.707	1040.12
442.928	1055.12
443.149	1042.12
443.371	1020.12
443.592	1057.12
443.813	1048.12
444.034	1049.12
444.255	1084.12
444.476	1146.12
444.698	1208.12
444.919	1264.12
445.14	1338.12
445.361	1188.12
445.582	1072.12
445.803	1041.12
446.024	996.12
446.245	978.12
446.466	947.12
446.687	936.12
446.908	947.12
447.129	918.12
447.35	875.12
447.571	920.12
447.792	894.12
448.013	873.12
448.234	844.12
448.455	877.12
448.675	844.12
448.896	869.12
449.117	850.12
449.338	820.12
449.559	841.12
449.779	838.12
450	835.12
450.221	846.12
450.442	880.12
450.662	886.12
450.883	870.12
451.104	873.12
451.324	881.12
451.545	904.12
451.766	892.12
451.986	858.12
452.207	871.12
452.428	842.12
452.648	876.12
452.869	864.12
453.089	852.12
453.31	845.12
453.53	849.12
453.751	855.12
453.971	837.12
454.192	844.12
454.412	822.12
454.633	855.12
454.853	820.12
455.073	819.12
455.294	823.12
455.514	802.12
455.734	810.12
455.955	798.12
456.175	780.12
456.395	800.12
456.616	785.12
456.836	836.12
457.056	795.12
457.276	772.12
457.497	808.12
457.717	788.12
457.937	809.12
458.157	819.12
458.377	810.12
458.598	846.12
458.818	869.12
459.038	879.12
459.258	898.12
459.478	944.12
459.698	955.12
459.918	978.12
460.138	1053.12
460.358	1106.12
460.578	1117.12
460.798	1083.12
461.018	1129.12
461.238	1095.12
461.458	1083.12
461.678	1087.12
461.898	1113.12
462.118	1129.12
462.338	1212.12
462.558	1197.12
462.777	1234.12
462.997	1380.12
463.217	1541.12
463.437	1572.12
463.657	1408.12
463.876	1285.12
464.096	1334.12
464.316	1346.12
464.536	1327.12
464.755	1280.12
464.975	1232.12
465.195	1163.12
465.414	1054.12
465.634	1010.12
465.854	959.12
466.073	962.12
466.293	951.12
466.512	910.12
466.732	901.12
466.951	883.12
467.171	903.12
467.391	889.12
467.61	909.12
467.829	897.12
468.049	892.12
468.268	884.12
468.488	846.12
468.707	834.12
468.927	861.12
469.146	880.12
469.365	866.12
469.585	896.12
469.804	890.12
470.023	904.12
470.243	915.12
470.462	932.12
470.681	941.12
470.901	923.12
471.12	898.12
471.339	898.12
471.558	916.12
471.777	861.12
471.997	865.12
472.216	844.12
472.435	861.12
472.654	857.12
472.873	832.12
473.092	845.12
473.311	832.12
473.53	852.12
473.749	831.12
473.968	831.12
474.187	834.12
474.406	835.12
474.625	811.12
474.844	836.12
475.063	828.12
475.282	849.12
475.501	870.12
475.72	874.12
475.939	860.12
476.158	862.12
476.377	886.12
476.596	875.12
476.814	914.12
477.033	880.12
477.252	886.12
477.471	919.12
477.69	931.12
477.908	972.12
478.127	980.12
478.346	979.12
478.564	1020.12
478.783	1032.12
479.002	1036.12
479.22	1088.12
479.439	1042.12
479.658	1030.12
479.876	1043.12
480.095	1060.12
480.313	1110.12
480.532	1179.12
480.751	1160.12
480.969	1128.12
481.188	1045.12
481.406	996.12
481.624	975.12
481.843	967.12
482.061	951.12
482.28	948.12
482.498	961.12
482.717	934.12
482.935	954.12
483.153	960.12
483.372	941.12
483.59	962.12
483.808	967.12
484.027	962.12
484.245	970.12
484.463	972.12
484.681	979.12
484.9	997.12
485.118	990.12
485.336	992.12
485.554	996.12
485.772	1024.12
485.99	1044.12
486.209	1045.12
486.427	1034.12
486.645	1047.12
486.863	1026.12
487.081	1041.12
487.299	1045.12
487.517	1041.12
487.735	994.12
487.953	1027.12
488.171	1002.12
488.389	982.12
488.607	989.12
488.825	997.12
489.043	968.12
489.261	1006.12
489.479	985.12
489.696	1002.12
489.914	1014.12
490.132	999.12
490.35	1010.12
490.568	1035.12
490.786	1012.12
491.003	1004.12
491.221	1001.12
491.439	998.12
491.657	1032.12
491.874	1014.12
492.092	1003.12
492.31	1009.12
492.527	1040.12
492.745	1034.12
492.963	1018.12
493.18	1021.12
493.398	1056.12
493.615	1063.12
493.833	1072.12
494.05	1052.12
494.268	1061.12
494.485	1059.12
494.703	1084.12
494.92	1047.12
495.138	1052.12
495.355	1070.12
495.573	1041.12
495.79	1069.12
496.008	1086.12
496.225	1072.12
496.442	1069.12
496.66	1143.12
496.877	1120.12
497.094	1108.12
497.312	1172.12
497.529	1192.12
497.746	1211.12
497.963	1216.12
498.181	1252.12
498.398	1321.12
