Data from Ni(NO3)2Standard.Agarose3%.GreenCap.LampEnergy5.5.E.O_HRD10591_14-40-36-188.txt Node
Date: Mon Jul 22 14:40:36 EDT 2019
User: cochatt
Spectrometer: HR+D1059
Trigger mode: 1
Integration Time (sec): 1.000000E-1
Scans to average: 1
Electric dark correction enabled: true
Nonlinearity correction enabled: false
Boxcar width: 0
XAxis mode: Wavelengths
Number of Pixels in Spectrum: 2048
>>>>>Begin Spectral Data<<<<<
223.165	-20.38
223.4	-20.38
223.635	-20.38
223.869	-20.38
224.104	-29.38
224.338	-25.38
224.573	-13.38
224.808	-7.38
225.042	-2.38
225.277	-3.38
225.511	8.62
225.746	19.62
225.98	7.62
226.215	7.62
226.449	17.62
226.683	16.62
226.918	19.62
227.152	24.62
227.387	38.62
227.621	39.62
227.856	62.62
228.09	44.62
228.324	50.62
228.559	52.62
228.793	73.62
229.027	71.62
229.262	66.62
229.496	76.62
229.73	72.62
229.964	70.62
230.199	80.62
230.433	74.62
230.667	75.62
230.901	76.62
231.136	84.62
231.37	83.62
231.604	80.62
231.838	91.62
232.072	84.62
232.306	96.62
232.541	87.62
232.775	82.62
233.009	88.62
233.243	89.62
233.477	77.62
233.711	96.62
233.945	88.62
234.179	88.62
234.413	88.62
234.647	88.62
234.881	76.62
235.115	84.62
235.349	81.62
235.583	73.62
235.817	92.62
236.051	83.62
236.285	82.62
236.519	76.62
236.753	78.62
236.987	80.62
237.221	78.62
237.455	79.62
237.689	79.62
237.922	80.62
238.156	85.62
238.39	84.62
238.624	82.62
238.858	60.62
239.091	82.62
239.325	88.62
239.559	82.62
239.793	76.62
240.027	82.62
240.26	76.62
240.494	86.62
240.728	74.62
240.961	87.62
241.195	78.62
241.429	81.62
241.662	90.62
241.896	83.62
242.13	88.62
242.363	81.62
242.597	82.62
242.83	92.62
243.064	76.62
243.298	73.62
243.531	79.62
243.765	72.62
243.998	78.62
244.232	76.62
244.465	82.62
244.699	79.62
244.932	70.62
245.166	74.62
245.399	56.62
245.633	91.62
245.866	91.62
246.099	84.62
246.333	84.62
246.566	95.62
246.8	82.62
247.033	78.62
247.266	87.62
247.5	83.62
247.733	80.62
247.966	90.62
248.2	88.62
248.433	99.62
248.666	80.62
248.899	76.62
249.133	78.62
249.366	78.62
249.599	90.62
249.832	72.62
250.066	82.62
250.299	91.62
250.532	104.62
250.765	71.62
250.998	82.62
251.231	75.62
251.465	86.62
251.698	76.62
251.931	83.62
252.164	78.62
252.397	89.62
252.63	84.62
252.863	96.62
253.096	87.62
253.329	83.62
253.562	93.62
253.795	88.62
254.028	89.62
254.261	87.62
254.494	95.62
254.727	95.62
254.96	96.62
255.193	83.62
255.426	83.62
255.659	91.62
255.892	93.62
256.124	79.62
256.357	86.62
256.59	94.62
256.823	98.62
257.056	75.62
257.289	92.62
257.521	87.62
257.754	85.62
257.987	51.62
258.22	96.62
258.452	81.62
258.685	88.62
258.918	93.62
259.151	85.62
259.383	82.62
259.616	81.62
259.849	90.62
260.081	101.62
260.314	89.62
260.547	80.62
260.779	96.62
261.012	82.62
261.244	78.62
261.477	90.62
261.71	87.62
261.942	87.62
262.175	61.62
262.407	77.62
262.64	100.62
262.872	84.62
263.105	81.62
263.337	86.62
263.57	85.62
263.802	86.62
264.035	81.62
264.267	88.62
264.499	85.62
264.732	87.62
264.964	75.62
265.197	84.62
265.429	85.62
265.661	83.62
265.894	92.62
266.126	90.62
266.358	82.62
266.591	76.62
266.823	74.62
267.055	83.62
267.287	87.62
267.52	88.62
267.752	85.62
267.984	105.62
268.216	86.62
268.448	82.62
268.681	83.62
268.913	90.62
269.145	80.62
269.377	81.62
269.609	73.62
269.841	85.62
270.073	91.62
270.306	88.62
270.538	79.62
270.77	82.62
271.002	82.62
271.234	85.62
271.466	97.62
271.698	96.62
271.93	99.62
272.162	95.62
272.394	90.62
272.626	86.62
272.858	81.62
273.09	79.62
273.322	84.62
273.553	76.62
273.785	78.62
274.017	97.62
274.249	80.62
274.481	78.62
274.713	83.62
274.945	87.62
275.176	72.62
275.408	76.62
275.64	93.62
275.872	80.62
276.104	90.62
276.335	86.62
276.567	95.62
276.799	80.62
277.031	85.62
277.262	92.62
277.494	92.62
277.726	80.62
277.957	94.62
278.189	97.62
278.421	76.62
278.652	80.62
278.884	91.62
279.115	85.62
279.347	72.62
279.579	95.62
279.81	87.62
280.042	99.62
280.273	83.62
280.505	87.62
280.736	80.62
280.968	95.62
281.199	88.62
281.431	98.62
281.662	82.62
281.894	87.62
282.125	81.62
282.356	97.62
282.588	74.62
282.819	88.62
283.051	95.62
283.282	87.62
283.513	87.62
283.745	95.62
283.976	83.62
284.207	94.62
284.439	85.62
284.67	75.62
284.901	82.62
285.132	98.62
285.364	94.62
285.595	95.62
285.826	90.62
286.057	89.62
286.288	90.62
286.52	85.62
286.751	86.62
286.982	94.62
287.213	96.62
287.444	79.62
287.675	92.62
287.906	89.62
288.138	80.62
288.369	91.62
288.6	75.62
288.831	74.62
289.062	87.62
289.293	90.62
289.524	93.62
289.755	79.62
289.986	90.62
290.217	94.62
290.448	84.62
290.679	90.62
290.91	90.62
291.141	91.62
291.371	90.62
291.602	91.62
291.833	95.62
292.064	93.62
292.295	91.62
292.526	84.62
292.757	78.62
292.987	73.62
293.218	84.62
293.449	80.62
293.68	89.62
293.91	89.62
294.141	93.62
294.372	75.62
294.603	96.62
294.833	88.62
295.064	94.62
295.295	83.62
295.525	96.62
295.756	87.62
295.987	82.62
296.217	88.62
296.448	91.62
296.679	87.62
296.909	90.62
297.14	90.62
297.37	76.62
297.601	85.62
297.831	80.62
298.062	92.62
298.292	94.62
298.523	87.62
298.753	71.62
298.984	90.62
299.214	86.62
299.445	81.62
299.675	78.62
299.905	94.62
300.136	83.62
300.366	86.62
300.597	88.62
300.827	81.62
301.057	94.62
301.288	98.62
301.518	84.62
301.748	84.62
301.979	83.62
302.209	78.62
302.439	90.62
302.669	93.62
302.9	93.62
303.13	94.62
303.36	78.62
303.59	80.62
303.82	94.62
304.051	97.62
304.281	84.62
304.511	84.62
304.741	87.62
304.971	83.62
305.201	97.62
305.431	92.62
305.661	92.62
305.891	85.62
306.121	80.62
306.352	80.62
306.582	91.62
306.812	95.62
307.042	76.62
307.272	89.62
307.502	94.62
307.731	103.62
307.961	82.62
308.191	81.62
308.421	94.62
308.651	91.62
308.881	98.62
309.111	87.62
309.341	83.62
309.571	86.62
309.8	79.62
310.03	95.62
310.26	80.62
310.49	95.62
310.72	80.62
310.949	80.62
311.179	89.62
311.409	79.62
311.639	91.62
311.868	80.62
312.098	90.62
312.328	89.62
312.557	103.62
312.787	84.62
313.017	81.62
313.246	83.62
313.476	86.62
313.706	86.62
313.935	94.62
314.165	100.62
314.394	84.62
314.624	92.62
314.853	92.62
315.083	96.62
315.312	79.62
315.542	80.62
315.771	104.62
316.001	91.62
316.23	88.62
316.46	89.62
316.689	84.62
316.919	103.62
317.148	91.62
317.377	93.62
317.607	99.62
317.836	100.62
318.065	82.62
318.295	102.62
318.524	76.62
318.753	87.62
318.983	94.62
319.212	84.62
319.441	79.62
319.67	98.62
319.9	76.62
320.129	87.62
320.358	90.62
320.587	91.62
320.816	88.62
321.046	89.62
321.275	82.62
321.504	82.62
321.733	86.62
321.962	96.62
322.191	68.62
322.42	89.62
322.649	71.62
322.878	88.62
323.108	92.62
323.337	90.62
323.566	86.62
323.795	79.62
324.024	93.62
324.253	93.62
324.482	103.62
324.71	92.62
324.939	96.62
325.168	81.62
325.397	100.62
325.626	92.62
325.855	101.62
326.084	86.62
326.313	91.62
326.542	83.62
326.77	80.62
326.999	84.62
327.228	79.62
327.457	79.62
327.686	70.62
327.914	85.62
328.143	82.62
328.372	84.62
328.6	86.62
328.829	85.62
329.058	99.62
329.287	93.62
329.515	80.62
329.744	96.62
329.972	90.62
330.201	90.62
330.43	89.62
330.658	86.62
330.887	98.62
331.115	92.62
331.344	92.62
331.572	101.62
331.801	76.62
332.03	93.62
332.258	90.62
332.486	94.62
332.715	98.62
332.943	85.62
333.172	83.62
333.4	89.62
333.629	89.62
333.857	96.62
334.085	94.62
334.314	94.62
334.542	100.62
334.771	78.62
334.999	84.62
335.227	80.62
335.455	94.62
335.684	84.62
335.912	92.62
336.14	95.62
336.369	73.62
336.597	81.62
336.825	95.62
337.053	90.62
337.281	81.62
337.51	88.62
337.738	87.62
337.966	76.62
338.194	86.62
338.422	74.62
338.65	97.62
338.878	93.62
339.106	99.62
339.334	95.62
339.562	91.62
339.79	88.62
340.018	89.62
340.246	88.62
340.474	99.62
340.702	83.62
340.93	82.62
341.158	95.62
341.386	93.62
341.614	83.62
341.842	99.62
342.07	80.62
342.298	83.62
342.526	94.62
342.754	93.62
342.981	90.62
343.209	90.62
343.437	91.62
343.665	74.62
343.893	84.62
344.12	92.62
344.348	90.62
344.576	85.62
344.804	98.62
345.031	95.62
345.259	94.62
345.487	97.62
345.714	98.62
345.942	79.62
346.17	97.62
346.397	93.62
346.625	88.62
346.853	93.62
347.08	103.62
347.308	97.62
347.535	85.62
347.763	83.62
347.99	87.62
348.218	97.62
348.445	79.62
348.673	96.62
348.9	75.62
349.128	90.62
349.355	104.62
349.583	79.62
349.81	77.62
350.037	79.62
350.265	87.62
350.492	96.62
350.72	89.62
350.947	83.62
351.174	90.62
351.402	94.62
351.629	89.62
351.856	79.62
352.083	74.62
352.311	86.62
352.538	85.62
352.765	84.62
352.992	76.62
353.22	97.62
353.447	83.62
353.674	90.62
353.901	84.62
354.128	79.62
354.355	88.62
354.583	90.62
354.81	95.62
355.037	87.62
355.264	89.62
355.491	82.62
355.718	88.62
355.945	92.62
356.172	83.62
356.399	94.62
356.626	79.62
356.853	98.62
357.08	88.62
357.307	89.62
357.534	93.62
357.761	84.62
357.988	85.62
358.215	92.62
358.441	96.62
358.668	107.62
358.895	91.62
359.122	86.62
359.349	84.62
359.576	94.62
359.802	92.62
360.029	99.62
360.256	82.62
360.483	87.62
360.709	89.62
360.936	89.62
361.163	86.62
361.39	80.62
361.616	90.62
361.843	84.62
362.07	87.62
362.296	98.62
362.523	87.62
362.749	93.62
362.976	72.62
363.203	89.62
363.429	82.62
363.656	100.62
363.882	81.62
364.109	92.62
364.335	91.62
364.562	90.62
364.788	92.62
365.015	83.62
365.241	85.62
365.468	98.62
365.694	75.62
365.92	99.62
366.147	92.62
366.373	91.62
366.599	91.62
366.826	82.62
367.052	90.62
367.278	94.62
367.505	85.62
367.731	86.62
367.957	96.62
368.184	96.62
368.41	90.62
368.636	85.62
368.862	78.62
369.089	90.62
369.315	83.62
369.541	81.62
369.767	89.62
369.993	89.62
370.219	78.62
370.445	79.62
370.672	83.62
370.898	93.62
371.124	90.62
371.35	78.62
371.576	83.62
371.802	87.62
372.028	105.62
372.254	80.62
372.48	68.62
372.706	87.62
372.932	91.62
373.158	84.62
373.384	95.62
373.61	65.62
373.835	91.62
374.061	79.62
374.287	98.62
374.513	90.62
374.739	91.62
374.965	73.62
375.191	91.62
375.416	92.62
375.642	84.62
375.868	87.62
376.094	76.62
376.319	82.62
376.545	84.62
376.771	88.62
376.997	87.62
377.222	87.62
377.448	95.62
377.674	82.62
377.899	84.62
378.125	96.62
378.35	76.62
378.576	92.62
378.802	106.62
379.027	94.62
379.253	89.62
379.478	93.62
379.704	91.62
379.929	79.62
380.155	82.62
380.38	81.62
380.606	84.62
380.831	87.62
381.057	93.62
381.282	84.62
381.507	90.62
381.733	85.62
381.958	97.62
382.184	95.62
382.409	96.62
382.634	92.62
382.86	89.62
383.085	82.62
383.31	96.62
383.535	88.62
383.761	86.62
383.986	96.62
384.211	91.62
384.436	88.62
384.662	94.62
384.887	87.62
385.112	94.62
385.337	97.62
385.562	102.62
385.787	95.62
386.013	86.62
386.238	80.62
386.463	95.62
386.688	94.62
386.913	101.62
387.138	74.62
387.363	87.62
387.588	94.62
387.813	86.62
388.038	79.62
388.263	98.62
388.488	78.62
388.713	93.62
388.938	83.62
389.163	81.62
389.387	74.62
389.612	93.62
389.837	92.62
390.062	91.62
390.287	93.62
390.512	90.62
390.736	94.62
390.961	91.62
391.186	80.62
391.411	99.62
391.636	95.62
391.86	91.62
392.085	95.62
392.31	94.62
392.534	94.62
392.759	83.62
392.984	83.62
393.208	88.62
393.433	94.62
393.658	87.62
393.882	90.62
394.107	91.62
394.331	95.62
394.556	100.62
394.78	83.62
395.005	86.62
395.229	86.62
395.454	107.62
395.678	94.62
395.903	97.62
396.127	94.62
396.352	88.62
396.576	89.62
396.801	100.62
397.025	87.62
397.249	90.62
397.474	78.62
397.698	101.62
397.922	91.62
398.147	89.62
398.371	88.62
398.595	87.62
398.82	91.62
399.044	87.62
399.268	91.62
399.492	82.62
399.717	96.62
399.941	93.62
400.165	80.62
400.389	81.62
400.613	84.62
400.837	85.62
401.062	86.62
401.286	98.62
401.51	87.62
401.734	94.62
401.958	94.62
402.182	88.62
402.406	99.62
402.63	101.62
402.854	81.62
403.078	84.62
403.302	71.62
403.526	89.62
403.75	80.62
403.974	87.62
404.198	81.62
404.422	91.62
404.645	80.62
404.869	95.62
405.093	98.62
405.317	102.62
405.541	94.62
405.765	98.62
405.988	94.62
406.212	70.62
406.436	92.62
406.66	79.62
406.883	93.62
407.107	79.62
407.331	83.62
407.555	88.62
407.778	92.62
408.002	94.62
408.226	88.62
408.449	89.62
408.673	84.62
408.896	98.62
409.12	80.62
409.344	91.62
409.567	92.62
409.791	78.62
410.014	94.62
410.238	98.62
410.461	76.62
410.685	95.62
410.908	101.62
411.132	87.62
411.355	80.62
411.578	84.62
411.802	86.62
412.025	85.62
412.249	95.62
412.472	78.62
412.695	83.62
412.919	84.62
413.142	99.62
413.365	95.62
413.589	92.62
413.812	86.62
414.035	90.62
414.258	85.62
414.482	99.62
414.705	104.62
414.928	98.62
415.151	89.62
415.374	100.62
415.597	98.62
415.821	91.62
416.044	101.62
416.267	88.62
416.49	95.62
416.713	110.62
416.936	90.62
417.159	95.62
417.382	88.62
417.605	101.62
417.828	92.62
418.051	92.62
418.274	80.62
418.497	93.62
418.72	98.62
418.943	106.62
419.166	84.62
419.389	91.62
419.611	92.62
419.834	84.62
420.057	92.62
420.28	94.62
420.503	88.62
420.726	93.62
420.948	77.62
421.171	73.62
421.394	94.62
421.617	93.62
421.839	86.62
422.062	93.62
422.285	80.62
422.507	101.62
422.73	100.62
422.953	86.62
423.175	94.62
423.398	109.62
423.621	91.62
423.843	86.62
424.066	85.62
424.288	92.62
424.511	91.62
424.733	104.62
424.956	78.62
425.178	93.62
425.401	91.62
425.623	94.62
425.846	76.62
426.068	64.62
426.291	85.62
426.513	90.62
426.735	97.62
426.958	90.62
427.18	87.62
427.402	95.62
427.625	79.62
427.847	88.62
428.069	89.62
428.292	95.62
428.514	92.62
428.736	85.62
428.958	73.62
429.181	99.62
429.403	96.62
429.625	92.62
429.847	92.62
430.069	95.62
430.292	89.62
430.514	92.62
430.736	86.62
430.958	95.62
431.18	91.62
431.402	100.62
431.624	82.62
431.846	104.62
432.068	67.62
432.29	99.62
432.512	86.62
432.734	94.62
432.956	85.62
433.178	88.62
433.4	79.62
433.622	84.62
433.844	95.62
434.066	85.62
434.287	84.62
434.509	99.62
434.731	81.62
434.953	77.62
435.175	82.62
435.397	90.62
435.618	80.62
435.84	98.62
436.062	86.62
436.284	98.62
436.505	96.62
436.727	93.62
436.949	77.62
437.17	100.62
437.392	73.62
437.614	95.62
437.835	94.62
438.057	89.62
438.278	81.62
438.5	82.62
438.721	90.62
438.943	111.62
439.165	98.62
439.386	94.62
439.608	82.62
439.829	66.62
440.05	106.62
440.272	96.62
440.493	102.62
440.715	84.62
440.936	91.62
441.158	98.62
441.379	78.62
441.6	90.62
441.822	106.62
442.043	88.62
442.264	85.62
442.486	91.62
442.707	98.62
442.928	105.62
443.149	103.62
443.371	87.62
443.592	90.62
443.813	93.62
444.034	95.62
444.255	83.62
444.476	110.62
444.698	86.62
444.919	91.62
445.14	194.62
445.361	140.62
445.582	97.62
445.803	85.62
446.024	89.62
446.245	100.62
446.466	91.62
446.687	84.62
446.908	79.62
447.129	84.62
447.35	87.62
447.571	98.62
447.792	83.62
448.013	84.62
448.234	88.62
448.455	98.62
448.675	95.62
448.896	91.62
449.117	93.62
449.338	90.62
449.559	95.62
449.779	87.62
450	98.62
450.221	86.62
450.442	87.62
450.662	100.62
450.883	94.62
451.104	98.62
451.324	77.62
451.545	86.62
451.766	83.62
451.986	93.62
452.207	86.62
452.428	96.62
452.648	87.62
452.869	88.62
453.089	87.62
453.31	91.62
453.53	90.62
453.751	81.62
453.971	83.62
454.192	95.62
454.412	91.62
454.633	85.62
454.853	95.62
455.073	81.62
455.294	78.62
455.514	94.62
455.734	99.62
455.955	91.62
456.175	91.62
456.395	81.62
456.616	84.62
456.836	83.62
457.056	90.62
457.276	78.62
457.497	88.62
457.717	80.62
457.937	85.62
458.157	80.62
458.377	93.62
458.598	87.62
458.818	79.62
459.038	85.62
459.258	90.62
459.478	95.62
459.698	92.62
459.918	86.62
460.138	96.62
460.358	94.62
460.578	83.62
460.798	89.62
461.018	95.62
461.238	94.62
461.458	97.62
461.678	107.62
461.898	101.62
462.118	79.62
462.338	82.62
462.558	96.62
462.777	111.62
462.997	99.62
463.217	84.62
463.437	86.62
463.657	87.62
463.876	103.62
464.096	93.62
464.316	87.62
464.536	91.62
464.755	95.62
464.975	100.62
465.195	93.62
465.414	90.62
465.634	88.62
465.854	89.62
466.073	101.62
466.293	90.62
466.512	92.62
466.732	86.62
466.951	97.62
467.171	95.62
467.391	90.62
467.61	98.62
467.829	102.62
468.049	95.62
468.268	89.62
468.488	78.62
468.707	88.62
468.927	72.62
469.146	88.62
469.365	91.62
469.585	105.62
469.804	98.62
470.023	90.62
470.243	94.62
470.462	95.62
470.681	95.62
470.901	86.62
471.12	90.62
471.339	101.62
471.558	88.62
471.777	97.62
471.997	92.62
472.216	103.62
472.435	82.62
472.654	101.62
472.873	88.62
473.092	81.62
473.311	87.62
473.53	81.62
473.749	89.62
473.968	95.62
474.187	98.62
474.406	101.62
474.625	95.62
474.844	90.62
475.063	87.62
475.282	77.62
475.501	75.62
475.72	91.62
475.939	90.62
476.158	118.62
476.377	102.62
476.596	91.62
476.814	80.62
477.033	91.62
477.252	84.62
477.471	83.62
477.69	83.62
477.908	101.62
478.127	95.62
478.346	98.62
478.564	99.62
478.783	94.62
479.002	91.62
479.22	106.62
479.439	89.62
479.658	102.62
479.876	111.62
480.095	89.62
480.313	90.62
480.532	97.62
480.751	90.62
480.969	91.62
481.188	90.62
481.406	86.62
481.624	81.62
481.843	99.62
482.061	96.62
482.28	94.62
482.498	81.62
482.717	98.62
482.935	88.62
483.153	85.62
483.372	102.62
483.59	100.62
483.808	90.62
484.027	97.62
484.245	100.62
484.463	94.62
484.681	98.62
484.9	100.62
485.118	83.62
485.336	99.62
485.554	80.62
485.772	90.62
485.99	96.62
486.209	87.62
486.427	83.62
486.645	85.62
486.863	99.62
487.081	85.62
487.299	106.62
487.517	121.62
487.735	91.62
487.953	101.62
488.171	99.62
488.389	91.62
488.607	85.62
488.825	108.62
489.043	89.62
489.261	96.62
489.479	91.62
489.696	84.62
489.914	93.62
490.132	101.62
490.35	95.62
490.568	95.62
490.786	90.62
491.003	92.62
491.221	97.62
491.439	97.62
491.657	106.62
491.874	98.62
492.092	93.62
492.31	95.62
492.527	87.62
492.745	85.62
492.963	100.62
493.18	102.62
493.398	94.62
493.615	93.62
493.833	98.62
494.05	91.62
494.268	86.62
494.485	90.62
494.703	99.62
494.92	86.62
495.138	97.62
495.355	105.62
495.573	86.62
495.79	104.62
496.008	81.62
496.225	90.62
496.442	104.62
496.66	100.62
496.877	91.62
497.094	103.62
497.312	99.62
497.529	80.62
497.746	112.62
497.963	96.62
498.181	105.62
498.398	92.62
498.615	86.62
498.832	98.62
499.049	103.62
499.267	112.62
499.484	100.62
499.701	86.62
499.918	113.62
500.135	98.62
500.352	112.62
500.569	109.62
500.786	120.62
501.003	106.62
501.22	110.62
501.437	106.62
501.654	111.62
501.871	103.62
502.088	109.62
502.305	106.62
502.522	105.62
502.739	100.62
502.956	103.62
503.172	99.62
503.389	111.62
503.606	77.62
503.823	99.62
504.04	104.62
504.256	81.62
504.473	98.62
504.69	104.62
504.907	109.62
505.123	101.62
505.34	98.62
505.557	83.62
505.773	114.62
505.99	103.62
506.207	103.62
506.423	87.62
506.64	91.62
506.856	87.62
507.073	99.62
507.289	97.62
507.506	87.62
507.722	106.62
507.939	93.62
508.155	85.62
508.372	92.62
508.588	105.62
508.805	105.62
509.021	95.62
509.238	91.62
509.454	77.62
509.67	98.62
509.887	103.62
510.103	100.62
510.319	88.62
510.536	105.62
510.752	89.62
510.968	93.62
511.184	85.62
511.401	88.62
511.617	88.62
511.833	104.62
512.049	102.62
512.265	100.62
512.481	86.62
512.698	85.62
512.914	87.62
513.13	90.62
513.346	92.62
513.562	94.62
513.778	102.62
513.994	99.62
514.21	95.62
514.426	100.62
514.642	96.62
514.858	99.62
515.074	90.62
515.29	85.62
515.506	101.62
515.721	93.62
515.937	97.62
516.153	90.62
516.369	100.62
516.585	103.62
516.801	88.62
517.016	74.62
517.232	97.62
517.448	99.62
517.664	96.62
