Data from Ni(NO3)2@0.0625M.TitratingCurve.Agarose3%dH2O.NegLispCup.LampEnergy10.LIBS07252019_HRD10591_18-15-20-570.txt Node
Date: Thu Jul 25 18:15:20 EDT 2019
User: cochatt
Spectrometer: HR+D1059
Trigger mode: 1
Integration Time (sec): 1.000000E-1
Scans to average: 1
Electric dark correction enabled: true
Nonlinearity correction enabled: false
Boxcar width: 0
XAxis mode: Wavelengths
Number of Pixels in Spectrum: 2048
>>>>>Begin Spectral Data<<<<<
223.165	-15.25
223.4	-15.25
223.635	-15.25
223.869	-16.25
224.104	-8.25
224.338	-25.25
224.573	-17.25
224.808	-18.25
225.042	-5.25
225.277	-2.25
225.511	-10.25
225.746	-3.25
225.98	-3.25
226.215	17.75
226.449	18.75
226.683	27.75
226.918	19.75
227.152	40.75
227.387	31.75
227.621	37.75
227.856	47.75
228.09	42.75
228.324	45.75
228.559	56.75
228.793	54.75
229.027	103.75
229.262	86.75
229.496	80.75
229.73	98.75
229.964	111.75
230.199	123.75
230.433	115.75
230.667	111.75
230.901	119.75
231.136	127.75
231.37	114.75
231.604	127.75
231.838	124.75
232.072	126.75
232.306	118.75
232.541	132.75
232.775	120.75
233.009	113.75
233.243	126.75
233.477	144.75
233.711	135.75
233.945	129.75
234.179	147.75
234.413	130.75
234.647	134.75
234.881	132.75
235.115	124.75
235.349	147.75
235.583	136.75
235.817	133.75
236.051	126.75
236.285	135.75
236.519	121.75
236.753	148.75
236.987	140.75
237.221	138.75
237.455	131.75
237.689	140.75
237.922	135.75
238.156	121.75
238.39	147.75
238.624	149.75
238.858	139.75
239.091	134.75
239.325	143.75
239.559	145.75
239.793	148.75
240.027	148.75
240.26	133.75
240.494	155.75
240.728	148.75
240.961	151.75
241.195	158.75
241.429	146.75
241.662	152.75
241.896	145.75
242.13	157.75
242.363	165.75
242.597	160.75
242.83	180.75
243.064	155.75
243.298	167.75
243.531	168.75
243.765	169.75
243.998	170.75
244.232	173.75
244.465	161.75
244.699	178.75
244.932	153.75
245.166	188.75
245.399	189.75
245.633	199.75
245.866	188.75
246.099	180.75
246.333	178.75
246.566	165.75
246.8	181.75
247.033	197.75
247.266	183.75
247.5	183.75
247.733	185.75
247.966	194.75
248.2	195.75
248.433	187.75
248.666	189.75
248.899	184.75
249.133	206.75
249.366	194.75
249.599	204.75
249.832	215.75
250.066	207.75
250.299	184.75
250.532	191.75
250.765	195.75
250.998	203.75
251.231	218.75
251.465	205.75
251.698	217.75
251.931	218.75
252.164	208.75
252.397	205.75
252.63	223.75
252.863	226.75
253.096	233.75
253.329	215.75
253.562	235.75
253.795	218.75
254.028	213.75
254.261	230.75
254.494	228.75
254.727	221.75
254.96	219.75
255.193	229.75
255.426	216.75
255.659	226.75
255.892	223.75
256.124	235.75
256.357	231.75
256.59	227.75
256.823	228.75
257.056	223.75
257.289	234.75
257.521	250.75
257.754	234.75
257.987	241.75
258.22	259.75
258.452	246.75
258.685	245.75
258.918	233.75
259.151	234.75
259.383	251.75
259.616	246.75
259.849	247.75
260.081	241.75
260.314	268.75
260.547	245.75
260.779	264.75
261.012	248.75
261.244	259.75
261.477	266.75
261.71	269.75
261.942	257.75
262.175	252.75
262.407	244.75
262.64	273.75
262.872	247.75
263.105	262.75
263.337	263.75
263.57	268.75
263.802	265.75
264.035	263.75
264.267	250.75
264.499	267.75
264.732	273.75
264.964	277.75
265.197	269.75
265.429	276.75
265.661	277.75
265.894	298.75
266.126	289.75
266.358	275.75
266.591	286.75
266.823	292.75
267.055	261.75
267.287	288.75
267.52	280.75
267.752	297.75
267.984	295.75
268.216	303.75
268.448	284.75
268.681	287.75
268.913	291.75
269.145	296.75
269.377	287.75
269.609	300.75
269.841	294.75
270.073	296.75
270.306	313.75
270.538	282.75
270.77	283.75
271.002	307.75
271.234	301.75
271.466	293.75
271.698	304.75
271.93	301.75
272.162	290.75
272.394	327.75
272.626	311.75
272.858	298.75
273.09	313.75
273.322	292.75
273.553	303.75
273.785	321.75
274.017	314.75
274.249	303.75
274.481	324.75
274.713	309.75
274.945	316.75
275.176	323.75
275.408	327.75
275.64	328.75
275.872	322.75
276.104	330.75
276.335	308.75
276.567	324.75
276.799	331.75
277.031	316.75
277.262	340.75
277.494	327.75
277.726	325.75
277.957	356.75
278.189	325.75
278.421	328.75
278.652	340.75
278.884	331.75
279.115	330.75
279.347	349.75
279.579	351.75
279.81	354.75
280.042	348.75
280.273	353.75
280.505	341.75
280.736	358.75
280.968	325.75
281.199	355.75
281.431	351.75
281.662	367.75
281.894	361.75
282.125	371.75
282.356	367.75
282.588	360.75
282.819	360.75
283.051	368.75
283.282	354.75
283.513	375.75
283.745	381.75
283.976	374.75
284.207	363.75
284.439	371.75
284.67	370.75
284.901	373.75
285.132	364.75
285.364	388.75
285.595	379.75
285.826	384.75
286.057	381.75
286.288	389.75
286.52	373.75
286.751	374.75
286.982	371.75
287.213	378.75
287.444	383.75
287.675	380.75
287.906	404.75
288.138	391.75
288.369	389.75
288.6	386.75
288.831	394.75
289.062	398.75
289.293	392.75
289.524	390.75
289.755	402.75
289.986	405.75
290.217	402.75
290.448	414.75
290.679	410.75
290.91	393.75
291.141	406.75
291.371	401.75
291.602	428.75
291.833	410.75
292.064	412.75
292.295	413.75
292.526	413.75
292.757	409.75
292.987	428.75
293.218	422.75
293.449	421.75
293.68	408.75
293.91	403.75
294.141	404.75
294.372	408.75
294.603	429.75
294.833	420.75
295.064	407.75
295.295	406.75
295.525	431.75
295.756	406.75
295.987	443.75
296.217	437.75
296.448	440.75
296.679	419.75
296.909	445.75
297.14	456.75
297.37	462.75
297.601	460.75
297.831	428.75
298.062	434.75
298.292	437.75
298.523	455.75
298.753	440.75
298.984	435.75
299.214	458.75
299.445	465.75
299.675	460.75
299.905	455.75
300.136	443.75
300.366	469.75
300.597	471.75
300.827	471.75
301.057	469.75
301.288	472.75
301.518	465.75
301.748	464.75
301.979	472.75
302.209	483.75
302.439	469.75
302.669	453.75
302.9	459.75
303.13	459.75
303.36	458.75
303.59	453.75
303.82	451.75
304.051	462.75
304.281	468.75
304.511	461.75
304.741	468.75
304.971	463.75
305.201	473.75
305.431	473.75
305.661	474.75
305.891	456.75
306.121	460.75
306.352	457.75
306.582	454.75
306.812	426.75
307.042	449.75
307.272	451.75
307.502	452.75
307.731	473.75
307.961	457.75
308.191	436.75
308.421	451.75
308.651	457.75
308.881	457.75
309.111	452.75
309.341	451.75
309.571	461.75
309.8	451.75
310.03	458.75
310.26	446.75
310.49	441.75
310.72	459.75
310.949	453.75
311.179	461.75
311.409	451.75
311.639	446.75
311.868	469.75
312.098	482.75
312.328	497.75
312.557	469.75
312.787	487.75
313.017	476.75
313.246	484.75
313.476	487.75
313.706	480.75
313.935	486.75
314.165	476.75
314.394	476.75
314.624	491.75
314.853	486.75
315.083	492.75
315.312	520.75
315.542	485.75
315.771	475.75
316.001	472.75
316.23	476.75
316.46	459.75
316.689	460.75
316.919	462.75
317.148	445.75
317.377	455.75
317.607	468.75
317.836	467.75
318.065	471.75
318.295	498.75
318.524	466.75
318.753	470.75
318.983	475.75
319.212	466.75
319.441	464.75
319.67	497.75
319.9	468.75
320.129	483.75
320.358	467.75
320.587	466.75
320.816	488.75
321.046	473.75
321.275	493.75
321.504	460.75
321.733	453.75
321.962	476.75
322.191	469.75
322.42	487.75
322.649	507.75
322.878	477.75
323.108	500.75
323.337	491.75
323.566	503.75
323.795	482.75
324.024	481.75
324.253	498.75
324.482	483.75
324.71	496.75
324.939	504.75
325.168	504.75
325.397	501.75
325.626	512.75
325.855	526.75
326.084	529.75
326.313	509.75
326.542	513.75
326.77	545.75
326.999	531.75
327.228	525.75
327.457	524.75
327.686	510.75
327.914	530.75
328.143	538.75
328.372	520.75
328.6	529.75
328.829	521.75
329.058	513.75
329.287	520.75
329.515	545.75
329.744	540.75
329.972	529.75
330.201	532.75
330.43	536.75
330.658	529.75
330.887	547.75
331.115	520.75
331.344	550.75
331.572	592.75
331.801	567.75
332.03	583.75
332.258	585.75
332.486	597.75
332.715	633.75
332.943	628.75
333.172	640.75
333.4	677.75
333.629	715.75
333.857	703.75
334.085	721.75
334.314	696.75
334.542	666.75
334.771	700.75
334.999	651.75
335.227	652.75
335.455	631.75
335.684	664.75
335.912	634.75
336.14	629.75
336.369	626.75
336.597	650.75
336.825	635.75
337.053	627.75
337.281	630.75
337.51	609.75
337.738	590.75
337.966	595.75
338.194	571.75
338.422	583.75
338.65	567.75
338.878	560.75
339.106	564.75
339.334	581.75
339.562	564.75
339.79	544.75
340.018	550.75
340.246	550.75
340.474	558.75
340.702	555.75
340.93	538.75
341.158	552.75
341.386	568.75
341.614	562.75
341.842	561.75
342.07	536.75
342.298	548.75
342.526	535.75
342.754	545.75
342.981	553.75
343.209	554.75
343.437	589.75
343.665	602.75
343.893	665.75
344.12	668.75
344.348	676.75
344.576	655.75
344.804	615.75
345.031	563.75
345.259	579.75
345.487	559.75
345.714	561.75
345.942	580.75
346.17	583.75
346.397	557.75
346.625	531.75
346.853	532.75
347.08	559.75
347.308	539.75
347.535	535.75
347.763	570.75
347.99	548.75
348.218	540.75
348.445	544.75
348.673	531.75
348.9	541.75
349.128	541.75
349.355	535.75
349.583	566.75
349.81	530.75
350.037	531.75
350.265	537.75
350.492	513.75
350.72	524.75
350.947	532.75
351.174	544.75
351.402	528.75
351.629	524.75
351.856	543.75
352.083	534.75
352.311	531.75
352.538	506.75
352.765	535.75
352.992	511.75
353.22	509.75
353.447	523.75
353.674	505.75
353.901	510.75
354.128	507.75
354.355	505.75
354.583	518.75
354.81	491.75
355.037	509.75
355.264	502.75
355.491	518.75
355.718	520.75
355.945	533.75
356.172	502.75
356.399	513.75
356.626	529.75
356.853	530.75
357.08	525.75
357.307	528.75
357.534	515.75
357.761	523.75
357.988	532.75
358.215	533.75
358.441	528.75
358.668	524.75
358.895	501.75
359.122	507.75
359.349	506.75
359.576	522.75
359.802	523.75
360.029	522.75
360.256	532.75
360.483	535.75
360.709	536.75
360.936	528.75
361.163	532.75
361.39	533.75
361.616	526.75
361.843	529.75
362.07	530.75
362.296	535.75
362.523	532.75
362.749	505.75
362.976	526.75
363.203	506.75
363.429	533.75
363.656	512.75
363.882	501.75
364.109	509.75
364.335	525.75
364.562	513.75
364.788	539.75
365.015	511.75
365.241	520.75
365.468	532.75
365.694	500.75
365.92	529.75
366.147	517.75
366.373	519.75
366.599	520.75
366.826	490.75
367.052	513.75
367.278	523.75
367.505	535.75
367.731	530.75
367.957	531.75
368.184	511.75
368.41	535.75
368.636	513.75
368.862	515.75
369.089	547.75
369.315	511.75
369.541	531.75
369.767	545.75
369.993	570.75
370.219	511.75
370.445	538.75
370.672	563.75
370.898	540.75
371.124	545.75
371.35	559.75
371.576	563.75
371.802	564.75
372.028	559.75
372.254	549.75
372.48	572.75
372.706	559.75
372.932	575.75
373.158	594.75
373.384	575.75
373.61	565.75
373.835	569.75
374.061	558.75
374.287	592.75
374.513	556.75
374.739	625.75
374.965	617.75
375.191	618.75
375.416	624.75
375.642	618.75
375.868	613.75
376.094	592.75
376.319	590.75
376.545	584.75
376.771	563.75
376.997	568.75
377.222	576.75
377.448	560.75
377.674	580.75
377.899	568.75
378.125	569.75
378.35	564.75
378.576	561.75
378.802	561.75
379.027	573.75
379.253	560.75
379.478	554.75
379.704	555.75
379.929	550.75
380.155	578.75
380.38	552.75
380.606	519.75
380.831	561.75
381.057	551.75
381.282	572.75
381.507	547.75
381.733	568.75
381.958	556.75
382.184	571.75
382.409	567.75
382.634	572.75
382.86	587.75
383.085	575.75
383.31	594.75
383.535	620.75
383.761	610.75
383.986	626.75
384.211	643.75
384.436	660.75
384.662	639.75
384.887	660.75
385.112	654.75
385.337	663.75
385.562	661.75
385.787	668.75
386.013	670.75
386.238	671.75
386.463	664.75
386.688	675.75
386.913	668.75
387.138	637.75
387.363	673.75
387.588	681.75
387.813	654.75
388.038	635.75
388.263	671.75
388.488	661.75
388.713	648.75
388.938	647.75
389.163	645.75
389.387	643.75
389.612	671.75
389.837	653.75
390.062	650.75
390.287	664.75
390.512	653.75
390.736	658.75
390.961	684.75
391.186	679.75
391.411	697.75
391.636	713.75
391.86	721.75
392.085	767.75
392.31	756.75
392.534	738.75
392.759	705.75
392.984	710.75
393.208	722.75
393.433	710.75
393.658	687.75
393.882	726.75
394.107	728.75
394.331	715.75
394.556	703.75
394.78	712.75
395.005	717.75
395.229	706.75
395.454	727.75
395.678	763.75
395.903	751.75
396.127	723.75
396.352	722.75
396.576	701.75
396.801	684.75
397.025	710.75
397.249	715.75
397.474	744.75
397.698	741.75
397.922	756.75
398.147	729.75
398.371	743.75
398.595	766.75
398.82	808.75
399.044	868.75
399.268	949.75
399.492	1114.75
399.717	1250.75
399.941	1265.75
400.165	1083.75
400.389	997.75
400.613	921.75
400.837	873.75
401.062	845.75
401.286	836.75
401.51	834.75
401.734	826.75
401.958	832.75
402.182	817.75
402.406	845.75
402.63	861.75
402.854	889.75
403.078	909.75
403.302	899.75
403.526	939.75
403.75	973.75
403.974	982.75
404.198	991.75
404.422	970.75
404.645	961.75
404.869	930.75
405.093	929.75
405.317	906.75
405.541	922.75
405.765	937.75
405.988	915.75
406.212	908.75
406.436	917.75
406.66	952.75
406.883	939.75
407.107	975.75
407.331	1044.75
407.555	1081.75
407.778	1061.75
408.002	1034.75
408.226	1010.75
408.449	1001.75
408.673	979.75
408.896	944.75
409.12	959.75
409.344	962.75
409.567	928.75
409.791	959.75
410.014	959.75
410.238	945.75
410.461	941.75
410.685	925.75
410.908	907.75
411.132	901.75
411.355	851.75
411.578	823.75
411.802	867.75
412.025	861.75
412.249	903.75
412.472	849.75
412.695	822.75
412.919	804.75
413.142	831.75
413.365	811.75
413.589	828.75
413.812	833.75
414.035	790.75
414.258	815.75
414.482	815.75
414.705	816.75
414.928	826.75
415.151	827.75
415.374	822.75
415.597	801.75
415.821	824.75
416.044	820.75
416.267	824.75
416.49	799.75
416.713	799.75
416.936	789.75
417.159	786.75
417.382	817.75
417.605	827.75
417.828	822.75
418.051	821.75
418.274	844.75
418.497	808.75
418.72	838.75
418.943	819.75
419.166	899.75
419.389	969.75
419.611	919.75
419.834	892.75
420.057	848.75
420.28	827.75
420.503	794.75
420.726	797.75
420.948	805.75
421.171	785.75
421.394	807.75
421.617	828.75
421.839	819.75
422.062	797.75
422.285	813.75
422.507	839.75
422.73	834.75
422.953	834.75
423.175	854.75
423.398	886.75
423.621	866.75
423.843	911.75
424.066	881.75
424.288	861.75
424.511	857.75
424.733	851.75
424.956	824.75
425.178	816.75
425.401	817.75
425.623	830.75
425.846	785.75
426.068	796.75
426.291	784.75
426.513	751.75
426.735	779.75
426.958	763.75
427.18	724.75
427.402	767.75
427.625	743.75
427.847	735.75
428.069	749.75
428.292	746.75
428.514	730.75
428.736	734.75
428.958	742.75
429.181	716.75
429.403	690.75
429.625	698.75
429.847	711.75
430.069	716.75
430.292	714.75
430.514	732.75
430.736	724.75
430.958	713.75
431.18	709.75
431.402	703.75
431.624	735.75
431.846	733.75
432.068	752.75
432.29	748.75
432.512	728.75
432.734	729.75
432.956	716.75
433.178	741.75
433.4	755.75
433.622	748.75
433.844	755.75
434.066	754.75
434.287	775.75
434.509	795.75
434.731	804.75
434.953	818.75
435.175	849.75
435.397	860.75
435.618	802.75
435.84	765.75
436.062	749.75
436.284	738.75
436.505	751.75
436.727	780.75
436.949	754.75
437.17	741.75
437.392	727.75
437.614	733.75
437.835	726.75
438.057	737.75
438.278	698.75
438.5	716.75
438.721	728.75
438.943	712.75
439.165	703.75
439.386	712.75
439.608	756.75
439.829	741.75
440.05	760.75
440.272	746.75
440.493	759.75
440.715	789.75
440.936	781.75
441.158	799.75
441.379	789.75
441.6	812.75
441.822	829.75
442.043	855.75
442.264	817.75
442.486	812.75
442.707	845.75
442.928	799.75
443.149	817.75
443.371	829.75
443.592	800.75
443.813	844.75
444.034	833.75
444.255	873.75
444.476	892.75
444.698	958.75
444.919	1032.75
445.14	1087.75
445.361	949.75
445.582	883.75
445.803	820.75
446.024	804.75
446.245	777.75
446.466	780.75
446.687	746.75
446.908	760.75
447.129	728.75
447.35	735.75
447.571	725.75
447.792	707.75
448.013	713.75
448.234	674.75
448.455	681.75
448.675	688.75
448.896	697.75
449.117	659.75
449.338	668.75
449.559	685.75
449.779	688.75
450	673.75
450.221	691.75
450.442	692.75
450.662	679.75
450.883	722.75
451.104	726.75
451.324	713.75
451.545	725.75
451.766	693.75
451.986	702.75
452.207	689.75
452.428	689.75
452.648	714.75
452.869	684.75
453.089	684.75
453.31	685.75
453.53	673.75
453.751	689.75
453.971	668.75
454.192	679.75
454.412	682.75
454.633	664.75
454.853	659.75
455.073	658.75
455.294	648.75
455.514	663.75
455.734	630.75
455.955	662.75
456.175	649.75
456.395	632.75
456.616	653.75
456.836	641.75
457.056	665.75
457.276	625.75
457.497	667.75
457.717	657.75
457.937	637.75
458.157	656.75
458.377	656.75
458.598	672.75
458.818	666.75
459.038	716.75
459.258	735.75
459.478	760.75
459.698	753.75
459.918	785.75
460.138	831.75
460.358	856.75
460.578	872.75
460.798	882.75
461.018	896.75
461.238	860.75
461.458	870.75
461.678	871.75
461.898	890.75
462.118	869.75
462.338	930.75
462.558	953.75
462.777	985.75
462.997	1072.75
463.217	1201.75
463.437	1212.75
463.657	1086.75
463.876	1007.75
464.096	1014.75
464.316	1035.75
464.536	1038.75
464.755	1005.75
464.975	941.75
465.195	927.75
465.414	867.75
465.634	821.75
465.854	796.75
466.073	760.75
466.293	726.75
466.512	736.75
466.732	718.75
466.951	715.75
467.171	724.75
467.391	755.75
467.61	712.75
467.829	695.75
468.049	704.75
468.268	690.75
468.488	685.75
468.707	679.75
468.927	704.75
469.146	707.75
469.365	691.75
469.585	701.75
469.804	730.75
470.023	756.75
470.243	739.75
470.462	730.75
470.681	747.75
470.901	740.75
471.12	743.75
471.339	715.75
471.558	700.75
471.777	669.75
471.997	711.75
472.216	666.75
472.435	681.75
472.654	675.75
472.873	691.75
473.092	670.75
473.311	664.75
473.53	689.75
473.749	673.75
473.968	673.75
474.187	665.75
474.406	687.75
474.625	669.75
474.844	693.75
475.063	700.75
475.282	694.75
475.501	687.75
475.72	690.75
475.939	685.75
476.158	719.75
476.377	705.75
476.596	697.75
476.814	723.75
477.033	719.75
477.252	730.75
477.471	750.75
477.69	768.75
477.908	769.75
478.127	796.75
478.346	803.75
478.564	815.75
478.783	807.75
479.002	858.75
479.22	880.75
479.439	858.75
479.658	827.75
479.876	821.75
480.095	847.75
480.313	897.75
480.532	917.75
480.751	885.75
480.969	888.75
481.188	835.75
481.406	823.75
481.624	809.75
481.843	776.75
482.061	776.75
482.28	784.75
482.498	801.75
482.717	749.75
482.935	789.75
483.153	783.75
483.372	790.75
483.59	802.75
483.808	777.75
484.027	771.75
484.245	788.75
484.463	826.75
484.681	802.75
484.9	812.75
485.118	835.75
485.336	810.75
485.554	843.75
485.772	856.75
485.99	803.75
486.209	858.75
486.427	843.75
486.645	848.75
486.863	855.75
487.081	810.75
487.299	832.75
487.517	821.75
487.735	864.75
487.953	834.75
488.171	793.75
488.389	823.75
488.607	794.75
488.825	829.75
489.043	785.75
489.261	808.75
489.479	785.75
489.696	810.75
489.914	815.75
490.132	797.75
490.35	801.75
490.568	827.75
490.786	804.75
491.003	815.75
491.221	821.75
491.439	839.75
491.657	796.75
491.874	805.75
492.092	820.75
492.31	855.75
492.527	838.75
492.745	813.75
492.963	839.75
493.18	842.75
493.398	860.75
493.615	836.75
493.833	837.75
494.05	841.75
494.268	862.75
494.485	868.75
494.703	876.75
494.92	869.75
495.138	879.75
495.355	875.75
495.573	885.75
495.79	863.75
496.008	872.75
496.225	841.75
496.442	856.75
496.66	891.75
496.877	917.75
497.094	896.75
497.312	909.75
497.529	919.75
497.746	949.75
497.963	957.75
498.181	999.75
498.398	1056.75
498.615	1109.75
498.832	1165.75
499.049	1258.75
499.267	1377.75
499.484	1516.75
499.701	1631.75
499.918	1823.75
500.135	2095.75
500.352	2415.75
500.569	2597.75
500.786	2517.75
501.003	2317.75
