Data from Ni(NO3)2Standard.Agarose3%.GreenCap.LampEnergy5.5.E.O_HRD10591_14-42-49-188.txt Node
Date: Mon Jul 22 14:42:49 EDT 2019
User: cochatt
Spectrometer: HR+D1059
Trigger mode: 1
Integration Time (sec): 1.000000E-1
Scans to average: 1
Electric dark correction enabled: true
Nonlinearity correction enabled: false
Boxcar width: 0
XAxis mode: Wavelengths
Number of Pixels in Spectrum: 2048
>>>>>Begin Spectral Data<<<<<
223.165	-1.44
223.4	-1.44
223.635	-1.44
223.869	-16.44
224.104	-25.44
224.338	-16.44
224.573	-21.44
224.808	-18.44
225.042	-7.44
225.277	-7.44
225.511	9.56
225.746	17.56
225.98	1.56
226.215	13.56
226.449	17.56
226.683	20.56
226.918	18.56
227.152	15.56
227.387	34.56
227.621	26.56
227.856	56.56
228.09	49.56
228.324	63.56
228.559	64.56
228.793	68.56
229.027	73.56
229.262	65.56
229.496	72.56
229.73	73.56
229.964	73.56
230.199	75.56
230.433	80.56
230.667	77.56
230.901	75.56
231.136	72.56
231.37	84.56
231.604	86.56
231.838	93.56
232.072	79.56
232.306	90.56
232.541	100.56
232.775	85.56
233.009	82.56
233.243	86.56
233.477	88.56
233.711	79.56
233.945	97.56
234.179	76.56
234.413	84.56
234.647	107.56
234.881	75.56
235.115	83.56
235.349	71.56
235.583	76.56
235.817	81.56
236.051	82.56
236.285	93.56
236.519	95.56
236.753	69.56
236.987	87.56
237.221	88.56
237.455	89.56
237.689	81.56
237.922	79.56
238.156	72.56
238.39	86.56
238.624	74.56
238.858	81.56
239.091	84.56
239.325	73.56
239.559	74.56
239.793	96.56
240.027	78.56
240.26	86.56
240.494	72.56
240.728	81.56
240.961	69.56
241.195	70.56
241.429	78.56
241.662	81.56
241.896	88.56
242.13	77.56
242.363	84.56
242.597	87.56
242.83	82.56
243.064	88.56
243.298	82.56
243.531	77.56
243.765	84.56
243.998	76.56
244.232	86.56
244.465	83.56
244.699	76.56
244.932	76.56
245.166	88.56
245.399	69.56
245.633	80.56
245.866	83.56
246.099	79.56
246.333	76.56
246.566	71.56
246.8	91.56
247.033	84.56
247.266	79.56
247.5	88.56
247.733	82.56
247.966	100.56
248.2	88.56
248.433	86.56
248.666	88.56
248.899	80.56
249.133	77.56
249.366	86.56
249.599	82.56
249.832	75.56
250.066	82.56
250.299	83.56
250.532	92.56
250.765	72.56
250.998	77.56
251.231	78.56
251.465	96.56
251.698	87.56
251.931	84.56
252.164	75.56
252.397	94.56
252.63	74.56
252.863	81.56
253.096	92.56
253.329	77.56
253.562	81.56
253.795	90.56
254.028	86.56
254.261	91.56
254.494	77.56
254.727	70.56
254.96	80.56
255.193	69.56
255.426	80.56
255.659	84.56
255.892	103.56
256.124	90.56
256.357	84.56
256.59	89.56
256.823	75.56
257.056	96.56
257.289	81.56
257.521	94.56
257.754	77.56
257.987	94.56
258.22	90.56
258.452	83.56
258.685	89.56
258.918	88.56
259.151	81.56
259.383	89.56
259.616	78.56
259.849	85.56
260.081	105.56
260.314	93.56
260.547	80.56
260.779	89.56
261.012	77.56
261.244	90.56
261.477	86.56
261.71	79.56
261.942	100.56
262.175	83.56
262.407	64.56
262.64	79.56
262.872	61.56
263.105	71.56
263.337	90.56
263.57	83.56
263.802	67.56
264.035	80.56
264.267	90.56
264.499	80.56
264.732	81.56
264.964	81.56
265.197	77.56
265.429	77.56
265.661	100.56
265.894	88.56
266.126	92.56
266.358	90.56
266.591	93.56
266.823	88.56
267.055	84.56
267.287	86.56
267.52	97.56
267.752	86.56
267.984	86.56
268.216	94.56
268.448	84.56
268.681	85.56
268.913	98.56
269.145	82.56
269.377	83.56
269.609	97.56
269.841	81.56
270.073	105.56
270.306	79.56
270.538	85.56
270.77	68.56
271.002	90.56
271.234	93.56
271.466	81.56
271.698	93.56
271.93	83.56
272.162	86.56
272.394	91.56
272.626	97.56
272.858	76.56
273.09	76.56
273.322	81.56
273.553	80.56
273.785	72.56
274.017	86.56
274.249	80.56
274.481	75.56
274.713	98.56
274.945	89.56
275.176	87.56
275.408	96.56
275.64	87.56
275.872	89.56
276.104	86.56
276.335	81.56
276.567	87.56
276.799	87.56
277.031	80.56
277.262	90.56
277.494	76.56
277.726	96.56
277.957	86.56
278.189	99.56
278.421	91.56
278.652	66.56
278.884	82.56
279.115	78.56
279.347	77.56
279.579	93.56
279.81	87.56
280.042	99.56
280.273	92.56
280.505	92.56
280.736	85.56
280.968	85.56
281.199	76.56
281.431	89.56
281.662	81.56
281.894	91.56
282.125	85.56
282.356	87.56
282.588	89.56
282.819	103.56
283.051	93.56
283.282	86.56
283.513	80.56
283.745	106.56
283.976	92.56
284.207	101.56
284.439	88.56
284.67	98.56
284.901	82.56
285.132	89.56
285.364	86.56
285.595	90.56
285.826	84.56
286.057	86.56
286.288	95.56
286.52	82.56
286.751	84.56
286.982	96.56
287.213	91.56
287.444	103.56
287.675	90.56
287.906	86.56
288.138	86.56
288.369	90.56
288.6	89.56
288.831	87.56
289.062	79.56
289.293	86.56
289.524	81.56
289.755	82.56
289.986	91.56
290.217	101.56
290.448	77.56
290.679	88.56
290.91	95.56
291.141	92.56
291.371	97.56
291.602	87.56
291.833	84.56
292.064	93.56
292.295	73.56
292.526	81.56
292.757	84.56
292.987	87.56
293.218	85.56
293.449	90.56
293.68	88.56
293.91	82.56
294.141	93.56
294.372	85.56
294.603	91.56
294.833	97.56
295.064	100.56
295.295	86.56
295.525	90.56
295.756	91.56
295.987	82.56
296.217	85.56
296.448	80.56
296.679	80.56
296.909	89.56
297.14	94.56
297.37	89.56
297.601	84.56
297.831	93.56
298.062	80.56
298.292	88.56
298.523	93.56
298.753	89.56
298.984	84.56
299.214	84.56
299.445	95.56
299.675	92.56
299.905	97.56
300.136	95.56
300.366	95.56
300.597	97.56
300.827	88.56
301.057	97.56
301.288	90.56
301.518	82.56
301.748	89.56
301.979	100.56
302.209	73.56
302.439	80.56
302.669	99.56
302.9	92.56
303.13	85.56
303.36	95.56
303.59	82.56
303.82	86.56
304.051	94.56
304.281	90.56
304.511	95.56
304.741	88.56
304.971	85.56
305.201	89.56
305.431	93.56
305.661	82.56
305.891	88.56
306.121	84.56
306.352	79.56
306.582	93.56
306.812	92.56
307.042	99.56
307.272	100.56
307.502	92.56
307.731	88.56
307.961	100.56
308.191	85.56
308.421	95.56
308.651	87.56
308.881	93.56
309.111	91.56
309.341	77.56
309.571	86.56
309.8	88.56
310.03	81.56
310.26	97.56
310.49	87.56
310.72	98.56
310.949	97.56
311.179	79.56
311.409	82.56
311.639	87.56
311.868	76.56
312.098	105.56
312.328	86.56
312.557	73.56
312.787	73.56
313.017	79.56
313.246	89.56
313.476	94.56
313.706	82.56
313.935	86.56
314.165	95.56
314.394	84.56
314.624	93.56
314.853	74.56
315.083	92.56
315.312	93.56
315.542	74.56
315.771	69.56
316.001	82.56
316.23	86.56
316.46	98.56
316.689	94.56
316.919	93.56
317.148	103.56
317.377	87.56
317.607	96.56
317.836	91.56
318.065	98.56
318.295	92.56
318.524	93.56
318.753	82.56
318.983	83.56
319.212	90.56
319.441	101.56
319.67	81.56
319.9	87.56
320.129	90.56
320.358	99.56
320.587	83.56
320.816	81.56
321.046	88.56
321.275	90.56
321.504	88.56
321.733	96.56
321.962	77.56
322.191	104.56
322.42	94.56
322.649	89.56
322.878	99.56
323.108	70.56
323.337	90.56
323.566	87.56
323.795	80.56
324.024	81.56
324.253	89.56
324.482	89.56
324.71	101.56
324.939	89.56
325.168	94.56
325.397	88.56
325.626	77.56
325.855	85.56
326.084	94.56
326.313	79.56
326.542	92.56
326.77	86.56
326.999	86.56
327.228	81.56
327.457	94.56
327.686	93.56
327.914	80.56
328.143	94.56
328.372	95.56
328.6	93.56
328.829	83.56
329.058	91.56
329.287	93.56
329.515	91.56
329.744	85.56
329.972	81.56
330.201	89.56
330.43	83.56
330.658	90.56
330.887	93.56
331.115	91.56
331.344	85.56
331.572	65.56
331.801	83.56
332.03	80.56
332.258	89.56
332.486	92.56
332.715	97.56
332.943	100.56
333.172	88.56
333.4	84.56
333.629	86.56
333.857	105.56
334.085	102.56
334.314	90.56
334.542	86.56
334.771	89.56
334.999	96.56
335.227	87.56
335.455	77.56
335.684	96.56
335.912	96.56
336.14	87.56
336.369	86.56
336.597	95.56
336.825	94.56
337.053	97.56
337.281	108.56
337.51	84.56
337.738	97.56
337.966	109.56
338.194	80.56
338.422	90.56
338.65	86.56
338.878	94.56
339.106	89.56
339.334	87.56
339.562	86.56
339.79	80.56
340.018	96.56
340.246	79.56
340.474	92.56
340.702	102.56
340.93	83.56
341.158	92.56
341.386	83.56
341.614	86.56
341.842	93.56
342.07	90.56
342.298	80.56
342.526	84.56
342.754	84.56
342.981	89.56
343.209	79.56
343.437	81.56
343.665	78.56
343.893	87.56
344.12	104.56
344.348	69.56
344.576	87.56
344.804	98.56
345.031	98.56
345.259	78.56
345.487	92.56
345.714	78.56
345.942	82.56
346.17	85.56
346.397	79.56
346.625	85.56
346.853	96.56
347.08	72.56
347.308	85.56
347.535	89.56
347.763	77.56
347.99	90.56
348.218	90.56
348.445	88.56
348.673	82.56
348.9	86.56
349.128	98.56
349.355	88.56
349.583	84.56
349.81	81.56
350.037	68.56
350.265	87.56
350.492	90.56
350.72	87.56
350.947	96.56
351.174	87.56
351.402	96.56
351.629	84.56
351.856	92.56
352.083	70.56
352.311	100.56
352.538	79.56
352.765	88.56
352.992	96.56
353.22	97.56
353.447	98.56
353.674	96.56
353.901	92.56
354.128	86.56
354.355	93.56
354.583	77.56
354.81	93.56
355.037	87.56
355.264	80.56
355.491	80.56
355.718	97.56
355.945	92.56
356.172	83.56
356.399	89.56
356.626	89.56
356.853	78.56
357.08	88.56
357.307	101.56
357.534	92.56
357.761	89.56
357.988	100.56
358.215	73.56
358.441	106.56
358.668	85.56
358.895	81.56
359.122	81.56
359.349	93.56
359.576	94.56
359.802	88.56
360.029	81.56
360.256	89.56
360.483	95.56
360.709	69.56
360.936	82.56
361.163	98.56
361.39	89.56
361.616	85.56
361.843	83.56
362.07	90.56
362.296	92.56
362.523	85.56
362.749	76.56
362.976	95.56
363.203	97.56
363.429	101.56
363.656	90.56
363.882	93.56
364.109	91.56
364.335	93.56
364.562	86.56
364.788	91.56
365.015	95.56
365.241	99.56
365.468	85.56
365.694	88.56
365.92	88.56
366.147	95.56
366.373	66.56
366.599	100.56
366.826	81.56
367.052	102.56
367.278	87.56
367.505	93.56
367.731	79.56
367.957	74.56
368.184	92.56
368.41	93.56
368.636	90.56
368.862	93.56
369.089	83.56
369.315	84.56
369.541	91.56
369.767	93.56
369.993	77.56
370.219	89.56
370.445	78.56
370.672	102.56
370.898	77.56
371.124	78.56
371.35	89.56
371.576	77.56
371.802	89.56
372.028	91.56
372.254	85.56
372.48	93.56
372.706	87.56
372.932	81.56
373.158	79.56
373.384	94.56
373.61	98.56
373.835	90.56
374.061	95.56
374.287	86.56
374.513	88.56
374.739	91.56
374.965	88.56
375.191	83.56
375.416	91.56
375.642	99.56
375.868	83.56
376.094	89.56
376.319	85.56
376.545	88.56
376.771	88.56
376.997	95.56
377.222	88.56
377.448	86.56
377.674	91.56
377.899	83.56
378.125	97.56
378.35	91.56
378.576	95.56
378.802	94.56
379.027	83.56
379.253	87.56
379.478	94.56
379.704	105.56
379.929	88.56
380.155	88.56
380.38	90.56
380.606	87.56
380.831	93.56
381.057	102.56
381.282	98.56
381.507	86.56
381.733	86.56
381.958	84.56
382.184	81.56
382.409	81.56
382.634	84.56
382.86	84.56
383.085	95.56
383.31	80.56
383.535	93.56
383.761	96.56
383.986	89.56
384.211	86.56
384.436	82.56
384.662	80.56
384.887	81.56
385.112	89.56
385.337	86.56
385.562	97.56
385.787	85.56
386.013	102.56
386.238	80.56
386.463	106.56
386.688	84.56
386.913	80.56
387.138	93.56
387.363	84.56
387.588	82.56
387.813	97.56
388.038	92.56
388.263	83.56
388.488	79.56
388.713	83.56
388.938	87.56
389.163	86.56
389.387	85.56
389.612	95.56
389.837	74.56
390.062	91.56
390.287	81.56
390.512	90.56
390.736	89.56
390.961	92.56
391.186	89.56
391.411	89.56
391.636	83.56
391.86	84.56
392.085	88.56
392.31	84.56
392.534	89.56
392.759	98.56
392.984	96.56
393.208	93.56
393.433	95.56
393.658	76.56
393.882	87.56
394.107	90.56
394.331	83.56
394.556	86.56
394.78	83.56
395.005	88.56
395.229	83.56
395.454	95.56
395.678	97.56
395.903	88.56
396.127	85.56
396.352	77.56
396.576	84.56
396.801	90.56
397.025	96.56
397.249	84.56
397.474	88.56
397.698	80.56
397.922	90.56
398.147	88.56
398.371	90.56
398.595	102.56
398.82	93.56
399.044	93.56
399.268	90.56
399.492	103.56
399.717	84.56
399.941	96.56
400.165	99.56
400.389	98.56
400.613	80.56
400.837	86.56
401.062	108.56
401.286	106.56
401.51	83.56
401.734	84.56
401.958	94.56
402.182	89.56
402.406	101.56
402.63	100.56
402.854	103.56
403.078	86.56
403.302	85.56
403.526	85.56
403.75	86.56
403.974	88.56
404.198	89.56
404.422	90.56
404.645	69.56
404.869	84.56
405.093	96.56
405.317	102.56
405.541	83.56
405.765	94.56
405.988	94.56
406.212	83.56
406.436	87.56
406.66	92.56
406.883	85.56
407.107	96.56
407.331	93.56
407.555	93.56
407.778	81.56
408.002	89.56
408.226	82.56
408.449	84.56
408.673	90.56
408.896	88.56
409.12	98.56
409.344	78.56
409.567	93.56
409.791	88.56
410.014	85.56
410.238	91.56
410.461	79.56
410.685	89.56
410.908	99.56
411.132	98.56
411.355	91.56
411.578	95.56
411.802	92.56
412.025	92.56
412.249	83.56
412.472	83.56
412.695	93.56
412.919	104.56
413.142	86.56
413.365	88.56
413.589	93.56
413.812	83.56
414.035	92.56
414.258	100.56
414.482	94.56
414.705	86.56
414.928	91.56
415.151	92.56
415.374	85.56
415.597	97.56
415.821	90.56
416.044	93.56
416.267	84.56
416.49	89.56
416.713	78.56
416.936	82.56
417.159	100.56
417.382	94.56
417.605	99.56
417.828	103.56
418.051	95.56
418.274	86.56
418.497	87.56
418.72	78.56
418.943	82.56
419.166	88.56
419.389	94.56
419.611	99.56
419.834	98.56
420.057	105.56
420.28	89.56
420.503	83.56
420.726	90.56
420.948	102.56
421.171	96.56
421.394	92.56
421.617	88.56
421.839	83.56
422.062	82.56
422.285	87.56
422.507	81.56
422.73	84.56
422.953	96.56
423.175	75.56
423.398	71.56
423.621	89.56
423.843	90.56
424.066	91.56
424.288	100.56
424.511	78.56
424.733	100.56
424.956	89.56
425.178	85.56
425.401	91.56
425.623	87.56
425.846	101.56
426.068	89.56
426.291	91.56
426.513	75.56
426.735	86.56
426.958	106.56
427.18	106.56
427.402	98.56
427.625	92.56
427.847	94.56
428.069	88.56
428.292	78.56
428.514	103.56
428.736	87.56
428.958	96.56
429.181	87.56
429.403	92.56
429.625	84.56
429.847	76.56
430.069	82.56
430.292	87.56
430.514	76.56
430.736	90.56
430.958	78.56
431.18	90.56
431.402	85.56
431.624	76.56
431.846	72.56
432.068	102.56
432.29	91.56
432.512	90.56
432.734	86.56
432.956	100.56
433.178	82.56
433.4	104.56
433.622	98.56
433.844	88.56
434.066	90.56
434.287	89.56
434.509	76.56
434.731	82.56
434.953	87.56
435.175	88.56
435.397	92.56
435.618	89.56
435.84	89.56
436.062	77.56
436.284	80.56
436.505	90.56
436.727	71.56
436.949	92.56
437.17	78.56
437.392	78.56
437.614	81.56
437.835	90.56
438.057	89.56
438.278	96.56
438.5	93.56
438.721	86.56
438.943	96.56
439.165	75.56
439.386	91.56
439.608	91.56
439.829	91.56
440.05	116.56
440.272	91.56
440.493	103.56
440.715	79.56
440.936	82.56
441.158	93.56
441.379	95.56
441.6	75.56
441.822	75.56
442.043	78.56
442.264	82.56
442.486	93.56
442.707	86.56
442.928	86.56
443.149	86.56
443.371	84.56
443.592	87.56
443.813	92.56
444.034	90.56
444.255	104.56
444.476	86.56
444.698	82.56
444.919	74.56
445.14	210.56
445.361	153.56
445.582	90.56
445.803	96.56
446.024	84.56
446.245	101.56
446.466	79.56
446.687	92.56
446.908	93.56
447.129	93.56
447.35	78.56
447.571	86.56
447.792	90.56
448.013	96.56
448.234	88.56
448.455	81.56
448.675	91.56
448.896	85.56
449.117	92.56
449.338	87.56
449.559	90.56
449.779	87.56
450	90.56
450.221	100.56
450.442	92.56
450.662	79.56
450.883	86.56
451.104	102.56
451.324	83.56
451.545	90.56
451.766	94.56
451.986	86.56
452.207	101.56
452.428	81.56
452.648	92.56
452.869	86.56
453.089	74.56
453.31	96.56
453.53	97.56
453.751	82.56
453.971	81.56
454.192	89.56
454.412	84.56
454.633	85.56
454.853	71.56
455.073	84.56
455.294	93.56
455.514	98.56
455.734	94.56
455.955	100.56
456.175	84.56
456.395	93.56
456.616	101.56
456.836	90.56
457.056	92.56
457.276	92.56
457.497	81.56
457.717	79.56
457.937	89.56
458.157	88.56
458.377	91.56
458.598	86.56
458.818	94.56
459.038	94.56
459.258	97.56
459.478	86.56
459.698	82.56
459.918	86.56
460.138	88.56
460.358	96.56
460.578	89.56
460.798	87.56
461.018	97.56
461.238	87.56
461.458	104.56
461.678	85.56
461.898	105.56
462.118	102.56
462.338	96.56
462.558	88.56
462.777	81.56
462.997	97.56
463.217	84.56
463.437	77.56
463.657	82.56
463.876	88.56
464.096	106.56
464.316	99.56
464.536	90.56
464.755	87.56
464.975	89.56
465.195	99.56
465.414	100.56
465.634	98.56
465.854	103.56
466.073	90.56
466.293	97.56
466.512	97.56
466.732	82.56
466.951	79.56
467.171	86.56
467.391	79.56
467.61	82.56
467.829	93.56
468.049	88.56
468.268	85.56
468.488	105.56
468.707	88.56
468.927	89.56
469.146	87.56
469.365	90.56
469.585	92.56
469.804	99.56
470.023	82.56
470.243	84.56
470.462	97.56
470.681	94.56
470.901	96.56
471.12	85.56
471.339	87.56
471.558	92.56
471.777	95.56
471.997	103.56
472.216	95.56
472.435	102.56
472.654	100.56
472.873	98.56
473.092	105.56
473.311	78.56
473.53	84.56
473.749	82.56
473.968	89.56
474.187	96.56
474.406	104.56
474.625	78.56
474.844	80.56
475.063	86.56
475.282	92.56
475.501	101.56
475.72	104.56
475.939	77.56
476.158	91.56
476.377	92.56
476.596	94.56
476.814	103.56
477.033	81.56
477.252	82.56
477.471	99.56
477.69	90.56
477.908	101.56
478.127	85.56
478.346	87.56
478.564	96.56
478.783	82.56
479.002	94.56
479.22	80.56
479.439	95.56
479.658	90.56
479.876	96.56
480.095	90.56
480.313	96.56
480.532	83.56
480.751	87.56
480.969	101.56
481.188	97.56
481.406	93.56
481.624	85.56
481.843	79.56
482.061	83.56
482.28	72.56
482.498	90.56
482.717	87.56
482.935	95.56
483.153	83.56
483.372	88.56
483.59	80.56
483.808	99.56
484.027	90.56
484.245	96.56
484.463	94.56
484.681	93.56
484.9	92.56
485.118	101.56
485.336	88.56
485.554	81.56
485.772	78.56
485.99	89.56
486.209	113.56
486.427	88.56
486.645	93.56
486.863	106.56
487.081	102.56
487.299	99.56
487.517	89.56
487.735	104.56
487.953	87.56
488.171	83.56
488.389	92.56
488.607	96.56
488.825	95.56
489.043	86.56
489.261	87.56
489.479	102.56
489.696	113.56
489.914	86.56
490.132	97.56
490.35	82.56
490.568	78.56
490.786	83.56
491.003	92.56
491.221	98.56
491.439	97.56
491.657	97.56
491.874	95.56
492.092	101.56
492.31	105.56
492.527	97.56
492.745	87.56
492.963	92.56
493.18	98.56
493.398	90.56
493.615	100.56
493.833	92.56
494.05	111.56
494.268	96.56
494.485	87.56
494.703	89.56
494.92	91.56
495.138	97.56
495.355	97.56
495.573	105.56
495.79	95.56
496.008	105.56
496.225	105.56
496.442	105.56
496.66	94.56
496.877	94.56
497.094	113.56
497.312	100.56
497.529	89.56
497.746	110.56
497.963	97.56
498.181	89.56
498.398	94.56
498.615	103.56
498.832	86.56
499.049	89.56
499.267	104.56
499.484	107.56
499.701	103.56
499.918	114.56
500.135	114.56
500.352	113.56
500.569	119.56
500.786	113.56
501.003	113.56
501.22	110.56
501.437	119.56
501.654	120.56
501.871	103.56
502.088	97.56
502.305	112.56
502.522	101.56
502.739	101.56
502.956	94.56
503.172	96.56
503.389	87.56
503.606	88.56
503.823	103.56
504.04	101.56
504.256	95.56
504.473	100.56
504.69	89.56
504.907	112.56
505.123	104.56
505.34	103.56
505.557	99.56
505.773	97.56
505.99	81.56
506.207	92.56
506.423	83.56
506.64	90.56
506.856	100.56
507.073	89.56
507.289	96.56
507.506	95.56
507.722	102.56
507.939	92.56
508.155	95.56
508.372	106.56
508.588	91.56
508.805	82.56
509.021	99.56
509.238	90.56
509.454	100.56
509.67	86.56
509.887	100.56
510.103	91.56
510.319	100.56
510.536	90.56
510.752	86.56
510.968	101.56
511.184	84.56
511.401	90.56
511.617	100.56
511.833	86.56
512.049	101.56
512.265	87.56
512.481	105.56
512.698	96.56
512.914	106.56
513.13	94.56
513.346	91.56
513.562	82.56
513.778	90.56
513.994	104.56
514.21	91.56
514.426	95.56
514.642	94.56
514.858	90.56
515.074	98.56
515.29	108.56
515.506	87.56
515.721	88.56
515.937	80.56
516.153	91.56
516.369	103.56
516.585	115.56
516.801	101.56
517.016	112.56
517.232	89.56
517.448	102.56
