Data from Ni(NO3)2@0.0625M.TitratingCurve.Agarose3%dH2O.NegLispCup.LampEnergy10.LIBS07252019_HRD10591_18-15-11-570.txt Node
Date: Thu Jul 25 18:15:11 EDT 2019
User: cochatt
Spectrometer: HR+D1059
Trigger mode: 1
Integration Time (sec): 1.000000E-1
Scans to average: 1
Electric dark correction enabled: true
Nonlinearity correction enabled: false
Boxcar width: 0
XAxis mode: Wavelengths
Number of Pixels in Spectrum: 2048
>>>>>Begin Spectral Data<<<<<
223.165	-12.12
223.4	-12.12
223.635	-12.12
223.869	-1.12
224.104	-21.12
224.338	-9.12
224.573	-16.12
224.808	-12.12
225.042	-14.12
225.277	-10.12
225.511	-6.12
225.746	3.88
225.98	3.88
226.215	12.88
226.449	14.88
226.683	10.88
226.918	25.88
227.152	29.88
227.387	32.88
227.621	36.88
227.856	41.88
228.09	67.88
228.324	55.88
228.559	55.88
228.793	73.88
229.027	114.88
229.262	103.88
229.496	117.88
229.73	123.88
229.964	125.88
230.199	123.88
230.433	133.88
230.667	138.88
230.901	153.88
231.136	143.88
231.37	131.88
231.604	131.88
231.838	151.88
232.072	142.88
232.306	158.88
232.541	165.88
232.775	164.88
233.009	138.88
233.243	133.88
233.477	140.88
233.711	149.88
233.945	135.88
234.179	136.88
234.413	161.88
234.647	142.88
234.881	141.88
235.115	149.88
235.349	159.88
235.583	160.88
235.817	134.88
236.051	147.88
236.285	162.88
236.519	158.88
236.753	176.88
236.987	157.88
237.221	151.88
237.455	163.88
237.689	169.88
237.922	168.88
238.156	162.88
238.39	162.88
238.624	179.88
238.858	174.88
239.091	174.88
239.325	150.88
239.559	180.88
239.793	143.88
240.027	187.88
240.26	180.88
240.494	180.88
240.728	187.88
240.961	185.88
241.195	187.88
241.429	190.88
241.662	178.88
241.896	187.88
242.13	187.88
242.363	212.88
242.597	193.88
242.83	193.88
243.064	200.88
243.298	196.88
243.531	191.88
243.765	211.88
243.998	216.88
244.232	199.88
244.465	204.88
244.699	208.88
244.932	221.88
245.166	221.88
245.399	224.88
245.633	210.88
245.866	233.88
246.099	225.88
246.333	218.88
246.566	217.88
246.8	222.88
247.033	219.88
247.266	221.88
247.5	225.88
247.733	237.88
247.966	235.88
248.2	223.88
248.433	242.88
248.666	231.88
248.899	233.88
249.133	241.88
249.366	245.88
249.599	242.88
249.832	231.88
250.066	238.88
250.299	254.88
250.532	251.88
250.765	233.88
250.998	252.88
251.231	257.88
251.465	262.88
251.698	267.88
251.931	264.88
252.164	257.88
252.397	274.88
252.63	255.88
252.863	281.88
253.096	293.88
253.329	277.88
253.562	274.88
253.795	278.88
254.028	275.88
254.261	264.88
254.494	274.88
254.727	268.88
254.96	277.88
255.193	291.88
255.426	275.88
255.659	294.88
255.892	299.88
256.124	291.88
256.357	296.88
256.59	296.88
256.823	306.88
257.056	289.88
257.289	310.88
257.521	293.88
257.754	283.88
257.987	289.88
258.22	298.88
258.452	307.88
258.685	315.88
258.918	289.88
259.151	301.88
259.383	318.88
259.616	321.88
259.849	305.88
260.081	322.88
260.314	338.88
260.547	315.88
260.779	311.88
261.012	313.88
261.244	299.88
261.477	325.88
261.71	305.88
261.942	314.88
262.175	320.88
262.407	324.88
262.64	330.88
262.872	320.88
263.105	359.88
263.337	325.88
263.57	333.88
263.802	347.88
264.035	335.88
264.267	344.88
264.499	347.88
264.732	332.88
264.964	347.88
265.197	336.88
265.429	336.88
265.661	346.88
265.894	369.88
266.126	348.88
266.358	358.88
266.591	359.88
266.823	364.88
267.055	368.88
267.287	372.88
267.52	358.88
267.752	359.88
267.984	376.88
268.216	365.88
268.448	363.88
268.681	374.88
268.913	359.88
269.145	385.88
269.377	365.88
269.609	367.88
269.841	374.88
270.073	373.88
270.306	377.88
270.538	380.88
270.77	368.88
271.002	362.88
271.234	381.88
271.466	393.88
271.698	386.88
271.93	388.88
272.162	392.88
272.394	378.88
272.626	394.88
272.858	389.88
273.09	390.88
273.322	393.88
273.553	410.88
273.785	387.88
274.017	399.88
274.249	401.88
274.481	399.88
274.713	406.88
274.945	421.88
275.176	401.88
275.408	418.88
275.64	425.88
275.872	416.88
276.104	408.88
276.335	416.88
276.567	410.88
276.799	416.88
277.031	445.88
277.262	440.88
277.494	414.88
277.726	453.88
277.957	418.88
278.189	421.88
278.421	404.88
278.652	422.88
278.884	434.88
279.115	420.88
279.347	439.88
279.579	423.88
279.81	433.88
280.042	434.88
280.273	437.88
280.505	442.88
280.736	436.88
280.968	450.88
281.199	424.88
281.431	442.88
281.662	462.88
281.894	475.88
282.125	448.88
282.356	474.88
282.588	474.88
282.819	453.88
283.051	453.88
283.282	453.88
283.513	478.88
283.745	460.88
283.976	475.88
284.207	484.88
284.439	488.88
284.67	451.88
284.901	477.88
285.132	474.88
285.364	485.88
285.595	470.88
285.826	479.88
286.057	486.88
286.288	485.88
286.52	494.88
286.751	494.88
286.982	498.88
287.213	499.88
287.444	498.88
287.675	483.88
287.906	499.88
288.138	498.88
288.369	508.88
288.6	531.88
288.831	513.88
289.062	504.88
289.293	495.88
289.524	521.88
289.755	535.88
289.986	519.88
290.217	521.88
290.448	518.88
290.679	538.88
290.91	516.88
291.141	504.88
291.371	532.88
291.602	525.88
291.833	531.88
292.064	530.88
292.295	524.88
292.526	515.88
292.757	532.88
292.987	517.88
293.218	533.88
293.449	547.88
293.68	538.88
293.91	522.88
294.141	542.88
294.372	533.88
294.603	523.88
294.833	544.88
295.064	526.88
295.295	530.88
295.525	521.88
295.756	561.88
295.987	541.88
296.217	528.88
296.448	555.88
296.679	543.88
296.909	542.88
297.14	538.88
297.37	553.88
297.601	565.88
297.831	575.88
298.062	600.88
298.292	576.88
298.523	598.88
298.753	581.88
298.984	588.88
299.214	590.88
299.445	564.88
299.675	566.88
299.905	578.88
300.136	577.88
300.366	566.88
300.597	595.88
300.827	564.88
301.057	625.88
301.288	621.88
301.518	617.88
301.748	597.88
301.979	632.88
302.209	588.88
302.439	586.88
302.669	603.88
302.9	589.88
303.13	593.88
303.36	570.88
303.59	588.88
303.82	587.88
304.051	606.88
304.281	586.88
304.511	583.88
304.741	587.88
304.971	595.88
305.201	569.88
305.431	579.88
305.661	587.88
305.891	576.88
306.121	569.88
306.352	590.88
306.582	578.88
306.812	574.88
307.042	584.88
307.272	574.88
307.502	601.88
307.731	570.88
307.961	571.88
308.191	594.88
308.421	565.88
308.651	558.88
308.881	575.88
309.111	573.88
309.341	539.88
309.571	573.88
309.8	575.88
310.03	587.88
310.26	566.88
310.49	574.88
310.72	582.88
310.949	573.88
311.179	586.88
311.409	582.88
311.639	583.88
311.868	575.88
312.098	573.88
312.328	607.88
312.557	614.88
312.787	604.88
313.017	600.88
313.246	603.88
313.476	624.88
313.706	615.88
313.935	620.88
314.165	619.88
314.394	647.88
314.624	631.88
314.853	630.88
315.083	630.88
315.312	629.88
315.542	637.88
315.771	632.88
316.001	618.88
316.23	615.88
316.46	571.88
316.689	619.88
316.919	610.88
317.148	597.88
317.377	594.88
317.607	571.88
317.836	613.88
318.065	611.88
318.295	627.88
318.524	591.88
318.753	579.88
318.983	585.88
319.212	586.88
319.441	609.88
319.67	610.88
319.9	626.88
320.129	603.88
320.358	608.88
320.587	584.88
320.816	608.88
321.046	619.88
321.275	599.88
321.504	603.88
321.733	621.88
321.962	597.88
322.191	605.88
322.42	611.88
322.649	608.88
322.878	608.88
323.108	608.88
323.337	640.88
323.566	639.88
323.795	624.88
324.024	614.88
324.253	627.88
324.482	609.88
324.71	615.88
324.939	619.88
325.168	618.88
325.397	630.88
325.626	643.88
325.855	625.88
326.084	656.88
326.313	695.88
326.542	645.88
326.77	681.88
326.999	668.88
327.228	666.88
327.457	668.88
327.686	686.88
327.914	653.88
328.143	653.88
328.372	684.88
328.6	635.88
328.829	650.88
329.058	670.88
329.287	660.88
329.515	656.88
329.744	658.88
329.972	676.88
330.201	681.88
330.43	698.88
330.658	660.88
330.887	704.88
331.115	683.88
331.344	710.88
331.572	685.88
331.801	733.88
332.03	712.88
332.258	757.88
332.486	793.88
332.715	783.88
332.943	827.88
333.172	866.88
333.4	877.88
333.629	948.88
333.857	910.88
334.085	899.88
334.314	890.88
334.542	877.88
334.771	849.88
334.999	818.88
335.227	823.88
335.455	834.88
335.684	816.88
335.912	839.88
336.14	809.88
336.369	776.88
336.597	817.88
336.825	835.88
337.053	813.88
337.281	802.88
337.51	775.88
337.738	757.88
337.966	743.88
338.194	745.88
338.422	701.88
338.65	723.88
338.878	732.88
339.106	718.88
339.334	718.88
339.562	734.88
339.79	715.88
340.018	711.88
340.246	693.88
340.474	662.88
340.702	699.88
340.93	698.88
341.158	708.88
341.386	699.88
341.614	714.88
341.842	694.88
342.07	685.88
342.298	687.88
342.526	695.88
342.754	699.88
342.981	693.88
343.209	702.88
343.437	741.88
343.665	790.88
343.893	855.88
344.12	874.88
344.348	836.88
344.576	780.88
344.804	792.88
345.031	758.88
345.259	686.88
345.487	699.88
345.714	678.88
345.942	700.88
346.17	687.88
346.397	711.88
346.625	685.88
346.853	678.88
347.08	684.88
347.308	679.88
347.535	704.88
347.763	694.88
347.99	705.88
348.218	692.88
348.445	700.88
348.673	673.88
348.9	709.88
349.128	701.88
349.355	673.88
349.583	677.88
349.81	687.88
350.037	657.88
350.265	653.88
350.492	656.88
350.72	650.88
350.947	651.88
351.174	662.88
351.402	663.88
351.629	636.88
351.856	640.88
352.083	659.88
352.311	659.88
352.538	654.88
352.765	647.88
352.992	670.88
353.22	638.88
353.447	621.88
353.674	635.88
353.901	639.88
354.128	639.88
354.355	644.88
354.583	637.88
354.81	661.88
355.037	666.88
355.264	659.88
355.491	646.88
355.718	681.88
355.945	646.88
356.172	661.88
356.399	660.88
356.626	677.88
356.853	661.88
357.08	662.88
357.307	655.88
357.534	650.88
357.761	652.88
357.988	654.88
358.215	669.88
358.441	653.88
358.668	655.88
358.895	642.88
359.122	657.88
359.349	653.88
359.576	655.88
359.802	648.88
360.029	662.88
360.256	667.88
360.483	650.88
360.709	664.88
360.936	643.88
361.163	653.88
361.39	678.88
361.616	606.88
361.843	646.88
362.07	647.88
362.296	640.88
362.523	644.88
362.749	650.88
362.976	640.88
363.203	677.88
363.429	637.88
363.656	654.88
363.882	643.88
364.109	646.88
364.335	628.88
364.562	655.88
364.788	643.88
365.015	645.88
365.241	630.88
365.468	660.88
365.694	635.88
365.92	641.88
366.147	650.88
366.373	658.88
366.599	657.88
366.826	625.88
367.052	638.88
367.278	674.88
367.505	642.88
367.731	660.88
367.957	633.88
368.184	653.88
368.41	652.88
368.636	661.88
368.862	670.88
369.089	684.88
369.315	662.88
369.541	681.88
369.767	656.88
369.993	664.88
370.219	689.88
370.445	738.88
370.672	698.88
370.898	706.88
371.124	703.88
371.35	700.88
371.576	698.88
371.802	695.88
372.028	699.88
372.254	754.88
372.48	739.88
372.706	727.88
372.932	749.88
373.158	755.88
373.384	711.88
373.61	689.88
373.835	714.88
374.061	705.88
374.287	708.88
374.513	725.88
374.739	765.88
374.965	761.88
375.191	799.88
375.416	778.88
375.642	789.88
375.868	771.88
376.094	732.88
376.319	727.88
376.545	729.88
376.771	710.88
376.997	731.88
377.222	711.88
377.448	706.88
377.674	705.88
377.899	693.88
378.125	717.88
378.35	703.88
378.576	709.88
378.802	686.88
379.027	718.88
379.253	698.88
379.478	700.88
379.704	713.88
379.929	705.88
380.155	697.88
380.38	714.88
380.606	710.88
380.831	697.88
381.057	702.88
381.282	690.88
381.507	709.88
381.733	720.88
381.958	703.88
382.184	729.88
382.409	725.88
382.634	732.88
382.86	744.88
383.085	762.88
383.31	765.88
383.535	795.88
383.761	821.88
383.986	795.88
384.211	799.88
384.436	841.88
384.662	841.88
384.887	848.88
385.112	887.88
385.337	861.88
385.562	846.88
385.787	889.88
386.013	847.88
386.238	848.88
386.463	863.88
386.688	860.88
386.913	882.88
387.138	865.88
387.363	861.88
387.588	827.88
387.813	845.88
388.038	855.88
388.263	842.88
388.488	862.88
388.713	854.88
388.938	828.88
389.163	836.88
389.387	832.88
389.612	798.88
389.837	811.88
390.062	826.88
390.287	846.88
390.512	847.88
390.736	861.88
390.961	863.88
391.186	860.88
391.411	909.88
391.636	899.88
391.86	956.88
392.085	977.88
392.31	950.88
392.534	955.88
392.759	905.88
392.984	888.88
393.208	901.88
393.433	915.88
393.658	899.88
393.882	924.88
394.107	942.88
394.331	933.88
394.556	915.88
394.78	933.88
395.005	912.88
395.229	923.88
395.454	943.88
395.678	970.88
395.903	964.88
396.127	965.88
396.352	944.88
396.576	887.88
396.801	899.88
397.025	898.88
397.249	921.88
397.474	939.88
397.698	926.88
397.922	930.88
398.147	929.88
398.371	972.88
398.595	985.88
398.82	1051.88
399.044	1126.88
399.268	1237.88
399.492	1496.88
399.717	1675.88
399.941	1713.88
400.165	1475.88
400.389	1263.88
400.613	1181.88
400.837	1118.88
401.062	1085.88
401.286	1097.88
401.51	1045.88
401.734	1087.88
401.958	1115.88
402.182	1116.88
402.406	1126.88
402.63	1121.88
402.854	1153.88
403.078	1193.88
403.302	1190.88
403.526	1231.88
403.75	1236.88
403.974	1283.88
404.198	1319.88
404.422	1303.88
404.645	1257.88
404.869	1245.88
405.093	1244.88
405.317	1231.88
405.541	1190.88
405.765	1169.88
405.988	1191.88
406.212	1171.88
406.436	1169.88
406.66	1189.88
406.883	1220.88
407.107	1314.88
407.331	1381.88
407.555	1401.88
407.778	1419.88
408.002	1365.88
408.226	1327.88
408.449	1304.88
408.673	1215.88
408.896	1249.88
409.12	1257.88
409.344	1231.88
409.567	1238.88
409.791	1239.88
410.014	1265.88
410.238	1245.88
410.461	1244.88
410.685	1217.88
410.908	1171.88
411.132	1175.88
411.355	1099.88
411.578	1107.88
411.802	1109.88
412.025	1147.88
412.249	1151.88
412.472	1123.88
412.695	1091.88
412.919	1053.88
413.142	1065.88
413.365	1048.88
413.589	1078.88
413.812	1043.88
414.035	1076.88
414.258	1094.88
414.482	1073.88
414.705	1084.88
414.928	1114.88
415.151	1108.88
415.374	1087.88
415.597	1103.88
415.821	1051.88
416.044	1025.88
416.267	1045.88
416.49	1028.88
416.713	1057.88
416.936	1045.88
417.159	1051.88
417.382	1042.88
417.605	1071.88
417.828	1103.88
418.051	1090.88
418.274	1116.88
418.497	1100.88
418.72	1106.88
418.943	1100.88
419.166	1166.88
419.389	1270.88
419.611	1231.88
419.834	1165.88
420.057	1138.88
420.28	1060.88
420.503	1027.88
420.726	1062.88
420.948	1085.88
421.171	1043.88
421.394	1069.88
421.617	1075.88
421.839	1066.88
422.062	1079.88
422.285	1059.88
422.507	1133.88
422.73	1119.88
422.953	1126.88
423.175	1140.88
423.398	1126.88
423.621	1139.88
423.843	1175.88
424.066	1134.88
424.288	1166.88
424.511	1154.88
424.733	1171.88
424.956	1095.88
425.178	1077.88
425.401	1062.88
425.623	1087.88
425.846	1037.88
426.068	1020.88
426.291	1039.88
426.513	982.88
426.735	1003.88
426.958	1000.88
427.18	959.88
427.402	959.88
427.625	980.88
427.847	931.88
428.069	976.88
428.292	961.88
428.514	983.88
428.736	956.88
428.958	962.88
429.181	930.88
429.403	924.88
429.625	903.88
429.847	929.88
430.069	909.88
430.292	927.88
430.514	917.88
430.736	957.88
430.958	937.88
431.18	921.88
431.402	940.88
431.624	933.88
431.846	957.88
432.068	961.88
432.29	995.88
432.512	936.88
432.734	958.88
432.956	941.88
433.178	961.88
433.4	922.88
433.622	936.88
433.844	993.88
434.066	983.88
434.287	986.88
434.509	994.88
434.731	1059.88
434.953	1084.88
435.175	1091.88
435.397	1066.88
435.618	1000.88
435.84	998.88
436.062	979.88
436.284	939.88
436.505	944.88
436.727	937.88
436.949	958.88
437.17	985.88
437.392	944.88
437.614	950.88
437.835	915.88
438.057	919.88
438.278	897.88
438.5	903.88
438.721	911.88
438.943	934.88
439.165	921.88
439.386	941.88
439.608	948.88
439.829	933.88
440.05	931.88
440.272	933.88
440.493	953.88
440.715	988.88
440.936	992.88
441.158	991.88
441.379	1004.88
441.6	1076.88
441.822	1076.88
442.043	1110.88
442.264	1074.88
442.486	1025.88
442.707	1065.88
442.928	1046.88
443.149	1049.88
443.371	1051.88
443.592	1085.88
443.813	1080.88
444.034	1116.88
444.255	1108.88
444.476	1202.88
444.698	1283.88
444.919	1306.88
445.14	1372.88
445.361	1205.88
445.582	1120.88
445.803	1063.88
446.024	1006.88
446.245	973.88
446.466	993.88
446.687	982.88
446.908	961.88
447.129	931.88
447.35	905.88
447.571	913.88
447.792	889.88
448.013	938.88
448.234	885.88
448.455	877.88
448.675	869.88
448.896	886.88
449.117	861.88
449.338	869.88
449.559	865.88
449.779	851.88
450	872.88
450.221	882.88
450.442	873.88
450.662	903.88
450.883	897.88
451.104	937.88
451.324	912.88
451.545	933.88
451.766	912.88
451.986	880.88
452.207	899.88
452.428	894.88
452.648	865.88
452.869	876.88
453.089	846.88
453.31	897.88
453.53	857.88
453.751	873.88
453.971	846.88
454.192	841.88
454.412	838.88
454.633	856.88
454.853	819.88
455.073	844.88
455.294	859.88
455.514	811.88
455.734	849.88
455.955	825.88
456.175	814.88
456.395	809.88
456.616	801.88
456.836	838.88
457.056	809.88
457.276	820.88
457.497	839.88
457.717	850.88
457.937	838.88
458.157	827.88
458.377	873.88
458.598	844.88
458.818	879.88
459.038	910.88
459.258	938.88
459.478	982.88
459.698	1005.88
459.918	1007.88
460.138	1074.88
460.358	1149.88
460.578	1120.88
460.798	1127.88
461.018	1157.88
461.238	1149.88
461.458	1143.88
461.678	1138.88
461.898	1139.88
462.118	1151.88
462.338	1188.88
462.558	1231.88
462.777	1330.88
462.997	1438.88
463.217	1593.88
463.437	1593.88
463.657	1434.88
463.876	1366.88
464.096	1365.88
464.316	1342.88
464.536	1400.88
464.755	1311.88
464.975	1285.88
465.195	1190.88
465.414	1129.88
465.634	1059.88
465.854	1011.88
466.073	979.88
466.293	981.88
466.512	953.88
466.732	918.88
466.951	929.88
467.171	921.88
467.391	963.88
467.61	915.88
467.829	936.88
468.049	906.88
468.268	889.88
468.488	879.88
468.707	857.88
468.927	891.88
469.146	893.88
469.365	915.88
469.585	917.88
469.804	930.88
470.023	933.88
470.243	968.88
470.462	980.88
470.681	974.88
470.901	942.88
471.12	945.88
471.339	929.88
471.558	913.88
471.777	892.88
471.997	891.88
472.216	868.88
472.435	874.88
472.654	866.88
472.873	853.88
473.092	868.88
473.311	869.88
473.53	826.88
473.749	869.88
473.968	863.88
474.187	848.88
474.406	847.88
474.625	868.88
474.844	852.88
475.063	858.88
475.282	845.88
475.501	882.88
475.72	895.88
475.939	891.88
476.158	889.88
476.377	888.88
476.596	900.88
476.814	925.88
477.033	917.88
477.252	927.88
477.471	930.88
477.69	967.88
477.908	991.88
478.127	1001.88
478.346	1045.88
478.564	1045.88
478.783	1059.88
479.002	1079.88
479.22	1114.88
479.439	1075.88
479.658	1087.88
479.876	1088.88
480.095	1083.88
480.313	1146.88
480.532	1201.88
480.751	1204.88
480.969	1115.88
481.188	1063.88
481.406	1042.88
481.624	1014.88
481.843	996.88
482.061	998.88
482.28	982.88
482.498	987.88
482.717	990.88
482.935	965.88
483.153	993.88
483.372	986.88
483.59	979.88
483.808	966.88
484.027	1004.88
484.245	1003.88
484.463	946.88
484.681	1014.88
484.9	1009.88
485.118	1010.88
485.336	1013.88
485.554	1049.88
485.772	1060.88
485.99	1019.88
486.209	1068.88
486.427	1068.88
486.645	1079.88
486.863	1053.88
487.081	1037.88
487.299	1046.88
487.517	1086.88
487.735	1065.88
487.953	1038.88
488.171	1051.88
488.389	1043.88
488.607	1021.88
488.825	1017.88
489.043	1002.88
489.261	1019.88
489.479	1022.88
489.696	1042.88
489.914	1002.88
490.132	1029.88
490.35	1053.88
490.568	1022.88
490.786	1013.88
491.003	1005.88
491.221	1055.88
491.439	1028.88
491.657	1002.88
491.874	1009.88
492.092	1051.88
492.31	1025.88
492.527	1032.88
492.745	1070.88
492.963	1042.88
493.18	1090.88
493.398	1099.88
493.615	1125.88
493.833	1077.88
494.05	1078.88
494.268	1073.88
494.485	1093.88
494.703	1106.88
494.92	1086.88
495.138	1106.88
495.355	1086.88
495.573	1108.88
495.79	1089.88
496.008	1102.88
496.225	1130.88
496.442	1121.88
496.66	1175.88
496.877	1133.88
497.094	1154.88
497.312	1196.88
497.529	1190.88
497.746	1214.88
497.963	1279.88
